Data from 1986.PennyLincolnUp.Lamp.En5.5.200Scan.071819.P1_HRD10591_17-08-27-974.txt Node
Date: Thu Jul 18 17:08:27 EDT 2019
User: cochatt
Spectrometer: HR+D1059
Trigger mode: 1
Integration Time (sec): 1.000000E-1
Scans to average: 1
Electric dark correction enabled: true
Nonlinearity correction enabled: false
Boxcar width: 0
XAxis mode: Wavelengths
Number of Pixels in Spectrum: 2048
>>>>>Begin Spectral Data<<<<<
223.165	-17.94
223.4	-17.94
223.635	-17.94
223.869	-8.94
224.104	-19.94
224.338	-6.94
224.573	-10.94
224.808	-13.94
225.042	-4.94
225.277	-3.94
225.511	-6.94
225.746	3.06
225.98	1.06
226.215	-0.94
226.449	16.06
226.683	16.06
226.918	28.06
227.152	31.06
227.387	41.06
227.621	35.06
227.856	61.06
228.09	49.06
228.324	48.06
228.559	63.06
228.793	63.06
229.027	77.06
229.262	80.06
229.496	101.06
229.73	104.06
229.964	130.06
230.199	101.06
230.433	96.06
230.667	86.06
230.901	100.06
231.136	101.06
231.37	108.06
231.604	94.06
231.838	106.06
232.072	104.06
232.306	104.06
232.541	106.06
232.775	110.06
233.009	100.06
233.243	106.06
233.477	110.06
233.711	104.06
233.945	115.06
234.179	107.06
234.413	113.06
234.647	122.06
234.881	109.06
235.115	95.06
235.349	118.06
235.583	105.06
235.817	96.06
236.051	113.06
236.285	100.06
236.519	109.06
236.753	118.06
236.987	121.06
237.221	139.06
237.455	151.06
237.689	131.06
237.922	105.06
238.156	114.06
238.39	115.06
238.624	99.06
238.858	120.06
239.091	124.06
239.325	122.06
239.559	121.06
239.793	109.06
240.027	128.06
240.26	131.06
240.494	132.06
240.728	128.06
240.961	128.06
241.195	117.06
241.429	121.06
241.662	125.06
241.896	117.06
242.13	117.06
242.363	109.06
242.597	129.06
242.83	111.06
243.064	127.06
243.298	124.06
243.531	121.06
243.765	111.06
243.998	126.06
244.232	112.06
244.465	119.06
244.699	129.06
244.932	141.06
245.166	132.06
245.399	122.06
245.633	139.06
245.866	129.06
246.099	129.06
246.333	127.06
246.566	136.06
246.8	125.06
247.033	134.06
247.266	145.06
247.5	134.06
247.733	147.06
247.966	149.06
248.2	150.06
248.433	143.06
248.666	136.06
248.899	156.06
249.133	160.06
249.366	179.06
249.599	155.06
249.832	156.06
250.066	159.06
250.299	151.06
250.532	153.06
250.765	154.06
250.998	183.06
251.231	172.06
251.465	171.06
251.698	151.06
251.931	160.06
252.164	158.06
252.397	165.06
252.63	157.06
252.863	159.06
253.096	170.06
253.329	186.06
253.562	162.06
253.795	176.06
254.028	167.06
254.261	171.06
254.494	191.06
254.727	185.06
254.96	197.06
255.193	198.06
255.426	185.06
255.659	173.06
255.892	171.06
256.124	161.06
256.357	171.06
256.59	173.06
256.823	186.06
257.056	158.06
257.289	159.06
257.521	179.06
257.754	164.06
257.987	176.06
258.22	182.06
258.452	169.06
258.685	167.06
258.918	166.06
259.151	191.06
259.383	177.06
259.616	187.06
259.849	185.06
260.081	185.06
260.314	184.06
260.547	180.06
260.779	203.06
261.012	188.06
261.244	183.06
261.477	179.06
261.71	171.06
261.942	197.06
262.175	188.06
262.407	185.06
262.64	183.06
262.872	167.06
263.105	168.06
263.337	180.06
263.57	179.06
263.802	169.06
264.035	183.06
264.267	181.06
264.499	167.06
264.732	172.06
264.964	162.06
265.197	174.06
265.429	185.06
265.661	181.06
265.894	176.06
266.126	196.06
266.358	165.06
266.591	183.06
266.823	185.06
267.055	189.06
267.287	186.06
267.52	205.06
267.752	185.06
267.984	181.06
268.216	186.06
268.448	191.06
268.681	189.06
268.913	197.06
269.145	205.06
269.377	233.06
269.609	220.06
269.841	217.06
270.073	228.06
270.306	232.06
270.538	254.06
270.77	230.06
271.002	225.06
271.234	202.06
271.466	231.06
271.698	216.06
271.93	236.06
272.162	237.06
272.394	236.06
272.626	224.06
272.858	220.06
273.09	204.06
273.322	225.06
273.553	219.06
273.785	213.06
274.017	216.06
274.249	216.06
274.481	228.06
274.713	195.06
274.945	196.06
275.176	198.06
275.408	217.06
275.64	211.06
275.872	210.06
276.104	205.06
276.335	218.06
276.567	202.06
276.799	226.06
277.031	228.06
277.262	253.06
277.494	237.06
277.726	249.06
277.957	222.06
278.189	219.06
278.421	210.06
278.652	210.06
278.884	211.06
279.115	214.06
279.347	215.06
279.579	212.06
279.81	206.06
280.042	231.06
280.273	214.06
280.505	227.06
280.736	217.06
280.968	220.06
281.199	207.06
281.431	221.06
281.662	219.06
281.894	236.06
282.125	216.06
282.356	231.06
282.588	255.06
282.819	250.06
283.051	224.06
283.282	215.06
283.513	230.06
283.745	231.06
283.976	225.06
284.207	241.06
284.439	217.06
284.67	237.06
284.901	223.06
285.132	228.06
285.364	226.06
285.595	237.06
285.826	226.06
286.057	236.06
286.288	230.06
286.52	227.06
286.751	228.06
286.982	214.06
287.213	239.06
287.444	227.06
287.675	236.06
287.906	250.06
288.138	252.06
288.369	258.06
288.6	257.06
288.831	264.06
289.062	243.06
289.293	249.06
289.524	250.06
289.755	247.06
289.986	241.06
290.217	240.06
290.448	242.06
290.679	230.06
290.91	240.06
291.141	235.06
291.371	225.06
291.602	223.06
291.833	248.06
292.064	253.06
292.295	239.06
292.526	257.06
292.757	237.06
292.987	227.06
293.218	236.06
293.449	235.06
293.68	245.06
293.91	255.06
294.141	219.06
294.372	238.06
294.603	249.06
294.833	235.06
295.064	247.06
295.295	243.06
295.525	233.06
295.756	236.06
295.987	252.06
296.217	276.06
296.448	265.06
296.679	247.06
296.909	229.06
297.14	236.06
297.37	255.06
297.601	245.06
297.831	233.06
298.062	248.06
298.292	269.06
298.523	244.06
298.753	261.06
298.984	266.06
299.214	254.06
299.445	243.06
299.675	243.06
299.905	267.06
300.136	253.06
300.366	255.06
300.597	256.06
300.827	257.06
301.057	268.06
301.288	265.06
301.518	277.06
301.748	284.06
301.979	268.06
302.209	284.06
302.439	270.06
302.669	273.06
302.9	279.06
303.13	253.06
303.36	265.06
303.59	281.06
303.82	269.06
304.051	286.06
304.281	263.06
304.511	279.06
304.741	296.06
304.971	283.06
305.201	259.06
305.431	267.06
305.661	271.06
305.891	260.06
306.121	285.06
306.352	274.06
306.582	270.06
306.812	281.06
307.042	277.06
307.272	295.06
307.502	271.06
307.731	292.06
307.961	295.06
308.191	275.06
308.421	292.06
308.651	271.06
308.881	264.06
309.111	284.06
309.341	289.06
309.571	294.06
309.8	279.06
310.03	284.06
310.26	267.06
310.49	299.06
310.72	302.06
310.949	295.06
311.179	311.06
311.409	314.06
311.639	308.06
311.868	315.06
312.098	315.06
312.328	300.06
312.557	331.06
312.787	329.06
313.017	309.06
313.246	318.06
313.476	301.06
313.706	301.06
313.935	312.06
314.165	316.06
314.394	308.06
314.624	319.06
314.853	307.06
315.083	318.06
315.312	298.06
315.542	313.06
315.771	301.06
316.001	323.06
316.23	313.06
316.46	300.06
316.689	310.06
316.919	292.06
317.148	319.06
317.377	328.06
317.607	311.06
317.836	312.06
318.065	299.06
318.295	294.06
318.524	310.06
318.753	303.06
318.983	311.06
319.212	281.06
319.441	300.06
319.67	316.06
319.9	304.06
320.129	303.06
320.358	308.06
320.587	293.06
320.816	302.06
321.046	324.06
321.275	320.06
321.504	319.06
321.733	317.06
321.962	336.06
322.191	342.06
322.42	338.06
322.649	345.06
322.878	344.06
323.108	335.06
323.337	368.06
323.566	358.06
323.795	394.06
324.024	412.06
324.253	474.06
324.482	663.06
324.71	974.06
324.939	1335.06
325.168	1148.06
325.397	611.06
325.626	439.06
325.855	414.06
326.084	363.06
326.313	359.06
326.542	367.06
326.77	405.06
326.999	474.06
327.228	605.06
327.457	875.06
327.686	992.06
327.914	685.06
328.143	489.06
328.372	445.06
328.6	439.06
328.829	397.06
329.058	411.06
329.287	419.06
329.515	407.06
329.744	405.06
329.972	405.06
330.201	407.06
330.43	437.06
330.658	462.06
330.887	453.06
331.115	454.06
331.344	392.06
331.572	366.06
331.801	392.06
332.03	366.06
332.258	381.06
332.486	352.06
332.715	368.06
332.943	377.06
333.172	360.06
333.4	383.06
333.629	379.06
333.857	383.06
334.085	396.06
334.314	427.06
334.542	450.06
334.771	466.06
334.999	435.06
335.227	387.06
335.455	386.06
335.684	369.06
335.912	365.06
336.14	371.06
336.369	337.06
336.597	375.06
336.825	357.06
337.053	376.06
337.281	361.06
337.51	361.06
337.738	363.06
337.966	356.06
338.194	352.06
338.422	347.06
338.65	366.06
338.878	355.06
339.106	336.06
339.334	349.06
339.562	344.06
339.79	345.06
340.018	355.06
340.246	344.06
340.474	341.06
340.702	357.06
340.93	343.06
341.158	341.06
341.386	330.06
341.614	334.06
341.842	358.06
342.07	328.06
342.298	353.06
342.526	326.06
342.754	329.06
342.981	343.06
343.209	337.06
343.437	333.06
343.665	347.06
343.893	371.06
344.12	359.06
344.348	366.06
344.576	373.06
344.804	357.06
345.031	358.06
345.259	355.06
345.487	349.06
345.714	346.06
345.942	333.06
346.17	337.06
346.397	337.06
346.625	312.06
346.853	327.06
347.08	326.06
347.308	332.06
347.535	344.06
347.763	327.06
347.99	328.06
348.218	326.06
348.445	322.06
348.673	315.06
348.9	334.06
349.128	333.06
349.355	308.06
349.583	315.06
349.81	313.06
350.037	321.06
350.265	319.06
350.492	304.06
350.72	320.06
350.947	321.06
351.174	342.06
351.402	335.06
351.629	322.06
351.856	321.06
352.083	340.06
352.311	344.06
352.538	346.06
352.765	331.06
352.992	330.06
353.22	335.06
353.447	334.06
353.674	317.06
353.901	349.06
354.128	325.06
354.355	313.06
354.583	320.06
354.81	307.06
355.037	318.06
355.264	313.06
355.491	313.06
355.718	307.06
355.945	326.06
356.172	307.06
356.399	302.06
356.626	304.06
356.853	316.06
357.08	309.06
357.307	309.06
357.534	297.06
357.761	307.06
357.988	297.06
358.215	309.06
358.441	325.06
358.668	295.06
358.895	313.06
359.122	328.06
359.349	315.06
359.576	313.06
359.802	342.06
360.029	352.06
360.256	347.06
360.483	346.06
360.709	305.06
360.936	325.06
361.163	320.06
361.39	323.06
361.616	319.06
361.843	326.06
362.07	312.06
362.296	323.06
362.523	329.06
362.749	332.06
362.976	321.06
363.203	318.06
363.429	307.06
363.656	317.06
363.882	321.06
364.109	328.06
364.335	324.06
364.562	308.06
364.788	321.06
365.015	303.06
365.241	309.06
365.468	325.06
365.694	311.06
365.92	349.06
366.147	325.06
366.373	316.06
366.599	295.06
366.826	317.06
367.052	304.06
367.278	307.06
367.505	315.06
367.731	326.06
367.957	298.06
368.184	302.06
368.41	316.06
368.636	319.06
368.862	342.06
369.089	298.06
369.315	320.06
369.541	310.06
369.767	294.06
369.993	316.06
370.219	320.06
370.445	301.06
370.672	314.06
370.898	313.06
371.124	321.06
371.35	314.06
371.576	331.06
371.802	316.06
372.028	329.06
372.254	310.06
372.48	305.06
372.706	293.06
372.932	311.06
373.158	321.06
373.384	323.06
373.61	324.06
373.835	318.06
374.061	295.06
374.287	302.06
374.513	317.06
374.739	321.06
374.965	345.06
375.191	338.06
375.416	318.06
375.642	324.06
375.868	331.06
376.094	333.06
376.319	323.06
376.545	311.06
376.771	278.06
376.997	311.06
377.222	333.06
377.448	335.06
377.674	326.06
377.899	317.06
378.125	323.06
378.35	308.06
378.576	329.06
378.802	317.06
379.027	301.06
379.253	339.06
379.478	312.06
379.704	319.06
379.929	323.06
380.155	324.06
380.38	324.06
380.606	315.06
380.831	307.06
381.057	329.06
381.282	313.06
381.507	323.06
381.733	328.06
381.958	340.06
382.184	303.06
382.409	303.06
382.634	325.06
382.86	328.06
383.085	328.06
383.31	348.06
383.535	334.06
383.761	341.06
383.986	327.06
384.211	331.06
384.436	332.06
384.662	318.06
384.887	348.06
385.112	349.06
385.337	325.06
385.562	347.06
385.787	345.06
386.013	372.06
386.238	364.06
386.463	359.06
386.688	353.06
386.913	336.06
387.138	325.06
387.363	327.06
387.588	348.06
387.813	348.06
388.038	329.06
388.263	334.06
388.488	337.06
388.713	354.06
388.938	339.06
389.163	350.06
389.387	366.06
389.612	356.06
389.837	344.06
390.062	341.06
390.287	325.06
390.512	330.06
390.736	322.06
390.961	345.06
391.186	325.06
391.411	338.06
391.636	367.06
391.86	371.06
392.085	365.06
392.31	349.06
392.534	353.06
392.759	349.06
392.984	349.06
393.208	343.06
393.433	371.06
393.658	345.06
393.882	348.06
394.107	353.06
394.331	344.06
394.556	358.06
394.78	364.06
395.005	342.06
395.229	371.06
395.454	362.06
395.678	367.06
395.903	373.06
396.127	371.06
396.352	382.06
396.576	369.06
396.801	355.06
397.025	349.06
397.249	376.06
397.474	385.06
397.698	387.06
397.922	387.06
398.147	403.06
398.371	386.06
398.595	378.06
398.82	379.06
399.044	428.06
399.268	427.06
399.492	466.06
399.717	480.06
399.941	510.06
400.165	503.06
400.389	478.06
400.613	457.06
400.837	439.06
401.062	420.06
401.286	409.06
401.51	416.06
401.734	397.06
401.958	420.06
402.182	411.06
402.406	406.06
402.63	394.06
402.854	405.06
403.078	419.06
403.302	403.06
403.526	426.06
403.75	406.06
403.974	414.06
404.198	401.06
404.422	421.06
404.645	410.06
404.869	400.06
405.093	452.06
405.317	435.06
405.541	453.06
405.765	430.06
405.988	445.06
406.212	443.06
406.436	454.06
406.66	459.06
406.883	459.06
407.107	484.06
407.331	490.06
407.555	549.06
407.778	520.06
408.002	500.06
408.226	456.06
408.449	469.06
408.673	464.06
408.896	469.06
409.12	473.06
409.344	467.06
409.567	459.06
409.791	444.06
410.014	421.06
410.238	416.06
410.461	424.06
410.685	421.06
410.908	444.06
411.132	442.06
411.355	477.06
411.578	469.06
411.802	411.06
412.025	415.06
412.249	427.06
412.472	445.06
412.695	419.06
412.919	441.06
413.142	440.06
413.365	419.06
413.589	426.06
413.812	431.06
414.035	415.06
414.258	411.06
414.482	416.06
414.705	409.06
414.928	420.06
415.151	423.06
415.374	400.06
415.597	410.06
415.821	420.06
416.044	421.06
416.267	421.06
416.49	400.06
416.713	409.06
416.936	415.06
417.159	414.06
417.382	424.06
417.605	411.06
417.828	435.06
418.051	411.06
418.274	419.06
418.497	411.06
418.72	411.06
418.943	410.06
419.166	428.06
419.389	440.06
419.611	443.06
419.834	433.06
420.057	430.06
420.28	433.06
420.503	421.06
420.726	421.06
420.948	419.06
421.171	468.06
421.394	475.06
421.617	426.06
421.839	434.06
422.062	431.06
422.285	446.06
422.507	469.06
422.73	500.06
422.953	520.06
423.175	461.06
423.398	463.06
423.621	442.06
423.843	462.06
424.066	444.06
424.288	451.06
424.511	456.06
424.733	486.06
424.956	543.06
425.178	529.06
425.401	500.06
425.623	521.06
425.846	471.06
426.068	449.06
426.291	451.06
426.513	431.06
426.735	452.06
426.958	467.06
427.18	516.06
427.402	589.06
427.625	637.06
427.847	574.06
428.069	488.06
428.292	440.06
428.514	423.06
428.736	441.06
428.958	411.06
429.181	420.06
429.403	412.06
429.625	416.06
429.847	440.06
430.069	473.06
430.292	466.06
430.514	422.06
430.736	389.06
430.958	409.06
431.18	409.06
431.402	402.06
431.624	393.06
431.846	396.06
432.068	400.06
432.29	418.06
432.512	381.06
432.734	436.06
432.956	417.06
433.178	419.06
433.4	409.06
433.622	423.06
433.844	403.06
434.066	395.06
434.287	400.06
434.509	424.06
434.731	415.06
434.953	407.06
435.175	428.06
435.397	448.06
435.618	437.06
435.84	473.06
436.062	522.06
436.284	539.06
436.505	478.06
436.727	443.06
436.949	437.06
437.17	415.06
437.392	400.06
437.614	420.06
437.835	444.06
438.057	497.06
438.278	573.06
438.5	539.06
438.721	570.06
438.943	556.06
439.165	451.06
439.386	437.06
439.608	424.06
439.829	435.06
440.05	471.06
440.272	484.06
440.493	462.06
440.715	430.06
440.936	426.06
441.158	422.06
441.379	414.06
441.6	430.06
441.822	451.06
442.043	484.06
442.264	525.06
442.486	519.06
442.707	477.06
442.928	452.06
443.149	461.06
443.371	466.06
443.592	499.06
443.813	561.06
444.034	563.06
444.255	515.06
444.476	473.06
444.698	477.06
444.919	466.06
445.14	545.06
445.361	478.06
445.582	474.06
445.803	502.06
446.024	565.06
446.245	563.06
446.466	492.06
446.687	447.06
446.908	439.06
447.129	402.06
447.35	398.06
447.571	425.06
447.792	405.06
448.013	421.06
448.234	398.06
448.455	437.06
448.675	522.06
448.896	573.06
449.117	475.06
449.338	479.06
449.559	518.06
449.779	597.06
450	483.06
450.221	435.06
450.442	404.06
450.662	391.06
450.883	399.06
451.104	407.06
451.324	382.06
451.545	385.06
451.766	376.06
451.986	380.06
452.207	381.06
452.428	363.06
452.648	362.06
452.869	378.06
453.089	373.06
453.31	368.06
453.53	371.06
453.751	361.06
453.971	385.06
454.192	387.06
454.412	369.06
454.633	375.06
454.853	371.06
455.073	366.06
455.294	373.06
455.514	429.06
455.734	405.06
455.955	368.06
456.175	360.06
456.395	339.06
456.616	336.06
456.836	354.06
457.056	333.06
457.276	347.06
457.497	355.06
457.717	361.06
457.937	374.06
458.157	353.06
458.377	364.06
458.598	367.06
458.818	421.06
459.038	451.06
459.258	456.06
459.478	429.06
459.698	385.06
459.918	384.06
460.138	404.06
460.358	411.06
460.578	404.06
460.798	432.06
461.018	415.06
461.238	403.06
461.458	424.06
461.678	402.06
461.898	415.06
462.118	407.06
462.338	429.06
462.558	453.06
462.777	429.06
462.997	458.06
463.217	446.06
463.437	497.06
463.657	445.06
463.876	437.06
464.096	435.06
464.316	444.06
464.536	437.06
464.755	440.06
464.975	433.06
465.195	455.06
465.414	483.06
465.634	447.06
465.854	432.06
466.073	407.06
466.293	401.06
466.512	393.06
466.732	396.06
466.951	392.06
467.171	378.06
467.391	382.06
467.61	388.06
467.829	400.06
468.049	394.06
468.268	408.06
468.488	385.06
468.707	356.06
468.927	379.06
469.146	353.06
469.365	365.06
469.585	380.06
469.804	385.06
470.023	386.06
470.243	396.06
470.462	381.06
470.681	392.06
470.901	399.06
471.12	405.06
471.339	362.06
471.558	403.06
471.777	399.06
471.997	407.06
472.216	416.06
472.435	469.06
472.654	424.06
472.873	425.06
473.092	392.06
473.311	387.06
473.53	402.06
473.749	391.06
473.968	407.06
474.187	448.06
474.406	470.06
474.625	414.06
474.844	394.06
475.063	394.06
475.282	405.06
475.501	392.06
475.72	417.06
475.939	393.06
476.158	408.06
476.377	387.06
476.596	395.06
476.814	410.06
477.033	432.06
477.252	412.06
477.471	436.06
477.69	419.06
477.908	399.06
478.127	422.06
478.346	423.06
478.564	429.06
478.783	463.06
479.002	432.06
479.22	443.06
479.439	451.06
479.658	442.06
479.876	485.06
480.095	446.06
480.313	505.06
480.532	480.06
480.751	485.06
480.969	502.06
481.188	601.06
481.406	635.06
481.624	535.06
481.843	484.06
482.061	473.06
482.28	476.06
482.498	463.06
482.717	451.06
482.935	448.06
483.153	447.06
483.372	468.06
483.59	453.06
483.808	430.06
484.027	454.06
484.245	450.06
484.463	460.06
484.681	457.06
484.9	455.06
485.118	469.06
485.336	455.06
485.554	466.06
485.772	463.06
485.99	469.06
486.209	449.06
486.427	469.06
486.645	484.06
486.863	478.06
487.081	481.06
487.299	488.06
487.517	477.06
487.735	494.06
487.953	478.06
488.171	484.06
488.389	491.06
488.607	481.06
488.825	459.06
489.043	476.06
489.261	473.06
489.479	463.06
489.696	485.06
489.914	481.06
490.132	478.06
490.35	502.06
490.568	520.06
490.786	527.06
491.003	529.06
491.221	504.06
491.439	518.06
491.657	545.06
491.874	525.06
492.092	544.06
492.31	544.06
492.527	545.06
492.745	546.06
492.963	535.06
493.18	512.06
493.398	519.06
493.615	535.06
493.833	527.06
494.05	554.06
494.268	536.06
494.485	542.06
494.703	534.06
494.92	539.06
495.138	534.06
495.355	558.06
495.573	543.06
495.79	558.06
496.008	555.06
496.225	546.06
496.442	556.06
496.66	552.06
496.877	578.06
497.094	527.06
497.312	549.06
497.529	604.06
497.746	599.06
497.963	571.06
498.181	606.06
498.398	613.06
498.615	617.06
498.832	646.06
499.049	639.06
499.267	647.06
499.484	696.06
499.701	749.06
499.918	766.06
500.135	810.06
500.352	831.06
500.569	843.06
500.786	861.06
501.003	853.06
501.22	811.06
501.437	789.06
501.654	715.06
501.871	710.06
502.088	691.06
