Data from 1986.PennyLincolnUp.Lamp.En5.5.200Scan.071819.P2_HRD10591_17-10-01-974.txt Node
Date: Thu Jul 18 17:10:01 EDT 2019
User: cochatt
Spectrometer: HR+D1059
Trigger mode: 1
Integration Time (sec): 1.000000E-1
Scans to average: 1
Electric dark correction enabled: true
Nonlinearity correction enabled: false
Boxcar width: 0
XAxis mode: Wavelengths
Number of Pixels in Spectrum: 2048
>>>>>Begin Spectral Data<<<<<
223.165	-20.31
223.4	-20.31
223.635	-20.31
223.869	-12.31
224.104	-8.31
224.338	-18.31
224.573	-8.31
224.808	-22.31
225.042	-15.31
225.277	-7.31
225.511	-19.31
225.746	6.69
225.98	10.69
226.215	11.69
226.449	31.69
226.683	21.69
226.918	22.69
227.152	26.69
227.387	33.69
227.621	39.69
227.856	33.69
228.09	36.69
228.324	35.69
228.559	64.69
228.793	72.69
229.027	96.69
229.262	103.69
229.496	112.69
229.73	136.69
229.964	149.69
230.199	126.69
230.433	117.69
230.667	97.69
230.901	100.69
231.136	110.69
231.37	114.69
231.604	116.69
231.838	111.69
232.072	107.69
232.306	116.69
232.541	96.69
232.775	118.69
233.009	105.69
233.243	119.69
233.477	105.69
233.711	114.69
233.945	109.69
234.179	114.69
234.413	109.69
234.647	110.69
234.881	108.69
235.115	116.69
235.349	120.69
235.583	124.69
235.817	106.69
236.051	123.69
236.285	134.69
236.519	124.69
236.753	126.69
236.987	136.69
237.221	158.69
237.455	214.69
237.689	176.69
237.922	135.69
238.156	136.69
238.39	133.69
238.624	131.69
238.858	127.69
239.091	117.69
239.325	113.69
239.559	124.69
239.793	126.69
240.027	111.69
240.26	122.69
240.494	155.69
240.728	168.69
240.961	152.69
241.195	139.69
241.429	136.69
241.662	119.69
241.896	127.69
242.13	123.69
242.363	129.69
242.597	130.69
242.83	140.69
243.064	132.69
243.298	137.69
243.531	127.69
243.765	132.69
243.998	134.69
244.232	136.69
244.465	152.69
244.699	141.69
244.932	134.69
245.166	154.69
245.399	130.69
245.633	142.69
245.866	133.69
246.099	139.69
246.333	147.69
246.566	139.69
246.8	139.69
247.033	142.69
247.266	148.69
247.5	167.69
247.733	140.69
247.966	169.69
248.2	161.69
248.433	165.69
248.666	177.69
248.899	193.69
249.133	200.69
249.366	206.69
249.599	201.69
249.832	179.69
250.066	185.69
250.299	171.69
250.532	162.69
250.765	188.69
250.998	200.69
251.231	224.69
251.465	231.69
251.698	200.69
251.931	188.69
252.164	201.69
252.397	186.69
252.63	207.69
252.863	208.69
253.096	201.69
253.329	209.69
253.562	204.69
253.795	210.69
254.028	228.69
254.261	216.69
254.494	210.69
254.727	250.69
254.96	288.69
255.193	272.69
255.426	238.69
255.659	247.69
255.892	231.69
256.124	218.69
256.357	195.69
256.59	221.69
256.823	212.69
257.056	197.69
257.289	202.69
257.521	202.69
257.754	222.69
257.987	220.69
258.22	204.69
258.452	210.69
258.685	204.69
258.918	204.69
259.151	196.69
259.383	201.69
259.616	212.69
259.849	233.69
260.081	231.69
260.314	245.69
260.547	235.69
260.779	251.69
261.012	228.69
261.244	227.69
261.477	216.69
261.71	226.69
261.942	214.69
262.175	220.69
262.407	230.69
262.64	188.69
262.872	213.69
263.105	205.69
263.337	203.69
263.57	205.69
263.802	190.69
264.035	190.69
264.267	214.69
264.499	202.69
264.732	212.69
264.964	203.69
265.197	202.69
265.429	221.69
265.661	193.69
265.894	185.69
266.126	197.69
266.358	210.69
266.591	199.69
266.823	209.69
267.055	212.69
267.287	209.69
267.52	216.69
267.752	216.69
267.984	206.69
268.216	220.69
268.448	223.69
268.681	223.69
268.913	244.69
269.145	232.69
269.377	262.69
269.609	263.69
269.841	249.69
270.073	267.69
270.306	272.69
270.538	310.69
270.77	283.69
271.002	293.69
271.234	297.69
271.466	289.69
271.698	305.69
271.93	295.69
272.162	290.69
272.394	302.69
272.626	276.69
272.858	267.69
273.09	271.69
273.322	253.69
273.553	263.69
273.785	252.69
274.017	251.69
274.249	249.69
274.481	245.69
274.713	253.69
274.945	268.69
275.176	238.69
275.408	263.69
275.64	267.69
275.872	225.69
276.104	233.69
276.335	246.69
276.567	265.69
276.799	264.69
277.031	283.69
277.262	294.69
277.494	280.69
277.726	277.69
277.957	275.69
278.189	264.69
278.421	247.69
278.652	250.69
278.884	237.69
279.115	235.69
279.347	244.69
279.579	242.69
279.81	244.69
280.042	237.69
280.273	261.69
280.505	245.69
280.736	232.69
280.968	246.69
281.199	270.69
281.431	246.69
281.662	259.69
281.894	267.69
282.125	234.69
282.356	271.69
282.588	284.69
282.819	291.69
283.051	260.69
283.282	261.69
283.513	249.69
283.745	237.69
283.976	253.69
284.207	265.69
284.439	257.69
284.67	249.69
284.901	240.69
285.132	244.69
285.364	241.69
285.595	244.69
285.826	237.69
286.057	260.69
286.288	256.69
286.52	250.69
286.751	253.69
286.982	259.69
287.213	257.69
287.444	250.69
287.675	262.69
287.906	261.69
288.138	261.69
288.369	268.69
288.6	296.69
288.831	259.69
289.062	257.69
289.293	226.69
289.524	256.69
289.755	261.69
289.986	260.69
290.217	282.69
290.448	268.69
290.679	250.69
290.91	273.69
291.141	267.69
291.371	252.69
291.602	253.69
291.833	268.69
292.064	242.69
292.295	256.69
292.526	257.69
292.757	263.69
292.987	259.69
293.218	249.69
293.449	260.69
293.68	255.69
293.91	247.69
294.141	229.69
294.372	249.69
294.603	260.69
294.833	275.69
295.064	262.69
295.295	257.69
295.525	246.69
295.756	281.69
295.987	262.69
296.217	277.69
296.448	298.69
296.679	274.69
296.909	264.69
297.14	251.69
297.37	249.69
297.601	289.69
297.831	270.69
298.062	264.69
298.292	279.69
298.523	274.69
298.753	272.69
298.984	262.69
299.214	273.69
299.445	268.69
299.675	268.69
299.905	278.69
300.136	279.69
300.366	272.69
300.597	271.69
300.827	273.69
301.057	283.69
301.288	300.69
301.518	311.69
301.748	294.69
301.979	289.69
302.209	294.69
302.439	300.69
302.669	295.69
302.9	279.69
303.13	290.69
303.36	289.69
303.59	288.69
303.82	297.69
304.051	279.69
304.281	302.69
304.511	282.69
304.741	292.69
304.971	305.69
305.201	277.69
305.431	296.69
305.661	255.69
305.891	279.69
306.121	296.69
306.352	293.69
306.582	285.69
306.812	295.69
307.042	289.69
307.272	276.69
307.502	297.69
307.731	299.69
307.961	305.69
308.191	284.69
308.421	285.69
308.651	307.69
308.881	300.69
309.111	304.69
309.341	301.69
309.571	290.69
309.8	310.69
310.03	342.69
310.26	337.69
310.49	320.69
310.72	354.69
310.949	366.69
311.179	355.69
311.409	337.69
311.639	348.69
311.868	347.69
312.098	344.69
312.328	357.69
312.557	386.69
312.787	378.69
313.017	351.69
313.246	366.69
313.476	352.69
313.706	350.69
313.935	326.69
314.165	352.69
314.394	344.69
314.624	356.69
314.853	354.69
315.083	341.69
315.312	320.69
315.542	340.69
315.771	330.69
316.001	333.69
316.23	330.69
316.46	339.69
316.689	345.69
316.919	325.69
317.148	357.69
317.377	353.69
317.607	357.69
317.836	340.69
318.065	331.69
318.295	328.69
318.524	319.69
318.753	358.69
318.983	332.69
319.212	324.69
319.441	341.69
319.67	331.69
319.9	331.69
320.129	334.69
320.358	346.69
320.587	352.69
320.816	348.69
321.046	388.69
321.275	352.69
321.504	345.69
321.733	355.69
321.962	360.69
322.191	377.69
322.42	380.69
322.649	415.69
322.878	429.69
323.108	428.69
323.337	451.69
323.566	483.69
323.795	498.69
324.024	564.69
324.253	679.69
324.482	944.69
324.71	1494.69
324.939	2092.69
325.168	1846.69
325.397	997.69
325.626	634.69
325.855	540.69
326.084	496.69
326.313	517.69
326.542	466.69
326.77	532.69
326.999	617.69
327.228	839.69
327.457	1307.69
327.686	1574.69
327.914	1081.69
328.143	698.69
328.372	600.69
328.6	549.69
328.829	514.69
329.058	552.69
329.287	545.69
329.515	515.69
329.744	453.69
329.972	468.69
330.201	448.69
330.43	463.69
330.658	496.69
330.887	558.69
331.115	544.69
331.344	488.69
331.572	440.69
331.801	454.69
332.03	452.69
332.258	435.69
332.486	406.69
332.715	387.69
332.943	393.69
333.172	389.69
333.4	393.69
333.629	406.69
333.857	410.69
334.085	387.69
334.314	395.69
334.542	385.69
334.771	409.69
334.999	405.69
335.227	369.69
335.455	384.69
335.684	379.69
335.912	374.69
336.14	386.69
336.369	382.69
336.597	404.69
336.825	407.69
337.053	388.69
337.281	379.69
337.51	376.69
337.738	366.69
337.966	394.69
338.194	388.69
338.422	376.69
338.65	360.69
338.878	391.69
339.106	368.69
339.334	360.69
339.562	376.69
339.79	374.69
340.018	380.69
340.246	355.69
340.474	358.69
340.702	397.69
340.93	372.69
341.158	350.69
341.386	392.69
341.614	393.69
341.842	395.69
342.07	359.69
342.298	371.69
342.526	363.69
342.754	356.69
342.981	347.69
343.209	371.69
343.437	365.69
343.665	380.69
343.893	379.69
344.12	377.69
344.348	362.69
344.576	387.69
344.804	378.69
345.031	404.69
345.259	393.69
345.487	382.69
345.714	374.69
345.942	380.69
346.17	379.69
346.397	366.69
346.625	368.69
346.853	361.69
347.08	361.69
347.308	367.69
347.535	390.69
347.763	378.69
347.99	361.69
348.218	381.69
348.445	380.69
348.673	372.69
348.9	384.69
349.128	361.69
349.355	347.69
349.583	359.69
349.81	335.69
350.037	348.69
350.265	357.69
350.492	370.69
350.72	357.69
350.947	356.69
351.174	366.69
351.402	380.69
351.629	372.69
351.856	374.69
352.083	370.69
352.311	379.69
352.538	381.69
352.765	377.69
352.992	378.69
353.22	371.69
353.447	380.69
353.674	352.69
353.901	344.69
354.128	349.69
354.355	348.69
354.583	334.69
354.81	334.69
355.037	344.69
355.264	340.69
355.491	341.69
355.718	324.69
355.945	326.69
356.172	331.69
356.399	326.69
356.626	327.69
356.853	344.69
357.08	342.69
357.307	339.69
357.534	333.69
357.761	339.69
357.988	313.69
358.215	333.69
358.441	308.69
358.668	319.69
358.895	331.69
359.122	356.69
359.349	363.69
359.576	365.69
359.802	382.69
360.029	409.69
360.256	435.69
360.483	404.69
360.709	374.69
360.936	356.69
361.163	379.69
361.39	368.69
361.616	372.69
361.843	363.69
362.07	377.69
362.296	359.69
362.523	368.69
362.749	347.69
362.976	360.69
363.203	356.69
363.429	336.69
363.656	350.69
363.882	353.69
364.109	352.69
364.335	356.69
364.562	333.69
364.788	356.69
365.015	332.69
365.241	326.69
365.468	350.69
365.694	351.69
365.92	355.69
366.147	324.69
366.373	343.69
366.599	351.69
366.826	337.69
367.052	332.69
367.278	322.69
367.505	358.69
367.731	331.69
367.957	321.69
368.184	323.69
368.41	356.69
368.636	357.69
368.862	349.69
369.089	342.69
369.315	339.69
369.541	329.69
369.767	365.69
369.993	350.69
370.219	341.69
370.445	335.69
370.672	322.69
370.898	342.69
371.124	326.69
371.35	324.69
371.576	348.69
371.802	344.69
372.028	332.69
372.254	340.69
372.48	335.69
372.706	316.69
372.932	347.69
373.158	317.69
373.384	347.69
373.61	334.69
373.835	332.69
374.061	327.69
374.287	334.69
374.513	321.69
374.739	331.69
374.965	327.69
375.191	337.69
375.416	338.69
375.642	323.69
375.868	330.69
376.094	337.69
376.319	324.69
376.545	336.69
376.771	360.69
376.997	331.69
377.222	339.69
377.448	337.69
377.674	322.69
377.899	334.69
378.125	344.69
378.35	333.69
378.576	322.69
378.802	343.69
379.027	332.69
379.253	331.69
379.478	329.69
379.704	330.69
379.929	329.69
380.155	339.69
380.38	333.69
380.606	340.69
380.831	341.69
381.057	331.69
381.282	314.69
381.507	336.69
381.733	357.69
381.958	320.69
382.184	318.69
382.409	342.69
382.634	345.69
382.86	332.69
383.085	329.69
383.31	344.69
383.535	347.69
383.761	341.69
383.986	354.69
384.211	341.69
384.436	345.69
384.662	360.69
384.887	353.69
385.112	340.69
385.337	364.69
385.562	345.69
385.787	357.69
386.013	361.69
386.238	352.69
386.463	383.69
386.688	368.69
386.913	329.69
387.138	349.69
387.363	355.69
387.588	343.69
387.813	351.69
388.038	337.69
388.263	358.69
388.488	324.69
388.713	357.69
388.938	356.69
389.163	356.69
389.387	368.69
389.612	376.69
389.837	346.69
390.062	360.69
390.287	344.69
390.512	342.69
390.736	346.69
390.961	356.69
391.186	339.69
391.411	353.69
391.636	347.69
391.86	348.69
392.085	353.69
392.31	357.69
392.534	361.69
392.759	339.69
392.984	365.69
393.208	350.69
393.433	362.69
393.658	352.69
393.882	341.69
394.107	342.69
394.331	360.69
394.556	359.69
394.78	350.69
395.005	338.69
395.229	342.69
395.454	366.69
395.678	360.69
395.903	374.69
396.127	386.69
396.352	407.69
396.576	377.69
396.801	382.69
397.025	381.69
397.249	358.69
397.474	375.69
397.698	371.69
397.922	375.69
398.147	378.69
398.371	409.69
398.595	380.69
398.82	390.69
399.044	394.69
399.268	393.69
399.492	427.69
399.717	436.69
399.941	440.69
400.165	465.69
400.389	490.69
400.613	450.69
400.837	410.69
401.062	398.69
401.286	400.69
401.51	419.69
401.734	397.69
401.958	387.69
402.182	388.69
402.406	393.69
402.63	394.69
402.854	402.69
403.078	385.69
403.302	406.69
403.526	413.69
403.75	423.69
403.974	417.69
404.198	411.69
404.422	398.69
404.645	414.69
404.869	396.69
405.093	442.69
405.317	459.69
405.541	459.69
405.765	420.69
405.988	430.69
406.212	437.69
406.436	470.69
406.66	481.69
406.883	422.69
407.107	483.69
407.331	494.69
407.555	568.69
407.778	561.69
408.002	501.69
408.226	470.69
408.449	465.69
408.673	464.69
408.896	499.69
409.12	528.69
409.344	480.69
409.567	447.69
409.791	434.69
410.014	421.69
410.238	409.69
410.461	427.69
410.685	402.69
410.908	444.69
411.132	467.69
411.355	474.69
411.578	473.69
411.802	410.69
412.025	398.69
412.249	417.69
412.472	410.69
412.695	425.69
412.919	395.69
413.142	396.69
413.365	378.69
413.589	389.69
413.812	393.69
414.035	382.69
414.258	388.69
414.482	381.69
414.705	385.69
414.928	375.69
415.151	391.69
415.374	378.69
415.597	384.69
415.821	359.69
416.044	375.69
416.267	392.69
416.49	385.69
416.713	384.69
416.936	382.69
417.159	382.69
417.382	397.69
417.605	397.69
417.828	398.69
418.051	427.69
418.274	425.69
418.497	410.69
418.72	384.69
418.943	390.69
419.166	420.69
419.389	414.69
419.611	402.69
419.834	422.69
420.057	407.69
420.28	399.69
420.503	393.69
420.726	384.69
420.948	408.69
421.171	442.69
421.394	485.69
421.617	445.69
421.839	415.69
422.062	406.69
422.285	424.69
422.507	472.69
422.73	542.69
422.953	555.69
423.175	497.69
423.398	462.69
423.621	448.69
423.843	444.69
424.066	450.69
424.288	456.69
424.511	470.69
424.733	507.69
424.956	586.69
425.178	576.69
425.401	565.69
425.623	596.69
425.846	519.69
426.068	470.69
426.291	452.69
426.513	466.69
426.735	488.69
426.958	496.69
427.18	560.69
427.402	689.69
427.625	787.69
427.847	692.69
428.069	570.69
428.292	510.69
428.514	444.69
428.736	433.69
428.958	437.69
429.181	429.69
429.403	427.69
429.625	448.69
429.847	478.69
430.069	530.69
430.292	526.69
430.514	425.69
430.736	424.69
430.958	409.69
431.18	398.69
431.402	406.69
431.624	408.69
431.846	390.69
432.068	380.69
432.29	392.69
432.512	414.69
432.734	410.69
432.956	416.69
433.178	422.69
433.4	413.69
433.622	414.69
433.844	404.69
434.066	405.69
434.287	400.69
434.509	397.69
434.731	402.69
434.953	414.69
435.175	438.69
435.397	442.69
435.618	450.69
435.84	501.69
436.062	587.69
436.284	638.69
436.505	523.69
436.727	488.69
436.949	440.69
437.17	440.69
437.392	437.69
437.614	443.69
437.835	478.69
438.057	547.69
438.278	663.69
438.5	635.69
438.721	685.69
438.943	686.69
439.165	565.69
439.386	482.69
439.608	483.69
439.829	477.69
440.05	505.69
440.272	561.69
440.493	483.69
440.715	463.69
440.936	432.69
441.158	440.69
441.379	433.69
441.6	420.69
441.822	447.69
442.043	488.69
442.264	572.69
442.486	613.69
442.707	518.69
442.928	478.69
443.149	489.69
443.371	505.69
443.592	563.69
443.813	606.69
444.034	646.69
444.255	552.69
444.476	493.69
444.698	450.69
444.919	458.69
445.14	577.69
445.361	550.69
445.582	523.69
445.803	577.69
446.024	638.69
446.245	662.69
446.466	589.69
446.687	534.69
446.908	482.69
447.129	454.69
447.35	450.69
447.571	451.69
447.792	425.69
448.013	438.69
448.234	478.69
448.455	490.69
448.675	598.69
448.896	700.69
449.117	586.69
449.338	563.69
449.559	660.69
449.779	747.69
450	598.69
450.221	505.69
450.442	437.69
450.662	413.69
450.883	443.69
451.104	437.69
451.324	464.69
451.545	420.69
451.766	424.69
451.986	392.69
452.207	390.69
452.428	367.69
452.648	380.69
452.869	391.69
453.089	409.69
453.31	406.69
453.53	380.69
453.751	384.69
453.971	412.69
454.192	398.69
454.412	405.69
454.633	379.69
454.853	406.69
455.073	385.69
455.294	400.69
455.514	493.69
455.734	465.69
455.955	383.69
456.175	388.69
456.395	355.69
456.616	359.69
456.836	347.69
457.056	357.69
457.276	365.69
457.497	393.69
457.717	359.69
457.937	351.69
458.157	370.69
458.377	361.69
458.598	394.69
458.818	453.69
459.038	538.69
459.258	534.69
459.478	437.69
459.698	416.69
459.918	384.69
460.138	399.69
460.358	401.69
460.578	396.69
460.798	399.69
461.018	393.69
461.238	399.69
461.458	394.69
461.678	373.69
461.898	391.69
462.118	390.69
462.338	409.69
462.558	401.69
462.777	398.69
462.997	394.69
463.217	422.69
463.437	431.69
463.657	398.69
463.876	419.69
464.096	418.69
464.316	423.69
464.536	420.69
464.755	421.69
464.975	432.69
465.195	478.69
465.414	548.69
465.634	473.69
465.854	430.69
466.073	430.69
466.293	395.69
466.512	383.69
466.732	396.69
466.951	383.69
467.171	384.69
467.391	379.69
467.61	388.69
467.829	388.69
468.049	386.69
468.268	386.69
468.488	393.69
468.707	393.69
468.927	372.69
469.146	356.69
469.365	371.69
469.585	378.69
469.804	392.69
470.023	407.69
470.243	403.69
470.462	390.69
470.681	412.69
470.901	396.69
471.12	404.69
471.339	385.69
471.558	408.69
471.777	412.69
471.997	381.69
472.216	382.69
472.435	397.69
472.654	397.69
472.873	388.69
473.092	382.69
473.311	368.69
473.53	391.69
473.749	390.69
473.968	434.69
474.187	559.69
474.406	558.69
474.625	438.69
474.844	410.69
475.063	384.69
475.282	414.69
475.501	404.69
475.72	412.69
475.939	390.69
476.158	406.69
476.377	402.69
476.596	400.69
476.814	413.69
477.033	406.69
477.252	409.69
477.471	417.69
477.69	414.69
477.908	432.69
478.127	419.69
478.346	423.69
478.564	427.69
478.783	420.69
479.002	441.69
479.22	424.69
479.439	458.69
479.658	457.69
479.876	475.69
480.095	480.69
480.313	499.69
480.532	468.69
480.751	475.69
480.969	497.69
481.188	462.69
481.406	508.69
481.624	482.69
481.843	442.69
482.061	466.69
482.28	470.69
482.498	466.69
482.717	442.69
482.935	462.69
483.153	478.69
483.372	472.69
483.59	439.69
483.808	474.69
484.027	468.69
484.245	449.69
484.463	474.69
484.681	464.69
484.9	466.69
485.118	485.69
485.336	489.69
485.554	472.69
485.772	471.69
485.99	485.69
486.209	476.69
486.427	485.69
486.645	485.69
486.863	519.69
487.081	518.69
487.299	498.69
487.517	515.69
487.735	507.69
487.953	496.69
488.171	506.69
488.389	505.69
488.607	509.69
488.825	501.69
489.043	497.69
489.261	506.69
489.479	498.69
489.696	514.69
489.914	510.69
490.132	519.69
490.35	503.69
490.568	487.69
490.786	544.69
491.003	526.69
491.221	531.69
491.439	567.69
491.657	572.69
491.874	568.69
492.092	562.69
492.31	576.69
492.527	565.69
492.745	568.69
492.963	600.69
493.18	606.69
493.398	578.69
493.615	601.69
493.833	583.69
494.05	608.69
494.268	601.69
494.485	580.69
494.703	585.69
494.92	593.69
495.138	591.69
495.355	603.69
495.573	615.69
495.79	608.69
496.008	595.69
496.225	593.69
496.442	608.69
496.66	605.69
496.877	604.69
497.094	626.69
497.312	630.69
497.529	622.69
497.746	620.69
497.963	631.69
498.181	622.69
498.398	638.69
498.615	636.69
498.832	644.69
499.049	646.69
499.267	652.69
499.484	663.69
499.701	690.69
499.918	708.69
500.135	707.69
500.352	721.69
500.569	732.69
500.786	739.69
501.003	734.69
501.22	723.69
501.437	707.69
501.654	729.69
501.871	724.69
