Data from 1986.PennyLincolnUp.Lamp.En5.5.200Scan.071819.P2_HRD10591_17-12-49-972.txt Node
Date: Thu Jul 18 17:12:49 EDT 2019
User: cochatt
Spectrometer: HR+D1059
Trigger mode: 1
Integration Time (sec): 1.000000E-1
Scans to average: 1
Electric dark correction enabled: true
Nonlinearity correction enabled: false
Boxcar width: 0
XAxis mode: Wavelengths
Number of Pixels in Spectrum: 2048
>>>>>Begin Spectral Data<<<<<
223.165	-11.75
223.4	-11.75
223.635	-11.75
223.869	-21.75
224.104	-8.75
224.338	-14.75
224.573	-8.75
224.808	-26.75
225.042	-12.75
225.277	-5.75
225.511	-5.75
225.746	22.25
225.98	8.25
226.215	0.25
226.449	8.25
226.683	16.25
226.918	27.25
227.152	34.25
227.387	40.25
227.621	37.25
227.856	51.25
228.09	39.25
228.324	55.25
228.559	48.25
228.793	78.25
229.027	118.25
229.262	108.25
229.496	133.25
229.73	137.25
229.964	163.25
230.199	150.25
230.433	116.25
230.667	115.25
230.901	121.25
231.136	116.25
231.37	111.25
231.604	118.25
231.838	122.25
232.072	110.25
232.306	113.25
232.541	119.25
232.775	120.25
233.009	114.25
233.243	122.25
233.477	125.25
233.711	123.25
233.945	129.25
234.179	130.25
234.413	142.25
234.647	114.25
234.881	118.25
235.115	133.25
235.349	117.25
235.583	135.25
235.817	122.25
236.051	135.25
236.285	147.25
236.519	131.25
236.753	133.25
236.987	163.25
237.221	172.25
237.455	236.25
237.689	211.25
237.922	159.25
238.156	131.25
238.39	141.25
238.624	135.25
238.858	135.25
239.091	126.25
239.325	137.25
239.559	123.25
239.793	142.25
240.027	129.25
240.26	143.25
240.494	150.25
240.728	156.25
240.961	158.25
241.195	141.25
241.429	137.25
241.662	131.25
241.896	150.25
242.13	138.25
242.363	137.25
242.597	139.25
242.83	151.25
243.064	141.25
243.298	158.25
243.531	127.25
243.765	143.25
243.998	146.25
244.232	151.25
244.465	137.25
244.699	165.25
244.932	167.25
245.166	172.25
245.399	175.25
245.633	150.25
245.866	167.25
246.099	159.25
246.333	142.25
246.566	165.25
246.8	160.25
247.033	159.25
247.266	167.25
247.5	175.25
247.733	174.25
247.966	171.25
248.2	194.25
248.433	180.25
248.666	196.25
248.899	203.25
249.133	215.25
249.366	225.25
249.599	213.25
249.832	210.25
250.066	208.25
250.299	218.25
250.532	249.25
250.765	271.25
250.998	280.25
251.231	289.25
251.465	273.25
251.698	262.25
251.931	264.25
252.164	239.25
252.397	232.25
252.63	234.25
252.863	229.25
253.096	252.25
253.329	247.25
253.562	246.25
253.795	253.25
254.028	231.25
254.261	227.25
254.494	251.25
254.727	284.25
254.96	320.25
255.193	310.25
255.426	309.25
255.659	299.25
255.892	335.25
256.124	380.25
256.357	415.25
256.59	369.25
256.823	321.25
257.056	309.25
257.289	287.25
257.521	278.25
257.754	264.25
257.987	270.25
258.22	253.25
258.452	232.25
258.685	257.25
258.918	261.25
259.151	253.25
259.383	258.25
259.616	240.25
259.849	261.25
260.081	269.25
260.314	277.25
260.547	290.25
260.779	281.25
261.012	260.25
261.244	249.25
261.477	269.25
261.71	243.25
261.942	263.25
262.175	251.25
262.407	262.25
262.64	247.25
262.872	231.25
263.105	247.25
263.337	234.25
263.57	242.25
263.802	228.25
264.035	215.25
264.267	216.25
264.499	242.25
264.732	228.25
264.964	238.25
265.197	226.25
265.429	236.25
265.661	246.25
265.894	233.25
266.126	225.25
266.358	232.25
266.591	222.25
266.823	257.25
267.055	225.25
267.287	256.25
267.52	233.25
267.752	218.25
267.984	259.25
268.216	250.25
268.448	262.25
268.681	243.25
268.913	279.25
269.145	293.25
269.377	314.25
269.609	281.25
269.841	291.25
270.073	299.25
270.306	291.25
270.538	352.25
270.77	332.25
271.002	308.25
271.234	321.25
271.466	332.25
271.698	332.25
271.93	323.25
272.162	349.25
272.394	346.25
272.626	314.25
272.858	324.25
273.09	305.25
273.322	293.25
273.553	302.25
273.785	279.25
274.017	283.25
274.249	286.25
274.481	305.25
274.713	291.25
274.945	313.25
275.176	293.25
275.408	290.25
275.64	279.25
275.872	293.25
276.104	291.25
276.335	299.25
276.567	309.25
276.799	317.25
277.031	335.25
277.262	358.25
277.494	377.25
277.726	335.25
277.957	329.25
278.189	311.25
278.421	302.25
278.652	303.25
278.884	299.25
279.115	279.25
279.347	287.25
279.579	302.25
279.81	282.25
280.042	284.25
280.273	315.25
280.505	321.25
280.736	299.25
280.968	305.25
281.199	267.25
281.431	290.25
281.662	281.25
281.894	297.25
282.125	285.25
282.356	312.25
282.588	335.25
282.819	319.25
283.051	291.25
283.282	283.25
283.513	298.25
283.745	291.25
283.976	284.25
284.207	296.25
284.439	309.25
284.67	300.25
284.901	301.25
285.132	299.25
285.364	291.25
285.595	287.25
285.826	287.25
286.057	298.25
286.288	286.25
286.52	298.25
286.751	298.25
286.982	295.25
287.213	307.25
287.444	307.25
287.675	300.25
287.906	295.25
288.138	306.25
288.369	322.25
288.6	321.25
288.831	314.25
289.062	317.25
289.293	310.25
289.524	305.25
289.755	310.25
289.986	299.25
290.217	309.25
290.448	303.25
290.679	311.25
290.91	290.25
291.141	296.25
291.371	292.25
291.602	306.25
291.833	296.25
292.064	301.25
292.295	300.25
292.526	301.25
292.757	300.25
292.987	325.25
293.218	293.25
293.449	297.25
293.68	298.25
293.91	310.25
294.141	295.25
294.372	297.25
294.603	312.25
294.833	294.25
295.064	305.25
295.295	305.25
295.525	287.25
295.756	309.25
295.987	308.25
296.217	347.25
296.448	370.25
296.679	327.25
296.909	309.25
297.14	307.25
297.37	315.25
297.601	312.25
297.831	298.25
298.062	307.25
298.292	300.25
298.523	302.25
298.753	327.25
298.984	308.25
299.214	325.25
299.445	317.25
299.675	320.25
299.905	331.25
300.136	311.25
300.366	333.25
300.597	321.25
300.827	323.25
301.057	326.25
301.288	332.25
301.518	327.25
301.748	308.25
301.979	319.25
302.209	350.25
302.439	359.25
302.669	314.25
302.9	339.25
303.13	333.25
303.36	335.25
303.59	341.25
303.82	369.25
304.051	348.25
304.281	339.25
304.511	335.25
304.741	330.25
304.971	348.25
305.201	342.25
305.431	338.25
305.661	335.25
305.891	345.25
306.121	338.25
306.352	345.25
306.582	356.25
306.812	349.25
307.042	331.25
307.272	376.25
307.502	373.25
307.731	348.25
307.961	355.25
308.191	354.25
308.421	352.25
308.651	346.25
308.881	362.25
309.111	376.25
309.341	349.25
309.571	366.25
309.8	374.25
310.03	391.25
310.26	399.25
310.49	391.25
310.72	410.25
310.949	408.25
311.179	422.25
311.409	397.25
311.639	384.25
311.868	398.25
312.098	403.25
312.328	411.25
312.557	438.25
312.787	425.25
313.017	419.25
313.246	410.25
313.476	403.25
313.706	384.25
313.935	413.25
314.165	399.25
314.394	419.25
314.624	409.25
314.853	391.25
315.083	410.25
315.312	388.25
315.542	384.25
315.771	381.25
316.001	379.25
316.23	377.25
316.46	399.25
316.689	419.25
316.919	397.25
317.148	415.25
317.377	423.25
317.607	410.25
317.836	404.25
318.065	395.25
318.295	403.25
318.524	394.25
318.753	381.25
318.983	405.25
319.212	382.25
319.441	405.25
319.67	409.25
319.9	404.25
320.129	409.25
320.358	400.25
320.587	414.25
320.816	399.25
321.046	428.25
321.275	436.25
321.504	420.25
321.733	417.25
321.962	437.25
322.191	437.25
322.42	458.25
322.649	487.25
322.878	502.25
323.108	490.25
323.337	540.25
323.566	561.25
323.795	575.25
324.024	621.25
324.253	764.25
324.482	1119.25
324.71	1698.25
324.939	2504.25
325.168	2164.25
325.397	1157.25
325.626	780.25
325.855	658.25
326.084	593.25
326.313	577.25
326.542	576.25
326.77	638.25
326.999	755.25
327.228	1002.25
327.457	1502.25
327.686	1878.25
327.914	1351.25
328.143	903.25
328.372	881.25
328.6	834.25
328.829	698.25
329.058	727.25
329.287	719.25
329.515	693.25
329.744	683.25
329.972	760.25
330.201	890.25
330.43	1007.25
330.658	932.25
330.887	785.25
331.115	741.25
331.344	635.25
331.572	607.25
331.801	585.25
332.03	578.25
332.258	571.25
332.486	540.25
332.715	547.25
332.943	557.25
333.172	556.25
333.4	571.25
333.629	595.25
333.857	662.25
334.085	730.25
334.314	893.25
334.542	1093.25
334.771	1162.25
334.999	889.25
335.227	651.25
335.455	582.25
335.684	557.25
335.912	527.25
336.14	515.25
336.369	526.25
336.597	522.25
336.825	480.25
337.053	470.25
337.281	483.25
337.51	480.25
337.738	478.25
337.966	455.25
338.194	462.25
338.422	461.25
338.65	487.25
338.878	448.25
339.106	448.25
339.334	439.25
339.562	466.25
339.79	424.25
340.018	458.25
340.246	449.25
340.474	447.25
340.702	456.25
340.93	457.25
341.158	436.25
341.386	446.25
341.614	437.25
341.842	419.25
342.07	438.25
342.298	406.25
342.526	447.25
342.754	400.25
342.981	417.25
343.209	422.25
343.437	420.25
343.665	410.25
343.893	435.25
344.12	447.25
344.348	433.25
344.576	435.25
344.804	450.25
345.031	436.25
345.259	450.25
345.487	426.25
345.714	452.25
345.942	437.25
346.17	419.25
346.397	426.25
346.625	431.25
346.853	434.25
347.08	425.25
347.308	417.25
347.535	423.25
347.763	446.25
347.99	417.25
348.218	430.25
348.445	429.25
348.673	419.25
348.9	420.25
349.128	401.25
349.355	415.25
349.583	405.25
349.81	421.25
350.037	414.25
350.265	414.25
350.492	413.25
350.72	421.25
350.947	409.25
351.174	417.25
351.402	432.25
351.629	421.25
351.856	409.25
352.083	454.25
352.311	421.25
352.538	444.25
352.765	459.25
352.992	437.25
353.22	429.25
353.447	429.25
353.674	400.25
353.901	384.25
354.128	408.25
354.355	408.25
354.583	403.25
354.81	392.25
355.037	379.25
355.264	397.25
355.491	405.25
355.718	370.25
355.945	389.25
356.172	379.25
356.399	368.25
356.626	394.25
356.853	374.25
357.08	368.25
357.307	373.25
357.534	380.25
357.761	386.25
357.988	379.25
358.215	376.25
358.441	378.25
358.668	377.25
358.895	403.25
359.122	395.25
359.349	406.25
359.576	423.25
359.802	446.25
360.029	457.25
360.256	491.25
360.483	448.25
360.709	413.25
360.936	419.25
361.163	426.25
361.39	425.25
361.616	425.25
361.843	396.25
362.07	422.25
362.296	409.25
362.523	402.25
362.749	403.25
362.976	390.25
363.203	413.25
363.429	390.25
363.656	405.25
363.882	397.25
364.109	399.25
364.335	409.25
364.562	392.25
364.788	382.25
365.015	390.25
365.241	385.25
365.468	391.25
365.694	398.25
365.92	422.25
366.147	393.25
366.373	398.25
366.599	384.25
366.826	397.25
367.052	401.25
367.278	399.25
367.505	383.25
367.731	387.25
367.957	398.25
368.184	393.25
368.41	404.25
368.636	425.25
368.862	419.25
369.089	399.25
369.315	376.25
369.541	396.25
369.767	399.25
369.993	371.25
370.219	376.25
370.445	381.25
370.672	372.25
370.898	388.25
371.124	371.25
371.35	364.25
371.576	373.25
371.802	377.25
372.028	383.25
372.254	389.25
372.48	387.25
372.706	382.25
372.932	390.25
373.158	375.25
373.384	384.25
373.61	377.25
373.835	370.25
374.061	383.25
374.287	393.25
374.513	376.25
374.739	389.25
374.965	371.25
375.191	378.25
375.416	363.25
375.642	393.25
375.868	367.25
376.094	373.25
376.319	379.25
376.545	379.25
376.771	390.25
376.997	385.25
377.222	374.25
377.448	387.25
377.674	391.25
377.899	398.25
378.125	378.25
378.35	379.25
378.576	369.25
378.802	353.25
379.027	381.25
379.253	371.25
379.478	367.25
379.704	387.25
379.929	387.25
380.155	376.25
380.38	389.25
380.606	372.25
380.831	370.25
381.057	383.25
381.282	355.25
381.507	356.25
381.733	367.25
381.958	367.25
382.184	382.25
382.409	375.25
382.634	380.25
382.86	381.25
383.085	375.25
383.31	378.25
383.535	374.25
383.761	365.25
383.986	367.25
384.211	389.25
384.436	401.25
384.662	394.25
384.887	390.25
385.112	378.25
385.337	386.25
385.562	389.25
385.787	399.25
386.013	407.25
386.238	390.25
386.463	408.25
386.688	399.25
386.913	405.25
387.138	404.25
387.363	387.25
387.588	389.25
387.813	403.25
388.038	374.25
388.263	391.25
388.488	389.25
388.713	398.25
388.938	399.25
389.163	390.25
389.387	394.25
389.612	383.25
389.837	387.25
390.062	395.25
390.287	385.25
390.512	387.25
390.736	402.25
390.961	410.25
391.186	397.25
391.411	386.25
391.636	387.25
391.86	401.25
392.085	378.25
392.31	381.25
392.534	413.25
392.759	395.25
392.984	408.25
393.208	403.25
393.433	387.25
393.658	411.25
393.882	397.25
394.107	394.25
394.331	394.25
394.556	394.25
394.78	377.25
395.005	386.25
395.229	388.25
395.454	405.25
395.678	419.25
395.903	415.25
396.127	427.25
396.352	449.25
396.576	411.25
396.801	409.25
397.025	420.25
397.249	400.25
397.474	415.25
397.698	398.25
397.922	420.25
398.147	430.25
398.371	446.25
398.595	435.25
398.82	446.25
399.044	433.25
399.268	434.25
399.492	456.25
399.717	500.25
399.941	488.25
400.165	531.25
400.389	532.25
400.613	480.25
400.837	461.25
401.062	449.25
401.286	468.25
401.51	444.25
401.734	433.25
401.958	457.25
402.182	438.25
402.406	457.25
402.63	468.25
402.854	458.25
403.078	459.25
403.302	461.25
403.526	463.25
403.75	472.25
403.974	467.25
404.198	466.25
404.422	489.25
404.645	507.25
404.869	528.25
405.093	579.25
405.317	635.25
405.541	646.25
405.765	609.25
405.988	546.25
406.212	562.25
406.436	545.25
406.66	549.25
406.883	522.25
407.107	515.25
407.331	547.25
407.555	606.25
407.778	619.25
408.002	578.25
408.226	521.25
408.449	525.25
408.673	511.25
408.896	533.25
409.12	555.25
409.344	542.25
409.567	489.25
409.791	481.25
410.014	471.25
410.238	478.25
410.461	485.25
410.685	466.25
410.908	510.25
411.132	532.25
411.355	560.25
411.578	533.25
411.802	530.25
412.025	513.25
412.249	532.25
412.472	579.25
412.695	657.25
412.919	647.25
413.142	589.25
413.365	529.25
413.589	543.25
413.812	497.25
414.035	477.25
414.258	480.25
414.482	483.25
414.705	483.25
414.928	466.25
415.151	456.25
415.374	457.25
415.597	460.25
415.821	449.25
416.044	443.25
416.267	487.25
416.49	443.25
416.713	453.25
416.936	447.25
417.159	437.25
417.382	467.25
417.605	481.25
417.828	485.25
418.051	495.25
418.274	469.25
418.497	460.25
418.72	475.25
418.943	460.25
419.166	471.25
419.389	493.25
419.611	493.25
419.834	502.25
420.057	508.25
420.28	545.25
420.503	550.25
420.726	541.25
420.948	533.25
421.171	548.25
421.394	578.25
421.617	509.25
421.839	501.25
422.062	474.25
422.285	517.25
422.507	543.25
422.73	627.25
422.953	607.25
423.175	537.25
423.398	521.25
423.621	503.25
423.843	517.25
424.066	517.25
424.288	505.25
424.511	528.25
424.733	558.25
424.956	667.25
425.178	653.25
425.401	636.25
425.623	668.25
425.846	588.25
426.068	525.25
426.291	526.25
426.513	527.25
426.735	539.25
426.958	569.25
427.18	634.25
427.402	774.25
427.625	855.25
427.847	814.25
428.069	725.25
428.292	641.25
428.514	574.25
428.736	546.25
428.958	525.25
429.181	478.25
429.403	476.25
429.625	497.25
429.847	534.25
430.069	592.25
430.292	595.25
430.514	517.25
430.736	477.25
430.958	472.25
431.18	461.25
431.402	437.25
431.624	436.25
431.846	426.25
432.068	435.25
432.29	429.25
432.512	440.25
432.734	453.25
432.956	449.25
433.178	473.25
433.4	459.25
433.622	447.25
433.844	456.25
434.066	439.25
434.287	455.25
434.509	441.25
434.731	445.25
434.953	458.25
435.175	478.25
435.397	503.25
435.618	522.25
435.84	562.25
436.062	645.25
436.284	733.25
436.505	618.25
436.727	567.25
436.949	501.25
437.17	483.25
437.392	493.25
437.614	501.25
437.835	531.25
438.057	627.25
438.278	737.25
438.5	737.25
438.721	807.25
438.943	755.25
439.165	605.25
439.386	536.25
439.608	550.25
439.829	542.25
440.05	568.25
440.272	618.25
440.493	565.25
440.715	513.25
440.936	490.25
441.158	480.25
441.379	488.25
441.6	497.25
441.822	521.25
442.043	562.25
442.264	641.25
442.486	666.25
442.707	598.25
442.928	533.25
443.149	563.25
443.371	561.25
443.592	598.25
443.813	694.25
444.034	723.25
444.255	617.25
444.476	531.25
444.698	523.25
444.919	527.25
445.14	633.25
445.361	566.25
445.582	565.25
445.803	642.25
446.024	738.25
446.245	745.25
446.466	661.25
446.687	590.25
446.908	539.25
447.129	499.25
447.35	482.25
447.571	485.25
447.792	479.25
448.013	502.25
448.234	519.25
448.455	556.25
448.675	681.25
448.896	793.25
449.117	657.25
449.338	627.25
449.559	747.25
449.779	801.25
450	649.25
450.221	563.25
450.442	515.25
450.662	470.25
450.883	483.25
451.104	482.25
451.324	512.25
451.545	457.25
451.766	455.25
451.986	447.25
452.207	440.25
452.428	422.25
452.648	440.25
452.869	431.25
453.089	422.25
453.31	455.25
453.53	420.25
453.751	421.25
453.971	425.25
454.192	451.25
454.412	439.25
454.633	421.25
454.853	430.25
455.073	446.25
455.294	465.25
455.514	529.25
455.734	519.25
455.955	431.25
456.175	420.25
456.395	411.25
456.616	393.25
456.836	413.25
457.056	404.25
457.276	398.25
457.497	398.25
457.717	397.25
457.937	415.25
458.157	426.25
458.377	421.25
458.598	450.25
458.818	508.25
459.038	598.25
459.258	592.25
459.478	507.25
459.698	451.25
459.918	426.25
460.138	443.25
460.358	423.25
460.578	430.25
460.798	461.25
461.018	443.25
461.238	431.25
461.458	439.25
461.678	409.25
461.898	477.25
462.118	436.25
462.338	454.25
462.558	445.25
462.777	455.25
462.997	463.25
463.217	459.25
463.437	467.25
463.657	454.25
463.876	473.25
464.096	460.25
464.316	441.25
464.536	456.25
464.755	474.25
464.975	467.25
465.195	522.25
465.414	597.25
465.634	527.25
465.854	479.25
466.073	457.25
466.293	473.25
466.512	460.25
466.732	450.25
466.951	451.25
467.171	439.25
467.391	431.25
467.61	470.25
467.829	469.25
468.049	507.25
468.268	570.25
468.488	492.25
468.707	457.25
468.927	457.25
469.146	438.25
469.365	450.25
469.585	447.25
469.804	459.25
470.023	475.25
470.243	448.25
470.462	453.25
470.681	484.25
470.901	477.25
471.12	458.25
471.339	437.25
471.558	443.25
471.777	480.25
471.997	482.25
472.216	569.25
472.435	804.25
472.654	742.25
472.873	572.25
473.092	541.25
473.311	521.25
473.53	503.25
473.749	493.25
473.968	544.25
474.187	614.25
474.406	662.25
474.625	547.25
474.844	506.25
475.063	463.25
475.282	462.25
475.501	470.25
475.72	491.25
475.939	499.25
476.158	484.25
476.377	474.25
476.596	478.25
476.814	466.25
477.033	479.25
477.252	490.25
477.471	487.25
477.69	486.25
477.908	495.25
478.127	499.25
478.346	485.25
478.564	507.25
478.783	506.25
479.002	492.25
479.22	531.25
479.439	525.25
479.658	558.25
479.876	569.25
480.095	557.25
480.313	576.25
480.532	601.25
480.751	601.25
480.969	674.25
481.188	1023.25
481.406	1299.25
481.624	907.25
481.843	753.25
482.061	683.25
482.28	679.25
482.498	603.25
482.717	630.25
482.935	596.25
483.153	601.25
483.372	570.25
483.59	591.25
483.808	578.25
484.027	575.25
484.245	562.25
484.463	558.25
484.681	594.25
484.9	569.25
485.118	569.25
485.336	595.25
485.554	588.25
485.772	584.25
485.99	594.25
486.209	591.25
486.427	595.25
486.645	587.25
486.863	595.25
487.081	630.25
487.299	639.25
487.517	611.25
487.735	607.25
487.953	607.25
488.171	601.25
488.389	610.25
488.607	595.25
488.825	611.25
489.043	609.25
489.261	620.25
489.479	627.25
489.696	619.25
489.914	623.25
490.132	646.25
490.35	633.25
490.568	647.25
490.786	684.25
491.003	692.25
491.221	694.25
491.439	712.25
491.657	733.25
491.874	712.25
492.092	758.25
492.31	751.25
492.527	775.25
492.745	760.25
492.963	782.25
493.18	770.25
493.398	757.25
493.615	783.25
493.833	760.25
494.05	766.25
494.268	768.25
494.485	756.25
494.703	767.25
494.92	754.25
495.138	735.25
495.355	744.25
495.573	731.25
495.79	744.25
496.008	746.25
496.225	750.25
496.442	719.25
496.66	710.25
496.877	731.25
497.094	745.25
497.312	735.25
497.529	735.25
497.746	725.25
497.963	734.25
498.181	775.25
498.398	742.25
498.615	746.25
498.832	757.25
499.049	760.25
499.267	767.25
499.484	760.25
499.701	808.25
499.918	794.25
500.135	825.25
500.352	854.25
500.569	850.25
500.786	883.25
501.003	878.25
501.22	835.25
501.437	837.25
501.654	841.25
501.871	823.25
