Data from 1986.PennyLincolnUp.Lamp.En5.5.200Scan.071819.P2_HRD10591_17-09-49-974.txt Node
Date: Thu Jul 18 17:09:49 EDT 2019
User: cochatt
Spectrometer: HR+D1059
Trigger mode: 1
Integration Time (sec): 1.000000E-1
Scans to average: 1
Electric dark correction enabled: true
Nonlinearity correction enabled: false
Boxcar width: 0
XAxis mode: Wavelengths
Number of Pixels in Spectrum: 2048
>>>>>Begin Spectral Data<<<<<
223.165	-9.62
223.4	-9.62
223.635	-9.62
223.869	-25.62
224.104	-20.62
224.338	-8.62
224.573	-9.62
224.808	-3.62
225.042	-4.62
225.277	-18.62
225.511	2.38
225.746	1.38
225.98	7.38
226.215	14.38
226.449	19.38
226.683	22.38
226.918	14.38
227.152	19.38
227.387	17.38
227.621	27.38
227.856	35.38
228.09	38.38
228.324	50.38
228.559	54.38
228.793	66.38
229.027	106.38
229.262	105.38
229.496	106.38
229.73	125.38
229.964	144.38
230.199	117.38
230.433	101.38
230.667	103.38
230.901	118.38
231.136	106.38
231.37	122.38
231.604	113.38
231.838	111.38
232.072	112.38
232.306	106.38
232.541	112.38
232.775	105.38
233.009	97.38
233.243	109.38
233.477	119.38
233.711	106.38
233.945	100.38
234.179	122.38
234.413	116.38
234.647	118.38
234.881	108.38
235.115	114.38
235.349	105.38
235.583	125.38
235.817	123.38
236.051	125.38
236.285	118.38
236.519	115.38
236.753	120.38
236.987	161.38
237.221	186.38
237.455	225.38
237.689	193.38
237.922	146.38
238.156	131.38
238.39	138.38
238.624	105.38
238.858	127.38
239.091	117.38
239.325	114.38
239.559	128.38
239.793	123.38
240.027	134.38
240.26	126.38
240.494	147.38
240.728	152.38
240.961	157.38
241.195	142.38
241.429	127.38
241.662	123.38
241.896	125.38
242.13	124.38
242.363	130.38
242.597	135.38
242.83	139.38
243.064	143.38
243.298	129.38
243.531	125.38
243.765	139.38
243.998	144.38
244.232	135.38
244.465	126.38
244.699	136.38
244.932	136.38
245.166	146.38
245.399	133.38
245.633	129.38
245.866	139.38
246.099	142.38
246.333	125.38
246.566	137.38
246.8	143.38
247.033	138.38
247.266	162.38
247.5	146.38
247.733	173.38
247.966	167.38
248.2	166.38
248.433	174.38
248.666	164.38
248.899	165.38
249.133	197.38
249.366	193.38
249.599	194.38
249.832	154.38
250.066	173.38
250.299	169.38
250.532	190.38
250.765	189.38
250.998	198.38
251.231	215.38
251.465	216.38
251.698	203.38
251.931	205.38
252.164	202.38
252.397	198.38
252.63	182.38
252.863	203.38
253.096	214.38
253.329	225.38
253.562	224.38
253.795	194.38
254.028	218.38
254.261	224.38
254.494	213.38
254.727	270.38
254.96	289.38
255.193	257.38
255.426	232.38
255.659	234.38
255.892	212.38
256.124	223.38
256.357	214.38
256.59	199.38
256.823	199.38
257.056	202.38
257.289	190.38
257.521	195.38
257.754	177.38
257.987	194.38
258.22	205.38
258.452	197.38
258.685	214.38
258.918	200.38
259.151	208.38
259.383	214.38
259.616	206.38
259.849	213.38
260.081	215.38
260.314	246.38
260.547	233.38
260.779	233.38
261.012	217.38
261.244	229.38
261.477	229.38
261.71	207.38
261.942	209.38
262.175	235.38
262.407	229.38
262.64	222.38
262.872	211.38
263.105	209.38
263.337	202.38
263.57	209.38
263.802	202.38
264.035	214.38
264.267	215.38
264.499	197.38
264.732	198.38
264.964	204.38
265.197	201.38
265.429	191.38
265.661	195.38
265.894	186.38
266.126	198.38
266.358	217.38
266.591	196.38
266.823	204.38
267.055	212.38
267.287	214.38
267.52	209.38
267.752	218.38
267.984	212.38
268.216	213.38
268.448	204.38
268.681	210.38
268.913	236.38
269.145	241.38
269.377	250.38
269.609	257.38
269.841	242.38
270.073	250.38
270.306	251.38
270.538	287.38
270.77	310.38
271.002	282.38
271.234	269.38
271.466	285.38
271.698	293.38
271.93	316.38
272.162	291.38
272.394	314.38
272.626	291.38
272.858	278.38
273.09	261.38
273.322	263.38
273.553	258.38
273.785	257.38
274.017	226.38
274.249	248.38
274.481	245.38
274.713	238.38
274.945	244.38
275.176	255.38
275.408	255.38
275.64	243.38
275.872	238.38
276.104	236.38
276.335	258.38
276.567	243.38
276.799	269.38
277.031	271.38
277.262	287.38
277.494	287.38
277.726	275.38
277.957	262.38
278.189	269.38
278.421	257.38
278.652	247.38
278.884	252.38
279.115	229.38
279.347	243.38
279.579	247.38
279.81	251.38
280.042	233.38
280.273	241.38
280.505	225.38
280.736	257.38
280.968	225.38
281.199	243.38
281.431	241.38
281.662	246.38
281.894	245.38
282.125	253.38
282.356	275.38
282.588	274.38
282.819	275.38
283.051	238.38
283.282	228.38
283.513	243.38
283.745	249.38
283.976	243.38
284.207	248.38
284.439	264.38
284.67	234.38
284.901	237.38
285.132	247.38
285.364	241.38
285.595	255.38
285.826	242.38
286.057	227.38
286.288	251.38
286.52	261.38
286.751	239.38
286.982	248.38
287.213	242.38
287.444	260.38
287.675	253.38
287.906	274.38
288.138	268.38
288.369	257.38
288.6	257.38
288.831	260.38
289.062	262.38
289.293	248.38
289.524	250.38
289.755	257.38
289.986	269.38
290.217	241.38
290.448	261.38
290.679	246.38
290.91	245.38
291.141	248.38
291.371	264.38
291.602	268.38
291.833	236.38
292.064	249.38
292.295	255.38
292.526	250.38
292.757	257.38
292.987	266.38
293.218	227.38
293.449	268.38
293.68	263.38
293.91	245.38
294.141	256.38
294.372	242.38
294.603	236.38
294.833	238.38
295.064	244.38
295.295	263.38
295.525	239.38
295.756	261.38
295.987	264.38
296.217	277.38
296.448	301.38
296.679	255.38
296.909	253.38
297.14	247.38
297.37	267.38
297.601	255.38
297.831	238.38
298.062	268.38
298.292	257.38
298.523	256.38
298.753	264.38
298.984	254.38
299.214	254.38
299.445	265.38
299.675	283.38
299.905	278.38
300.136	273.38
300.366	273.38
300.597	277.38
300.827	266.38
301.057	272.38
301.288	279.38
301.518	277.38
301.748	259.38
301.979	285.38
302.209	270.38
302.439	289.38
302.669	293.38
302.9	294.38
303.13	270.38
303.36	281.38
303.59	270.38
303.82	298.38
304.051	293.38
304.281	273.38
304.511	297.38
304.741	279.38
304.971	278.38
305.201	270.38
305.431	275.38
305.661	281.38
305.891	269.38
306.121	285.38
306.352	263.38
306.582	295.38
306.812	266.38
307.042	273.38
307.272	258.38
307.502	275.38
307.731	292.38
307.961	289.38
308.191	289.38
308.421	287.38
308.651	296.38
308.881	287.38
309.111	288.38
309.341	313.38
309.571	298.38
309.8	313.38
310.03	333.38
310.26	332.38
310.49	325.38
310.72	355.38
310.949	358.38
311.179	343.38
311.409	341.38
311.639	330.38
311.868	322.38
312.098	340.38
312.328	326.38
312.557	347.38
312.787	363.38
313.017	344.38
313.246	335.38
313.476	330.38
313.706	331.38
313.935	325.38
314.165	340.38
314.394	345.38
314.624	356.38
314.853	334.38
315.083	337.38
315.312	331.38
315.542	323.38
315.771	311.38
316.001	334.38
316.23	317.38
316.46	316.38
316.689	320.38
316.919	338.38
317.148	331.38
317.377	339.38
317.607	347.38
317.836	346.38
318.065	319.38
318.295	326.38
318.524	296.38
318.753	326.38
318.983	329.38
319.212	337.38
319.441	330.38
319.67	356.38
319.9	347.38
320.129	335.38
320.358	326.38
320.587	341.38
320.816	338.38
321.046	344.38
321.275	357.38
321.504	357.38
321.733	355.38
321.962	358.38
322.191	372.38
322.42	377.38
322.649	385.38
322.878	391.38
323.108	398.38
323.337	428.38
323.566	456.38
323.795	483.38
324.024	537.38
324.253	645.38
324.482	925.38
324.71	1423.38
324.939	2070.38
325.168	1807.38
325.397	945.38
325.626	623.38
325.855	518.38
326.084	467.38
326.313	445.38
326.542	466.38
326.77	500.38
326.999	586.38
327.228	808.38
327.457	1197.38
327.686	1523.38
327.914	1038.38
328.143	689.38
328.372	585.38
328.6	541.38
328.829	522.38
329.058	534.38
329.287	536.38
329.515	505.38
329.744	457.38
329.972	437.38
330.201	430.38
330.43	448.38
330.658	486.38
330.887	548.38
331.115	545.38
331.344	463.38
331.572	424.38
331.801	421.38
332.03	425.38
332.258	401.38
332.486	378.38
332.715	378.38
332.943	378.38
333.172	382.38
333.4	390.38
333.629	380.38
333.857	374.38
334.085	374.38
334.314	375.38
334.542	374.38
334.771	393.38
334.999	372.38
335.227	370.38
335.455	380.38
335.684	377.38
335.912	353.38
336.14	389.38
336.369	381.38
336.597	381.38
336.825	370.38
337.053	355.38
337.281	378.38
337.51	369.38
337.738	373.38
337.966	369.38
338.194	373.38
338.422	372.38
338.65	359.38
338.878	369.38
339.106	361.38
339.334	373.38
339.562	347.38
339.79	351.38
340.018	346.38
340.246	359.38
340.474	379.38
340.702	367.38
340.93	355.38
341.158	349.38
341.386	354.38
341.614	364.38
341.842	330.38
342.07	343.38
342.298	364.38
342.526	335.38
342.754	338.38
342.981	342.38
343.209	347.38
343.437	359.38
343.665	322.38
343.893	376.38
344.12	332.38
344.348	356.38
344.576	390.38
344.804	378.38
345.031	362.38
345.259	374.38
345.487	364.38
345.714	382.38
345.942	367.38
346.17	378.38
346.397	335.38
346.625	349.38
346.853	350.38
347.08	339.38
347.308	354.38
347.535	385.38
347.763	349.38
347.99	351.38
348.218	373.38
348.445	373.38
348.673	359.38
348.9	358.38
349.128	341.38
349.355	330.38
349.583	345.38
349.81	335.38
350.037	355.38
350.265	330.38
350.492	323.38
350.72	345.38
350.947	329.38
351.174	372.38
351.402	380.38
351.629	348.38
351.856	373.38
352.083	375.38
352.311	386.38
352.538	383.38
352.765	385.38
352.992	354.38
353.22	354.38
353.447	364.38
353.674	350.38
353.901	351.38
354.128	332.38
354.355	327.38
354.583	332.38
354.81	334.38
355.037	323.38
355.264	318.38
355.491	297.38
355.718	305.38
355.945	318.38
356.172	317.38
356.399	314.38
356.626	325.38
356.853	337.38
357.08	334.38
357.307	331.38
357.534	315.38
357.761	327.38
357.988	324.38
358.215	319.38
358.441	309.38
358.668	306.38
358.895	335.38
359.122	343.38
359.349	329.38
359.576	330.38
359.802	366.38
360.029	408.38
360.256	405.38
360.483	399.38
360.709	366.38
360.936	348.38
361.163	364.38
361.39	370.38
361.616	371.38
361.843	350.38
362.07	322.38
362.296	360.38
362.523	343.38
362.749	358.38
362.976	351.38
363.203	335.38
363.429	333.38
363.656	334.38
363.882	334.38
364.109	333.38
364.335	329.38
364.562	342.38
364.788	340.38
365.015	349.38
365.241	335.38
365.468	330.38
365.694	359.38
365.92	350.38
366.147	350.38
366.373	336.38
366.599	324.38
366.826	311.38
367.052	315.38
367.278	315.38
367.505	317.38
367.731	330.38
367.957	334.38
368.184	343.38
368.41	345.38
368.636	343.38
368.862	339.38
369.089	322.38
369.315	325.38
369.541	333.38
369.767	339.38
369.993	343.38
370.219	327.38
370.445	348.38
370.672	327.38
370.898	316.38
371.124	331.38
371.35	330.38
371.576	329.38
371.802	307.38
372.028	317.38
372.254	325.38
372.48	323.38
372.706	333.38
372.932	314.38
373.158	331.38
373.384	324.38
373.61	324.38
373.835	309.38
374.061	346.38
374.287	334.38
374.513	350.38
374.739	337.38
374.965	321.38
375.191	325.38
375.416	331.38
375.642	320.38
375.868	337.38
376.094	340.38
376.319	315.38
376.545	325.38
376.771	330.38
376.997	312.38
377.222	330.38
377.448	325.38
377.674	305.38
377.899	318.38
378.125	311.38
378.35	313.38
378.576	315.38
378.802	297.38
379.027	325.38
379.253	326.38
379.478	318.38
379.704	325.38
379.929	326.38
380.155	330.38
380.38	317.38
380.606	323.38
380.831	321.38
381.057	322.38
381.282	324.38
381.507	333.38
381.733	336.38
381.958	327.38
382.184	332.38
382.409	319.38
382.634	329.38
382.86	313.38
383.085	334.38
383.31	339.38
383.535	329.38
383.761	333.38
383.986	321.38
384.211	333.38
384.436	339.38
384.662	324.38
384.887	342.38
385.112	344.38
385.337	331.38
385.562	326.38
385.787	335.38
386.013	346.38
386.238	362.38
386.463	335.38
386.688	333.38
386.913	348.38
387.138	345.38
387.363	339.38
387.588	334.38
387.813	360.38
388.038	329.38
388.263	334.38
388.488	333.38
388.713	341.38
388.938	349.38
389.163	344.38
389.387	323.38
389.612	351.38
389.837	329.38
390.062	332.38
390.287	309.38
390.512	335.38
390.736	346.38
390.961	329.38
391.186	343.38
391.411	342.38
391.636	362.38
391.86	347.38
392.085	344.38
392.31	351.38
392.534	334.38
392.759	347.38
392.984	341.38
393.208	354.38
393.433	349.38
393.658	359.38
393.882	338.38
394.107	358.38
394.331	348.38
394.556	346.38
394.78	354.38
395.005	341.38
395.229	348.38
395.454	338.38
395.678	358.38
395.903	346.38
396.127	366.38
396.352	368.38
396.576	353.38
396.801	369.38
397.025	337.38
397.249	361.38
397.474	361.38
397.698	367.38
397.922	379.38
398.147	379.38
398.371	375.38
398.595	395.38
398.82	380.38
399.044	375.38
399.268	379.38
399.492	389.38
399.717	411.38
399.941	445.38
400.165	464.38
400.389	468.38
400.613	410.38
400.837	408.38
401.062	400.38
401.286	398.38
401.51	373.38
401.734	370.38
401.958	381.38
402.182	399.38
402.406	422.38
402.63	411.38
402.854	415.38
403.078	404.38
403.302	390.38
403.526	387.38
403.75	415.38
403.974	409.38
404.198	412.38
404.422	424.38
404.645	401.38
404.869	383.38
405.093	408.38
405.317	423.38
405.541	452.38
405.765	415.38
405.988	415.38
406.212	419.38
406.436	445.38
406.66	449.38
406.883	456.38
407.107	478.38
407.331	499.38
407.555	547.38
407.778	528.38
408.002	499.38
408.226	445.38
408.449	444.38
408.673	423.38
408.896	468.38
409.12	490.38
409.344	478.38
409.567	442.38
409.791	420.38
410.014	393.38
410.238	406.38
410.461	401.38
410.685	406.38
410.908	425.38
411.132	450.38
411.355	487.38
411.578	455.38
411.802	420.38
412.025	389.38
412.249	390.38
412.472	379.38
412.695	389.38
412.919	387.38
413.142	388.38
413.365	378.38
413.589	385.38
413.812	371.38
414.035	389.38
414.258	390.38
414.482	379.38
414.705	381.38
414.928	372.38
415.151	380.38
415.374	378.38
415.597	367.38
415.821	372.38
416.044	381.38
416.267	379.38
416.49	382.38
416.713	349.38
416.936	366.38
417.159	359.38
417.382	391.38
417.605	380.38
417.828	387.38
418.051	408.38
418.274	389.38
418.497	357.38
418.72	378.38
418.943	387.38
419.166	394.38
419.389	398.38
419.611	392.38
419.834	384.38
420.057	416.38
420.28	400.38
420.503	380.38
420.726	407.38
420.948	409.38
421.171	446.38
421.394	478.38
421.617	445.38
421.839	394.38
422.062	395.38
422.285	421.38
422.507	472.38
422.73	526.38
422.953	494.38
423.175	449.38
423.398	416.38
423.621	435.38
423.843	438.38
424.066	446.38
424.288	431.38
424.511	455.38
424.733	493.38
424.956	565.38
425.178	558.38
425.401	553.38
425.623	584.38
425.846	481.38
426.068	464.38
426.291	446.38
426.513	447.38
426.735	462.38
426.958	485.38
427.18	563.38
427.402	678.38
427.625	746.38
427.847	668.38
428.069	556.38
428.292	491.38
428.514	461.38
428.736	433.38
428.958	425.38
429.181	405.38
429.403	413.38
429.625	420.38
429.847	471.38
430.069	523.38
430.292	500.38
430.514	448.38
430.736	420.38
430.958	406.38
431.18	383.38
431.402	392.38
431.624	378.38
431.846	378.38
432.068	378.38
432.29	407.38
432.512	366.38
432.734	398.38
432.956	392.38
433.178	387.38
433.4	374.38
433.622	383.38
433.844	393.38
434.066	371.38
434.287	382.38
434.509	374.38
434.731	390.38
434.953	405.38
435.175	399.38
435.397	438.38
435.618	460.38
435.84	501.38
436.062	595.38
436.284	654.38
436.505	519.38
436.727	465.38
436.949	441.38
437.17	421.38
437.392	422.38
437.614	425.38
437.835	482.38
438.057	553.38
438.278	635.38
438.5	653.38
438.721	709.38
438.943	652.38
439.165	506.38
439.386	480.38
439.608	484.38
439.829	490.38
440.05	490.38
440.272	558.38
440.493	489.38
440.715	439.38
440.936	443.38
441.158	434.38
441.379	442.38
441.6	418.38
441.822	455.38
442.043	487.38
442.264	551.38
442.486	605.38
442.707	540.38
442.928	453.38
443.149	458.38
443.371	487.38
443.592	541.38
443.813	619.38
444.034	666.38
444.255	537.38
444.476	458.38
444.698	455.38
444.919	445.38
445.14	575.38
445.361	499.38
445.582	513.38
445.803	557.38
446.024	640.38
446.245	643.38
446.466	603.38
446.687	511.38
446.908	477.38
447.129	432.38
447.35	411.38
447.571	399.38
447.792	429.38
448.013	430.38
448.234	448.38
448.455	493.38
448.675	586.38
448.896	692.38
449.117	577.38
449.338	547.38
449.559	635.38
449.779	728.38
450	587.38
450.221	490.38
450.442	453.38
450.662	430.38
450.883	426.38
451.104	439.38
451.324	422.38
451.545	412.38
451.766	402.38
451.986	388.38
452.207	373.38
452.428	376.38
452.648	369.38
452.869	385.38
453.089	405.38
453.31	403.38
453.53	395.38
453.751	399.38
453.971	385.38
454.192	402.38
454.412	389.38
454.633	379.38
454.853	389.38
455.073	377.38
455.294	391.38
455.514	468.38
455.734	470.38
455.955	395.38
456.175	369.38
456.395	350.38
456.616	353.38
456.836	354.38
457.056	337.38
457.276	329.38
457.497	336.38
457.717	360.38
457.937	363.38
458.157	357.38
458.377	362.38
458.598	376.38
458.818	451.38
459.038	521.38
459.258	546.38
459.478	429.38
459.698	395.38
459.918	409.38
460.138	381.38
460.358	383.38
460.578	357.38
460.798	380.38
461.018	379.38
461.238	371.38
461.458	367.38
461.678	375.38
461.898	376.38
462.118	372.38
462.338	376.38
462.558	394.38
462.777	391.38
462.997	407.38
463.217	397.38
463.437	390.38
463.657	379.38
463.876	397.38
464.096	402.38
464.316	384.38
464.536	442.38
464.755	402.38
464.975	419.38
465.195	462.38
465.414	533.38
465.634	461.38
465.854	411.38
466.073	410.38
466.293	371.38
466.512	373.38
466.732	382.38
466.951	373.38
467.171	374.38
467.391	388.38
467.61	371.38
467.829	385.38
468.049	364.38
468.268	373.38
468.488	366.38
468.707	355.38
468.927	369.38
469.146	345.38
469.365	354.38
469.585	355.38
469.804	379.38
470.023	365.38
470.243	377.38
470.462	389.38
470.681	421.38
470.901	402.38
471.12	372.38
471.339	370.38
471.558	356.38
471.777	375.38
471.997	373.38
472.216	363.38
472.435	369.38
472.654	369.38
472.873	376.38
473.092	371.38
473.311	360.38
473.53	385.38
473.749	393.38
473.968	408.38
474.187	523.38
474.406	537.38
474.625	453.38
474.844	389.38
475.063	411.38
475.282	399.38
475.501	392.38
475.72	411.38
475.939	387.38
476.158	387.38
476.377	400.38
476.596	403.38
476.814	395.38
477.033	419.38
477.252	421.38
477.471	412.38
477.69	418.38
477.908	413.38
478.127	421.38
478.346	405.38
478.564	418.38
478.783	417.38
479.002	454.38
479.22	430.38
479.439	433.38
479.658	465.38
479.876	448.38
480.095	475.38
480.313	488.38
480.532	456.38
480.751	445.38
480.969	483.38
481.188	457.38
481.406	490.38
481.624	484.38
481.843	451.38
482.061	464.38
482.28	455.38
482.498	445.38
482.717	430.38
482.935	445.38
483.153	439.38
483.372	461.38
483.59	445.38
483.808	452.38
484.027	447.38
484.245	449.38
484.463	437.38
484.681	442.38
484.9	457.38
485.118	471.38
485.336	465.38
485.554	467.38
485.772	466.38
485.99	451.38
486.209	451.38
486.427	460.38
486.645	472.38
486.863	503.38
487.081	498.38
487.299	482.38
487.517	481.38
487.735	478.38
487.953	498.38
488.171	482.38
488.389	514.38
488.607	484.38
488.825	482.38
489.043	483.38
489.261	500.38
489.479	497.38
489.696	491.38
489.914	500.38
490.132	503.38
490.35	513.38
490.568	520.38
490.786	501.38
491.003	533.38
491.221	538.38
491.439	527.38
491.657	541.38
491.874	541.38
492.092	539.38
492.31	539.38
492.527	544.38
492.745	581.38
492.963	582.38
493.18	565.38
493.398	563.38
493.615	564.38
493.833	570.38
494.05	566.38
494.268	559.38
494.485	571.38
494.703	561.38
494.92	575.38
495.138	585.38
495.355	598.38
495.573	573.38
495.79	584.38
496.008	591.38
496.225	591.38
496.442	580.38
496.66	595.38
496.877	577.38
497.094	581.38
497.312	575.38
497.529	619.38
497.746	574.38
497.963	600.38
498.181	624.38
498.398	637.38
498.615	609.38
498.832	641.38
499.049	645.38
499.267	626.38
499.484	663.38
499.701	672.38
499.918	659.38
500.135	708.38
500.352	709.38
500.569	687.38
500.786	718.38
501.003	743.38
501.22	693.38
501.437	703.38
501.654	710.38
501.871	699.38
502.088	685.38
