Data from 1986.PennyLincolnUp.Lamp.En5.5.200Scan.071819.P2_HRD10591_17-12-27-973.txt Node
Date: Thu Jul 18 17:12:27 EDT 2019
User: cochatt
Spectrometer: HR+D1059
Trigger mode: 1
Integration Time (sec): 1.000000E-1
Scans to average: 1
Electric dark correction enabled: true
Nonlinearity correction enabled: false
Boxcar width: 0
XAxis mode: Wavelengths
Number of Pixels in Spectrum: 2048
>>>>>Begin Spectral Data<<<<<
223.165	-24.44
223.4	-24.44
223.635	-24.44
223.869	-10.44
224.104	-9.44
224.338	-21.44
224.573	-16.44
224.808	3.56
225.042	-2.44
225.277	-2.44
225.511	-14.44
225.746	3.56
225.98	-6.44
226.215	8.56
226.449	20.56
226.683	35.56
226.918	26.56
227.152	9.56
227.387	33.56
227.621	41.56
227.856	53.56
228.09	37.56
228.324	47.56
228.559	37.56
228.793	63.56
229.027	93.56
229.262	106.56
229.496	112.56
229.73	149.56
229.964	143.56
230.199	139.56
230.433	117.56
230.667	125.56
230.901	123.56
231.136	111.56
231.37	101.56
231.604	102.56
231.838	109.56
232.072	106.56
232.306	116.56
232.541	97.56
232.775	118.56
233.009	101.56
233.243	113.56
233.477	108.56
233.711	113.56
233.945	127.56
234.179	119.56
234.413	117.56
234.647	121.56
234.881	112.56
235.115	119.56
235.349	129.56
235.583	131.56
235.817	116.56
236.051	135.56
236.285	131.56
236.519	123.56
236.753	146.56
236.987	127.56
237.221	179.56
237.455	249.56
237.689	196.56
237.922	155.56
238.156	137.56
238.39	127.56
238.624	137.56
238.858	128.56
239.091	121.56
239.325	121.56
239.559	134.56
239.793	129.56
240.027	125.56
240.26	145.56
240.494	156.56
240.728	151.56
240.961	167.56
241.195	134.56
241.429	127.56
241.662	145.56
241.896	133.56
242.13	126.56
242.363	135.56
242.597	128.56
242.83	146.56
243.064	156.56
243.298	147.56
243.531	139.56
243.765	150.56
243.998	134.56
244.232	144.56
244.465	150.56
244.699	163.56
244.932	154.56
245.166	141.56
245.399	165.56
245.633	166.56
245.866	152.56
246.099	161.56
246.333	155.56
246.566	137.56
246.8	162.56
247.033	181.56
247.266	165.56
247.5	155.56
247.733	167.56
247.966	186.56
248.2	197.56
248.433	192.56
248.666	188.56
248.899	193.56
249.133	208.56
249.366	224.56
249.599	206.56
249.832	197.56
250.066	219.56
250.299	212.56
250.532	223.56
250.765	239.56
250.998	289.56
251.231	261.56
251.465	260.56
251.698	236.56
251.931	234.56
252.164	223.56
252.397	232.56
252.63	227.56
252.863	229.56
253.096	237.56
253.329	237.56
253.562	247.56
253.795	226.56
254.028	225.56
254.261	239.56
254.494	235.56
254.727	271.56
254.96	319.56
255.193	304.56
255.426	283.56
255.659	272.56
255.892	289.56
256.124	320.56
256.357	360.56
256.59	335.56
256.823	327.56
257.056	284.56
257.289	268.56
257.521	263.56
257.754	250.56
257.987	234.56
258.22	228.56
258.452	255.56
258.685	245.56
258.918	243.56
259.151	239.56
259.383	256.56
259.616	257.56
259.849	249.56
260.081	259.56
260.314	263.56
260.547	293.56
260.779	268.56
261.012	252.56
261.244	236.56
261.477	250.56
261.71	243.56
261.942	229.56
262.175	249.56
262.407	242.56
262.64	234.56
262.872	218.56
263.105	224.56
263.337	236.56
263.57	228.56
263.802	226.56
264.035	223.56
264.267	231.56
264.499	221.56
264.732	233.56
264.964	230.56
265.197	220.56
265.429	233.56
265.661	217.56
265.894	225.56
266.126	227.56
266.358	215.56
266.591	220.56
266.823	231.56
267.055	226.56
267.287	248.56
267.52	230.56
267.752	228.56
267.984	229.56
268.216	255.56
268.448	255.56
268.681	236.56
268.913	237.56
269.145	279.56
269.377	314.56
269.609	283.56
269.841	271.56
270.073	269.56
270.306	300.56
270.538	330.56
270.77	333.56
271.002	325.56
271.234	306.56
271.466	330.56
271.698	323.56
271.93	345.56
272.162	334.56
272.394	323.56
272.626	312.56
272.858	315.56
273.09	306.56
273.322	275.56
273.553	296.56
273.785	285.56
274.017	272.56
274.249	293.56
274.481	274.56
274.713	269.56
274.945	283.56
275.176	275.56
275.408	271.56
275.64	272.56
275.872	280.56
276.104	297.56
276.335	276.56
276.567	289.56
276.799	330.56
277.031	352.56
277.262	347.56
277.494	333.56
277.726	315.56
277.957	309.56
278.189	286.56
278.421	293.56
278.652	292.56
278.884	286.56
279.115	255.56
279.347	293.56
279.579	273.56
279.81	274.56
280.042	282.56
280.273	291.56
280.505	299.56
280.736	268.56
280.968	274.56
281.199	284.56
281.431	282.56
281.662	287.56
281.894	275.56
282.125	294.56
282.356	295.56
282.588	314.56
282.819	316.56
283.051	302.56
283.282	298.56
283.513	304.56
283.745	291.56
283.976	287.56
284.207	282.56
284.439	284.56
284.67	299.56
284.901	307.56
285.132	277.56
285.364	263.56
285.595	281.56
285.826	269.56
286.057	282.56
286.288	281.56
286.52	294.56
286.751	291.56
286.982	316.56
287.213	276.56
287.444	288.56
287.675	291.56
287.906	296.56
288.138	316.56
288.369	299.56
288.6	313.56
288.831	305.56
289.062	309.56
289.293	291.56
289.524	287.56
289.755	286.56
289.986	296.56
290.217	283.56
290.448	297.56
290.679	279.56
290.91	281.56
291.141	275.56
291.371	288.56
291.602	307.56
291.833	271.56
292.064	299.56
292.295	279.56
292.526	291.56
292.757	296.56
292.987	295.56
293.218	285.56
293.449	308.56
293.68	288.56
293.91	311.56
294.141	304.56
294.372	293.56
294.603	291.56
294.833	298.56
295.064	293.56
295.295	285.56
295.525	292.56
295.756	291.56
295.987	302.56
296.217	325.56
296.448	323.56
296.679	312.56
296.909	310.56
297.14	321.56
297.37	280.56
297.601	309.56
297.831	305.56
298.062	285.56
298.292	304.56
298.523	295.56
298.753	292.56
298.984	296.56
299.214	307.56
299.445	329.56
299.675	297.56
299.905	319.56
300.136	302.56
300.366	292.56
300.597	305.56
300.827	312.56
301.057	323.56
301.288	300.56
301.518	320.56
301.748	311.56
301.979	313.56
302.209	336.56
302.439	326.56
302.669	337.56
302.9	316.56
303.13	336.56
303.36	323.56
303.59	332.56
303.82	322.56
304.051	348.56
304.281	312.56
304.511	332.56
304.741	327.56
304.971	307.56
305.201	321.56
305.431	338.56
305.661	319.56
305.891	319.56
306.121	344.56
306.352	340.56
306.582	317.56
306.812	328.56
307.042	338.56
307.272	324.56
307.502	329.56
307.731	332.56
307.961	330.56
308.191	333.56
308.421	339.56
308.651	364.56
308.881	356.56
309.111	325.56
309.341	349.56
309.571	347.56
309.8	368.56
310.03	381.56
310.26	352.56
310.49	377.56
310.72	398.56
310.949	407.56
311.179	399.56
311.409	410.56
311.639	391.56
311.868	389.56
312.098	389.56
312.328	377.56
312.557	401.56
312.787	417.56
313.017	432.56
313.246	392.56
313.476	385.56
313.706	383.56
313.935	398.56
314.165	418.56
314.394	417.56
314.624	411.56
314.853	395.56
315.083	374.56
315.312	369.56
315.542	379.56
315.771	387.56
316.001	387.56
316.23	384.56
316.46	370.56
316.689	384.56
316.919	381.56
317.148	383.56
317.377	397.56
317.607	402.56
317.836	395.56
318.065	391.56
318.295	408.56
318.524	389.56
318.753	363.56
318.983	375.56
319.212	389.56
319.441	401.56
319.67	415.56
319.9	391.56
320.129	387.56
320.358	391.56
320.587	398.56
320.816	412.56
321.046	411.56
321.275	423.56
321.504	425.56
321.733	417.56
321.962	426.56
322.191	428.56
322.42	473.56
322.649	454.56
322.878	485.56
323.108	497.56
323.337	522.56
323.566	545.56
323.795	603.56
324.024	645.56
324.253	769.56
324.482	1082.56
324.71	1641.56
324.939	2439.56
325.168	2151.56
325.397	1147.56
325.626	783.56
325.855	627.56
326.084	580.56
326.313	561.56
326.542	578.56
326.77	627.56
326.999	702.56
327.228	959.56
327.457	1477.56
327.686	1843.56
327.914	1283.56
328.143	899.56
328.372	795.56
328.6	789.56
328.829	684.56
329.058	695.56
329.287	679.56
329.515	666.56
329.744	650.56
329.972	708.56
330.201	795.56
330.43	914.56
330.658	897.56
330.887	780.56
331.115	717.56
331.344	612.56
331.572	577.56
331.801	589.56
332.03	555.56
332.258	543.56
332.486	520.56
332.715	497.56
332.943	511.56
333.172	537.56
333.4	528.56
333.629	556.56
333.857	604.56
334.085	656.56
334.314	801.56
334.542	934.56
334.771	988.56
334.999	780.56
335.227	625.56
335.455	563.56
335.684	533.56
335.912	492.56
336.14	482.56
336.369	472.56
336.597	493.56
336.825	492.56
337.053	487.56
337.281	459.56
337.51	445.56
337.738	463.56
337.966	446.56
338.194	456.56
338.422	467.56
338.65	444.56
338.878	440.56
339.106	424.56
339.334	444.56
339.562	436.56
339.79	434.56
340.018	435.56
340.246	438.56
340.474	433.56
340.702	444.56
340.93	432.56
341.158	427.56
341.386	420.56
341.614	437.56
341.842	427.56
342.07	439.56
342.298	423.56
342.526	400.56
342.754	414.56
342.981	423.56
343.209	398.56
343.437	397.56
343.665	420.56
343.893	433.56
344.12	425.56
344.348	426.56
344.576	423.56
344.804	411.56
345.031	440.56
345.259	455.56
345.487	445.56
345.714	428.56
345.942	415.56
346.17	429.56
346.397	407.56
346.625	409.56
346.853	403.56
347.08	419.56
347.308	424.56
347.535	419.56
347.763	421.56
347.99	417.56
348.218	403.56
348.445	434.56
348.673	423.56
348.9	398.56
349.128	404.56
349.355	374.56
349.583	392.56
349.81	401.56
350.037	405.56
350.265	404.56
350.492	402.56
350.72	406.56
350.947	401.56
351.174	416.56
351.402	431.56
351.629	412.56
351.856	405.56
352.083	423.56
352.311	431.56
352.538	448.56
352.765	436.56
352.992	432.56
353.22	408.56
353.447	379.56
353.674	407.56
353.901	385.56
354.128	391.56
354.355	399.56
354.583	373.56
354.81	385.56
355.037	381.56
355.264	383.56
355.491	377.56
355.718	380.56
355.945	376.56
356.172	358.56
356.399	362.56
356.626	367.56
356.853	387.56
357.08	380.56
357.307	381.56
357.534	385.56
357.761	372.56
357.988	391.56
358.215	381.56
358.441	374.56
358.668	378.56
358.895	369.56
359.122	379.56
359.349	387.56
359.576	412.56
359.802	429.56
360.029	452.56
360.256	443.56
360.483	463.56
360.709	421.56
360.936	422.56
361.163	419.56
361.39	404.56
361.616	424.56
361.843	416.56
362.07	405.56
362.296	416.56
362.523	404.56
362.749	413.56
362.976	404.56
363.203	391.56
363.429	399.56
363.656	401.56
363.882	379.56
364.109	364.56
364.335	374.56
364.562	367.56
364.788	394.56
365.015	404.56
365.241	377.56
365.468	396.56
365.694	385.56
365.92	390.56
366.147	371.56
366.373	387.56
366.599	381.56
366.826	364.56
367.052	377.56
367.278	359.56
367.505	375.56
367.731	378.56
367.957	367.56
368.184	369.56
368.41	383.56
368.636	378.56
368.862	403.56
369.089	392.56
369.315	367.56
369.541	371.56
369.767	371.56
369.993	371.56
370.219	371.56
370.445	388.56
370.672	390.56
370.898	378.56
371.124	370.56
371.35	378.56
371.576	351.56
371.802	359.56
372.028	381.56
372.254	372.56
372.48	362.56
372.706	374.56
372.932	370.56
373.158	377.56
373.384	393.56
373.61	384.56
373.835	356.56
374.061	390.56
374.287	389.56
374.513	363.56
374.739	373.56
374.965	385.56
375.191	373.56
375.416	376.56
375.642	387.56
375.868	395.56
376.094	374.56
376.319	353.56
376.545	364.56
376.771	365.56
376.997	359.56
377.222	374.56
377.448	376.56
377.674	387.56
377.899	362.56
378.125	361.56
378.35	362.56
378.576	362.56
378.802	368.56
379.027	349.56
379.253	373.56
379.478	361.56
379.704	373.56
379.929	364.56
380.155	367.56
380.38	373.56
380.606	391.56
380.831	371.56
381.057	379.56
381.282	380.56
381.507	375.56
381.733	366.56
381.958	375.56
382.184	369.56
382.409	362.56
382.634	359.56
382.86	367.56
383.085	355.56
383.31	370.56
383.535	357.56
383.761	366.56
383.986	361.56
384.211	378.56
384.436	377.56
384.662	390.56
384.887	369.56
385.112	397.56
385.337	385.56
385.562	387.56
385.787	385.56
386.013	383.56
386.238	379.56
386.463	392.56
386.688	387.56
386.913	385.56
387.138	368.56
387.363	394.56
387.588	389.56
387.813	378.56
388.038	397.56
388.263	383.56
388.488	383.56
388.713	381.56
388.938	393.56
389.163	385.56
389.387	379.56
389.612	382.56
389.837	409.56
390.062	381.56
390.287	392.56
390.512	380.56
390.736	379.56
390.961	383.56
391.186	398.56
391.411	375.56
391.636	392.56
391.86	371.56
392.085	385.56
392.31	397.56
392.534	380.56
392.759	359.56
392.984	390.56
393.208	387.56
393.433	382.56
393.658	385.56
393.882	369.56
394.107	382.56
394.331	383.56
394.556	396.56
394.78	377.56
395.005	378.56
395.229	396.56
395.454	411.56
395.678	392.56
395.903	419.56
396.127	415.56
396.352	418.56
396.576	404.56
396.801	399.56
397.025	403.56
397.249	407.56
397.474	384.56
397.698	403.56
397.922	431.56
398.147	431.56
398.371	449.56
398.595	438.56
398.82	429.56
399.044	427.56
399.268	446.56
399.492	457.56
399.717	443.56
399.941	504.56
400.165	528.56
400.389	515.56
400.613	492.56
400.837	456.56
401.062	453.56
401.286	438.56
401.51	424.56
401.734	427.56
401.958	439.56
402.182	438.56
402.406	453.56
402.63	451.56
402.854	458.56
403.078	462.56
403.302	435.56
403.526	450.56
403.75	470.56
403.974	467.56
404.198	456.56
404.422	463.56
404.645	484.56
404.869	517.56
405.093	535.56
405.317	627.56
405.541	617.56
405.765	584.56
405.988	524.56
406.212	543.56
406.436	518.56
406.66	541.56
406.883	489.56
407.107	533.56
407.331	555.56
407.555	612.56
407.778	621.56
408.002	563.56
408.226	518.56
408.449	507.56
408.673	497.56
408.896	530.56
409.12	570.56
409.344	521.56
409.567	495.56
409.791	472.56
410.014	475.56
410.238	453.56
410.461	453.56
410.685	453.56
410.908	489.56
411.132	496.56
411.355	537.56
411.578	519.56
411.802	485.56
412.025	454.56
412.249	505.56
412.472	543.56
412.695	632.56
412.919	620.56
413.142	563.56
413.365	531.56
413.589	484.56
413.812	467.56
414.035	485.56
414.258	464.56
414.482	457.56
414.705	437.56
414.928	442.56
415.151	415.56
415.374	443.56
415.597	423.56
415.821	428.56
416.044	452.56
416.267	464.56
416.49	461.56
416.713	431.56
416.936	442.56
417.159	419.56
417.382	459.56
417.605	450.56
417.828	475.56
418.051	467.56
418.274	471.56
418.497	461.56
418.72	430.56
418.943	445.56
419.166	471.56
419.389	454.56
419.611	472.56
419.834	467.56
420.057	485.56
420.28	525.56
420.503	529.56
420.726	531.56
420.948	519.56
421.171	552.56
421.394	571.56
421.617	505.56
421.839	477.56
422.062	472.56
422.285	461.56
422.507	539.56
422.73	594.56
422.953	596.56
423.175	520.56
423.398	494.56
423.621	482.56
423.843	509.56
424.066	489.56
424.288	506.56
424.511	526.56
424.733	567.56
424.956	659.56
425.178	606.56
425.401	616.56
425.623	644.56
425.846	557.56
426.068	516.56
426.291	508.56
426.513	528.56
426.735	524.56
426.958	574.56
427.18	644.56
427.402	740.56
427.625	850.56
427.847	756.56
428.069	696.56
428.292	612.56
428.514	559.56
428.736	522.56
428.958	473.56
429.181	495.56
429.403	464.56
429.625	461.56
429.847	490.56
430.069	580.56
430.292	577.56
430.514	498.56
430.736	477.56
430.958	435.56
431.18	461.56
431.402	451.56
431.624	408.56
431.846	426.56
432.068	455.56
432.29	447.56
432.512	420.56
432.734	460.56
432.956	425.56
433.178	455.56
433.4	465.56
433.622	433.56
433.844	437.56
434.066	434.56
434.287	434.56
434.509	435.56
434.731	456.56
434.953	430.56
435.175	481.56
435.397	486.56
435.618	510.56
435.84	535.56
436.062	647.56
436.284	708.56
436.505	585.56
436.727	509.56
436.949	473.56
437.17	470.56
437.392	475.56
437.614	466.56
437.835	515.56
438.057	620.56
438.278	709.56
438.5	702.56
438.721	778.56
438.943	746.56
439.165	586.56
439.386	556.56
439.608	519.56
439.829	525.56
440.05	565.56
440.272	595.56
440.493	544.56
440.715	504.56
440.936	482.56
441.158	466.56
441.379	462.56
441.6	480.56
441.822	489.56
442.043	526.56
442.264	623.56
442.486	673.56
442.707	594.56
442.928	526.56
443.149	525.56
443.371	530.56
443.592	585.56
443.813	680.56
444.034	708.56
444.255	619.56
444.476	515.56
444.698	478.56
444.919	481.56
445.14	566.56
445.361	565.56
445.582	561.56
445.803	632.56
446.024	732.56
446.245	745.56
446.466	676.56
446.687	571.56
446.908	504.56
447.129	481.56
447.35	468.56
447.571	485.56
447.792	472.56
448.013	483.56
448.234	509.56
448.455	544.56
448.675	650.56
448.896	765.56
449.117	635.56
449.338	592.56
449.559	706.56
449.779	761.56
450	657.56
450.221	541.56
450.442	507.56
450.662	478.56
450.883	467.56
451.104	499.56
451.324	475.56
451.545	468.56
451.766	443.56
451.986	416.56
452.207	398.56
452.428	439.56
452.648	411.56
452.869	421.56
453.089	415.56
453.31	433.56
453.53	435.56
453.751	419.56
453.971	449.56
454.192	446.56
454.412	459.56
454.633	431.56
454.853	417.56
455.073	412.56
455.294	445.56
455.514	524.56
455.734	499.56
455.955	439.56
456.175	409.56
456.395	401.56
456.616	382.56
456.836	388.56
457.056	403.56
457.276	372.56
457.497	397.56
457.717	403.56
457.937	399.56
458.157	391.56
458.377	425.56
458.598	454.56
458.818	496.56
459.038	547.56
459.258	599.56
459.478	514.56
459.698	449.56
459.918	429.56
460.138	423.56
460.358	436.56
460.578	426.56
460.798	426.56
461.018	442.56
461.238	427.56
461.458	429.56
461.678	414.56
461.898	433.56
462.118	447.56
462.338	436.56
462.558	415.56
462.777	438.56
462.997	439.56
463.217	468.56
463.437	455.56
463.657	433.56
463.876	442.56
464.096	460.56
464.316	466.56
464.536	451.56
464.755	450.56
464.975	455.56
465.195	516.56
465.414	593.56
465.634	535.56
465.854	484.56
466.073	449.56
466.293	451.56
466.512	435.56
466.732	439.56
466.951	420.56
467.171	435.56
467.391	440.56
467.61	449.56
467.829	453.56
468.049	478.56
468.268	532.56
468.488	493.56
468.707	457.56
468.927	434.56
469.146	413.56
469.365	427.56
469.585	419.56
469.804	444.56
470.023	445.56
470.243	416.56
470.462	451.56
470.681	456.56
470.901	469.56
471.12	458.56
471.339	435.56
471.558	440.56
471.777	455.56
471.997	472.56
472.216	523.56
472.435	703.56
472.654	665.56
472.873	565.56
473.092	518.56
473.311	473.56
473.53	505.56
473.749	499.56
473.968	517.56
474.187	602.56
474.406	639.56
474.625	526.56
474.844	487.56
475.063	435.56
475.282	447.56
475.501	471.56
475.72	458.56
475.939	465.56
476.158	466.56
476.377	474.56
476.596	470.56
476.814	469.56
477.033	480.56
477.252	476.56
477.471	446.56
477.69	497.56
477.908	482.56
478.127	480.56
478.346	485.56
478.564	475.56
478.783	492.56
479.002	497.56
479.22	515.56
479.439	519.56
479.658	506.56
479.876	533.56
480.095	553.56
480.313	584.56
480.532	564.56
480.751	573.56
480.969	637.56
481.188	947.56
481.406	1205.56
481.624	824.56
481.843	696.56
482.061	625.56
482.28	620.56
482.498	592.56
482.717	570.56
482.935	594.56
483.153	565.56
483.372	556.56
483.59	551.56
483.808	553.56
484.027	548.56
484.245	553.56
484.463	548.56
484.681	560.56
484.9	547.56
485.118	541.56
485.336	522.56
485.554	573.56
485.772	543.56
485.99	538.56
486.209	562.56
486.427	562.56
486.645	584.56
486.863	587.56
487.081	604.56
487.299	612.56
487.517	607.56
487.735	585.56
487.953	588.56
488.171	595.56
488.389	594.56
488.607	591.56
488.825	602.56
489.043	605.56
489.261	603.56
489.479	613.56
489.696	615.56
489.914	616.56
490.132	608.56
490.35	619.56
490.568	634.56
490.786	643.56
491.003	655.56
491.221	679.56
491.439	665.56
491.657	683.56
491.874	690.56
492.092	719.56
492.31	715.56
492.527	708.56
492.745	725.56
492.963	700.56
493.18	731.56
493.398	722.56
493.615	731.56
493.833	749.56
494.05	752.56
494.268	727.56
494.485	725.56
494.703	705.56
494.92	716.56
495.138	703.56
495.355	728.56
495.573	682.56
495.79	709.56
496.008	743.56
496.225	693.56
496.442	680.56
496.66	711.56
496.877	699.56
497.094	695.56
497.312	725.56
497.529	715.56
497.746	709.56
497.963	740.56
498.181	754.56
498.398	727.56
498.615	745.56
498.832	747.56
499.049	736.56
499.267	736.56
499.484	745.56
499.701	752.56
499.918	798.56
500.135	802.56
500.352	809.56
500.569	824.56
500.786	843.56
501.003	828.56
501.22	833.56
501.437	829.56
501.654	820.56
501.871	803.56
