Data from 1986.PennyLincolnUp.Lamp.En5.5.200Scan.071819.P2_HRD10591_17-12-38-973.txt Node
Date: Thu Jul 18 17:12:38 EDT 2019
User: cochatt
Spectrometer: HR+D1059
Trigger mode: 1
Integration Time (sec): 1.000000E-1
Scans to average: 1
Electric dark correction enabled: true
Nonlinearity correction enabled: false
Boxcar width: 0
XAxis mode: Wavelengths
Number of Pixels in Spectrum: 2048
>>>>>Begin Spectral Data<<<<<
223.165	-8.5
223.4	-8.5
223.635	-8.5
223.869	-16.5
224.104	-13.5
224.338	-5.5
224.573	-13.5
224.808	-13.5
225.042	1.5
225.277	-5.5
225.511	-14.5
225.746	4.5
225.98	7.5
226.215	2.5
226.449	8.5
226.683	20.5
226.918	19.5
227.152	26.5
227.387	40.5
227.621	40.5
227.856	37.5
228.09	60.5
228.324	45.5
228.559	49.5
228.793	61.5
229.027	102.5
229.262	105.5
229.496	120.5
229.73	127.5
229.964	173.5
230.199	126.5
230.433	121.5
230.667	110.5
230.901	125.5
231.136	123.5
231.37	120.5
231.604	122.5
231.838	114.5
232.072	107.5
232.306	125.5
232.541	110.5
232.775	110.5
233.009	101.5
233.243	125.5
233.477	110.5
233.711	114.5
233.945	107.5
234.179	125.5
234.413	127.5
234.647	123.5
234.881	128.5
235.115	118.5
235.349	124.5
235.583	124.5
235.817	120.5
236.051	137.5
236.285	133.5
236.519	135.5
236.753	125.5
236.987	155.5
237.221	189.5
237.455	242.5
237.689	171.5
237.922	159.5
238.156	117.5
238.39	124.5
238.624	136.5
238.858	135.5
239.091	127.5
239.325	124.5
239.559	136.5
239.793	143.5
240.027	139.5
240.26	143.5
240.494	174.5
240.728	160.5
240.961	154.5
241.195	152.5
241.429	147.5
241.662	148.5
241.896	155.5
242.13	149.5
242.363	153.5
242.597	139.5
242.83	160.5
243.064	150.5
243.298	153.5
243.531	147.5
243.765	138.5
243.998	155.5
244.232	147.5
244.465	154.5
244.699	143.5
244.932	133.5
245.166	151.5
245.399	142.5
245.633	153.5
245.866	147.5
246.099	161.5
246.333	169.5
246.566	154.5
246.8	164.5
247.033	169.5
247.266	166.5
247.5	159.5
247.733	183.5
247.966	190.5
248.2	188.5
248.433	181.5
248.666	187.5
248.899	202.5
249.133	225.5
249.366	219.5
249.599	210.5
249.832	218.5
250.066	194.5
250.299	226.5
250.532	249.5
250.765	299.5
250.998	294.5
251.231	278.5
251.465	252.5
251.698	253.5
251.931	239.5
252.164	216.5
252.397	233.5
252.63	222.5
252.863	244.5
253.096	236.5
253.329	243.5
253.562	233.5
253.795	223.5
254.028	246.5
254.261	223.5
254.494	249.5
254.727	294.5
254.96	309.5
255.193	307.5
255.426	295.5
255.659	307.5
255.892	318.5
256.124	341.5
256.357	381.5
256.59	360.5
256.823	325.5
257.056	310.5
257.289	296.5
257.521	271.5
257.754	265.5
257.987	245.5
258.22	246.5
258.452	246.5
258.685	234.5
258.918	235.5
259.151	243.5
259.383	234.5
259.616	251.5
259.849	239.5
260.081	272.5
260.314	265.5
260.547	285.5
260.779	275.5
261.012	276.5
261.244	257.5
261.477	267.5
261.71	238.5
261.942	259.5
262.175	241.5
262.407	255.5
262.64	237.5
262.872	226.5
263.105	236.5
263.337	237.5
263.57	232.5
263.802	226.5
264.035	230.5
264.267	248.5
264.499	214.5
264.732	227.5
264.964	233.5
265.197	245.5
265.429	231.5
265.661	238.5
265.894	250.5
266.126	237.5
266.358	234.5
266.591	241.5
266.823	250.5
267.055	230.5
267.287	257.5
267.52	238.5
267.752	243.5
267.984	243.5
268.216	263.5
268.448	253.5
268.681	255.5
268.913	268.5
269.145	266.5
269.377	292.5
269.609	292.5
269.841	293.5
270.073	284.5
270.306	312.5
270.538	331.5
270.77	345.5
271.002	299.5
271.234	327.5
271.466	334.5
271.698	335.5
271.93	367.5
272.162	334.5
272.394	341.5
272.626	337.5
272.858	306.5
273.09	289.5
273.322	304.5
273.553	294.5
273.785	289.5
274.017	283.5
274.249	276.5
274.481	303.5
274.713	295.5
274.945	284.5
275.176	299.5
275.408	284.5
275.64	304.5
275.872	285.5
276.104	299.5
276.335	317.5
276.567	307.5
276.799	312.5
277.031	325.5
277.262	337.5
277.494	334.5
277.726	333.5
277.957	338.5
278.189	311.5
278.421	286.5
278.652	317.5
278.884	296.5
279.115	302.5
279.347	278.5
279.579	279.5
279.81	297.5
280.042	295.5
280.273	317.5
280.505	287.5
280.736	292.5
280.968	272.5
281.199	308.5
281.431	304.5
281.662	282.5
281.894	272.5
282.125	277.5
282.356	299.5
282.588	319.5
282.819	341.5
283.051	293.5
283.282	312.5
283.513	291.5
283.745	291.5
283.976	288.5
284.207	298.5
284.439	305.5
284.67	285.5
284.901	280.5
285.132	295.5
285.364	291.5
285.595	312.5
285.826	306.5
286.057	287.5
286.288	298.5
286.52	300.5
286.751	302.5
286.982	286.5
287.213	285.5
287.444	297.5
287.675	308.5
287.906	299.5
288.138	333.5
288.369	315.5
288.6	323.5
288.831	294.5
289.062	307.5
289.293	329.5
289.524	301.5
289.755	318.5
289.986	292.5
290.217	292.5
290.448	288.5
290.679	288.5
290.91	290.5
291.141	294.5
291.371	298.5
291.602	292.5
291.833	282.5
292.064	296.5
292.295	269.5
292.526	307.5
292.757	292.5
292.987	297.5
293.218	305.5
293.449	301.5
293.68	295.5
293.91	292.5
294.141	302.5
294.372	300.5
294.603	289.5
294.833	286.5
295.064	292.5
295.295	301.5
295.525	299.5
295.756	311.5
295.987	306.5
296.217	335.5
296.448	339.5
296.679	325.5
296.909	302.5
297.14	324.5
297.37	315.5
297.601	301.5
297.831	302.5
298.062	307.5
298.292	307.5
298.523	295.5
298.753	297.5
298.984	319.5
299.214	314.5
299.445	303.5
299.675	321.5
299.905	296.5
300.136	321.5
300.366	324.5
300.597	311.5
300.827	323.5
301.057	328.5
301.288	330.5
301.518	334.5
301.748	341.5
301.979	325.5
302.209	332.5
302.439	336.5
302.669	330.5
302.9	328.5
303.13	303.5
303.36	338.5
303.59	327.5
303.82	354.5
304.051	339.5
304.281	333.5
304.511	320.5
304.741	316.5
304.971	318.5
305.201	321.5
305.431	331.5
305.661	345.5
305.891	362.5
306.121	325.5
306.352	369.5
306.582	346.5
306.812	330.5
307.042	317.5
307.272	352.5
307.502	331.5
307.731	344.5
307.961	353.5
308.191	339.5
308.421	357.5
308.651	370.5
308.881	347.5
309.111	349.5
309.341	356.5
309.571	361.5
309.8	369.5
310.03	393.5
310.26	389.5
310.49	391.5
310.72	420.5
310.949	398.5
311.179	419.5
311.409	375.5
311.639	391.5
311.868	385.5
312.098	392.5
312.328	378.5
312.557	414.5
312.787	411.5
313.017	414.5
313.246	402.5
313.476	406.5
313.706	390.5
313.935	394.5
314.165	406.5
314.394	438.5
314.624	407.5
314.853	398.5
315.083	396.5
315.312	396.5
315.542	375.5
315.771	382.5
316.001	378.5
316.23	378.5
316.46	374.5
316.689	395.5
316.919	411.5
317.148	418.5
317.377	414.5
317.607	387.5
317.836	407.5
318.065	406.5
318.295	377.5
318.524	389.5
318.753	383.5
318.983	415.5
319.212	390.5
319.441	377.5
319.67	415.5
319.9	409.5
320.129	401.5
320.358	401.5
320.587	404.5
320.816	409.5
321.046	431.5
321.275	416.5
321.504	428.5
321.733	430.5
321.962	435.5
322.191	432.5
322.42	455.5
322.649	493.5
322.878	468.5
323.108	483.5
323.337	533.5
323.566	551.5
323.795	602.5
324.024	629.5
324.253	757.5
324.482	1078.5
324.71	1705.5
324.939	2413.5
325.168	2150.5
325.397	1162.5
325.626	780.5
325.855	655.5
326.084	587.5
326.313	542.5
326.542	581.5
326.77	633.5
326.999	739.5
327.228	1002.5
327.457	1533.5
327.686	1827.5
327.914	1309.5
328.143	886.5
328.372	844.5
328.6	787.5
328.829	689.5
329.058	709.5
329.287	714.5
329.515	690.5
329.744	694.5
329.972	743.5
330.201	845.5
330.43	989.5
330.658	889.5
330.887	815.5
331.115	723.5
331.344	611.5
331.572	605.5
331.801	583.5
332.03	572.5
332.258	538.5
332.486	531.5
332.715	543.5
332.943	522.5
333.172	535.5
333.4	578.5
333.629	589.5
333.857	611.5
334.085	702.5
334.314	845.5
334.542	1015.5
334.771	1113.5
334.999	813.5
335.227	653.5
335.455	574.5
335.684	532.5
335.912	515.5
336.14	487.5
336.369	480.5
336.597	486.5
336.825	495.5
337.053	465.5
337.281	458.5
337.51	470.5
337.738	457.5
337.966	468.5
338.194	463.5
338.422	458.5
338.65	477.5
338.878	453.5
339.106	436.5
339.334	443.5
339.562	433.5
339.79	432.5
340.018	460.5
340.246	449.5
340.474	424.5
340.702	446.5
340.93	429.5
341.158	445.5
341.386	422.5
341.614	420.5
341.842	443.5
342.07	441.5
342.298	425.5
342.526	433.5
342.754	426.5
342.981	413.5
343.209	405.5
343.437	428.5
343.665	397.5
343.893	441.5
344.12	418.5
344.348	442.5
344.576	429.5
344.804	426.5
345.031	431.5
345.259	461.5
345.487	443.5
345.714	443.5
345.942	437.5
346.17	413.5
346.397	418.5
346.625	415.5
346.853	428.5
347.08	451.5
347.308	437.5
347.535	431.5
347.763	443.5
347.99	420.5
348.218	430.5
348.445	436.5
348.673	434.5
348.9	450.5
349.128	417.5
349.355	410.5
349.583	409.5
349.81	399.5
350.037	397.5
350.265	400.5
350.492	387.5
350.72	416.5
350.947	407.5
351.174	426.5
351.402	446.5
351.629	413.5
351.856	440.5
352.083	430.5
352.311	434.5
352.538	430.5
352.765	428.5
352.992	422.5
353.22	428.5
353.447	406.5
353.674	405.5
353.901	404.5
354.128	380.5
354.355	381.5
354.583	405.5
354.81	386.5
355.037	389.5
355.264	375.5
355.491	390.5
355.718	371.5
355.945	382.5
356.172	377.5
356.399	366.5
356.626	381.5
356.853	383.5
357.08	360.5
357.307	395.5
357.534	375.5
357.761	378.5
357.988	383.5
358.215	388.5
358.441	383.5
358.668	379.5
358.895	386.5
359.122	369.5
359.349	398.5
359.576	405.5
359.802	419.5
360.029	455.5
360.256	491.5
360.483	457.5
360.709	412.5
360.936	405.5
361.163	414.5
361.39	429.5
361.616	397.5
361.843	413.5
362.07	405.5
362.296	424.5
362.523	417.5
362.749	414.5
362.976	417.5
363.203	388.5
363.429	388.5
363.656	392.5
363.882	396.5
364.109	388.5
364.335	407.5
364.562	388.5
364.788	405.5
365.015	383.5
365.241	389.5
365.468	390.5
365.694	392.5
365.92	416.5
366.147	390.5
366.373	386.5
366.599	391.5
366.826	378.5
367.052	389.5
367.278	382.5
367.505	379.5
367.731	374.5
367.957	377.5
368.184	397.5
368.41	405.5
368.636	405.5
368.862	397.5
369.089	409.5
369.315	382.5
369.541	392.5
369.767	400.5
369.993	385.5
370.219	410.5
370.445	387.5
370.672	377.5
370.898	385.5
371.124	376.5
371.35	361.5
371.576	389.5
371.802	362.5
372.028	360.5
372.254	388.5
372.48	389.5
372.706	370.5
372.932	387.5
373.158	389.5
373.384	377.5
373.61	377.5
373.835	389.5
374.061	381.5
374.287	388.5
374.513	405.5
374.739	381.5
374.965	369.5
375.191	385.5
375.416	390.5
375.642	389.5
375.868	390.5
376.094	377.5
376.319	375.5
376.545	381.5
376.771	385.5
376.997	362.5
377.222	358.5
377.448	365.5
377.674	357.5
377.899	365.5
378.125	378.5
378.35	351.5
378.576	363.5
378.802	374.5
379.027	358.5
379.253	361.5
379.478	374.5
379.704	392.5
379.929	373.5
380.155	365.5
380.38	377.5
380.606	379.5
380.831	376.5
381.057	380.5
381.282	380.5
381.507	369.5
381.733	370.5
381.958	386.5
382.184	374.5
382.409	371.5
382.634	371.5
382.86	373.5
383.085	383.5
383.31	378.5
383.535	364.5
383.761	371.5
383.986	389.5
384.211	408.5
384.436	389.5
384.662	393.5
384.887	402.5
385.112	377.5
385.337	400.5
385.562	411.5
385.787	395.5
386.013	412.5
386.238	391.5
386.463	399.5
386.688	381.5
386.913	391.5
387.138	394.5
387.363	380.5
387.588	388.5
387.813	402.5
388.038	405.5
388.263	398.5
388.488	397.5
388.713	391.5
388.938	407.5
389.163	404.5
389.387	385.5
389.612	388.5
389.837	383.5
390.062	392.5
390.287	396.5
390.512	385.5
390.736	387.5
390.961	399.5
391.186	390.5
391.411	403.5
391.636	382.5
391.86	405.5
392.085	386.5
392.31	417.5
392.534	400.5
392.759	386.5
392.984	401.5
393.208	409.5
393.433	398.5
393.658	378.5
393.882	375.5
394.107	395.5
394.331	394.5
394.556	389.5
394.78	399.5
395.005	395.5
395.229	389.5
395.454	386.5
395.678	393.5
395.903	405.5
396.127	431.5
396.352	430.5
396.576	411.5
396.801	410.5
397.025	415.5
397.249	408.5
397.474	418.5
397.698	424.5
397.922	425.5
398.147	421.5
398.371	440.5
398.595	451.5
398.82	413.5
399.044	449.5
399.268	450.5
399.492	450.5
399.717	477.5
399.941	503.5
400.165	533.5
400.389	536.5
400.613	500.5
400.837	454.5
401.062	447.5
401.286	427.5
401.51	451.5
401.734	437.5
401.958	430.5
402.182	455.5
402.406	468.5
402.63	478.5
402.854	443.5
403.078	450.5
403.302	471.5
403.526	471.5
403.75	453.5
403.974	465.5
404.198	443.5
404.422	489.5
404.645	489.5
404.869	527.5
405.093	573.5
405.317	613.5
405.541	630.5
405.765	587.5
405.988	547.5
406.212	531.5
406.436	525.5
406.66	543.5
406.883	519.5
407.107	533.5
407.331	588.5
407.555	635.5
407.778	607.5
408.002	545.5
408.226	501.5
408.449	514.5
408.673	522.5
408.896	538.5
409.12	570.5
409.344	539.5
409.567	489.5
409.791	475.5
410.014	469.5
410.238	459.5
410.461	468.5
410.685	491.5
410.908	502.5
411.132	540.5
411.355	561.5
411.578	542.5
411.802	545.5
412.025	501.5
412.249	537.5
412.472	558.5
412.695	619.5
412.919	628.5
413.142	565.5
413.365	539.5
413.589	520.5
413.812	482.5
414.035	489.5
414.258	469.5
414.482	459.5
414.705	466.5
414.928	447.5
415.151	445.5
415.374	451.5
415.597	441.5
415.821	453.5
416.044	455.5
416.267	458.5
416.49	480.5
416.713	443.5
416.936	443.5
417.159	453.5
417.382	465.5
417.605	472.5
417.828	502.5
418.051	475.5
418.274	463.5
418.497	439.5
418.72	430.5
418.943	471.5
419.166	476.5
419.389	499.5
419.611	484.5
419.834	505.5
420.057	509.5
420.28	534.5
420.503	557.5
420.726	543.5
420.948	545.5
421.171	543.5
421.394	570.5
421.617	513.5
421.839	489.5
422.062	481.5
422.285	484.5
422.507	568.5
422.73	617.5
422.953	598.5
423.175	524.5
423.398	516.5
423.621	510.5
423.843	522.5
424.066	503.5
424.288	517.5
424.511	523.5
424.733	583.5
424.956	640.5
425.178	645.5
425.401	633.5
425.623	648.5
425.846	575.5
426.068	509.5
426.291	522.5
426.513	518.5
426.735	548.5
426.958	551.5
427.18	637.5
427.402	741.5
427.625	863.5
427.847	791.5
428.069	739.5
428.292	644.5
428.514	558.5
428.736	527.5
428.958	509.5
429.181	490.5
429.403	486.5
429.625	495.5
429.847	535.5
430.069	593.5
430.292	580.5
430.514	499.5
430.736	489.5
430.958	443.5
431.18	455.5
431.402	454.5
431.624	429.5
431.846	456.5
432.068	430.5
432.29	453.5
432.512	437.5
432.734	454.5
432.956	486.5
433.178	477.5
433.4	463.5
433.622	461.5
433.844	454.5
434.066	433.5
434.287	448.5
434.509	458.5
434.731	457.5
434.953	455.5
435.175	497.5
435.397	486.5
435.618	502.5
435.84	554.5
436.062	652.5
436.284	709.5
436.505	586.5
436.727	528.5
436.949	510.5
437.17	487.5
437.392	488.5
437.614	485.5
437.835	547.5
438.057	623.5
438.278	729.5
438.5	706.5
438.721	781.5
438.943	749.5
439.165	634.5
439.386	550.5
439.608	499.5
439.829	543.5
440.05	573.5
440.272	613.5
440.493	584.5
440.715	531.5
440.936	519.5
441.158	487.5
441.379	485.5
441.6	509.5
441.822	479.5
442.043	535.5
442.264	621.5
442.486	675.5
442.707	580.5
442.928	530.5
443.149	534.5
443.371	566.5
443.592	602.5
443.813	673.5
444.034	734.5
444.255	619.5
444.476	542.5
444.698	497.5
444.919	499.5
445.14	594.5
445.361	556.5
445.582	584.5
445.803	621.5
446.024	719.5
446.245	733.5
446.466	670.5
446.687	586.5
446.908	520.5
447.129	488.5
447.35	471.5
447.571	485.5
447.792	479.5
448.013	480.5
448.234	505.5
448.455	558.5
448.675	649.5
448.896	754.5
449.117	635.5
449.338	615.5
449.559	714.5
449.779	793.5
450	648.5
450.221	543.5
450.442	484.5
450.662	486.5
450.883	488.5
451.104	495.5
451.324	490.5
451.545	449.5
451.766	435.5
451.986	410.5
452.207	428.5
452.428	430.5
452.648	426.5
452.869	426.5
453.089	447.5
453.31	457.5
453.53	436.5
453.751	426.5
453.971	421.5
454.192	451.5
454.412	443.5
454.633	445.5
454.853	429.5
455.073	427.5
455.294	475.5
455.514	537.5
455.734	515.5
455.955	464.5
456.175	399.5
456.395	405.5
456.616	408.5
456.836	385.5
457.056	391.5
457.276	396.5
457.497	430.5
457.717	404.5
457.937	405.5
458.157	413.5
458.377	426.5
458.598	428.5
458.818	500.5
459.038	593.5
459.258	606.5
459.478	514.5
459.698	440.5
459.918	445.5
460.138	433.5
460.358	436.5
460.578	427.5
460.798	448.5
461.018	439.5
461.238	420.5
461.458	435.5
461.678	433.5
461.898	432.5
462.118	425.5
462.338	455.5
462.558	433.5
462.777	425.5
462.997	447.5
463.217	460.5
463.437	473.5
463.657	449.5
463.876	438.5
464.096	438.5
464.316	457.5
464.536	466.5
464.755	487.5
464.975	485.5
465.195	533.5
465.414	592.5
465.634	525.5
465.854	481.5
466.073	471.5
466.293	445.5
466.512	421.5
466.732	436.5
466.951	427.5
467.171	453.5
467.391	461.5
467.61	453.5
467.829	463.5
468.049	460.5
468.268	537.5
468.488	486.5
468.707	442.5
468.927	446.5
469.146	451.5
469.365	460.5
469.585	435.5
469.804	457.5
470.023	453.5
470.243	439.5
470.462	456.5
470.681	494.5
470.901	467.5
471.12	466.5
471.339	465.5
471.558	463.5
471.777	472.5
471.997	478.5
472.216	538.5
472.435	737.5
472.654	704.5
472.873	551.5
473.092	525.5
473.311	494.5
473.53	490.5
473.749	523.5
473.968	527.5
474.187	650.5
474.406	653.5
474.625	569.5
474.844	475.5
475.063	446.5
475.282	460.5
475.501	474.5
475.72	471.5
475.939	462.5
476.158	473.5
476.377	473.5
476.596	478.5
476.814	484.5
477.033	475.5
477.252	481.5
477.471	463.5
477.69	490.5
477.908	495.5
478.127	493.5
478.346	487.5
478.564	499.5
478.783	502.5
479.002	509.5
479.22	514.5
479.439	521.5
479.658	552.5
479.876	555.5
480.095	568.5
480.313	567.5
480.532	586.5
480.751	591.5
480.969	686.5
481.188	996.5
481.406	1260.5
481.624	852.5
481.843	721.5
482.061	674.5
482.28	625.5
482.498	603.5
482.717	606.5
482.935	594.5
483.153	570.5
483.372	594.5
483.59	580.5
483.808	563.5
484.027	536.5
484.245	569.5
484.463	571.5
484.681	570.5
484.9	556.5
485.118	585.5
485.336	573.5
485.554	581.5
485.772	557.5
485.99	590.5
486.209	574.5
486.427	596.5
486.645	596.5
486.863	606.5
487.081	585.5
487.299	581.5
487.517	582.5
487.735	608.5
487.953	599.5
488.171	614.5
488.389	600.5
488.607	633.5
488.825	609.5
489.043	582.5
489.261	595.5
489.479	597.5
489.696	627.5
489.914	609.5
490.132	618.5
490.35	633.5
490.568	639.5
490.786	659.5
491.003	649.5
491.221	671.5
491.439	678.5
491.657	702.5
491.874	731.5
492.092	725.5
492.31	747.5
492.527	734.5
492.745	745.5
492.963	737.5
493.18	756.5
493.398	753.5
493.615	768.5
493.833	742.5
494.05	730.5
494.268	736.5
494.485	728.5
494.703	750.5
494.92	753.5
495.138	731.5
495.355	739.5
495.573	741.5
495.79	742.5
496.008	728.5
496.225	744.5
496.442	694.5
496.66	714.5
496.877	726.5
497.094	707.5
497.312	714.5
497.529	734.5
497.746	717.5
497.963	734.5
498.181	729.5
498.398	739.5
498.615	723.5
498.832	753.5
499.049	729.5
499.267	738.5
499.484	774.5
499.701	798.5
499.918	794.5
500.135	813.5
500.352	855.5
500.569	855.5
500.786	863.5
501.003	870.5
501.22	836.5
501.437	837.5
501.654	829.5
501.871	827.5
502.088	814.5
502.305	807.5
502.522	758.5
502.739	737.5
502.956	731.5
503.172	755.5
503.389	708.5
503.606	697.5
503.823	722.5
504.04	699.5
504.256	695.5
504.473	674.5
504.69	694.5
504.907	664.5
505.123	670.5
505.34	670.5
505.557	658.5
505.773	673.5
505.99	661.5
506.207	650.5
506.423	687.5
506.64	671.5
506.856	673.5
507.073	654.5
507.289	649.5
507.506	629.5
507.722	641.5
507.939	690.5
508.155	671.5
508.372	632.5
508.588	625.5
508.805	636.5
509.021	641.5
509.238	664.5
509.454	665.5
509.67	642.5
509.887	636.5
510.103	644.5
510.319	653.5
510.536	741.5
510.752	1225.5
510.968	1021.5
511.184	688.5
511.401	637.5
511.617	633.5
511.833	643.5
512.049	653.5
512.265	651.5
512.481	658.5
512.698	653.5
512.914	651.5
513.13	641.5
513.346	623.5
513.562	627.5
513.778	627.5
513.994	638.5
514.21	645.5
514.426	647.5
514.642	698.5
514.858	740.5
515.074	741.5
515.29	902.5
515.506	1305.5
515.721	1095.5
515.937	745.5
516.153	650.5
516.369	657.5
516.585	628.5
516.801	616.5
517.016	606.5
517.232	618.5
517.448	597.5
517.664	607.5
517.879	617.5
518.095	599.5
518.311	609.5
518.527	609.5
518.742	615.5
518.958	607.5
519.173	598.5
519.389	611.5
519.605	590.5
519.82	590.5
