Data from 1986.PennyLincolnUp.Lamp.En5.5.200Scan.071819.P2_HRD10591_17-12-09-972.txt Node
Date: Thu Jul 18 17:12:09 EDT 2019
User: cochatt
Spectrometer: HR+D1059
Trigger mode: 1
Integration Time (sec): 1.000000E-1
Scans to average: 1
Electric dark correction enabled: true
Nonlinearity correction enabled: false
Boxcar width: 0
XAxis mode: Wavelengths
Number of Pixels in Spectrum: 2048
>>>>>Begin Spectral Data<<<<<
223.165	-21.94
223.4	-21.94
223.635	-21.94
223.869	-29.94
224.104	-12.94
224.338	-17.94
224.573	-22.94
224.808	-16.94
225.042	-1.94
225.277	-5.94
225.511	7.06
225.746	-1.94
225.98	16.06
226.215	9.06
226.449	22.06
226.683	25.06
226.918	31.06
227.152	22.06
227.387	8.06
227.621	31.06
227.856	52.06
228.09	41.06
228.324	45.06
228.559	54.06
228.793	74.06
229.027	87.06
229.262	115.06
229.496	142.06
229.73	142.06
229.964	163.06
230.199	150.06
230.433	136.06
230.667	116.06
230.901	101.06
231.136	107.06
231.37	110.06
231.604	119.06
231.838	125.06
232.072	126.06
232.306	123.06
232.541	118.06
232.775	114.06
233.009	127.06
233.243	118.06
233.477	118.06
233.711	123.06
233.945	128.06
234.179	125.06
234.413	131.06
234.647	124.06
234.881	117.06
235.115	122.06
235.349	120.06
235.583	133.06
235.817	121.06
236.051	129.06
236.285	121.06
236.519	134.06
236.753	134.06
236.987	148.06
237.221	205.06
237.455	235.06
237.689	201.06
237.922	141.06
238.156	156.06
238.39	126.06
238.624	124.06
238.858	124.06
239.091	132.06
239.325	140.06
239.559	126.06
239.793	122.06
240.027	136.06
240.26	155.06
240.494	175.06
240.728	152.06
240.961	150.06
241.195	158.06
241.429	139.06
241.662	136.06
241.896	133.06
242.13	143.06
242.363	144.06
242.597	132.06
242.83	155.06
243.064	143.06
243.298	152.06
243.531	142.06
243.765	150.06
243.998	153.06
244.232	166.06
244.465	142.06
244.699	157.06
244.932	158.06
245.166	158.06
245.399	156.06
245.633	133.06
245.866	165.06
246.099	162.06
246.333	169.06
246.566	158.06
246.8	163.06
247.033	165.06
247.266	159.06
247.5	170.06
247.733	175.06
247.966	183.06
248.2	170.06
248.433	173.06
248.666	186.06
248.899	194.06
249.133	208.06
249.366	230.06
249.599	220.06
249.832	188.06
250.066	198.06
250.299	201.06
250.532	245.06
250.765	239.06
250.998	280.06
251.231	298.06
251.465	247.06
251.698	262.06
251.931	237.06
252.164	217.06
252.397	238.06
252.63	226.06
252.863	246.06
253.096	239.06
253.329	260.06
253.562	262.06
253.795	241.06
254.028	244.06
254.261	229.06
254.494	243.06
254.727	277.06
254.96	299.06
255.193	303.06
255.426	299.06
255.659	290.06
255.892	304.06
256.124	335.06
256.357	353.06
256.59	324.06
256.823	310.06
257.056	270.06
257.289	264.06
257.521	244.06
257.754	240.06
257.987	240.06
258.22	264.06
258.452	241.06
258.685	251.06
258.918	250.06
259.151	232.06
259.383	248.06
259.616	235.06
259.849	245.06
260.081	264.06
260.314	267.06
260.547	286.06
260.779	276.06
261.012	251.06
261.244	256.06
261.477	254.06
261.71	245.06
261.942	228.06
262.175	278.06
262.407	257.06
262.64	231.06
262.872	226.06
263.105	229.06
263.337	242.06
263.57	208.06
263.802	217.06
264.035	216.06
264.267	231.06
264.499	240.06
264.732	239.06
264.964	224.06
265.197	217.06
265.429	237.06
265.661	213.06
265.894	232.06
266.126	226.06
266.358	226.06
266.591	253.06
266.823	254.06
267.055	218.06
267.287	252.06
267.52	235.06
267.752	240.06
267.984	261.06
268.216	216.06
268.448	248.06
268.681	238.06
268.913	266.06
269.145	263.06
269.377	282.06
269.609	302.06
269.841	275.06
270.073	288.06
270.306	301.06
270.538	335.06
270.77	350.06
271.002	320.06
271.234	334.06
271.466	326.06
271.698	325.06
271.93	343.06
272.162	359.06
272.394	346.06
272.626	318.06
272.858	319.06
273.09	287.06
273.322	294.06
273.553	283.06
273.785	285.06
274.017	277.06
274.249	284.06
274.481	281.06
274.713	289.06
274.945	286.06
275.176	284.06
275.408	298.06
275.64	280.06
275.872	286.06
276.104	292.06
276.335	282.06
276.567	287.06
276.799	311.06
277.031	339.06
277.262	356.06
277.494	352.06
277.726	326.06
277.957	314.06
278.189	293.06
278.421	290.06
278.652	292.06
278.884	291.06
279.115	307.06
279.347	297.06
279.579	284.06
279.81	284.06
280.042	288.06
280.273	289.06
280.505	298.06
280.736	285.06
280.968	292.06
281.199	276.06
281.431	301.06
281.662	294.06
281.894	280.06
282.125	306.06
282.356	319.06
282.588	324.06
282.819	345.06
283.051	286.06
283.282	289.06
283.513	294.06
283.745	292.06
283.976	272.06
284.207	301.06
284.439	298.06
284.67	285.06
284.901	287.06
285.132	297.06
285.364	300.06
285.595	303.06
285.826	288.06
286.057	281.06
286.288	282.06
286.52	290.06
286.751	282.06
286.982	287.06
287.213	288.06
287.444	302.06
287.675	310.06
287.906	307.06
288.138	312.06
288.369	305.06
288.6	315.06
288.831	296.06
289.062	311.06
289.293	288.06
289.524	292.06
289.755	286.06
289.986	295.06
290.217	289.06
290.448	298.06
290.679	291.06
290.91	309.06
291.141	294.06
291.371	293.06
291.602	299.06
291.833	300.06
292.064	286.06
292.295	288.06
292.526	292.06
292.757	307.06
292.987	303.06
293.218	294.06
293.449	286.06
293.68	288.06
293.91	294.06
294.141	286.06
294.372	276.06
294.603	286.06
294.833	296.06
295.064	277.06
295.295	310.06
295.525	284.06
295.756	304.06
295.987	314.06
296.217	321.06
296.448	331.06
296.679	306.06
296.909	301.06
297.14	298.06
297.37	306.06
297.601	336.06
297.831	293.06
298.062	318.06
298.292	326.06
298.523	294.06
298.753	313.06
298.984	308.06
299.214	296.06
299.445	308.06
299.675	308.06
299.905	300.06
300.136	312.06
300.366	298.06
300.597	308.06
300.827	338.06
301.057	308.06
301.288	325.06
301.518	331.06
301.748	320.06
301.979	313.06
302.209	329.06
302.439	326.06
302.669	320.06
302.9	323.06
303.13	332.06
303.36	333.06
303.59	333.06
303.82	337.06
304.051	342.06
304.281	333.06
304.511	321.06
304.741	319.06
304.971	321.06
305.201	318.06
305.431	317.06
305.661	324.06
305.891	322.06
306.121	317.06
306.352	340.06
306.582	344.06
306.812	335.06
307.042	340.06
307.272	354.06
307.502	348.06
307.731	341.06
307.961	353.06
308.191	344.06
308.421	342.06
308.651	353.06
308.881	355.06
309.111	373.06
309.341	356.06
309.571	363.06
309.8	368.06
310.03	384.06
310.26	387.06
310.49	374.06
310.72	400.06
310.949	421.06
311.179	421.06
311.409	385.06
311.639	355.06
311.868	390.06
312.098	382.06
312.328	417.06
312.557	409.06
312.787	429.06
313.017	434.06
313.246	410.06
313.476	387.06
313.706	380.06
313.935	400.06
314.165	398.06
314.394	418.06
314.624	426.06
314.853	398.06
315.083	410.06
315.312	401.06
315.542	367.06
315.771	382.06
316.001	372.06
316.23	377.06
316.46	392.06
316.689	386.06
316.919	401.06
317.148	403.06
317.377	413.06
317.607	367.06
317.836	394.06
318.065	380.06
318.295	382.06
318.524	367.06
318.753	361.06
318.983	381.06
319.212	412.06
319.441	430.06
319.67	409.06
319.9	390.06
320.129	380.06
320.358	400.06
320.587	400.06
320.816	384.06
321.046	421.06
321.275	423.06
321.504	418.06
321.733	394.06
321.962	440.06
322.191	424.06
322.42	450.06
322.649	460.06
322.878	491.06
323.108	510.06
323.337	541.06
323.566	542.06
323.795	577.06
324.024	638.06
324.253	786.06
324.482	1120.06
324.71	1708.06
324.939	2482.06
325.168	2161.06
325.397	1148.06
325.626	781.06
325.855	644.06
326.084	595.06
326.313	564.06
326.542	560.06
326.77	616.06
326.999	723.06
327.228	979.06
327.457	1494.06
327.686	1850.06
327.914	1354.06
328.143	891.06
328.372	822.06
328.6	745.06
328.829	668.06
329.058	655.06
329.287	692.06
329.515	644.06
329.744	652.06
329.972	671.06
330.201	766.06
330.43	846.06
330.658	860.06
330.887	779.06
331.115	721.06
331.344	605.06
331.572	564.06
331.801	570.06
332.03	553.06
332.258	526.06
332.486	496.06
332.715	503.06
332.943	504.06
333.172	512.06
333.4	514.06
333.629	540.06
333.857	587.06
334.085	647.06
334.314	731.06
334.542	877.06
334.771	942.06
334.999	716.06
335.227	590.06
335.455	535.06
335.684	540.06
335.912	489.06
336.14	469.06
336.369	481.06
336.597	463.06
336.825	470.06
337.053	467.06
337.281	456.06
337.51	445.06
337.738	430.06
337.966	454.06
338.194	459.06
338.422	459.06
338.65	461.06
338.878	430.06
339.106	436.06
339.334	425.06
339.562	407.06
339.79	437.06
340.018	431.06
340.246	409.06
340.474	460.06
340.702	429.06
340.93	415.06
341.158	431.06
341.386	446.06
341.614	445.06
341.842	402.06
342.07	442.06
342.298	431.06
342.526	429.06
342.754	420.06
342.981	401.06
343.209	397.06
343.437	406.06
343.665	406.06
343.893	399.06
344.12	415.06
344.348	416.06
344.576	427.06
344.804	427.06
345.031	442.06
345.259	449.06
345.487	434.06
345.714	414.06
345.942	436.06
346.17	408.06
346.397	416.06
346.625	416.06
346.853	411.06
347.08	408.06
347.308	431.06
347.535	441.06
347.763	410.06
347.99	428.06
348.218	413.06
348.445	444.06
348.673	445.06
348.9	415.06
349.128	424.06
349.355	403.06
349.583	412.06
349.81	403.06
350.037	396.06
350.265	414.06
350.492	386.06
350.72	404.06
350.947	410.06
351.174	414.06
351.402	412.06
351.629	420.06
351.856	424.06
352.083	411.06
352.311	422.06
352.538	448.06
352.765	435.06
352.992	425.06
353.22	424.06
353.447	406.06
353.674	404.06
353.901	389.06
354.128	381.06
354.355	380.06
354.583	375.06
354.81	400.06
355.037	380.06
355.264	399.06
355.491	384.06
355.718	391.06
355.945	390.06
356.172	360.06
356.399	374.06
356.626	368.06
356.853	374.06
357.08	378.06
357.307	380.06
357.534	376.06
357.761	383.06
357.988	375.06
358.215	381.06
358.441	377.06
358.668	397.06
358.895	378.06
359.122	379.06
359.349	401.06
359.576	410.06
359.802	438.06
360.029	461.06
360.256	467.06
360.483	448.06
360.709	421.06
360.936	414.06
361.163	397.06
361.39	414.06
361.616	427.06
361.843	398.06
362.07	418.06
362.296	401.06
362.523	393.06
362.749	407.06
362.976	408.06
363.203	370.06
363.429	384.06
363.656	391.06
363.882	384.06
364.109	391.06
364.335	391.06
364.562	391.06
364.788	395.06
365.015	395.06
365.241	401.06
365.468	390.06
365.694	405.06
365.92	402.06
366.147	381.06
366.373	398.06
366.599	380.06
366.826	348.06
367.052	366.06
367.278	378.06
367.505	370.06
367.731	372.06
367.957	383.06
368.184	405.06
368.41	376.06
368.636	406.06
368.862	410.06
369.089	388.06
369.315	378.06
369.541	382.06
369.767	376.06
369.993	387.06
370.219	357.06
370.445	380.06
370.672	384.06
370.898	384.06
371.124	389.06
371.35	387.06
371.576	367.06
371.802	383.06
372.028	377.06
372.254	393.06
372.48	361.06
372.706	363.06
372.932	364.06
373.158	378.06
373.384	394.06
373.61	377.06
373.835	370.06
374.061	363.06
374.287	364.06
374.513	374.06
374.739	369.06
374.965	371.06
375.191	386.06
375.416	373.06
375.642	374.06
375.868	390.06
376.094	380.06
376.319	374.06
376.545	357.06
376.771	370.06
376.997	382.06
377.222	354.06
377.448	352.06
377.674	364.06
377.899	375.06
378.125	360.06
378.35	346.06
378.576	351.06
378.802	362.06
379.027	372.06
379.253	363.06
379.478	366.06
379.704	388.06
379.929	372.06
380.155	356.06
380.38	374.06
380.606	374.06
380.831	377.06
381.057	380.06
381.282	362.06
381.507	357.06
381.733	385.06
381.958	370.06
382.184	376.06
382.409	364.06
382.634	380.06
382.86	367.06
383.085	382.06
383.31	378.06
383.535	374.06
383.761	360.06
383.986	370.06
384.211	372.06
384.436	383.06
384.662	383.06
384.887	389.06
385.112	382.06
385.337	378.06
385.562	387.06
385.787	368.06
386.013	386.06
386.238	398.06
386.463	415.06
386.688	386.06
386.913	397.06
387.138	382.06
387.363	390.06
387.588	370.06
387.813	392.06
388.038	391.06
388.263	389.06
388.488	394.06
388.713	397.06
388.938	395.06
389.163	386.06
389.387	406.06
389.612	392.06
389.837	395.06
390.062	384.06
390.287	373.06
390.512	396.06
390.736	357.06
390.961	401.06
391.186	392.06
391.411	378.06
391.636	383.06
391.86	401.06
392.085	380.06
392.31	388.06
392.534	404.06
392.759	416.06
392.984	399.06
393.208	375.06
393.433	382.06
393.658	392.06
393.882	384.06
394.107	378.06
394.331	390.06
394.556	378.06
394.78	383.06
395.005	406.06
395.229	391.06
395.454	405.06
395.678	409.06
395.903	424.06
396.127	411.06
396.352	440.06
396.576	400.06
396.801	407.06
397.025	402.06
397.249	404.06
397.474	406.06
397.698	411.06
397.922	419.06
398.147	406.06
398.371	444.06
398.595	445.06
398.82	434.06
399.044	414.06
399.268	470.06
399.492	460.06
399.717	461.06
399.941	480.06
400.165	521.06
400.389	530.06
400.613	481.06
400.837	459.06
401.062	463.06
401.286	447.06
401.51	411.06
401.734	439.06
401.958	432.06
402.182	432.06
402.406	453.06
402.63	457.06
402.854	439.06
403.078	446.06
403.302	450.06
403.526	474.06
403.75	463.06
403.974	452.06
404.198	439.06
404.422	468.06
404.645	511.06
404.869	506.06
405.093	558.06
405.317	610.06
405.541	638.06
405.765	562.06
405.988	540.06
406.212	524.06
406.436	512.06
406.66	543.06
406.883	516.06
407.107	526.06
407.331	574.06
407.555	626.06
407.778	608.06
408.002	582.06
408.226	523.06
408.449	514.06
408.673	498.06
408.896	529.06
409.12	580.06
409.344	552.06
409.567	498.06
409.791	476.06
410.014	463.06
410.238	446.06
410.461	472.06
410.685	494.06
410.908	490.06
411.132	522.06
411.355	534.06
411.578	559.06
411.802	472.06
412.025	495.06
412.249	519.06
412.472	558.06
412.695	614.06
412.919	616.06
413.142	564.06
413.365	536.06
413.589	502.06
413.812	484.06
414.035	470.06
414.258	462.06
414.482	452.06
414.705	457.06
414.928	439.06
415.151	442.06
415.374	441.06
415.597	442.06
415.821	438.06
416.044	432.06
416.267	439.06
416.49	426.06
416.713	417.06
416.936	444.06
417.159	434.06
417.382	448.06
417.605	457.06
417.828	466.06
418.051	496.06
418.274	468.06
418.497	427.06
418.72	461.06
418.943	451.06
419.166	448.06
419.389	467.06
419.611	486.06
419.834	476.06
420.057	484.06
420.28	520.06
420.503	523.06
420.726	494.06
420.948	510.06
421.171	546.06
421.394	574.06
421.617	526.06
421.839	483.06
422.062	490.06
422.285	486.06
422.507	554.06
422.73	616.06
422.953	602.06
423.175	514.06
423.398	504.06
423.621	482.06
423.843	528.06
424.066	498.06
424.288	514.06
424.511	533.06
424.733	560.06
424.956	664.06
425.178	646.06
425.401	638.06
425.623	652.06
425.846	560.06
426.068	522.06
426.291	535.06
426.513	519.06
426.735	512.06
426.958	549.06
427.18	646.06
427.402	783.06
427.625	838.06
427.847	776.06
428.069	715.06
428.292	630.06
428.514	550.06
428.736	509.06
428.958	522.06
429.181	479.06
429.403	477.06
429.625	505.06
429.847	533.06
430.069	574.06
430.292	596.06
430.514	498.06
430.736	478.06
430.958	457.06
431.18	467.06
431.402	440.06
431.624	436.06
431.846	429.06
432.068	414.06
432.29	409.06
432.512	466.06
432.734	438.06
432.956	444.06
433.178	458.06
433.4	471.06
433.622	442.06
433.844	488.06
434.066	453.06
434.287	441.06
434.509	436.06
434.731	448.06
434.953	447.06
435.175	471.06
435.397	492.06
435.618	520.06
435.84	550.06
436.062	654.06
436.284	710.06
436.505	593.06
436.727	518.06
436.949	503.06
437.17	474.06
437.392	468.06
437.614	468.06
437.835	520.06
438.057	648.06
438.278	738.06
438.5	710.06
438.721	782.06
438.943	748.06
439.165	591.06
439.386	568.06
439.608	547.06
439.829	537.06
440.05	567.06
440.272	621.06
440.493	589.06
440.715	514.06
440.936	518.06
441.158	502.06
441.379	483.06
441.6	481.06
441.822	519.06
442.043	554.06
442.264	650.06
442.486	676.06
442.707	593.06
442.928	536.06
443.149	528.06
443.371	554.06
443.592	621.06
443.813	686.06
444.034	717.06
444.255	589.06
444.476	533.06
444.698	512.06
444.919	534.06
445.14	632.06
445.361	596.06
445.582	576.06
445.803	635.06
446.024	709.06
446.245	730.06
446.466	682.06
446.687	577.06
446.908	537.06
447.129	493.06
447.35	500.06
447.571	477.06
447.792	472.06
448.013	474.06
448.234	504.06
448.455	549.06
448.675	695.06
448.896	763.06
449.117	682.06
449.338	619.06
449.559	711.06
449.779	791.06
450	655.06
450.221	549.06
450.442	508.06
450.662	501.06
450.883	486.06
451.104	511.06
451.324	499.06
451.545	461.06
451.766	451.06
451.986	450.06
452.207	450.06
452.428	435.06
452.648	434.06
452.869	417.06
453.089	436.06
453.31	446.06
453.53	429.06
453.751	427.06
453.971	430.06
454.192	465.06
454.412	444.06
454.633	443.06
454.853	438.06
455.073	421.06
455.294	437.06
455.514	543.06
455.734	517.06
455.955	437.06
456.175	427.06
456.395	382.06
456.616	405.06
456.836	408.06
457.056	402.06
457.276	403.06
457.497	408.06
457.717	396.06
457.937	410.06
458.157	403.06
458.377	453.06
458.598	422.06
458.818	504.06
459.038	586.06
459.258	607.06
459.478	514.06
459.698	449.06
459.918	447.06
460.138	424.06
460.358	458.06
460.578	427.06
460.798	428.06
461.018	399.06
461.238	449.06
461.458	428.06
461.678	418.06
461.898	440.06
462.118	416.06
462.338	423.06
462.558	418.06
462.777	422.06
462.997	454.06
463.217	430.06
463.437	444.06
463.657	447.06
463.876	461.06
464.096	454.06
464.316	478.06
464.536	472.06
464.755	471.06
464.975	467.06
465.195	520.06
465.414	642.06
465.634	529.06
465.854	508.06
466.073	480.06
466.293	448.06
466.512	440.06
466.732	429.06
466.951	426.06
467.171	426.06
467.391	441.06
467.61	434.06
467.829	454.06
468.049	485.06
468.268	502.06
468.488	478.06
468.707	460.06
468.927	431.06
469.146	437.06
469.365	455.06
469.585	437.06
469.804	455.06
470.023	454.06
470.243	450.06
470.462	456.06
470.681	470.06
470.901	463.06
471.12	453.06
471.339	439.06
471.558	436.06
471.777	450.06
471.997	458.06
472.216	513.06
472.435	677.06
472.654	624.06
472.873	534.06
473.092	498.06
473.311	480.06
473.53	466.06
473.749	460.06
473.968	526.06
474.187	619.06
474.406	660.06
474.625	533.06
474.844	479.06
475.063	458.06
475.282	455.06
475.501	446.06
475.72	470.06
475.939	453.06
476.158	463.06
476.377	483.06
476.596	463.06
476.814	480.06
477.033	468.06
477.252	470.06
477.471	476.06
477.69	480.06
477.908	468.06
478.127	462.06
478.346	472.06
478.564	517.06
478.783	477.06
479.002	485.06
479.22	494.06
479.439	520.06
479.658	536.06
479.876	552.06
480.095	531.06
480.313	586.06
480.532	574.06
480.751	557.06
480.969	613.06
481.188	895.06
481.406	1068.06
481.624	786.06
481.843	662.06
482.061	607.06
482.28	594.06
482.498	576.06
482.717	573.06
482.935	553.06
483.153	549.06
483.372	534.06
483.59	566.06
483.808	555.06
484.027	541.06
484.245	534.06
484.463	542.06
484.681	550.06
484.9	558.06
485.118	540.06
485.336	537.06
485.554	545.06
485.772	546.06
485.99	561.06
486.209	566.06
486.427	577.06
486.645	549.06
486.863	582.06
487.081	598.06
487.299	584.06
487.517	585.06
487.735	553.06
487.953	580.06
488.171	600.06
488.389	591.06
488.607	589.06
488.825	595.06
489.043	615.06
489.261	590.06
489.479	628.06
489.696	604.06
489.914	605.06
490.132	622.06
490.35	630.06
490.568	647.06
490.786	636.06
491.003	648.06
491.221	681.06
491.439	666.06
491.657	680.06
491.874	696.06
492.092	686.06
492.31	682.06
492.527	724.06
492.745	730.06
492.963	715.06
493.18	713.06
493.398	718.06
493.615	722.06
493.833	727.06
494.05	744.06
494.268	699.06
494.485	753.06
494.703	707.06
494.92	721.06
495.138	684.06
495.355	694.06
495.573	716.06
495.79	700.06
496.008	704.06
496.225	713.06
496.442	702.06
496.66	706.06
496.877	719.06
497.094	715.06
497.312	686.06
497.529	686.06
497.746	702.06
497.963	704.06
498.181	770.06
498.398	746.06
498.615	754.06
498.832	765.06
499.049	743.06
499.267	726.06
499.484	759.06
499.701	760.06
499.918	789.06
500.135	803.06
500.352	831.06
500.569	847.06
500.786	845.06
501.003	876.06
501.22	835.06
501.437	842.06
501.654	809.06
501.871	827.06
