Data from 1986.PennyLincolnUp.Lamp.En5.5.200Scan.071819.P2_HRD10591_17-12-39-973.txt Node
Date: Thu Jul 18 17:12:39 EDT 2019
User: cochatt
Spectrometer: HR+D1059
Trigger mode: 1
Integration Time (sec): 1.000000E-1
Scans to average: 1
Electric dark correction enabled: true
Nonlinearity correction enabled: false
Boxcar width: 0
XAxis mode: Wavelengths
Number of Pixels in Spectrum: 2048
>>>>>Begin Spectral Data<<<<<
223.165	-18.44
223.4	-18.44
223.635	-18.44
223.869	-20.44
224.104	-28.44
224.338	-10.44
224.573	-23.44
224.808	-10.44
225.042	0.56
225.277	-11.44
225.511	-0.44
225.746	1.56
225.98	6.56
226.215	10.56
226.449	26.56
226.683	19.56
226.918	21.56
227.152	36.56
227.387	22.56
227.621	35.56
227.856	46.56
228.09	41.56
228.324	53.56
228.559	58.56
228.793	75.56
229.027	100.56
229.262	107.56
229.496	118.56
229.73	140.56
229.964	149.56
230.199	135.56
230.433	121.56
230.667	125.56
230.901	126.56
231.136	119.56
231.37	115.56
231.604	124.56
231.838	109.56
232.072	113.56
232.306	115.56
232.541	117.56
232.775	128.56
233.009	115.56
233.243	116.56
233.477	105.56
233.711	120.56
233.945	105.56
234.179	115.56
234.413	113.56
234.647	123.56
234.881	129.56
235.115	125.56
235.349	113.56
235.583	110.56
235.817	118.56
236.051	125.56
236.285	139.56
236.519	132.56
236.753	131.56
236.987	142.56
237.221	179.56
237.455	236.56
237.689	193.56
237.922	142.56
238.156	141.56
238.39	132.56
238.624	125.56
238.858	130.56
239.091	118.56
239.325	124.56
239.559	129.56
239.793	136.56
240.027	155.56
240.26	140.56
240.494	165.56
240.728	145.56
240.961	138.56
241.195	142.56
241.429	154.56
241.662	133.56
241.896	137.56
242.13	124.56
242.363	135.56
242.597	143.56
242.83	138.56
243.064	152.56
243.298	149.56
243.531	130.56
243.765	150.56
243.998	144.56
244.232	141.56
244.465	146.56
244.699	158.56
244.932	165.56
245.166	153.56
245.399	157.56
245.633	167.56
245.866	154.56
246.099	159.56
246.333	137.56
246.566	147.56
246.8	156.56
247.033	153.56
247.266	161.56
247.5	165.56
247.733	177.56
247.966	179.56
248.2	171.56
248.433	179.56
248.666	189.56
248.899	189.56
249.133	206.56
249.366	232.56
249.599	205.56
249.832	193.56
250.066	213.56
250.299	204.56
250.532	257.56
250.765	278.56
250.998	295.56
251.231	277.56
251.465	258.56
251.698	229.56
251.931	218.56
252.164	222.56
252.397	212.56
252.63	220.56
252.863	215.56
253.096	224.56
253.329	287.56
253.562	265.56
253.795	237.56
254.028	247.56
254.261	222.56
254.494	249.56
254.727	285.56
254.96	309.56
255.193	296.56
255.426	297.56
255.659	278.56
255.892	320.56
256.124	332.56
256.357	391.56
256.59	354.56
256.823	334.56
257.056	297.56
257.289	286.56
257.521	253.56
257.754	257.56
257.987	255.56
258.22	232.56
258.452	219.56
258.685	234.56
258.918	237.56
259.151	252.56
259.383	244.56
259.616	242.56
259.849	233.56
260.081	251.56
260.314	261.56
260.547	270.56
260.779	252.56
261.012	257.56
261.244	246.56
261.477	256.56
261.71	237.56
261.942	256.56
262.175	249.56
262.407	250.56
262.64	243.56
262.872	239.56
263.105	248.56
263.337	226.56
263.57	232.56
263.802	225.56
264.035	225.56
264.267	227.56
264.499	224.56
264.732	233.56
264.964	235.56
265.197	235.56
265.429	232.56
265.661	230.56
265.894	207.56
266.126	203.56
266.358	214.56
266.591	230.56
266.823	225.56
267.055	236.56
267.287	251.56
267.52	245.56
267.752	238.56
267.984	231.56
268.216	234.56
268.448	246.56
268.681	243.56
268.913	272.56
269.145	273.56
269.377	291.56
269.609	265.56
269.841	285.56
270.073	277.56
270.306	306.56
270.538	327.56
270.77	331.56
271.002	338.56
271.234	316.56
271.466	317.56
271.698	333.56
271.93	336.56
272.162	337.56
272.394	327.56
272.626	321.56
272.858	319.56
273.09	287.56
273.322	281.56
273.553	293.56
273.785	289.56
274.017	284.56
274.249	283.56
274.481	290.56
274.713	288.56
274.945	279.56
275.176	277.56
275.408	285.56
275.64	272.56
275.872	282.56
276.104	288.56
276.335	276.56
276.567	289.56
276.799	309.56
277.031	329.56
277.262	349.56
277.494	353.56
277.726	307.56
277.957	305.56
278.189	294.56
278.421	316.56
278.652	310.56
278.884	295.56
279.115	277.56
279.347	303.56
279.579	283.56
279.81	274.56
280.042	296.56
280.273	290.56
280.505	301.56
280.736	309.56
280.968	287.56
281.199	282.56
281.431	273.56
281.662	291.56
281.894	274.56
282.125	286.56
282.356	307.56
282.588	321.56
282.819	315.56
283.051	301.56
283.282	282.56
283.513	275.56
283.745	294.56
283.976	290.56
284.207	287.56
284.439	293.56
284.67	286.56
284.901	287.56
285.132	276.56
285.364	269.56
285.595	309.56
285.826	288.56
286.057	284.56
286.288	286.56
286.52	287.56
286.751	279.56
286.982	273.56
287.213	278.56
287.444	274.56
287.675	308.56
287.906	302.56
288.138	297.56
288.369	305.56
288.6	295.56
288.831	305.56
289.062	305.56
289.293	314.56
289.524	311.56
289.755	291.56
289.986	290.56
290.217	307.56
290.448	296.56
290.679	283.56
290.91	298.56
291.141	301.56
291.371	279.56
291.602	290.56
291.833	278.56
292.064	278.56
292.295	287.56
292.526	308.56
292.757	294.56
292.987	278.56
293.218	303.56
293.449	292.56
293.68	297.56
293.91	288.56
294.141	281.56
294.372	284.56
294.603	280.56
294.833	299.56
295.064	301.56
295.295	299.56
295.525	286.56
295.756	295.56
295.987	306.56
296.217	307.56
296.448	350.56
296.679	320.56
296.909	277.56
297.14	295.56
297.37	302.56
297.601	316.56
297.831	287.56
298.062	289.56
298.292	303.56
298.523	295.56
298.753	293.56
298.984	295.56
299.214	290.56
299.445	295.56
299.675	326.56
299.905	328.56
300.136	294.56
300.366	300.56
300.597	302.56
300.827	328.56
301.057	323.56
301.288	323.56
301.518	303.56
301.748	341.56
301.979	335.56
302.209	311.56
302.439	337.56
302.669	329.56
302.9	333.56
303.13	333.56
303.36	321.56
303.59	321.56
303.82	347.56
304.051	347.56
304.281	326.56
304.511	334.56
304.741	328.56
304.971	315.56
305.201	312.56
305.431	322.56
305.661	329.56
305.891	351.56
306.121	327.56
306.352	327.56
306.582	347.56
306.812	333.56
307.042	317.56
307.272	330.56
307.502	343.56
307.731	343.56
307.961	348.56
308.191	349.56
308.421	327.56
308.651	321.56
308.881	339.56
309.111	343.56
309.341	353.56
309.571	362.56
309.8	352.56
310.03	385.56
310.26	376.56
310.49	370.56
310.72	393.56
310.949	394.56
311.179	407.56
311.409	379.56
311.639	373.56
311.868	351.56
312.098	390.56
312.328	379.56
312.557	397.56
312.787	417.56
313.017	424.56
313.246	403.56
313.476	394.56
313.706	385.56
313.935	385.56
314.165	400.56
314.394	414.56
314.624	419.56
314.853	393.56
315.083	391.56
315.312	374.56
315.542	367.56
315.771	380.56
316.001	366.56
316.23	377.56
316.46	368.56
316.689	379.56
316.919	354.56
317.148	375.56
317.377	385.56
317.607	395.56
317.836	388.56
318.065	402.56
318.295	371.56
318.524	366.56
318.753	387.56
318.983	378.56
319.212	382.56
319.441	385.56
319.67	392.56
319.9	395.56
320.129	379.56
320.358	380.56
320.587	382.56
320.816	408.56
321.046	394.56
321.275	401.56
321.504	396.56
321.733	417.56
321.962	431.56
322.191	441.56
322.42	435.56
322.649	460.56
322.878	464.56
323.108	468.56
323.337	518.56
323.566	523.56
323.795	568.56
324.024	598.56
324.253	746.56
324.482	1039.56
324.71	1593.56
324.939	2305.56
325.168	2045.56
325.397	1070.56
325.626	726.56
325.855	630.56
326.084	566.56
326.313	568.56
326.542	568.56
326.77	606.56
326.999	690.56
327.228	966.56
327.457	1442.56
327.686	1784.56
327.914	1289.56
328.143	877.56
328.372	823.56
328.6	749.56
328.829	675.56
329.058	684.56
329.287	703.56
329.515	656.56
329.744	649.56
329.972	709.56
330.201	803.56
330.43	950.56
330.658	889.56
330.887	782.56
331.115	703.56
331.344	641.56
331.572	579.56
331.801	563.56
332.03	569.56
332.258	541.56
332.486	527.56
332.715	519.56
332.943	520.56
333.172	535.56
333.4	540.56
333.629	567.56
333.857	612.56
334.085	671.56
334.314	810.56
334.542	968.56
334.771	1078.56
334.999	805.56
335.227	654.56
335.455	578.56
335.684	515.56
335.912	515.56
336.14	473.56
336.369	473.56
336.597	503.56
336.825	469.56
337.053	485.56
337.281	455.56
337.51	437.56
337.738	455.56
337.966	452.56
338.194	455.56
338.422	445.56
338.65	433.56
338.878	405.56
339.106	426.56
339.334	432.56
339.562	415.56
339.79	427.56
340.018	424.56
340.246	430.56
340.474	433.56
340.702	433.56
340.93	416.56
341.158	420.56
341.386	417.56
341.614	437.56
341.842	435.56
342.07	426.56
342.298	426.56
342.526	437.56
342.754	403.56
342.981	398.56
343.209	401.56
343.437	409.56
343.665	418.56
343.893	430.56
344.12	429.56
344.348	425.56
344.576	413.56
344.804	429.56
345.031	457.56
345.259	451.56
345.487	415.56
345.714	419.56
345.942	419.56
346.17	417.56
346.397	400.56
346.625	405.56
346.853	406.56
347.08	416.56
347.308	415.56
347.535	410.56
347.763	416.56
347.99	414.56
348.218	400.56
348.445	424.56
348.673	423.56
348.9	414.56
349.128	387.56
349.355	390.56
349.583	392.56
349.81	384.56
350.037	382.56
350.265	386.56
350.492	389.56
350.72	395.56
350.947	396.56
351.174	403.56
351.402	420.56
351.629	427.56
351.856	406.56
352.083	412.56
352.311	442.56
352.538	403.56
352.765	417.56
352.992	435.56
353.22	410.56
353.447	410.56
353.674	406.56
353.901	401.56
354.128	384.56
354.355	385.56
354.583	379.56
354.81	383.56
355.037	375.56
355.264	359.56
355.491	377.56
355.718	365.56
355.945	372.56
356.172	372.56
356.399	376.56
356.626	365.56
356.853	365.56
357.08	357.56
357.307	347.56
357.534	359.56
357.761	349.56
357.988	366.56
358.215	390.56
358.441	375.56
358.668	380.56
358.895	380.56
359.122	396.56
359.349	386.56
359.576	399.56
359.802	427.56
360.029	453.56
360.256	467.56
360.483	441.56
360.709	407.56
360.936	403.56
361.163	400.56
361.39	392.56
361.616	396.56
361.843	405.56
362.07	421.56
362.296	398.56
362.523	393.56
362.749	383.56
362.976	381.56
363.203	390.56
363.429	385.56
363.656	386.56
363.882	387.56
364.109	412.56
364.335	387.56
364.562	379.56
364.788	375.56
365.015	377.56
365.241	363.56
365.468	377.56
365.694	366.56
365.92	375.56
366.147	385.56
366.373	374.56
366.599	389.56
366.826	381.56
367.052	380.56
367.278	377.56
367.505	381.56
367.731	386.56
367.957	388.56
368.184	367.56
368.41	387.56
368.636	386.56
368.862	390.56
369.089	393.56
369.315	375.56
369.541	386.56
369.767	397.56
369.993	393.56
370.219	374.56
370.445	383.56
370.672	369.56
370.898	378.56
371.124	360.56
371.35	380.56
371.576	385.56
371.802	383.56
372.028	363.56
372.254	381.56
372.48	375.56
372.706	379.56
372.932	392.56
373.158	363.56
373.384	361.56
373.61	370.56
373.835	355.56
374.061	378.56
374.287	372.56
374.513	371.56
374.739	375.56
374.965	361.56
375.191	366.56
375.416	399.56
375.642	357.56
375.868	374.56
376.094	379.56
376.319	360.56
376.545	364.56
376.771	372.56
376.997	378.56
377.222	366.56
377.448	375.56
377.674	356.56
377.899	347.56
378.125	361.56
378.35	357.56
378.576	369.56
378.802	349.56
379.027	357.56
379.253	356.56
379.478	353.56
379.704	368.56
379.929	360.56
380.155	363.56
380.38	363.56
380.606	350.56
380.831	364.56
381.057	359.56
381.282	358.56
381.507	374.56
381.733	361.56
381.958	365.56
382.184	375.56
382.409	369.56
382.634	366.56
382.86	369.56
383.085	379.56
383.31	369.56
383.535	385.56
383.761	369.56
383.986	371.56
384.211	374.56
384.436	370.56
384.662	404.56
384.887	385.56
385.112	373.56
385.337	387.56
385.562	378.56
385.787	375.56
386.013	384.56
386.238	402.56
386.463	389.56
386.688	363.56
386.913	379.56
387.138	369.56
387.363	390.56
387.588	387.56
387.813	364.56
388.038	387.56
388.263	387.56
388.488	387.56
388.713	387.56
388.938	397.56
389.163	395.56
389.387	393.56
389.612	396.56
389.837	387.56
390.062	398.56
390.287	407.56
390.512	392.56
390.736	383.56
390.961	380.56
391.186	392.56
391.411	390.56
391.636	397.56
391.86	385.56
392.085	395.56
392.31	384.56
392.534	393.56
392.759	379.56
392.984	365.56
393.208	377.56
393.433	402.56
393.658	383.56
393.882	389.56
394.107	380.56
394.331	389.56
394.556	401.56
394.78	398.56
395.005	405.56
395.229	359.56
395.454	394.56
395.678	391.56
395.903	404.56
396.127	417.56
396.352	419.56
396.576	419.56
396.801	398.56
397.025	392.56
397.249	395.56
397.474	403.56
397.698	386.56
397.922	424.56
398.147	418.56
398.371	439.56
398.595	418.56
398.82	421.56
399.044	423.56
399.268	424.56
399.492	428.56
399.717	439.56
399.941	481.56
400.165	529.56
400.389	546.56
400.613	500.56
400.837	454.56
401.062	445.56
401.286	452.56
401.51	437.56
401.734	421.56
401.958	441.56
402.182	425.56
402.406	439.56
402.63	457.56
402.854	451.56
403.078	464.56
403.302	455.56
403.526	446.56
403.75	461.56
403.974	451.56
404.198	446.56
404.422	477.56
404.645	485.56
404.869	519.56
405.093	536.56
405.317	601.56
405.541	639.56
405.765	582.56
405.988	524.56
406.212	509.56
406.436	540.56
406.66	503.56
406.883	518.56
407.107	517.56
407.331	564.56
407.555	614.56
407.778	629.56
408.002	526.56
408.226	519.56
408.449	507.56
408.673	513.56
408.896	533.56
409.12	561.56
409.344	553.56
409.567	467.56
409.791	463.56
410.014	474.56
410.238	460.56
410.461	477.56
410.685	490.56
410.908	489.56
411.132	503.56
411.355	558.56
411.578	521.56
411.802	503.56
412.025	482.56
412.249	489.56
412.472	546.56
412.695	629.56
412.919	609.56
413.142	546.56
413.365	499.56
413.589	499.56
413.812	470.56
414.035	478.56
414.258	466.56
414.482	476.56
414.705	452.56
414.928	460.56
415.151	430.56
415.374	448.56
415.597	438.56
415.821	443.56
416.044	445.56
416.267	476.56
416.49	446.56
416.713	449.56
416.936	438.56
417.159	435.56
417.382	441.56
417.605	468.56
417.828	504.56
418.051	468.56
418.274	465.56
418.497	435.56
418.72	451.56
418.943	449.56
419.166	450.56
419.389	466.56
419.611	492.56
419.834	481.56
420.057	501.56
420.28	529.56
420.503	515.56
420.726	517.56
420.948	545.56
421.171	540.56
421.394	557.56
421.617	498.56
421.839	489.56
422.062	487.56
422.285	505.56
422.507	543.56
422.73	586.56
422.953	581.56
423.175	506.56
423.398	507.56
423.621	480.56
423.843	503.56
424.066	499.56
424.288	484.56
424.511	526.56
424.733	553.56
424.956	616.56
425.178	617.56
425.401	615.56
425.623	634.56
425.846	556.56
426.068	513.56
426.291	516.56
426.513	469.56
426.735	487.56
426.958	571.56
427.18	609.56
427.402	744.56
427.625	830.56
427.847	769.56
428.069	693.56
428.292	632.56
428.514	558.56
428.736	507.56
428.958	522.56
429.181	476.56
429.403	485.56
429.625	485.56
429.847	538.56
430.069	587.56
430.292	577.56
430.514	489.56
430.736	462.56
430.958	449.56
431.18	445.56
431.402	461.56
431.624	443.56
431.846	417.56
432.068	425.56
432.29	440.56
432.512	459.56
432.734	445.56
432.956	448.56
433.178	448.56
433.4	473.56
433.622	453.56
433.844	427.56
434.066	462.56
434.287	436.56
434.509	441.56
434.731	466.56
434.953	452.56
435.175	475.56
435.397	489.56
435.618	508.56
435.84	529.56
436.062	639.56
436.284	687.56
436.505	574.56
436.727	515.56
436.949	474.56
437.17	460.56
437.392	481.56
437.614	480.56
437.835	517.56
438.057	610.56
438.278	699.56
438.5	686.56
438.721	757.56
438.943	742.56
439.165	581.56
439.386	532.56
439.608	521.56
439.829	519.56
440.05	566.56
440.272	601.56
440.493	577.56
440.715	504.56
440.936	459.56
441.158	486.56
441.379	451.56
441.6	472.56
441.822	503.56
442.043	547.56
442.264	609.56
442.486	649.56
442.707	579.56
442.928	523.56
443.149	520.56
443.371	518.56
443.592	582.56
443.813	660.56
444.034	726.56
444.255	619.56
444.476	515.56
444.698	489.56
444.919	502.56
445.14	591.56
445.361	533.56
445.582	533.56
445.803	608.56
446.024	698.56
446.245	732.56
446.466	656.56
446.687	554.56
446.908	505.56
447.129	489.56
447.35	454.56
447.571	474.56
447.792	469.56
448.013	463.56
448.234	476.56
448.455	528.56
448.675	653.56
448.896	759.56
449.117	625.56
449.338	646.56
449.559	691.56
449.779	788.56
450	629.56
450.221	518.56
450.442	493.56
450.662	492.56
450.883	479.56
451.104	487.56
451.324	482.56
451.545	440.56
451.766	438.56
451.986	412.56
452.207	419.56
452.428	413.56
452.648	444.56
452.869	424.56
453.089	427.56
453.31	406.56
453.53	425.56
453.751	437.56
453.971	420.56
454.192	446.56
454.412	425.56
454.633	413.56
454.853	410.56
455.073	444.56
455.294	447.56
455.514	503.56
455.734	494.56
455.955	428.56
456.175	412.56
456.395	386.56
456.616	383.56
456.836	397.56
457.056	407.56
457.276	387.56
457.497	398.56
457.717	387.56
457.937	393.56
458.157	418.56
458.377	410.56
458.598	427.56
458.818	468.56
459.038	557.56
459.258	607.56
459.478	504.56
459.698	462.56
459.918	449.56
460.138	435.56
460.358	421.56
460.578	417.56
460.798	422.56
461.018	409.56
461.238	428.56
461.458	440.56
461.678	407.56
461.898	433.56
462.118	426.56
462.338	427.56
462.558	422.56
462.777	418.56
462.997	440.56
463.217	422.56
463.437	460.56
463.657	452.56
463.876	447.56
464.096	446.56
464.316	421.56
464.536	443.56
464.755	455.56
464.975	451.56
465.195	487.56
465.414	567.56
465.634	521.56
465.854	478.56
466.073	436.56
466.293	458.56
466.512	435.56
466.732	430.56
466.951	416.56
467.171	446.56
467.391	430.56
467.61	433.56
467.829	453.56
468.049	481.56
468.268	528.56
468.488	494.56
468.707	470.56
468.927	442.56
469.146	414.56
469.365	444.56
469.585	422.56
469.804	427.56
470.023	427.56
470.243	437.56
470.462	453.56
470.681	444.56
470.901	482.56
471.12	451.56
471.339	471.56
471.558	439.56
471.777	450.56
471.997	473.56
472.216	547.56
472.435	723.56
472.654	695.56
472.873	562.56
473.092	520.56
473.311	493.56
473.53	487.56
473.749	482.56
473.968	511.56
474.187	610.56
474.406	631.56
474.625	525.56
474.844	486.56
475.063	467.56
475.282	449.56
475.501	455.56
475.72	442.56
475.939	441.56
476.158	453.56
476.377	463.56
476.596	464.56
476.814	481.56
477.033	485.56
477.252	479.56
477.471	472.56
477.69	472.56
477.908	458.56
478.127	485.56
478.346	485.56
478.564	508.56
478.783	497.56
479.002	490.56
479.22	483.56
479.439	515.56
479.658	517.56
479.876	556.56
480.095	525.56
480.313	593.56
480.532	550.56
480.751	569.56
480.969	652.56
481.188	935.56
481.406	1233.56
481.624	854.56
481.843	713.56
482.061	641.56
482.28	625.56
482.498	582.56
482.717	584.56
482.935	578.56
483.153	550.56
483.372	573.56
483.59	569.56
483.808	555.56
484.027	566.56
484.245	563.56
484.463	551.56
484.681	555.56
484.9	558.56
485.118	549.56
485.336	556.56
485.554	554.56
485.772	553.56
485.99	569.56
486.209	574.56
486.427	578.56
486.645	585.56
486.863	610.56
487.081	593.56
487.299	592.56
487.517	577.56
487.735	578.56
487.953	585.56
488.171	597.56
488.389	606.56
488.607	617.56
488.825	589.56
489.043	594.56
489.261	598.56
489.479	608.56
489.696	603.56
489.914	621.56
490.132	622.56
490.35	609.56
490.568	643.56
490.786	639.56
491.003	676.56
491.221	679.56
491.439	667.56
491.657	699.56
491.874	707.56
492.092	715.56
492.31	730.56
492.527	706.56
492.745	753.56
492.963	741.56
493.18	727.56
493.398	728.56
493.615	737.56
493.833	721.56
494.05	727.56
494.268	722.56
494.485	719.56
494.703	721.56
494.92	711.56
495.138	723.56
495.355	685.56
495.573	696.56
495.79	719.56
496.008	715.56
496.225	707.56
496.442	720.56
496.66	705.56
496.877	685.56
497.094	692.56
497.312	711.56
497.529	716.56
497.746	719.56
497.963	711.56
498.181	730.56
498.398	730.56
498.615	733.56
498.832	737.56
499.049	734.56
499.267	757.56
499.484	745.56
499.701	766.56
499.918	754.56
500.135	793.56
500.352	824.56
500.569	831.56
500.786	845.56
501.003	829.56
501.22	844.56
501.437	816.56
501.654	809.56
501.871	808.56
