Data from 1986.PennyLincolnUp.Lamp.En5.5.200Scan.071819.P2_HRD10591_17-09-55-978.txt Node
Date: Thu Jul 18 17:09:55 EDT 2019
User: cochatt
Spectrometer: HR+D1059
Trigger mode: 1
Integration Time (sec): 1.000000E-1
Scans to average: 1
Electric dark correction enabled: true
Nonlinearity correction enabled: false
Boxcar width: 0
XAxis mode: Wavelengths
Number of Pixels in Spectrum: 2048
>>>>>Begin Spectral Data<<<<<
223.165	-13.69
223.4	-13.69
223.635	-13.69
223.869	-18.69
224.104	-6.69
224.338	-12.69
224.573	-10.69
224.808	-4.69
225.042	-3.69
225.277	2.31
225.511	-20.69
225.746	-6.69
225.98	15.31
226.215	2.31
226.449	5.31
226.683	8.31
226.918	30.31
227.152	34.31
227.387	46.31
227.621	43.31
227.856	47.31
228.09	51.31
228.324	50.31
228.559	43.31
228.793	71.31
229.027	95.31
229.262	105.31
229.496	120.31
229.73	123.31
229.964	135.31
230.199	117.31
230.433	124.31
230.667	113.31
230.901	115.31
231.136	108.31
231.37	104.31
231.604	112.31
231.838	109.31
232.072	107.31
232.306	104.31
232.541	124.31
232.775	106.31
233.009	98.31
233.243	120.31
233.477	105.31
233.711	107.31
233.945	108.31
234.179	121.31
234.413	116.31
234.647	123.31
234.881	118.31
235.115	110.31
235.349	116.31
235.583	122.31
235.817	120.31
236.051	126.31
236.285	125.31
236.519	124.31
236.753	135.31
236.987	136.31
237.221	166.31
237.455	230.31
237.689	192.31
237.922	136.31
238.156	147.31
238.39	136.31
238.624	128.31
238.858	132.31
239.091	127.31
239.325	120.31
239.559	109.31
239.793	127.31
240.027	133.31
240.26	151.31
240.494	166.31
240.728	149.31
240.961	151.31
241.195	154.31
241.429	148.31
241.662	119.31
241.896	124.31
242.13	126.31
242.363	118.31
242.597	135.31
242.83	124.31
243.064	141.31
243.298	126.31
243.531	134.31
243.765	133.31
243.998	131.31
244.232	135.31
244.465	143.31
244.699	148.31
244.932	136.31
245.166	144.31
245.399	137.31
245.633	144.31
245.866	150.31
246.099	141.31
246.333	134.31
246.566	141.31
246.8	148.31
247.033	152.31
247.266	147.31
247.5	153.31
247.733	168.31
247.966	170.31
248.2	150.31
248.433	163.31
248.666	159.31
248.899	191.31
249.133	203.31
249.366	204.31
249.599	196.31
249.832	185.31
250.066	175.31
250.299	176.31
250.532	187.31
250.765	187.31
250.998	202.31
251.231	228.31
251.465	220.31
251.698	206.31
251.931	199.31
252.164	198.31
252.397	204.31
252.63	196.31
252.863	205.31
253.096	234.31
253.329	226.31
253.562	217.31
253.795	226.31
254.028	218.31
254.261	216.31
254.494	233.31
254.727	246.31
254.96	270.31
255.193	287.31
255.426	259.31
255.659	236.31
255.892	216.31
256.124	220.31
256.357	219.31
256.59	205.31
256.823	199.31
257.056	208.31
257.289	207.31
257.521	190.31
257.754	213.31
257.987	190.31
258.22	198.31
258.452	214.31
258.685	201.31
258.918	196.31
259.151	222.31
259.383	210.31
259.616	218.31
259.849	217.31
260.081	238.31
260.314	247.31
260.547	247.31
260.779	235.31
261.012	248.31
261.244	229.31
261.477	228.31
261.71	206.31
261.942	236.31
262.175	233.31
262.407	214.31
262.64	214.31
262.872	189.31
263.105	197.31
263.337	206.31
263.57	212.31
263.802	186.31
264.035	214.31
264.267	213.31
264.499	192.31
264.732	201.31
264.964	196.31
265.197	219.31
265.429	202.31
265.661	205.31
265.894	200.31
266.126	207.31
266.358	204.31
266.591	204.31
266.823	206.31
267.055	216.31
267.287	215.31
267.52	214.31
267.752	209.31
267.984	203.31
268.216	219.31
268.448	219.31
268.681	230.31
268.913	217.31
269.145	256.31
269.377	251.31
269.609	261.31
269.841	262.31
270.073	245.31
270.306	273.31
270.538	298.31
270.77	311.31
271.002	293.31
271.234	290.31
271.466	284.31
271.698	292.31
271.93	316.31
272.162	291.31
272.394	301.31
272.626	312.31
272.858	287.31
273.09	265.31
273.322	260.31
273.553	238.31
273.785	267.31
274.017	246.31
274.249	234.31
274.481	251.31
274.713	238.31
274.945	242.31
275.176	251.31
275.408	250.31
275.64	255.31
275.872	258.31
276.104	247.31
276.335	249.31
276.567	271.31
276.799	264.31
277.031	285.31
277.262	311.31
277.494	306.31
277.726	266.31
277.957	274.31
278.189	275.31
278.421	264.31
278.652	252.31
278.884	262.31
279.115	267.31
279.347	232.31
279.579	221.31
279.81	248.31
280.042	246.31
280.273	234.31
280.505	239.31
280.736	243.31
280.968	239.31
281.199	247.31
281.431	235.31
281.662	245.31
281.894	245.31
282.125	249.31
282.356	256.31
282.588	267.31
282.819	282.31
283.051	269.31
283.282	255.31
283.513	251.31
283.745	263.31
283.976	255.31
284.207	234.31
284.439	262.31
284.67	252.31
284.901	267.31
285.132	250.31
285.364	251.31
285.595	242.31
285.826	248.31
286.057	246.31
286.288	264.31
286.52	264.31
286.751	264.31
286.982	264.31
287.213	254.31
287.444	238.31
287.675	272.31
287.906	260.31
288.138	253.31
288.369	265.31
288.6	270.31
288.831	284.31
289.062	286.31
289.293	262.31
289.524	254.31
289.755	241.31
289.986	262.31
290.217	251.31
290.448	242.31
290.679	258.31
290.91	245.31
291.141	262.31
291.371	256.31
291.602	272.31
291.833	282.31
292.064	241.31
292.295	254.31
292.526	262.31
292.757	253.31
292.987	266.31
293.218	242.31
293.449	263.31
293.68	256.31
293.91	246.31
294.141	274.31
294.372	283.31
294.603	251.31
294.833	247.31
295.064	248.31
295.295	252.31
295.525	275.31
295.756	273.31
295.987	272.31
296.217	291.31
296.448	317.31
296.679	292.31
296.909	264.31
297.14	275.31
297.37	266.31
297.601	261.31
297.831	270.31
298.062	269.31
298.292	275.31
298.523	270.31
298.753	272.31
298.984	282.31
299.214	261.31
299.445	268.31
299.675	271.31
299.905	276.31
300.136	286.31
300.366	283.31
300.597	276.31
300.827	266.31
301.057	278.31
301.288	285.31
301.518	294.31
301.748	287.31
301.979	295.31
302.209	294.31
302.439	295.31
302.669	297.31
302.9	277.31
303.13	279.31
303.36	287.31
303.59	286.31
303.82	293.31
304.051	283.31
304.281	288.31
304.511	276.31
304.741	271.31
304.971	286.31
305.201	290.31
305.431	288.31
305.661	284.31
305.891	285.31
306.121	287.31
306.352	282.31
306.582	287.31
306.812	302.31
307.042	288.31
307.272	274.31
307.502	281.31
307.731	300.31
307.961	292.31
308.191	295.31
308.421	306.31
308.651	292.31
308.881	301.31
309.111	312.31
309.341	304.31
309.571	310.31
309.8	343.31
310.03	325.31
310.26	351.31
310.49	335.31
310.72	356.31
310.949	357.31
311.179	370.31
311.409	354.31
311.639	329.31
311.868	344.31
312.098	346.31
312.328	345.31
312.557	357.31
312.787	398.31
313.017	376.31
313.246	355.31
313.476	325.31
313.706	341.31
313.935	354.31
314.165	353.31
314.394	366.31
314.624	350.31
314.853	347.31
315.083	355.31
315.312	349.31
315.542	346.31
315.771	327.31
316.001	329.31
316.23	331.31
316.46	319.31
316.689	358.31
316.919	335.31
317.148	350.31
317.377	363.31
317.607	345.31
317.836	342.31
318.065	347.31
318.295	333.31
318.524	335.31
318.753	332.31
318.983	363.31
319.212	320.31
319.441	375.31
319.67	355.31
319.9	322.31
320.129	348.31
320.358	346.31
320.587	349.31
320.816	358.31
321.046	354.31
321.275	375.31
321.504	354.31
321.733	349.31
321.962	359.31
322.191	390.31
322.42	398.31
322.649	405.31
322.878	403.31
323.108	400.31
323.337	450.31
323.566	490.31
323.795	526.31
324.024	554.31
324.253	697.31
324.482	969.31
324.71	1450.31
324.939	2077.31
325.168	1852.31
325.397	984.31
325.626	648.31
325.855	524.31
326.084	494.31
326.313	473.31
326.542	486.31
326.77	517.31
326.999	610.31
327.228	856.31
327.457	1296.31
327.686	1594.31
327.914	1088.31
328.143	701.31
328.372	593.31
328.6	547.31
328.829	526.31
329.058	543.31
329.287	532.31
329.515	523.31
329.744	448.31
329.972	464.31
330.201	456.31
330.43	485.31
330.658	504.31
330.887	575.31
331.115	569.31
331.344	484.31
331.572	439.31
331.801	452.31
332.03	446.31
332.258	422.31
332.486	406.31
332.715	391.31
332.943	403.31
333.172	392.31
333.4	400.31
333.629	377.31
333.857	398.31
334.085	408.31
334.314	394.31
334.542	386.31
334.771	391.31
334.999	381.31
335.227	396.31
335.455	397.31
335.684	395.31
335.912	387.31
336.14	372.31
336.369	387.31
336.597	397.31
336.825	381.31
337.053	411.31
337.281	390.31
337.51	374.31
337.738	381.31
337.966	384.31
338.194	374.31
338.422	407.31
338.65	384.31
338.878	391.31
339.106	379.31
339.334	376.31
339.562	367.31
339.79	382.31
340.018	366.31
340.246	373.31
340.474	378.31
340.702	381.31
340.93	365.31
341.158	352.31
341.386	374.31
341.614	366.31
341.842	378.31
342.07	351.31
342.298	367.31
342.526	359.31
342.754	354.31
342.981	374.31
343.209	358.31
343.437	378.31
343.665	372.31
343.893	362.31
344.12	374.31
344.348	356.31
344.576	353.31
344.804	379.31
345.031	404.31
345.259	386.31
345.487	394.31
345.714	368.31
345.942	362.31
346.17	374.31
346.397	374.31
346.625	377.31
346.853	357.31
347.08	366.31
347.308	376.31
347.535	370.31
347.763	382.31
347.99	355.31
348.218	380.31
348.445	403.31
348.673	356.31
348.9	378.31
349.128	372.31
349.355	356.31
349.583	363.31
349.81	360.31
350.037	378.31
350.265	348.31
350.492	326.31
350.72	347.31
350.947	350.31
351.174	380.31
351.402	362.31
351.629	381.31
351.856	362.31
352.083	382.31
352.311	386.31
352.538	389.31
352.765	383.31
352.992	390.31
353.22	386.31
353.447	376.31
353.674	364.31
353.901	354.31
354.128	359.31
354.355	364.31
354.583	327.31
354.81	343.31
355.037	338.31
355.264	326.31
355.491	339.31
355.718	328.31
355.945	335.31
356.172	315.31
356.399	337.31
356.626	315.31
356.853	338.31
357.08	354.31
357.307	337.31
357.534	335.31
357.761	324.31
357.988	347.31
358.215	336.31
358.441	343.31
358.668	347.31
358.895	344.31
359.122	340.31
359.349	351.31
359.576	374.31
359.802	383.31
360.029	426.31
360.256	431.31
360.483	395.31
360.709	386.31
360.936	379.31
361.163	359.31
361.39	370.31
361.616	356.31
361.843	365.31
362.07	362.31
362.296	367.31
362.523	374.31
362.749	362.31
362.976	363.31
363.203	339.31
363.429	347.31
363.656	342.31
363.882	372.31
364.109	349.31
364.335	345.31
364.562	359.31
364.788	343.31
365.015	358.31
365.241	344.31
365.468	363.31
365.694	360.31
365.92	351.31
366.147	367.31
366.373	355.31
366.599	330.31
366.826	348.31
367.052	340.31
367.278	329.31
367.505	340.31
367.731	348.31
367.957	344.31
368.184	363.31
368.41	345.31
368.636	371.31
368.862	351.31
369.089	372.31
369.315	340.31
369.541	341.31
369.767	327.31
369.993	336.31
370.219	360.31
370.445	345.31
370.672	339.31
370.898	324.31
371.124	334.31
371.35	344.31
371.576	348.31
371.802	347.31
372.028	337.31
372.254	347.31
372.48	342.31
372.706	326.31
372.932	350.31
373.158	330.31
373.384	336.31
373.61	341.31
373.835	344.31
374.061	324.31
374.287	319.31
374.513	342.31
374.739	340.31
374.965	342.31
375.191	335.31
375.416	324.31
375.642	342.31
375.868	355.31
376.094	359.31
376.319	340.31
376.545	321.31
376.771	324.31
376.997	318.31
377.222	331.31
377.448	340.31
377.674	344.31
377.899	332.31
378.125	336.31
378.35	323.31
378.576	324.31
378.802	321.31
379.027	336.31
379.253	339.31
379.478	340.31
379.704	344.31
379.929	348.31
380.155	336.31
380.38	346.31
380.606	352.31
380.831	347.31
381.057	351.31
381.282	338.31
381.507	324.31
381.733	327.31
381.958	342.31
382.184	342.31
382.409	317.31
382.634	337.31
382.86	358.31
383.085	334.31
383.31	336.31
383.535	347.31
383.761	334.31
383.986	346.31
384.211	351.31
384.436	326.31
384.662	352.31
384.887	346.31
385.112	335.31
385.337	338.31
385.562	358.31
385.787	350.31
386.013	359.31
386.238	380.31
386.463	368.31
386.688	335.31
386.913	349.31
387.138	359.31
387.363	366.31
387.588	341.31
387.813	336.31
388.038	362.31
388.263	351.31
388.488	336.31
388.713	358.31
388.938	366.31
389.163	365.31
389.387	350.31
389.612	335.31
389.837	367.31
390.062	347.31
390.287	361.31
390.512	346.31
390.736	340.31
390.961	353.31
391.186	342.31
391.411	352.31
391.636	365.31
391.86	362.31
392.085	358.31
392.31	361.31
392.534	359.31
392.759	366.31
392.984	356.31
393.208	341.31
393.433	357.31
393.658	361.31
393.882	352.31
394.107	368.31
394.331	348.31
394.556	366.31
394.78	360.31
395.005	355.31
395.229	361.31
395.454	355.31
395.678	373.31
395.903	372.31
396.127	382.31
396.352	401.31
396.576	364.31
396.801	368.31
397.025	374.31
397.249	376.31
397.474	367.31
397.698	376.31
397.922	388.31
398.147	387.31
398.371	397.31
398.595	386.31
398.82	378.31
399.044	406.31
399.268	397.31
399.492	400.31
399.717	438.31
399.941	446.31
400.165	479.31
400.389	478.31
400.613	461.31
400.837	423.31
401.062	427.31
401.286	401.31
401.51	410.31
401.734	394.31
401.958	399.31
402.182	409.31
402.406	399.31
402.63	405.31
402.854	407.31
403.078	378.31
403.302	410.31
403.526	415.31
403.75	413.31
403.974	419.31
404.198	404.31
404.422	394.31
404.645	412.31
404.869	424.31
405.093	414.31
405.317	426.31
405.541	452.31
405.765	450.31
405.988	428.31
406.212	447.31
406.436	472.31
406.66	486.31
406.883	464.31
407.107	459.31
407.331	501.31
407.555	570.31
407.778	548.31
408.002	493.31
408.226	471.31
408.449	451.31
408.673	440.31
408.896	463.31
409.12	523.31
409.344	526.31
409.567	444.31
409.791	431.31
410.014	408.31
410.238	416.31
410.461	424.31
410.685	434.31
410.908	452.31
411.132	476.31
411.355	487.31
411.578	462.31
411.802	424.31
412.025	392.31
412.249	400.31
412.472	400.31
412.695	413.31
412.919	395.31
413.142	398.31
413.365	395.31
413.589	382.31
413.812	394.31
414.035	392.31
414.258	410.31
414.482	398.31
414.705	372.31
414.928	390.31
415.151	388.31
415.374	389.31
415.597	369.31
415.821	385.31
416.044	402.31
416.267	400.31
416.49	382.31
416.713	378.31
416.936	391.31
417.159	402.31
417.382	398.31
417.605	398.31
417.828	404.31
418.051	440.31
418.274	417.31
418.497	392.31
418.72	401.31
418.943	370.31
419.166	405.31
419.389	406.31
419.611	402.31
419.834	410.31
420.057	387.31
420.28	422.31
420.503	422.31
420.726	415.31
420.948	414.31
421.171	472.31
421.394	523.31
421.617	439.31
421.839	415.31
422.062	418.31
422.285	422.31
422.507	494.31
422.73	539.31
422.953	528.31
423.175	453.31
423.398	442.31
423.621	418.31
423.843	458.31
424.066	450.31
424.288	459.31
424.511	481.31
424.733	516.31
424.956	587.31
425.178	580.31
425.401	572.31
425.623	577.31
425.846	505.31
426.068	474.31
426.291	457.31
426.513	458.31
426.735	488.31
426.958	530.31
427.18	619.31
427.402	670.31
427.625	792.31
427.847	708.31
428.069	574.31
428.292	520.31
428.514	462.31
428.736	444.31
428.958	446.31
429.181	441.31
429.403	447.31
429.625	434.31
429.847	458.31
430.069	519.31
430.292	515.31
430.514	456.31
430.736	423.31
430.958	425.31
431.18	413.31
431.402	399.31
431.624	402.31
431.846	389.31
432.068	414.31
432.29	408.31
432.512	411.31
432.734	406.31
432.956	415.31
433.178	414.31
433.4	404.31
433.622	410.31
433.844	400.31
434.066	395.31
434.287	386.31
434.509	399.31
434.731	396.31
434.953	393.31
435.175	428.31
435.397	458.31
435.618	470.31
435.84	516.31
436.062	620.31
436.284	667.31
436.505	534.31
436.727	489.31
436.949	440.31
437.17	451.31
437.392	449.31
437.614	426.31
437.835	463.31
438.057	572.31
438.278	660.31
438.5	672.31
438.721	728.31
438.943	677.31
439.165	549.31
439.386	504.31
439.608	499.31
439.829	482.31
440.05	486.31
440.272	519.31
440.493	512.31
440.715	455.31
440.936	453.31
441.158	448.31
441.379	440.31
441.6	428.31
441.822	453.31
442.043	504.31
442.264	582.31
442.486	635.31
442.707	545.31
442.928	496.31
443.149	495.31
443.371	504.31
443.592	546.31
443.813	627.31
444.034	667.31
444.255	566.31
444.476	492.31
444.698	466.31
444.919	460.31
445.14	600.31
445.361	514.31
445.582	500.31
445.803	555.31
446.024	677.31
446.245	663.31
446.466	602.31
446.687	520.31
446.908	483.31
447.129	453.31
447.35	433.31
447.571	428.31
447.792	459.31
448.013	431.31
448.234	455.31
448.455	516.31
448.675	597.31
448.896	697.31
449.117	608.31
449.338	591.31
449.559	657.31
449.779	740.31
450	603.31
450.221	496.31
450.442	459.31
450.662	429.31
450.883	450.31
451.104	446.31
451.324	451.31
451.545	439.31
451.766	406.31
451.986	404.31
452.207	382.31
452.428	381.31
452.648	383.31
452.869	387.31
453.089	398.31
453.31	422.31
453.53	398.31
453.751	377.31
453.971	405.31
454.192	419.31
454.412	421.31
454.633	393.31
454.853	387.31
455.073	382.31
455.294	407.31
455.514	483.31
455.734	453.31
455.955	408.31
456.175	376.31
456.395	381.31
456.616	360.31
456.836	359.31
457.056	365.31
457.276	351.31
457.497	355.31
457.717	370.31
457.937	356.31
458.157	351.31
458.377	380.31
458.598	407.31
458.818	468.31
459.038	521.31
459.258	539.31
459.478	475.31
459.698	398.31
459.918	394.31
460.138	394.31
460.358	405.31
460.578	402.31
460.798	394.31
461.018	396.31
461.238	395.31
461.458	381.31
461.678	392.31
461.898	397.31
462.118	406.31
462.338	420.31
462.558	404.31
462.777	391.31
462.997	388.31
463.217	420.31
463.437	402.31
463.657	421.31
463.876	408.31
464.096	408.31
464.316	417.31
464.536	418.31
464.755	426.31
464.975	437.31
465.195	486.31
465.414	559.31
465.634	471.31
465.854	445.31
466.073	404.31
466.293	407.31
466.512	401.31
466.732	391.31
466.951	380.31
467.171	391.31
467.391	394.31
467.61	380.31
467.829	403.31
468.049	370.31
468.268	379.31
468.488	382.31
468.707	367.31
468.927	371.31
469.146	382.31
469.365	379.31
469.585	366.31
469.804	390.31
470.023	388.31
470.243	396.31
470.462	387.31
470.681	410.31
470.901	416.31
471.12	400.31
471.339	390.31
471.558	394.31
471.777	405.31
471.997	387.31
472.216	373.31
472.435	365.31
472.654	398.31
472.873	372.31
473.092	386.31
473.311	375.31
473.53	401.31
473.749	389.31
473.968	446.31
474.187	518.31
474.406	557.31
474.625	448.31
474.844	436.31
475.063	411.31
475.282	422.31
475.501	396.31
475.72	402.31
475.939	386.31
476.158	399.31
476.377	397.31
476.596	390.31
476.814	428.31
477.033	435.31
477.252	431.31
477.471	418.31
477.69	430.31
477.908	430.31
478.127	432.31
478.346	426.31
478.564	418.31
478.783	416.31
479.002	440.31
479.22	444.31
479.439	466.31
479.658	460.31
479.876	472.31
480.095	467.31
480.313	499.31
480.532	495.31
480.751	468.31
480.969	480.31
481.188	484.31
481.406	478.31
481.624	491.31
481.843	476.31
482.061	459.31
482.28	447.31
482.498	459.31
482.717	441.31
482.935	454.31
483.153	467.31
483.372	450.31
483.59	469.31
483.808	460.31
484.027	446.31
484.245	463.31
484.463	444.31
484.681	460.31
484.9	480.31
485.118	486.31
485.336	483.31
485.554	483.31
485.772	469.31
485.99	477.31
486.209	476.31
486.427	483.31
486.645	487.31
486.863	510.31
487.081	526.31
487.299	499.31
487.517	511.31
487.735	487.31
487.953	503.31
488.171	479.31
488.389	491.31
488.607	506.31
488.825	474.31
489.043	493.31
489.261	501.31
489.479	508.31
489.696	493.31
489.914	490.31
490.132	514.31
490.35	523.31
490.568	515.31
490.786	539.31
491.003	528.31
491.221	572.31
491.439	534.31
491.657	578.31
491.874	571.31
492.092	566.31
492.31	589.31
492.527	568.31
492.745	559.31
492.963	557.31
493.18	588.31
493.398	578.31
493.615	595.31
493.833	575.31
494.05	603.31
494.268	582.31
494.485	583.31
494.703	575.31
494.92	584.31
495.138	594.31
495.355	584.31
495.573	590.31
495.79	611.31
496.008	594.31
496.225	597.31
496.442	587.31
496.66	586.31
496.877	595.31
497.094	600.31
497.312	613.31
497.529	603.31
497.746	619.31
497.963	627.31
498.181	620.31
498.398	641.31
498.615	653.31
498.832	662.31
499.049	640.31
499.267	650.31
499.484	651.31
499.701	671.31
499.918	704.31
500.135	734.31
500.352	717.31
500.569	742.31
500.786	768.31
501.003	732.31
501.22	748.31
501.437	715.31
501.654	741.31
501.871	723.31
502.088	710.31
