Data from 1986.PennyLincolnUp.Lamp.En5.5.200Scan.071819.P2_HRD10591_17-11-30-975.txt Node
Date: Thu Jul 18 17:11:30 EDT 2019
User: cochatt
Spectrometer: HR+D1059
Trigger mode: 1
Integration Time (sec): 1.000000E-1
Scans to average: 1
Electric dark correction enabled: true
Nonlinearity correction enabled: false
Boxcar width: 0
XAxis mode: Wavelengths
Number of Pixels in Spectrum: 2048
>>>>>Begin Spectral Data<<<<<
223.165	-11.12
223.4	-11.12
223.635	-11.12
223.869	-14.12
224.104	-31.12
224.338	-6.12
224.573	-23.12
224.808	-5.12
225.042	-5.12
225.277	-9.12
225.511	-10.12
225.746	-6.12
225.98	6.88
226.215	19.88
226.449	25.88
226.683	25.88
226.918	20.88
227.152	21.88
227.387	33.88
227.621	48.88
227.856	49.88
228.09	50.88
228.324	26.88
228.559	48.88
228.793	75.88
229.027	108.88
229.262	105.88
229.496	115.88
229.73	139.88
229.964	168.88
230.199	129.88
230.433	125.88
230.667	111.88
230.901	113.88
231.136	112.88
231.37	103.88
231.604	113.88
231.838	115.88
232.072	112.88
232.306	128.88
232.541	115.88
232.775	96.88
233.009	104.88
233.243	120.88
233.477	117.88
233.711	107.88
233.945	124.88
234.179	113.88
234.413	113.88
234.647	121.88
234.881	114.88
235.115	127.88
235.349	116.88
235.583	111.88
235.817	115.88
236.051	127.88
236.285	122.88
236.519	131.88
236.753	127.88
236.987	164.88
237.221	186.88
237.455	266.88
237.689	205.88
237.922	146.88
238.156	141.88
238.39	131.88
238.624	121.88
238.858	115.88
239.091	127.88
239.325	132.88
239.559	139.88
239.793	148.88
240.027	129.88
240.26	121.88
240.494	153.88
240.728	154.88
240.961	157.88
241.195	148.88
241.429	139.88
241.662	136.88
241.896	132.88
242.13	121.88
242.363	143.88
242.597	130.88
242.83	141.88
243.064	136.88
243.298	139.88
243.531	157.88
243.765	146.88
243.998	140.88
244.232	151.88
244.465	137.88
244.699	147.88
244.932	158.88
245.166	151.88
245.399	155.88
245.633	149.88
245.866	139.88
246.099	163.88
246.333	149.88
246.566	149.88
246.8	162.88
247.033	148.88
247.266	175.88
247.5	168.88
247.733	183.88
247.966	180.88
248.2	161.88
248.433	191.88
248.666	178.88
248.899	195.88
249.133	217.88
249.366	212.88
249.599	227.88
249.832	202.88
250.066	199.88
250.299	193.88
250.532	209.88
250.765	246.88
250.998	256.88
251.231	245.88
251.465	244.88
251.698	231.88
251.931	228.88
252.164	218.88
252.397	201.88
252.63	225.88
252.863	221.88
253.096	236.88
253.329	256.88
253.562	254.88
253.795	236.88
254.028	242.88
254.261	241.88
254.494	240.88
254.727	273.88
254.96	311.88
255.193	316.88
255.426	276.88
255.659	275.88
255.892	277.88
256.124	289.88
256.357	298.88
256.59	285.88
256.823	268.88
257.056	260.88
257.289	261.88
257.521	261.88
257.754	241.88
257.987	231.88
258.22	234.88
258.452	217.88
258.685	215.88
258.918	219.88
259.151	218.88
259.383	227.88
259.616	249.88
259.849	260.88
260.081	265.88
260.314	263.88
260.547	262.88
260.779	260.88
261.012	244.88
261.244	245.88
261.477	246.88
261.71	232.88
261.942	233.88
262.175	246.88
262.407	244.88
262.64	241.88
262.872	220.88
263.105	206.88
263.337	233.88
263.57	230.88
263.802	213.88
264.035	215.88
264.267	208.88
264.499	239.88
264.732	221.88
264.964	216.88
265.197	223.88
265.429	218.88
265.661	214.88
265.894	210.88
266.126	205.88
266.358	227.88
266.591	208.88
266.823	226.88
267.055	230.88
267.287	241.88
267.52	241.88
267.752	239.88
267.984	220.88
268.216	228.88
268.448	234.88
268.681	240.88
268.913	241.88
269.145	263.88
269.377	280.88
269.609	273.88
269.841	274.88
270.073	290.88
270.306	310.88
270.538	334.88
270.77	341.88
271.002	311.88
271.234	325.88
271.466	306.88
271.698	328.88
271.93	348.88
272.162	337.88
272.394	346.88
272.626	330.88
272.858	288.88
273.09	277.88
273.322	268.88
273.553	288.88
273.785	285.88
274.017	264.88
274.249	269.88
274.481	279.88
274.713	272.88
274.945	280.88
275.176	260.88
275.408	273.88
275.64	266.88
275.872	269.88
276.104	270.88
276.335	259.88
276.567	263.88
276.799	303.88
277.031	307.88
277.262	338.88
277.494	336.88
277.726	314.88
277.957	295.88
278.189	281.88
278.421	288.88
278.652	279.88
278.884	283.88
279.115	292.88
279.347	272.88
279.579	271.88
279.81	275.88
280.042	277.88
280.273	284.88
280.505	266.88
280.736	262.88
280.968	253.88
281.199	278.88
281.431	267.88
281.662	275.88
281.894	275.88
282.125	270.88
282.356	301.88
282.588	319.88
282.819	307.88
283.051	267.88
283.282	271.88
283.513	249.88
283.745	269.88
283.976	272.88
284.207	279.88
284.439	271.88
284.67	286.88
284.901	291.88
285.132	261.88
285.364	264.88
285.595	302.88
285.826	275.88
286.057	277.88
286.288	279.88
286.52	276.88
286.751	289.88
286.982	258.88
287.213	279.88
287.444	277.88
287.675	267.88
287.906	293.88
288.138	299.88
288.369	292.88
288.6	290.88
288.831	288.88
289.062	271.88
289.293	303.88
289.524	298.88
289.755	296.88
289.986	274.88
290.217	287.88
290.448	268.88
290.679	273.88
290.91	283.88
291.141	266.88
291.371	286.88
291.602	285.88
291.833	279.88
292.064	278.88
292.295	281.88
292.526	267.88
292.757	262.88
292.987	272.88
293.218	275.88
293.449	287.88
293.68	275.88
293.91	280.88
294.141	284.88
294.372	293.88
294.603	283.88
294.833	277.88
295.064	269.88
295.295	279.88
295.525	267.88
295.756	274.88
295.987	290.88
296.217	305.88
296.448	321.88
296.679	303.88
296.909	282.88
297.14	293.88
297.37	280.88
297.601	275.88
297.831	274.88
298.062	299.88
298.292	267.88
298.523	299.88
298.753	295.88
298.984	289.88
299.214	281.88
299.445	291.88
299.675	294.88
299.905	283.88
300.136	290.88
300.366	287.88
300.597	288.88
300.827	304.88
301.057	308.88
301.288	317.88
301.518	305.88
301.748	287.88
301.979	313.88
302.209	292.88
302.439	318.88
302.669	315.88
302.9	307.88
303.13	312.88
303.36	307.88
303.59	319.88
303.82	325.88
304.051	344.88
304.281	316.88
304.511	299.88
304.741	297.88
304.971	313.88
305.201	311.88
305.431	311.88
305.661	317.88
305.891	291.88
306.121	307.88
306.352	324.88
306.582	322.88
306.812	320.88
307.042	312.88
307.272	319.88
307.502	333.88
307.731	309.88
307.961	330.88
308.191	319.88
308.421	325.88
308.651	336.88
308.881	341.88
309.111	324.88
309.341	334.88
309.571	355.88
309.8	351.88
310.03	371.88
310.26	364.88
310.49	374.88
310.72	387.88
310.949	383.88
311.179	401.88
311.409	385.88
311.639	369.88
311.868	363.88
312.098	374.88
312.328	372.88
312.557	399.88
312.787	403.88
313.017	415.88
313.246	403.88
313.476	378.88
313.706	369.88
313.935	385.88
314.165	399.88
314.394	407.88
314.624	390.88
314.853	377.88
315.083	382.88
315.312	363.88
315.542	358.88
315.771	373.88
316.001	364.88
316.23	354.88
316.46	352.88
316.689	369.88
316.919	370.88
317.148	381.88
317.377	382.88
317.607	375.88
317.836	378.88
318.065	380.88
318.295	356.88
318.524	371.88
318.753	356.88
318.983	356.88
319.212	376.88
319.441	393.88
319.67	382.88
319.9	377.88
320.129	380.88
320.358	387.88
320.587	393.88
320.816	380.88
321.046	383.88
321.275	411.88
321.504	409.88
321.733	402.88
321.962	413.88
322.191	415.88
322.42	440.88
322.649	441.88
322.878	461.88
323.108	491.88
323.337	499.88
323.566	549.88
323.795	583.88
324.024	623.88
324.253	768.88
324.482	1107.88
324.71	1678.88
324.939	2381.88
325.168	2079.88
325.397	1113.88
325.626	757.88
325.855	585.88
326.084	572.88
326.313	544.88
326.542	526.88
326.77	604.88
326.999	708.88
327.228	956.88
327.457	1485.88
327.686	1826.88
327.914	1255.88
328.143	825.88
328.372	736.88
328.6	673.88
328.829	631.88
329.058	626.88
329.287	675.88
329.515	613.88
329.744	585.88
329.972	571.88
330.201	640.88
330.43	728.88
330.658	730.88
330.887	697.88
331.115	657.88
331.344	564.88
331.572	525.88
331.801	522.88
332.03	506.88
332.258	491.88
332.486	499.88
332.715	465.88
332.943	455.88
333.172	475.88
333.4	471.88
333.629	503.88
333.857	536.88
334.085	553.88
334.314	600.88
334.542	681.88
334.771	730.88
334.999	597.88
335.227	511.88
335.455	467.88
335.684	455.88
335.912	429.88
336.14	429.88
336.369	465.88
336.597	431.88
336.825	454.88
337.053	437.88
337.281	408.88
337.51	411.88
337.738	422.88
337.966	442.88
338.194	414.88
338.422	419.88
338.65	437.88
338.878	427.88
339.106	411.88
339.334	412.88
339.562	417.88
339.79	379.88
340.018	409.88
340.246	414.88
340.474	409.88
340.702	409.88
340.93	397.88
341.158	408.88
341.386	403.88
341.614	412.88
341.842	389.88
342.07	394.88
342.298	387.88
342.526	388.88
342.754	409.88
342.981	390.88
343.209	377.88
343.437	405.88
343.665	380.88
343.893	400.88
344.12	401.88
344.348	407.88
344.576	425.88
344.804	418.88
345.031	426.88
345.259	442.88
345.487	415.88
345.714	413.88
345.942	409.88
346.17	394.88
346.397	399.88
346.625	409.88
346.853	406.88
347.08	386.88
347.308	398.88
347.535	407.88
347.763	412.88
347.99	412.88
348.218	421.88
348.445	426.88
348.673	420.88
348.9	406.88
349.128	390.88
349.355	385.88
349.583	369.88
349.81	384.88
350.037	391.88
350.265	374.88
350.492	378.88
350.72	384.88
350.947	389.88
351.174	417.88
351.402	429.88
351.629	429.88
351.856	398.88
352.083	406.88
352.311	416.88
352.538	398.88
352.765	438.88
352.992	427.88
353.22	403.88
353.447	394.88
353.674	407.88
353.901	381.88
354.128	373.88
354.355	371.88
354.583	370.88
354.81	375.88
355.037	367.88
355.264	364.88
355.491	360.88
355.718	344.88
355.945	358.88
356.172	371.88
356.399	343.88
356.626	353.88
356.853	369.88
357.08	369.88
357.307	356.88
357.534	387.88
357.761	356.88
357.988	370.88
358.215	369.88
358.441	347.88
358.668	364.88
358.895	369.88
359.122	396.88
359.349	397.88
359.576	405.88
359.802	427.88
360.029	445.88
360.256	454.88
360.483	420.88
360.709	397.88
360.936	406.88
361.163	399.88
361.39	394.88
361.616	402.88
361.843	374.88
362.07	403.88
362.296	409.88
362.523	376.88
362.749	393.88
362.976	395.88
363.203	367.88
363.429	350.88
363.656	381.88
363.882	363.88
364.109	373.88
364.335	383.88
364.562	373.88
364.788	349.88
365.015	379.88
365.241	391.88
365.468	375.88
365.694	379.88
365.92	379.88
366.147	362.88
366.373	379.88
366.599	367.88
366.826	375.88
367.052	359.88
367.278	389.88
367.505	371.88
367.731	369.88
367.957	387.88
368.184	378.88
368.41	391.88
368.636	394.88
368.862	409.88
369.089	376.88
369.315	373.88
369.541	365.88
369.767	351.88
369.993	377.88
370.219	379.88
370.445	376.88
370.672	359.88
370.898	374.88
371.124	362.88
371.35	351.88
371.576	360.88
371.802	360.88
372.028	356.88
372.254	346.88
372.48	346.88
372.706	358.88
372.932	349.88
373.158	357.88
373.384	374.88
373.61	370.88
373.835	360.88
374.061	347.88
374.287	355.88
374.513	361.88
374.739	365.88
374.965	344.88
375.191	367.88
375.416	352.88
375.642	352.88
375.868	374.88
376.094	371.88
376.319	359.88
376.545	344.88
376.771	344.88
376.997	345.88
377.222	354.88
377.448	360.88
377.674	356.88
377.899	349.88
378.125	349.88
378.35	349.88
378.576	360.88
378.802	356.88
379.027	353.88
379.253	352.88
379.478	380.88
379.704	349.88
379.929	362.88
380.155	353.88
380.38	359.88
380.606	332.88
380.831	356.88
381.057	358.88
381.282	368.88
381.507	357.88
381.733	367.88
381.958	347.88
382.184	348.88
382.409	355.88
382.634	353.88
382.86	379.88
383.085	373.88
383.31	356.88
383.535	367.88
383.761	351.88
383.986	361.88
384.211	362.88
384.436	361.88
384.662	368.88
384.887	363.88
385.112	367.88
385.337	370.88
385.562	364.88
385.787	353.88
386.013	390.88
386.238	386.88
386.463	369.88
386.688	371.88
386.913	363.88
387.138	371.88
387.363	369.88
387.588	371.88
387.813	375.88
388.038	359.88
388.263	371.88
388.488	376.88
388.713	389.88
388.938	377.88
389.163	359.88
389.387	381.88
389.612	354.88
389.837	360.88
390.062	375.88
390.287	367.88
390.512	346.88
390.736	368.88
390.961	353.88
391.186	375.88
391.411	385.88
391.636	388.88
391.86	358.88
392.085	381.88
392.31	376.88
392.534	377.88
392.759	353.88
392.984	378.88
393.208	379.88
393.433	379.88
393.658	384.88
393.882	376.88
394.107	371.88
394.331	382.88
394.556	348.88
394.78	354.88
395.005	371.88
395.229	383.88
395.454	395.88
395.678	369.88
395.903	399.88
396.127	436.88
396.352	396.88
396.576	385.88
396.801	393.88
397.025	384.88
397.249	388.88
397.474	395.88
397.698	373.88
397.922	405.88
398.147	438.88
398.371	436.88
398.595	406.88
398.82	431.88
399.044	405.88
399.268	421.88
399.492	434.88
399.717	442.88
399.941	476.88
400.165	527.88
400.389	523.88
400.613	479.88
400.837	455.88
401.062	429.88
401.286	425.88
401.51	415.88
401.734	417.88
401.958	422.88
402.182	424.88
402.406	417.88
402.63	448.88
402.854	429.88
403.078	438.88
403.302	423.88
403.526	447.88
403.75	441.88
403.974	446.88
404.198	420.88
404.422	449.88
404.645	469.88
404.869	467.88
405.093	512.88
405.317	567.88
405.541	578.88
405.765	523.88
405.988	498.88
406.212	501.88
406.436	509.88
406.66	513.88
406.883	472.88
407.107	507.88
407.331	556.88
407.555	615.88
407.778	589.88
408.002	543.88
408.226	490.88
408.449	511.88
408.673	511.88
408.896	517.88
409.12	591.88
409.344	518.88
409.567	462.88
409.791	436.88
410.014	439.88
410.238	446.88
410.461	453.88
410.685	448.88
410.908	468.88
411.132	484.88
411.355	526.88
411.578	503.88
411.802	467.88
412.025	445.88
412.249	479.88
412.472	498.88
412.695	553.88
412.919	573.88
413.142	497.88
413.365	476.88
413.589	464.88
413.812	450.88
414.035	427.88
414.258	431.88
414.482	422.88
414.705	423.88
414.928	408.88
415.151	418.88
415.374	417.88
415.597	412.88
415.821	419.88
416.044	443.88
416.267	411.88
416.49	425.88
416.713	412.88
416.936	404.88
417.159	425.88
417.382	428.88
417.605	435.88
417.828	458.88
418.051	451.88
418.274	458.88
418.497	433.88
418.72	414.88
418.943	414.88
419.166	442.88
419.389	449.88
419.611	446.88
419.834	458.88
420.057	465.88
420.28	473.88
420.503	482.88
420.726	484.88
420.948	496.88
421.171	523.88
421.394	548.88
421.617	507.88
421.839	460.88
422.062	467.88
422.285	451.88
422.507	494.88
422.73	567.88
422.953	564.88
423.175	492.88
423.398	457.88
423.621	469.88
423.843	488.88
424.066	493.88
424.288	486.88
424.511	512.88
424.733	584.88
424.956	634.88
425.178	619.88
425.401	652.88
425.623	647.88
425.846	545.88
426.068	509.88
426.291	513.88
426.513	504.88
426.735	511.88
426.958	543.88
427.18	638.88
427.402	746.88
427.625	855.88
427.847	775.88
428.069	659.88
428.292	577.88
428.514	535.88
428.736	500.88
428.958	498.88
429.181	464.88
429.403	465.88
429.625	475.88
429.847	513.88
430.069	577.88
430.292	568.88
430.514	491.88
430.736	474.88
430.958	452.88
431.18	439.88
431.402	431.88
431.624	412.88
431.846	393.88
432.068	432.88
432.29	412.88
432.512	421.88
432.734	422.88
432.956	439.88
433.178	462.88
433.4	457.88
433.622	411.88
433.844	423.88
434.066	429.88
434.287	423.88
434.509	409.88
434.731	432.88
434.953	432.88
435.175	455.88
435.397	487.88
435.618	489.88
435.84	544.88
436.062	624.88
436.284	709.88
436.505	593.88
436.727	501.88
436.949	506.88
437.17	450.88
437.392	476.88
437.614	484.88
437.835	515.88
438.057	599.88
438.278	709.88
438.5	746.88
438.721	764.88
438.943	720.88
439.165	597.88
439.386	536.88
439.608	522.88
439.829	525.88
440.05	570.88
440.272	599.88
440.493	574.88
440.715	514.88
440.936	476.88
441.158	458.88
441.379	467.88
441.6	467.88
441.822	500.88
442.043	539.88
442.264	609.88
442.486	680.88
442.707	561.88
442.928	517.88
443.149	505.88
443.371	542.88
443.592	566.88
443.813	673.88
444.034	730.88
444.255	577.88
444.476	492.88
444.698	493.88
444.919	489.88
445.14	568.88
445.361	543.88
445.582	540.88
445.803	622.88
446.024	699.88
446.245	717.88
446.466	650.88
446.687	567.88
446.908	521.88
447.129	512.88
447.35	453.88
447.571	463.88
447.792	465.88
448.013	460.88
448.234	497.88
448.455	547.88
448.675	635.88
448.896	753.88
449.117	629.88
449.338	604.88
449.559	674.88
449.779	779.88
450	632.88
450.221	543.88
450.442	495.88
450.662	480.88
450.883	466.88
451.104	497.88
451.324	506.88
451.545	472.88
451.766	415.88
451.986	424.88
452.207	428.88
452.428	405.88
452.648	424.88
452.869	415.88
453.089	426.88
453.31	429.88
453.53	424.88
453.751	410.88
453.971	426.88
454.192	454.88
454.412	435.88
454.633	415.88
454.853	425.88
455.073	407.88
455.294	460.88
455.514	501.88
455.734	501.88
455.955	425.88
456.175	419.88
456.395	375.88
456.616	374.88
456.836	372.88
457.056	379.88
457.276	385.88
457.497	379.88
457.717	376.88
457.937	390.88
458.157	378.88
458.377	390.88
458.598	432.88
458.818	460.88
459.038	578.88
459.258	592.88
459.478	469.88
459.698	443.88
459.918	429.88
460.138	424.88
460.358	402.88
460.578	412.88
460.798	411.88
461.018	423.88
461.238	425.88
461.458	417.88
461.678	405.88
461.898	414.88
462.118	409.88
462.338	413.88
462.558	424.88
462.777	411.88
462.997	421.88
463.217	433.88
463.437	428.88
463.657	428.88
463.876	411.88
464.096	426.88
464.316	433.88
464.536	443.88
464.755	455.88
464.975	441.88
465.195	501.88
465.414	599.88
465.634	503.88
465.854	462.88
466.073	452.88
466.293	438.88
466.512	419.88
466.732	413.88
466.951	410.88
467.171	411.88
467.391	398.88
467.61	433.88
467.829	455.88
468.049	437.88
468.268	449.88
468.488	436.88
468.707	416.88
468.927	395.88
469.146	387.88
469.365	403.88
469.585	425.88
469.804	410.88
470.023	429.88
470.243	432.88
470.462	439.88
470.681	447.88
470.901	455.88
471.12	453.88
471.339	424.88
471.558	431.88
471.777	441.88
471.997	428.88
472.216	468.88
472.435	575.88
472.654	525.88
472.873	478.88
473.092	447.88
473.311	417.88
473.53	442.88
473.749	449.88
473.968	476.88
474.187	608.88
474.406	616.88
474.625	498.88
474.844	445.88
475.063	428.88
475.282	431.88
475.501	437.88
475.72	453.88
475.939	416.88
476.158	454.88
476.377	441.88
476.596	437.88
476.814	445.88
477.033	450.88
477.252	441.88
477.471	456.88
477.69	441.88
477.908	467.88
478.127	447.88
478.346	455.88
478.564	472.88
478.783	483.88
479.002	459.88
479.22	479.88
479.439	475.88
479.658	497.88
479.876	523.88
480.095	520.88
480.313	578.88
480.532	541.88
480.751	524.88
480.969	583.88
481.188	721.88
481.406	845.88
481.624	650.88
481.843	580.88
482.061	563.88
482.28	561.88
482.498	551.88
482.717	531.88
482.935	518.88
483.153	536.88
483.372	525.88
483.59	514.88
483.808	517.88
484.027	506.88
484.245	516.88
484.463	531.88
484.681	524.88
484.9	515.88
485.118	528.88
485.336	535.88
485.554	520.88
485.772	542.88
485.99	513.88
486.209	526.88
486.427	547.88
486.645	546.88
486.863	598.88
487.081	559.88
487.299	566.88
487.517	573.88
487.735	548.88
487.953	572.88
488.171	549.88
488.389	557.88
488.607	555.88
488.825	556.88
489.043	569.88
489.261	566.88
489.479	549.88
489.696	581.88
489.914	595.88
490.132	612.88
490.35	576.88
490.568	608.88
490.786	583.88
491.003	593.88
491.221	627.88
491.439	637.88
491.657	634.88
491.874	648.88
492.092	660.88
492.31	691.88
492.527	653.88
492.745	673.88
492.963	687.88
493.18	693.88
493.398	680.88
493.615	657.88
493.833	677.88
494.05	675.88
494.268	675.88
494.485	700.88
494.703	674.88
494.92	657.88
495.138	697.88
495.355	661.88
495.573	669.88
495.79	675.88
496.008	664.88
496.225	679.88
496.442	677.88
496.66	684.88
496.877	672.88
497.094	671.88
497.312	677.88
497.529	690.88
497.746	671.88
497.963	701.88
498.181	705.88
498.398	709.88
498.615	703.88
498.832	706.88
499.049	723.88
499.267	721.88
499.484	723.88
499.701	729.88
499.918	752.88
500.135	781.88
500.352	776.88
500.569	802.88
500.786	807.88
501.003	819.88
501.22	786.88
501.437	794.88
501.654	785.88
501.871	800.88
