Data from 1986.PennyLincolnUp.Lamp.En5.5.200Scan.071819.P2_HRD10591_17-12-33-972.txt Node
Date: Thu Jul 18 17:12:33 EDT 2019
User: cochatt
Spectrometer: HR+D1059
Trigger mode: 1
Integration Time (sec): 1.000000E-1
Scans to average: 1
Electric dark correction enabled: true
Nonlinearity correction enabled: false
Boxcar width: 0
XAxis mode: Wavelengths
Number of Pixels in Spectrum: 2048
>>>>>Begin Spectral Data<<<<<
223.165	-22.31
223.4	-22.31
223.635	-22.31
223.869	-20.31
224.104	-22.31
224.338	-12.31
224.573	-12.31
224.808	-0.31
225.042	-2.31
225.277	-0.31
225.511	-3.31
225.746	0.69
225.98	-5.31
226.215	14.69
226.449	10.69
226.683	23.69
226.918	17.69
227.152	33.69
227.387	36.69
227.621	44.69
227.856	34.69
228.09	44.69
228.324	29.69
228.559	61.69
228.793	75.69
229.027	101.69
229.262	112.69
229.496	128.69
229.73	131.69
229.964	165.69
230.199	127.69
230.433	120.69
230.667	124.69
230.901	112.69
231.136	121.69
231.37	135.69
231.604	123.69
231.838	115.69
232.072	114.69
232.306	116.69
232.541	101.69
232.775	112.69
233.009	114.69
233.243	124.69
233.477	123.69
233.711	124.69
233.945	129.69
234.179	123.69
234.413	132.69
234.647	124.69
234.881	113.69
235.115	116.69
235.349	129.69
235.583	111.69
235.817	124.69
236.051	129.69
236.285	136.69
236.519	129.69
236.753	126.69
236.987	133.69
237.221	193.69
237.455	266.69
237.689	208.69
237.922	161.69
238.156	135.69
238.39	143.69
238.624	125.69
238.858	137.69
239.091	129.69
239.325	138.69
239.559	129.69
239.793	135.69
240.027	140.69
240.26	155.69
240.494	167.69
240.728	148.69
240.961	150.69
241.195	149.69
241.429	144.69
241.662	140.69
241.896	139.69
242.13	142.69
242.363	147.69
242.597	132.69
242.83	148.69
243.064	149.69
243.298	152.69
243.531	128.69
243.765	134.69
243.998	148.69
244.232	156.69
244.465	149.69
244.699	164.69
244.932	149.69
245.166	150.69
245.399	147.69
245.633	154.69
245.866	161.69
246.099	152.69
246.333	181.69
246.566	168.69
246.8	153.69
247.033	162.69
247.266	170.69
247.5	179.69
247.733	186.69
247.966	172.69
248.2	196.69
248.433	173.69
248.666	193.69
248.899	187.69
249.133	217.69
249.366	231.69
249.599	219.69
249.832	205.69
250.066	214.69
250.299	213.69
250.532	235.69
250.765	277.69
250.998	283.69
251.231	277.69
251.465	258.69
251.698	259.69
251.931	224.69
252.164	232.69
252.397	207.69
252.63	205.69
252.863	239.69
253.096	225.69
253.329	241.69
253.562	256.69
253.795	259.69
254.028	256.69
254.261	229.69
254.494	264.69
254.727	283.69
254.96	312.69
255.193	305.69
255.426	306.69
255.659	294.69
255.892	318.69
256.124	358.69
256.357	386.69
256.59	367.69
256.823	315.69
257.056	275.69
257.289	271.69
257.521	270.69
257.754	269.69
257.987	244.69
258.22	236.69
258.452	241.69
258.685	243.69
258.918	224.69
259.151	241.69
259.383	255.69
259.616	260.69
259.849	236.69
260.081	257.69
260.314	257.69
260.547	281.69
260.779	261.69
261.012	272.69
261.244	252.69
261.477	255.69
261.71	223.69
261.942	239.69
262.175	269.69
262.407	239.69
262.64	240.69
262.872	248.69
263.105	246.69
263.337	234.69
263.57	232.69
263.802	228.69
264.035	233.69
264.267	234.69
264.499	219.69
264.732	200.69
264.964	222.69
265.197	219.69
265.429	250.69
265.661	225.69
265.894	220.69
266.126	244.69
266.358	226.69
266.591	230.69
266.823	228.69
267.055	252.69
267.287	246.69
267.52	224.69
267.752	252.69
267.984	234.69
268.216	261.69
268.448	245.69
268.681	248.69
268.913	255.69
269.145	266.69
269.377	288.69
269.609	292.69
269.841	277.69
270.073	299.69
270.306	296.69
270.538	325.69
270.77	332.69
271.002	319.69
271.234	316.69
271.466	322.69
271.698	344.69
271.93	343.69
272.162	328.69
272.394	353.69
272.626	311.69
272.858	335.69
273.09	292.69
273.322	297.69
273.553	289.69
273.785	288.69
274.017	285.69
274.249	299.69
274.481	280.69
274.713	269.69
274.945	279.69
275.176	266.69
275.408	284.69
275.64	288.69
275.872	295.69
276.104	288.69
276.335	284.69
276.567	291.69
276.799	299.69
277.031	343.69
277.262	345.69
277.494	346.69
277.726	330.69
277.957	313.69
278.189	290.69
278.421	300.69
278.652	280.69
278.884	275.69
279.115	287.69
279.347	294.69
279.579	288.69
279.81	276.69
280.042	283.69
280.273	303.69
280.505	310.69
280.736	299.69
280.968	317.69
281.199	295.69
281.431	293.69
281.662	292.69
281.894	294.69
282.125	287.69
282.356	313.69
282.588	323.69
282.819	343.69
283.051	296.69
283.282	279.69
283.513	292.69
283.745	295.69
283.976	284.69
284.207	291.69
284.439	314.69
284.67	299.69
284.901	287.69
285.132	284.69
285.364	268.69
285.595	296.69
285.826	280.69
286.057	298.69
286.288	296.69
286.52	292.69
286.751	288.69
286.982	277.69
287.213	304.69
287.444	283.69
287.675	314.69
287.906	307.69
288.138	301.69
288.369	323.69
288.6	317.69
288.831	325.69
289.062	299.69
289.293	304.69
289.524	303.69
289.755	307.69
289.986	298.69
290.217	298.69
290.448	312.69
290.679	297.69
290.91	286.69
291.141	296.69
291.371	307.69
291.602	292.69
291.833	282.69
292.064	301.69
292.295	292.69
292.526	274.69
292.757	306.69
292.987	300.69
293.218	289.69
293.449	299.69
293.68	308.69
293.91	295.69
294.141	286.69
294.372	287.69
294.603	294.69
294.833	295.69
295.064	282.69
295.295	296.69
295.525	305.69
295.756	307.69
295.987	319.69
296.217	323.69
296.448	339.69
296.679	312.69
296.909	297.69
297.14	294.69
297.37	321.69
297.601	303.69
297.831	291.69
298.062	297.69
298.292	304.69
298.523	316.69
298.753	322.69
298.984	327.69
299.214	300.69
299.445	300.69
299.675	300.69
299.905	313.69
300.136	331.69
300.366	303.69
300.597	319.69
300.827	323.69
301.057	337.69
301.288	318.69
301.518	334.69
301.748	311.69
301.979	338.69
302.209	347.69
302.439	331.69
302.669	329.69
302.9	325.69
303.13	315.69
303.36	332.69
303.59	319.69
303.82	330.69
304.051	348.69
304.281	331.69
304.511	331.69
304.741	314.69
304.971	319.69
305.201	315.69
305.431	300.69
305.661	315.69
305.891	333.69
306.121	332.69
306.352	348.69
306.582	345.69
306.812	351.69
307.042	340.69
307.272	329.69
307.502	355.69
307.731	340.69
307.961	346.69
308.191	336.69
308.421	328.69
308.651	341.69
308.881	359.69
309.111	367.69
309.341	350.69
309.571	349.69
309.8	367.69
310.03	379.69
310.26	376.69
310.49	376.69
310.72	390.69
310.949	370.69
311.179	400.69
311.409	396.69
311.639	379.69
311.868	374.69
312.098	405.69
312.328	387.69
312.557	404.69
312.787	417.69
313.017	405.69
313.246	381.69
313.476	372.69
313.706	378.69
313.935	409.69
314.165	418.69
314.394	428.69
314.624	412.69
314.853	389.69
315.083	404.69
315.312	381.69
315.542	390.69
315.771	374.69
316.001	382.69
316.23	391.69
316.46	387.69
316.689	386.69
316.919	374.69
317.148	422.69
317.377	425.69
317.607	378.69
317.836	386.69
318.065	401.69
318.295	371.69
318.524	381.69
318.753	364.69
318.983	403.69
319.212	406.69
319.441	415.69
319.67	407.69
319.9	399.69
320.129	396.69
320.358	410.69
320.587	415.69
320.816	427.69
321.046	424.69
321.275	424.69
321.504	406.69
321.733	423.69
321.962	426.69
322.191	451.69
322.42	442.69
322.649	458.69
322.878	468.69
323.108	481.69
323.337	519.69
323.566	561.69
323.795	596.69
324.024	629.69
324.253	786.69
324.482	1106.69
324.71	1715.69
324.939	2462.69
325.168	2193.69
325.397	1133.69
325.626	726.69
325.855	643.69
326.084	595.69
326.313	559.69
326.542	537.69
326.77	635.69
326.999	742.69
327.228	991.69
327.457	1564.69
327.686	1907.69
327.914	1309.69
328.143	895.69
328.372	825.69
328.6	765.69
328.829	674.69
329.058	690.69
329.287	684.69
329.515	668.69
329.744	681.69
329.972	722.69
330.201	823.69
330.43	971.69
330.658	896.69
330.887	804.69
331.115	737.69
331.344	635.69
331.572	587.69
331.801	585.69
332.03	572.69
332.258	547.69
332.486	532.69
332.715	513.69
332.943	520.69
333.172	526.69
333.4	554.69
333.629	596.69
333.857	619.69
334.085	706.69
334.314	819.69
334.542	1005.69
334.771	1091.69
334.999	833.69
335.227	635.69
335.455	579.69
335.684	532.69
335.912	502.69
336.14	491.69
336.369	491.69
336.597	481.69
336.825	476.69
337.053	463.69
337.281	450.69
337.51	456.69
337.738	447.69
337.966	464.69
338.194	460.69
338.422	464.69
338.65	430.69
338.878	449.69
339.106	415.69
339.334	433.69
339.562	425.69
339.79	417.69
340.018	426.69
340.246	455.69
340.474	449.69
340.702	431.69
340.93	447.69
341.158	426.69
341.386	409.69
341.614	443.69
341.842	442.69
342.07	432.69
342.298	418.69
342.526	432.69
342.754	417.69
342.981	415.69
343.209	407.69
343.437	425.69
343.665	435.69
343.893	418.69
344.12	422.69
344.348	395.69
344.576	416.69
344.804	451.69
345.031	449.69
345.259	449.69
345.487	437.69
345.714	414.69
345.942	419.69
346.17	417.69
346.397	420.69
346.625	409.69
346.853	427.69
347.08	408.69
347.308	421.69
347.535	436.69
347.763	426.69
347.99	447.69
348.218	444.69
348.445	440.69
348.673	448.69
348.9	420.69
349.128	403.69
349.355	400.69
349.583	415.69
349.81	402.69
350.037	429.69
350.265	412.69
350.492	401.69
350.72	409.69
350.947	407.69
351.174	413.69
351.402	416.69
351.629	440.69
351.856	405.69
352.083	429.69
352.311	442.69
352.538	433.69
352.765	440.69
352.992	396.69
353.22	434.69
353.447	415.69
353.674	409.69
353.901	397.69
354.128	395.69
354.355	404.69
354.583	377.69
354.81	402.69
355.037	400.69
355.264	384.69
355.491	371.69
355.718	406.69
355.945	376.69
356.172	386.69
356.399	377.69
356.626	385.69
356.853	381.69
357.08	395.69
357.307	376.69
357.534	371.69
357.761	367.69
357.988	372.69
358.215	363.69
358.441	389.69
358.668	371.69
358.895	372.69
359.122	385.69
359.349	396.69
359.576	422.69
359.802	434.69
360.029	461.69
360.256	462.69
360.483	449.69
360.709	412.69
360.936	413.69
361.163	408.69
361.39	413.69
361.616	419.69
361.843	412.69
362.07	394.69
362.296	429.69
362.523	420.69
362.749	429.69
362.976	408.69
363.203	386.69
363.429	373.69
363.656	389.69
363.882	399.69
364.109	397.69
364.335	381.69
364.562	394.69
364.788	383.69
365.015	381.69
365.241	387.69
365.468	387.69
365.694	389.69
365.92	382.69
366.147	384.69
366.373	367.69
366.599	392.69
366.826	365.69
367.052	385.69
367.278	390.69
367.505	383.69
367.731	406.69
367.957	377.69
368.184	368.69
368.41	382.69
368.636	410.69
368.862	386.69
369.089	371.69
369.315	373.69
369.541	385.69
369.767	383.69
369.993	385.69
370.219	387.69
370.445	369.69
370.672	382.69
370.898	384.69
371.124	373.69
371.35	372.69
371.576	388.69
371.802	393.69
372.028	379.69
372.254	364.69
372.48	361.69
372.706	360.69
372.932	369.69
373.158	365.69
373.384	371.69
373.61	369.69
373.835	367.69
374.061	383.69
374.287	382.69
374.513	386.69
374.739	383.69
374.965	378.69
375.191	354.69
375.416	387.69
375.642	375.69
375.868	385.69
376.094	384.69
376.319	385.69
376.545	373.69
376.771	362.69
376.997	362.69
377.222	367.69
377.448	369.69
377.674	352.69
377.899	340.69
378.125	367.69
378.35	391.69
378.576	367.69
378.802	372.69
379.027	368.69
379.253	366.69
379.478	372.69
379.704	364.69
379.929	385.69
380.155	381.69
380.38	385.69
380.606	390.69
380.831	387.69
381.057	376.69
381.282	366.69
381.507	368.69
381.733	389.69
381.958	371.69
382.184	366.69
382.409	369.69
382.634	362.69
382.86	367.69
383.085	355.69
383.31	381.69
383.535	367.69
383.761	377.69
383.986	367.69
384.211	396.69
384.436	351.69
384.662	385.69
384.887	385.69
385.112	394.69
385.337	377.69
385.562	385.69
385.787	385.69
386.013	416.69
386.238	407.69
386.463	411.69
386.688	400.69
386.913	389.69
387.138	394.69
387.363	390.69
387.588	409.69
387.813	402.69
388.038	398.69
388.263	397.69
388.488	398.69
388.713	378.69
388.938	395.69
389.163	377.69
389.387	386.69
389.612	380.69
389.837	403.69
390.062	395.69
390.287	394.69
390.512	379.69
390.736	385.69
390.961	390.69
391.186	384.69
391.411	378.69
391.636	392.69
391.86	386.69
392.085	391.69
392.31	382.69
392.534	377.69
392.759	382.69
392.984	393.69
393.208	373.69
393.433	385.69
393.658	393.69
393.882	363.69
394.107	387.69
394.331	393.69
394.556	385.69
394.78	384.69
395.005	385.69
395.229	387.69
395.454	403.69
395.678	373.69
395.903	424.69
396.127	432.69
396.352	421.69
396.576	410.69
396.801	396.69
397.025	380.69
397.249	401.69
397.474	391.69
397.698	419.69
397.922	425.69
398.147	439.69
398.371	417.69
398.595	403.69
398.82	420.69
399.044	431.69
399.268	433.69
399.492	465.69
399.717	480.69
399.941	485.69
400.165	511.69
400.389	532.69
400.613	491.69
400.837	476.69
401.062	459.69
401.286	452.69
401.51	435.69
401.734	439.69
401.958	441.69
402.182	447.69
402.406	454.69
402.63	440.69
402.854	458.69
403.078	445.69
403.302	470.69
403.526	447.69
403.75	482.69
403.974	467.69
404.198	456.69
404.422	470.69
404.645	499.69
404.869	524.69
405.093	563.69
405.317	607.69
405.541	620.69
405.765	589.69
405.988	531.69
406.212	530.69
406.436	553.69
406.66	534.69
406.883	509.69
407.107	534.69
407.331	557.69
407.555	604.69
407.778	609.69
408.002	547.69
408.226	521.69
408.449	507.69
408.673	482.69
408.896	531.69
409.12	546.69
409.344	553.69
409.567	490.69
409.791	470.69
410.014	455.69
410.238	465.69
410.461	465.69
410.685	457.69
410.908	476.69
411.132	534.69
411.355	569.69
411.578	545.69
411.802	483.69
412.025	514.69
412.249	516.69
412.472	599.69
412.695	628.69
412.919	643.69
413.142	575.69
413.365	531.69
413.589	512.69
413.812	472.69
414.035	484.69
414.258	483.69
414.482	467.69
414.705	463.69
414.928	459.69
415.151	459.69
415.374	455.69
415.597	430.69
415.821	443.69
416.044	461.69
416.267	455.69
416.49	435.69
416.713	432.69
416.936	443.69
417.159	429.69
417.382	458.69
417.605	464.69
417.828	498.69
418.051	507.69
418.274	453.69
418.497	454.69
418.72	443.69
418.943	471.69
419.166	458.69
419.389	503.69
419.611	498.69
419.834	500.69
420.057	489.69
420.28	530.69
420.503	549.69
420.726	545.69
420.948	544.69
421.171	559.69
421.394	573.69
421.617	504.69
421.839	488.69
422.062	484.69
422.285	488.69
422.507	569.69
422.73	614.69
422.953	592.69
423.175	515.69
423.398	501.69
423.621	480.69
423.843	503.69
424.066	492.69
424.288	505.69
424.511	531.69
424.733	551.69
424.956	653.69
425.178	633.69
425.401	632.69
425.623	645.69
425.846	547.69
426.068	514.69
426.291	517.69
426.513	512.69
426.735	529.69
426.958	544.69
427.18	642.69
427.402	752.69
427.625	854.69
427.847	773.69
428.069	730.69
428.292	653.69
428.514	538.69
428.736	507.69
428.958	513.69
429.181	494.69
429.403	466.69
429.625	488.69
429.847	536.69
430.069	565.69
430.292	565.69
430.514	502.69
430.736	462.69
430.958	466.69
431.18	459.69
431.402	453.69
431.624	448.69
431.846	444.69
432.068	436.69
432.29	436.69
432.512	439.69
432.734	447.69
432.956	444.69
433.178	451.69
433.4	475.69
433.622	438.69
433.844	446.69
434.066	433.69
434.287	451.69
434.509	438.69
434.731	459.69
434.953	450.69
435.175	476.69
435.397	477.69
435.618	520.69
435.84	543.69
436.062	641.69
436.284	717.69
436.505	600.69
436.727	533.69
436.949	482.69
437.17	462.69
437.392	457.69
437.614	487.69
437.835	521.69
438.057	624.69
438.278	711.69
438.5	711.69
438.721	796.69
438.943	790.69
439.165	595.69
439.386	549.69
439.608	534.69
439.829	530.69
440.05	571.69
440.272	584.69
440.493	583.69
440.715	526.69
440.936	499.69
441.158	477.69
441.379	467.69
441.6	496.69
441.822	517.69
442.043	557.69
442.264	617.69
442.486	683.69
442.707	575.69
442.928	505.69
443.149	521.69
443.371	549.69
443.592	582.69
443.813	701.69
444.034	738.69
444.255	610.69
444.476	537.69
444.698	517.69
444.919	514.69
445.14	589.69
445.361	558.69
445.582	571.69
445.803	621.69
446.024	730.69
446.245	738.69
446.466	680.69
446.687	561.69
446.908	533.69
447.129	497.69
447.35	465.69
447.571	481.69
447.792	479.69
448.013	479.69
448.234	483.69
448.455	572.69
448.675	671.69
448.896	771.69
449.117	675.69
449.338	607.69
449.559	704.69
449.779	771.69
450	659.69
450.221	525.69
450.442	504.69
450.662	489.69
450.883	482.69
451.104	503.69
451.324	504.69
451.545	444.69
451.766	448.69
451.986	444.69
452.207	440.69
452.428	417.69
452.648	441.69
452.869	434.69
453.089	418.69
453.31	439.69
453.53	465.69
453.751	431.69
453.971	432.69
454.192	448.69
454.412	437.69
454.633	408.69
454.853	421.69
455.073	421.69
455.294	451.69
455.514	537.69
455.734	512.69
455.955	443.69
456.175	402.69
456.395	418.69
456.616	411.69
456.836	400.69
457.056	396.69
457.276	392.69
457.497	411.69
457.717	423.69
457.937	417.69
458.157	402.69
458.377	409.69
458.598	435.69
458.818	499.69
459.038	567.69
459.258	603.69
459.478	486.69
459.698	448.69
459.918	452.69
460.138	415.69
460.358	415.69
460.578	438.69
460.798	427.69
461.018	441.69
461.238	439.69
461.458	437.69
461.678	417.69
461.898	433.69
462.118	414.69
462.338	444.69
462.558	432.69
462.777	457.69
462.997	429.69
463.217	459.69
463.437	426.69
463.657	441.69
463.876	445.69
464.096	478.69
464.316	473.69
464.536	445.69
464.755	450.69
464.975	456.69
465.195	503.69
465.414	586.69
465.634	554.69
465.854	469.69
466.073	445.69
466.293	467.69
466.512	436.69
466.732	447.69
466.951	438.69
467.171	428.69
467.391	450.69
467.61	447.69
467.829	435.69
468.049	476.69
468.268	522.69
468.488	482.69
468.707	473.69
468.927	446.69
469.146	445.69
469.365	456.69
469.585	421.69
469.804	449.69
470.023	454.69
470.243	424.69
470.462	449.69
470.681	460.69
470.901	439.69
471.12	456.69
471.339	446.69
471.558	453.69
471.777	443.69
471.997	481.69
472.216	533.69
472.435	750.69
472.654	718.69
472.873	559.69
473.092	506.69
473.311	490.69
473.53	468.69
473.749	500.69
473.968	504.69
474.187	637.69
474.406	641.69
474.625	523.69
474.844	499.69
475.063	466.69
475.282	465.69
475.501	456.69
475.72	489.69
475.939	448.69
476.158	468.69
476.377	463.69
476.596	453.69
476.814	473.69
477.033	475.69
477.252	495.69
477.471	502.69
477.69	497.69
477.908	490.69
478.127	488.69
478.346	482.69
478.564	471.69
478.783	480.69
479.002	506.69
479.22	493.69
479.439	524.69
479.658	547.69
479.876	528.69
480.095	553.69
480.313	583.69
480.532	578.69
480.751	575.69
480.969	675.69
481.188	964.69
481.406	1251.69
481.624	879.69
481.843	717.69
482.061	665.69
482.28	600.69
482.498	605.69
482.717	585.69
482.935	585.69
483.153	577.69
483.372	559.69
483.59	564.69
483.808	546.69
484.027	549.69
484.245	563.69
484.463	557.69
484.681	555.69
484.9	559.69
485.118	575.69
485.336	572.69
485.554	563.69
485.772	563.69
485.99	548.69
486.209	585.69
486.427	565.69
486.645	588.69
486.863	584.69
487.081	603.69
487.299	605.69
487.517	589.69
487.735	600.69
487.953	597.69
488.171	607.69
488.389	601.69
488.607	615.69
488.825	613.69
489.043	582.69
489.261	609.69
489.479	613.69
489.696	611.69
489.914	645.69
490.132	617.69
490.35	644.69
490.568	639.69
490.786	652.69
491.003	680.69
491.221	678.69
491.439	686.69
491.657	731.69
491.874	714.69
492.092	707.69
492.31	716.69
492.527	740.69
492.745	736.69
492.963	723.69
493.18	737.69
493.398	738.69
493.615	741.69
493.833	748.69
494.05	753.69
494.268	749.69
494.485	720.69
494.703	714.69
494.92	740.69
495.138	721.69
495.355	731.69
495.573	728.69
495.79	721.69
496.008	711.69
496.225	723.69
496.442	707.69
496.66	712.69
496.877	709.69
497.094	713.69
497.312	731.69
497.529	732.69
497.746	768.69
497.963	724.69
498.181	748.69
498.398	754.69
498.615	724.69
498.832	760.69
499.049	755.69
499.267	758.69
499.484	767.69
499.701	776.69
499.918	775.69
500.135	804.69
500.352	841.69
500.569	842.69
500.786	865.69
501.003	861.69
501.22	861.69
501.437	856.69
501.654	807.69
501.871	818.69
