Data from 1986.PennyLincolnUp.Lamp.En5.5.200Scan.071819.P2_HRD10591_17-11-41-973.txt Node
Date: Thu Jul 18 17:11:41 EDT 2019
User: cochatt
Spectrometer: HR+D1059
Trigger mode: 1
Integration Time (sec): 1.000000E-1
Scans to average: 1
Electric dark correction enabled: true
Nonlinearity correction enabled: false
Boxcar width: 0
XAxis mode: Wavelengths
Number of Pixels in Spectrum: 2048
>>>>>Begin Spectral Data<<<<<
223.165	-17.5
223.4	-17.5
223.635	-17.5
223.869	-20.5
224.104	0.5
224.338	-16.5
224.573	-24.5
224.808	-24.5
225.042	-14.5
225.277	-4.5
225.511	11.5
225.746	4.5
225.98	5.5
226.215	13.5
226.449	19.5
226.683	11.5
226.918	31.5
227.152	24.5
227.387	36.5
227.621	35.5
227.856	45.5
228.09	33.5
228.324	29.5
228.559	54.5
228.793	77.5
229.027	103.5
229.262	100.5
229.496	117.5
229.73	125.5
229.964	171.5
230.199	144.5
230.433	106.5
230.667	119.5
230.901	120.5
231.136	111.5
231.37	100.5
231.604	109.5
231.838	113.5
232.072	111.5
232.306	100.5
232.541	116.5
232.775	106.5
233.009	108.5
233.243	114.5
233.477	116.5
233.711	111.5
233.945	107.5
234.179	121.5
234.413	111.5
234.647	113.5
234.881	116.5
235.115	128.5
235.349	119.5
235.583	113.5
235.817	133.5
236.051	127.5
236.285	122.5
236.519	113.5
236.753	131.5
236.987	124.5
237.221	193.5
237.455	230.5
237.689	193.5
237.922	149.5
238.156	133.5
238.39	131.5
238.624	127.5
238.858	123.5
239.091	136.5
239.325	137.5
239.559	140.5
239.793	135.5
240.027	140.5
240.26	144.5
240.494	165.5
240.728	138.5
240.961	154.5
241.195	167.5
241.429	158.5
241.662	156.5
241.896	137.5
242.13	126.5
242.363	134.5
242.597	139.5
242.83	131.5
243.064	148.5
243.298	135.5
243.531	143.5
243.765	129.5
243.998	136.5
244.232	145.5
244.465	136.5
244.699	149.5
244.932	151.5
245.166	154.5
245.399	159.5
245.633	155.5
245.866	139.5
246.099	155.5
246.333	151.5
246.566	152.5
246.8	150.5
247.033	156.5
247.266	164.5
247.5	160.5
247.733	162.5
247.966	195.5
248.2	192.5
248.433	181.5
248.666	191.5
248.899	191.5
249.133	204.5
249.366	216.5
249.599	200.5
249.832	203.5
250.066	196.5
250.299	201.5
250.532	208.5
250.765	220.5
250.998	251.5
251.231	260.5
251.465	242.5
251.698	227.5
251.931	212.5
252.164	197.5
252.397	209.5
252.63	219.5
252.863	232.5
253.096	231.5
253.329	242.5
253.562	253.5
253.795	237.5
254.028	243.5
254.261	235.5
254.494	236.5
254.727	259.5
254.96	293.5
255.193	289.5
255.426	291.5
255.659	265.5
255.892	279.5
256.124	281.5
256.357	322.5
256.59	295.5
256.823	263.5
257.056	247.5
257.289	235.5
257.521	226.5
257.754	212.5
257.987	230.5
258.22	212.5
258.452	246.5
258.685	229.5
258.918	214.5
259.151	227.5
259.383	220.5
259.616	242.5
259.849	246.5
260.081	258.5
260.314	270.5
260.547	269.5
260.779	259.5
261.012	245.5
261.244	252.5
261.477	244.5
261.71	239.5
261.942	213.5
262.175	251.5
262.407	225.5
262.64	225.5
262.872	210.5
263.105	214.5
263.337	230.5
263.57	219.5
263.802	222.5
264.035	231.5
264.267	213.5
264.499	212.5
264.732	204.5
264.964	210.5
265.197	217.5
265.429	206.5
265.661	214.5
265.894	226.5
266.126	242.5
266.358	220.5
266.591	212.5
266.823	205.5
267.055	210.5
267.287	223.5
267.52	220.5
267.752	230.5
267.984	241.5
268.216	241.5
268.448	221.5
268.681	233.5
268.913	257.5
269.145	257.5
269.377	284.5
269.609	284.5
269.841	289.5
270.073	279.5
270.306	300.5
270.538	315.5
270.77	332.5
271.002	312.5
271.234	300.5
271.466	304.5
271.698	313.5
271.93	333.5
272.162	347.5
272.394	341.5
272.626	307.5
272.858	298.5
273.09	291.5
273.322	284.5
273.553	286.5
273.785	280.5
274.017	269.5
274.249	278.5
274.481	280.5
274.713	278.5
274.945	266.5
275.176	277.5
275.408	284.5
275.64	267.5
275.872	255.5
276.104	261.5
276.335	280.5
276.567	277.5
276.799	287.5
277.031	319.5
277.262	327.5
277.494	342.5
277.726	318.5
277.957	277.5
278.189	279.5
278.421	269.5
278.652	267.5
278.884	270.5
279.115	259.5
279.347	267.5
279.579	275.5
279.81	279.5
280.042	280.5
280.273	269.5
280.505	279.5
280.736	270.5
280.968	275.5
281.199	279.5
281.431	274.5
281.662	273.5
281.894	272.5
282.125	287.5
282.356	293.5
282.588	309.5
282.819	313.5
283.051	273.5
283.282	266.5
283.513	268.5
283.745	265.5
283.976	287.5
284.207	274.5
284.439	268.5
284.67	258.5
284.901	287.5
285.132	272.5
285.364	276.5
285.595	271.5
285.826	278.5
286.057	279.5
286.288	264.5
286.52	275.5
286.751	290.5
286.982	285.5
287.213	279.5
287.444	295.5
287.675	279.5
287.906	276.5
288.138	295.5
288.369	299.5
288.6	283.5
288.831	288.5
289.062	287.5
289.293	277.5
289.524	281.5
289.755	268.5
289.986	275.5
290.217	302.5
290.448	274.5
290.679	285.5
290.91	288.5
291.141	262.5
291.371	269.5
291.602	284.5
291.833	272.5
292.064	281.5
292.295	283.5
292.526	273.5
292.757	282.5
292.987	270.5
293.218	288.5
293.449	285.5
293.68	291.5
293.91	288.5
294.141	290.5
294.372	279.5
294.603	277.5
294.833	299.5
295.064	281.5
295.295	295.5
295.525	287.5
295.756	287.5
295.987	290.5
296.217	306.5
296.448	338.5
296.679	307.5
296.909	295.5
297.14	282.5
297.37	306.5
297.601	299.5
297.831	297.5
298.062	293.5
298.292	280.5
298.523	291.5
298.753	293.5
298.984	288.5
299.214	294.5
299.445	282.5
299.675	280.5
299.905	306.5
300.136	323.5
300.366	309.5
300.597	292.5
300.827	298.5
301.057	316.5
301.288	330.5
301.518	299.5
301.748	317.5
301.979	319.5
302.209	333.5
302.439	307.5
302.669	301.5
302.9	319.5
303.13	305.5
303.36	307.5
303.59	323.5
303.82	330.5
304.051	323.5
304.281	313.5
304.511	312.5
304.741	316.5
304.971	310.5
305.201	307.5
305.431	327.5
305.661	311.5
305.891	282.5
306.121	322.5
306.352	332.5
306.582	336.5
306.812	324.5
307.042	311.5
307.272	310.5
307.502	325.5
307.731	342.5
307.961	321.5
308.191	325.5
308.421	317.5
308.651	328.5
308.881	312.5
309.111	336.5
309.341	344.5
309.571	343.5
309.8	354.5
310.03	371.5
310.26	371.5
310.49	372.5
310.72	408.5
310.949	383.5
311.179	393.5
311.409	372.5
311.639	376.5
311.868	373.5
312.098	373.5
312.328	389.5
312.557	382.5
312.787	407.5
313.017	428.5
313.246	391.5
313.476	376.5
313.706	359.5
313.935	383.5
314.165	381.5
314.394	396.5
314.624	393.5
314.853	393.5
315.083	391.5
315.312	388.5
315.542	361.5
315.771	373.5
316.001	360.5
316.23	372.5
316.46	355.5
316.689	373.5
316.919	363.5
317.148	387.5
317.377	376.5
317.607	359.5
317.836	383.5
318.065	377.5
318.295	370.5
318.524	389.5
318.753	369.5
318.983	369.5
319.212	373.5
319.441	380.5
319.67	376.5
319.9	386.5
320.129	385.5
320.358	397.5
320.587	389.5
320.816	398.5
321.046	416.5
321.275	397.5
321.504	405.5
321.733	433.5
321.962	396.5
322.191	429.5
322.42	437.5
322.649	431.5
322.878	475.5
323.108	477.5
323.337	531.5
323.566	533.5
323.795	585.5
324.024	658.5
324.253	767.5
324.482	1074.5
324.71	1693.5
324.939	2385.5
325.168	2147.5
325.397	1097.5
325.626	736.5
325.855	628.5
326.084	560.5
326.313	557.5
326.542	559.5
326.77	624.5
326.999	714.5
327.228	981.5
327.457	1522.5
327.686	1846.5
327.914	1259.5
328.143	844.5
328.372	758.5
328.6	714.5
328.829	657.5
329.058	659.5
329.287	689.5
329.515	618.5
329.744	597.5
329.972	618.5
330.201	679.5
330.43	752.5
330.658	751.5
330.887	720.5
331.115	689.5
331.344	596.5
331.572	567.5
331.801	525.5
332.03	521.5
332.258	486.5
332.486	482.5
332.715	453.5
332.943	482.5
333.172	473.5
333.4	482.5
333.629	500.5
333.857	524.5
334.085	570.5
334.314	623.5
334.542	730.5
334.771	781.5
334.999	649.5
335.227	517.5
335.455	487.5
335.684	475.5
335.912	464.5
336.14	441.5
336.369	441.5
336.597	460.5
336.825	453.5
337.053	459.5
337.281	422.5
337.51	418.5
337.738	431.5
337.966	428.5
338.194	441.5
338.422	428.5
338.65	422.5
338.878	417.5
339.106	419.5
339.334	433.5
339.562	421.5
339.79	412.5
340.018	397.5
340.246	425.5
340.474	401.5
340.702	410.5
340.93	433.5
341.158	389.5
341.386	391.5
341.614	416.5
341.842	397.5
342.07	415.5
342.298	405.5
342.526	406.5
342.754	403.5
342.981	399.5
343.209	407.5
343.437	398.5
343.665	392.5
343.893	395.5
344.12	405.5
344.348	411.5
344.576	417.5
344.804	413.5
345.031	438.5
345.259	421.5
345.487	424.5
345.714	412.5
345.942	415.5
346.17	402.5
346.397	409.5
346.625	400.5
346.853	422.5
347.08	412.5
347.308	407.5
347.535	424.5
347.763	405.5
347.99	428.5
348.218	420.5
348.445	415.5
348.673	433.5
348.9	408.5
349.128	400.5
349.355	388.5
349.583	379.5
349.81	395.5
350.037	370.5
350.265	385.5
350.492	383.5
350.72	367.5
350.947	389.5
351.174	391.5
351.402	410.5
351.629	403.5
351.856	402.5
352.083	413.5
352.311	422.5
352.538	435.5
352.765	437.5
352.992	408.5
353.22	393.5
353.447	425.5
353.674	395.5
353.901	369.5
354.128	391.5
354.355	360.5
354.583	393.5
354.81	379.5
355.037	361.5
355.264	372.5
355.491	363.5
355.718	359.5
355.945	360.5
356.172	354.5
356.399	349.5
356.626	364.5
356.853	347.5
357.08	352.5
357.307	341.5
357.534	340.5
357.761	362.5
357.988	360.5
358.215	354.5
358.441	357.5
358.668	363.5
358.895	382.5
359.122	371.5
359.349	370.5
359.576	402.5
359.802	433.5
360.029	449.5
360.256	461.5
360.483	442.5
360.709	418.5
360.936	401.5
361.163	395.5
361.39	400.5
361.616	421.5
361.843	392.5
362.07	405.5
362.296	403.5
362.523	395.5
362.749	403.5
362.976	387.5
363.203	396.5
363.429	362.5
363.656	384.5
363.882	364.5
364.109	366.5
364.335	367.5
364.562	370.5
364.788	380.5
365.015	392.5
365.241	387.5
365.468	369.5
365.694	378.5
365.92	365.5
366.147	390.5
366.373	362.5
366.599	373.5
366.826	369.5
367.052	353.5
367.278	363.5
367.505	374.5
367.731	373.5
367.957	391.5
368.184	358.5
368.41	368.5
368.636	403.5
368.862	378.5
369.089	374.5
369.315	368.5
369.541	374.5
369.767	372.5
369.993	370.5
370.219	369.5
370.445	378.5
370.672	375.5
370.898	368.5
371.124	371.5
371.35	371.5
371.576	367.5
371.802	362.5
372.028	361.5
372.254	363.5
372.48	376.5
372.706	372.5
372.932	367.5
373.158	360.5
373.384	370.5
373.61	375.5
373.835	378.5
374.061	355.5
374.287	372.5
374.513	360.5
374.739	344.5
374.965	359.5
375.191	347.5
375.416	361.5
375.642	357.5
375.868	367.5
376.094	385.5
376.319	345.5
376.545	364.5
376.771	373.5
376.997	356.5
377.222	352.5
377.448	366.5
377.674	363.5
377.899	353.5
378.125	344.5
378.35	343.5
378.576	340.5
378.802	360.5
379.027	355.5
379.253	353.5
379.478	361.5
379.704	344.5
379.929	358.5
380.155	348.5
380.38	354.5
380.606	350.5
380.831	342.5
381.057	342.5
381.282	341.5
381.507	371.5
381.733	361.5
381.958	353.5
382.184	351.5
382.409	348.5
382.634	362.5
382.86	371.5
383.085	369.5
383.31	355.5
383.535	368.5
383.761	364.5
383.986	366.5
384.211	362.5
384.436	369.5
384.662	362.5
384.887	371.5
385.112	387.5
385.337	371.5
385.562	356.5
385.787	368.5
386.013	380.5
386.238	377.5
386.463	379.5
386.688	370.5
386.913	375.5
387.138	387.5
387.363	374.5
387.588	368.5
387.813	361.5
388.038	373.5
388.263	370.5
388.488	378.5
388.713	358.5
388.938	372.5
389.163	369.5
389.387	367.5
389.612	372.5
389.837	376.5
390.062	370.5
390.287	373.5
390.512	364.5
390.736	360.5
390.961	377.5
391.186	365.5
391.411	374.5
391.636	369.5
391.86	379.5
392.085	369.5
392.31	375.5
392.534	372.5
392.759	357.5
392.984	389.5
393.208	389.5
393.433	371.5
393.658	360.5
393.882	373.5
394.107	377.5
394.331	378.5
394.556	372.5
394.78	386.5
395.005	377.5
395.229	385.5
395.454	387.5
395.678	395.5
395.903	373.5
396.127	416.5
396.352	432.5
396.576	400.5
396.801	387.5
397.025	378.5
397.249	382.5
397.474	386.5
397.698	398.5
397.922	404.5
398.147	409.5
398.371	429.5
398.595	425.5
398.82	412.5
399.044	404.5
399.268	423.5
399.492	428.5
399.717	442.5
399.941	472.5
400.165	484.5
400.389	490.5
400.613	490.5
400.837	445.5
401.062	452.5
401.286	419.5
401.51	420.5
401.734	426.5
401.958	416.5
402.182	422.5
402.406	431.5
402.63	441.5
402.854	429.5
403.078	437.5
403.302	444.5
403.526	452.5
403.75	419.5
403.974	453.5
404.198	443.5
404.422	448.5
404.645	450.5
404.869	483.5
405.093	535.5
405.317	577.5
405.541	613.5
405.765	531.5
405.988	497.5
406.212	489.5
406.436	521.5
406.66	524.5
406.883	511.5
407.107	507.5
407.331	532.5
407.555	600.5
407.778	593.5
408.002	535.5
408.226	498.5
408.449	506.5
408.673	514.5
408.896	512.5
409.12	555.5
409.344	511.5
409.567	485.5
409.791	452.5
410.014	445.5
410.238	429.5
410.461	439.5
410.685	441.5
410.908	484.5
411.132	487.5
411.355	539.5
411.578	508.5
411.802	477.5
412.025	477.5
412.249	488.5
412.472	532.5
412.695	546.5
412.919	552.5
413.142	495.5
413.365	477.5
413.589	453.5
413.812	451.5
414.035	452.5
414.258	435.5
414.482	459.5
414.705	435.5
414.928	424.5
415.151	426.5
415.374	448.5
415.597	419.5
415.821	423.5
416.044	434.5
416.267	440.5
416.49	406.5
416.713	426.5
416.936	427.5
417.159	433.5
417.382	427.5
417.605	425.5
417.828	449.5
418.051	441.5
418.274	435.5
418.497	422.5
418.72	432.5
418.943	419.5
419.166	436.5
419.389	458.5
419.611	442.5
419.834	463.5
420.057	469.5
420.28	484.5
420.503	493.5
420.726	484.5
420.948	503.5
421.171	531.5
421.394	536.5
421.617	483.5
421.839	464.5
422.062	454.5
422.285	483.5
422.507	520.5
422.73	597.5
422.953	573.5
423.175	485.5
423.398	481.5
423.621	466.5
423.843	496.5
424.066	480.5
424.288	495.5
424.511	491.5
424.733	540.5
424.956	622.5
425.178	625.5
425.401	588.5
425.623	643.5
425.846	543.5
426.068	505.5
426.291	482.5
426.513	500.5
426.735	487.5
426.958	552.5
427.18	614.5
427.402	742.5
427.625	812.5
427.847	765.5
428.069	674.5
428.292	580.5
428.514	511.5
428.736	499.5
428.958	461.5
429.181	447.5
429.403	471.5
429.625	467.5
429.847	493.5
430.069	573.5
430.292	543.5
430.514	490.5
430.736	477.5
430.958	452.5
431.18	421.5
431.402	439.5
431.624	423.5
431.846	418.5
432.068	409.5
432.29	408.5
432.512	423.5
432.734	428.5
432.956	436.5
433.178	431.5
433.4	453.5
433.622	424.5
433.844	429.5
434.066	421.5
434.287	432.5
434.509	445.5
434.731	420.5
434.953	428.5
435.175	485.5
435.397	484.5
435.618	489.5
435.84	515.5
436.062	612.5
436.284	684.5
436.505	595.5
436.727	533.5
436.949	492.5
437.17	458.5
437.392	463.5
437.614	487.5
437.835	497.5
438.057	605.5
438.278	717.5
438.5	694.5
438.721	744.5
438.943	727.5
439.165	579.5
439.386	553.5
439.608	531.5
439.829	491.5
440.05	558.5
440.272	579.5
440.493	572.5
440.715	524.5
440.936	491.5
441.158	477.5
441.379	472.5
441.6	476.5
441.822	501.5
442.043	519.5
442.264	618.5
442.486	657.5
442.707	563.5
442.928	518.5
443.149	511.5
443.371	544.5
443.592	591.5
443.813	643.5
444.034	713.5
444.255	606.5
444.476	517.5
444.698	485.5
444.919	488.5
445.14	559.5
445.361	535.5
445.582	529.5
445.803	623.5
446.024	690.5
446.245	733.5
446.466	651.5
446.687	557.5
446.908	516.5
447.129	487.5
447.35	483.5
447.571	468.5
447.792	465.5
448.013	457.5
448.234	515.5
448.455	531.5
448.675	660.5
448.896	750.5
449.117	631.5
449.338	585.5
449.559	682.5
449.779	776.5
450	635.5
450.221	544.5
450.442	479.5
450.662	464.5
450.883	479.5
451.104	471.5
451.324	481.5
451.545	454.5
451.766	416.5
451.986	417.5
452.207	428.5
452.428	415.5
452.648	419.5
452.869	412.5
453.089	415.5
453.31	439.5
453.53	430.5
453.751	423.5
453.971	429.5
454.192	442.5
454.412	425.5
454.633	399.5
454.853	402.5
455.073	417.5
455.294	443.5
455.514	521.5
455.734	501.5
455.955	438.5
456.175	416.5
456.395	402.5
456.616	378.5
456.836	383.5
457.056	374.5
457.276	358.5
457.497	405.5
457.717	381.5
457.937	379.5
458.157	422.5
458.377	410.5
458.598	418.5
458.818	495.5
459.038	560.5
459.258	578.5
459.478	478.5
459.698	426.5
459.918	415.5
460.138	420.5
460.358	422.5
460.578	407.5
460.798	424.5
461.018	401.5
461.238	405.5
461.458	427.5
461.678	404.5
461.898	416.5
462.118	410.5
462.338	409.5
462.558	419.5
462.777	424.5
462.997	437.5
463.217	417.5
463.437	419.5
463.657	423.5
463.876	447.5
464.096	447.5
464.316	427.5
464.536	454.5
464.755	427.5
464.975	460.5
465.195	491.5
465.414	588.5
465.634	525.5
465.854	464.5
466.073	451.5
466.293	426.5
466.512	426.5
466.732	427.5
466.951	412.5
467.171	426.5
467.391	411.5
467.61	444.5
467.829	449.5
468.049	437.5
468.268	483.5
468.488	450.5
468.707	411.5
468.927	408.5
469.146	411.5
469.365	406.5
469.585	395.5
469.804	442.5
470.023	437.5
470.243	425.5
470.462	410.5
470.681	449.5
470.901	421.5
471.12	423.5
471.339	421.5
471.558	425.5
471.777	436.5
471.997	437.5
472.216	479.5
472.435	575.5
472.654	573.5
472.873	481.5
473.092	450.5
473.311	455.5
473.53	440.5
473.749	443.5
473.968	484.5
474.187	605.5
474.406	621.5
474.625	486.5
474.844	462.5
475.063	449.5
475.282	429.5
475.501	431.5
475.72	455.5
475.939	441.5
476.158	426.5
476.377	454.5
476.596	430.5
476.814	475.5
477.033	461.5
477.252	476.5
477.471	451.5
477.69	453.5
477.908	466.5
478.127	431.5
478.346	461.5
478.564	454.5
478.783	441.5
479.002	472.5
479.22	468.5
479.439	479.5
479.658	504.5
479.876	517.5
480.095	513.5
480.313	554.5
480.532	538.5
480.751	540.5
480.969	589.5
481.188	761.5
481.406	904.5
481.624	700.5
481.843	600.5
482.061	573.5
482.28	537.5
482.498	525.5
482.717	533.5
482.935	520.5
483.153	525.5
483.372	523.5
483.59	522.5
483.808	528.5
484.027	512.5
484.245	498.5
484.463	532.5
484.681	520.5
484.9	508.5
485.118	525.5
485.336	533.5
485.554	535.5
485.772	523.5
485.99	546.5
486.209	541.5
486.427	549.5
486.645	556.5
486.863	579.5
487.081	582.5
487.299	569.5
487.517	544.5
487.735	555.5
487.953	555.5
488.171	545.5
488.389	552.5
488.607	544.5
488.825	552.5
489.043	544.5
489.261	556.5
489.479	594.5
489.696	572.5
489.914	572.5
490.132	600.5
490.35	607.5
490.568	600.5
490.786	611.5
491.003	607.5
491.221	628.5
491.439	645.5
491.657	634.5
491.874	680.5
492.092	681.5
492.31	632.5
492.527	657.5
492.745	687.5
492.963	682.5
493.18	676.5
493.398	667.5
493.615	680.5
493.833	701.5
494.05	684.5
494.268	691.5
494.485	665.5
494.703	682.5
494.92	675.5
495.138	700.5
495.355	683.5
495.573	681.5
495.79	707.5
496.008	666.5
496.225	663.5
496.442	654.5
496.66	688.5
496.877	693.5
497.094	698.5
497.312	673.5
497.529	673.5
497.746	689.5
497.963	687.5
498.181	702.5
498.398	708.5
498.615	694.5
498.832	708.5
499.049	720.5
499.267	708.5
499.484	729.5
499.701	747.5
499.918	767.5
500.135	791.5
500.352	805.5
500.569	786.5
500.786	806.5
501.003	793.5
501.22	797.5
501.437	812.5
501.654	788.5
501.871	788.5
502.088	733.5
502.305	738.5
502.522	721.5
502.739	725.5
502.956	707.5
503.172	672.5
503.389	679.5
503.606	653.5
503.823	668.5
504.04	675.5
504.256	684.5
504.473	645.5
504.69	638.5
504.907	662.5
505.123	634.5
505.34	639.5
505.557	634.5
505.773	634.5
505.99	628.5
506.207	616.5
506.423	661.5
506.64	633.5
506.856	627.5
507.073	635.5
507.289	659.5
507.506	603.5
507.722	648.5
507.939	652.5
508.155	623.5
508.372	601.5
508.588	591.5
508.805	611.5
509.021	613.5
509.238	649.5
509.454	641.5
509.67	649.5
509.887	601.5
510.103	607.5
510.319	629.5
510.536	757.5
510.752	1271.5
510.968	1019.5
511.184	673.5
511.401	598.5
511.617	608.5
511.833	632.5
512.049	620.5
512.265	599.5
512.481	606.5
512.698	601.5
512.914	616.5
513.13	581.5
513.346	583.5
513.562	601.5
513.778	593.5
513.994	571.5
514.21	617.5
514.426	645.5
514.642	703.5
514.858	739.5
515.074	740.5
515.29	952.5
515.506	1473.5
515.721	1144.5
515.937	775.5
516.153	663.5
516.369	641.5
516.585	613.5
516.801	589.5
517.016	589.5
517.232	594.5
517.448	571.5
517.664	599.5
517.879	583.5
518.095	602.5
518.311	570.5
518.527	575.5
518.742	576.5
518.958	561.5
519.173	579.5
519.389	579.5
519.605	580.5
519.82	591.5
