Data from 1986.PennyLincolnUp.Lamp.En5.5.200Scan.071819.P2_HRD10591_17-11-49-973.txt Node
Date: Thu Jul 18 17:11:49 EDT 2019
User: cochatt
Spectrometer: HR+D1059
Trigger mode: 1
Integration Time (sec): 1.000000E-1
Scans to average: 1
Electric dark correction enabled: true
Nonlinearity correction enabled: false
Boxcar width: 0
XAxis mode: Wavelengths
Number of Pixels in Spectrum: 2048
>>>>>Begin Spectral Data<<<<<
223.165	-26.75
223.4	-26.75
223.635	-26.75
223.869	-21.75
224.104	-9.75
224.338	-12.75
224.573	-7.75
224.808	-20.75
225.042	-6.75
225.277	-20.75
225.511	6.25
225.746	6.25
225.98	-1.75
226.215	6.25
226.449	16.25
226.683	30.25
226.918	37.25
227.152	26.25
227.387	46.25
227.621	40.25
227.856	46.25
228.09	35.25
228.324	46.25
228.559	52.25
228.793	80.25
229.027	98.25
229.262	106.25
229.496	124.25
229.73	136.25
229.964	164.25
230.199	124.25
230.433	109.25
230.667	121.25
230.901	132.25
231.136	116.25
231.37	113.25
231.604	116.25
231.838	110.25
232.072	115.25
232.306	108.25
232.541	120.25
232.775	124.25
233.009	117.25
233.243	113.25
233.477	99.25
233.711	103.25
233.945	115.25
234.179	125.25
234.413	131.25
234.647	110.25
234.881	112.25
235.115	121.25
235.349	117.25
235.583	135.25
235.817	117.25
236.051	132.25
236.285	116.25
236.519	128.25
236.753	127.25
236.987	157.25
237.221	187.25
237.455	241.25
237.689	203.25
237.922	148.25
238.156	150.25
238.39	130.25
238.624	129.25
238.858	140.25
239.091	118.25
239.325	126.25
239.559	114.25
239.793	117.25
240.027	131.25
240.26	147.25
240.494	157.25
240.728	153.25
240.961	151.25
241.195	148.25
241.429	150.25
241.662	140.25
241.896	140.25
242.13	141.25
242.363	132.25
242.597	142.25
242.83	148.25
243.064	144.25
243.298	155.25
243.531	142.25
243.765	135.25
243.998	143.25
244.232	139.25
244.465	154.25
244.699	159.25
244.932	154.25
245.166	135.25
245.399	147.25
245.633	152.25
245.866	153.25
246.099	163.25
246.333	162.25
246.566	169.25
246.8	164.25
247.033	148.25
247.266	164.25
247.5	152.25
247.733	170.25
247.966	187.25
248.2	181.25
248.433	190.25
248.666	178.25
248.899	186.25
249.133	211.25
249.366	230.25
249.599	232.25
249.832	201.25
250.066	195.25
250.299	211.25
250.532	227.25
250.765	240.25
250.998	281.25
251.231	258.25
251.465	265.25
251.698	232.25
251.931	244.25
252.164	218.25
252.397	227.25
252.63	212.25
252.863	216.25
253.096	238.25
253.329	259.25
253.562	264.25
253.795	259.25
254.028	235.25
254.261	230.25
254.494	235.25
254.727	288.25
254.96	304.25
255.193	301.25
255.426	281.25
255.659	260.25
255.892	297.25
256.124	329.25
256.357	331.25
256.59	317.25
256.823	289.25
257.056	259.25
257.289	264.25
257.521	252.25
257.754	246.25
257.987	224.25
258.22	239.25
258.452	238.25
258.685	238.25
258.918	222.25
259.151	221.25
259.383	250.25
259.616	259.25
259.849	245.25
260.081	245.25
260.314	269.25
260.547	282.25
260.779	270.25
261.012	253.25
261.244	248.25
261.477	250.25
261.71	238.25
261.942	222.25
262.175	257.25
262.407	256.25
262.64	222.25
262.872	219.25
263.105	233.25
263.337	222.25
263.57	224.25
263.802	235.25
264.035	237.25
264.267	226.25
264.499	206.25
264.732	216.25
264.964	240.25
265.197	228.25
265.429	227.25
265.661	218.25
265.894	217.25
266.126	225.25
266.358	231.25
266.591	234.25
266.823	229.25
267.055	235.25
267.287	246.25
267.52	228.25
267.752	236.25
267.984	228.25
268.216	232.25
268.448	235.25
268.681	245.25
268.913	240.25
269.145	263.25
269.377	285.25
269.609	313.25
269.841	284.25
270.073	290.25
270.306	314.25
270.538	347.25
270.77	359.25
271.002	330.25
271.234	318.25
271.466	329.25
271.698	320.25
271.93	345.25
272.162	329.25
272.394	364.25
272.626	325.25
272.858	297.25
273.09	296.25
273.322	301.25
273.553	289.25
273.785	281.25
274.017	280.25
274.249	285.25
274.481	290.25
274.713	288.25
274.945	286.25
275.176	280.25
275.408	279.25
275.64	266.25
275.872	295.25
276.104	295.25
276.335	280.25
276.567	286.25
276.799	289.25
277.031	328.25
277.262	337.25
277.494	342.25
277.726	317.25
277.957	290.25
278.189	277.25
278.421	287.25
278.652	275.25
278.884	305.25
279.115	283.25
279.347	288.25
279.579	260.25
279.81	278.25
280.042	277.25
280.273	292.25
280.505	304.25
280.736	285.25
280.968	272.25
281.199	285.25
281.431	280.25
281.662	278.25
281.894	267.25
282.125	284.25
282.356	289.25
282.588	322.25
282.819	314.25
283.051	280.25
283.282	283.25
283.513	301.25
283.745	275.25
283.976	284.25
284.207	275.25
284.439	282.25
284.67	280.25
284.901	279.25
285.132	294.25
285.364	300.25
285.595	286.25
285.826	293.25
286.057	288.25
286.288	265.25
286.52	291.25
286.751	283.25
286.982	283.25
287.213	280.25
287.444	262.25
287.675	290.25
287.906	308.25
288.138	308.25
288.369	315.25
288.6	308.25
288.831	310.25
289.062	292.25
289.293	300.25
289.524	290.25
289.755	301.25
289.986	283.25
290.217	286.25
290.448	281.25
290.679	308.25
290.91	292.25
291.141	283.25
291.371	279.25
291.602	268.25
291.833	296.25
292.064	287.25
292.295	280.25
292.526	292.25
292.757	291.25
292.987	277.25
293.218	286.25
293.449	269.25
293.68	312.25
293.91	285.25
294.141	288.25
294.372	286.25
294.603	268.25
294.833	293.25
295.064	291.25
295.295	289.25
295.525	312.25
295.756	300.25
295.987	306.25
296.217	331.25
296.448	346.25
296.679	298.25
296.909	294.25
297.14	285.25
297.37	294.25
297.601	306.25
297.831	312.25
298.062	284.25
298.292	287.25
298.523	298.25
298.753	301.25
298.984	296.25
299.214	304.25
299.445	307.25
299.675	313.25
299.905	314.25
300.136	301.25
300.366	318.25
300.597	295.25
300.827	302.25
301.057	301.25
301.288	321.25
301.518	336.25
301.748	309.25
301.979	335.25
302.209	317.25
302.439	328.25
302.669	312.25
302.9	308.25
303.13	322.25
303.36	322.25
303.59	332.25
303.82	348.25
304.051	325.25
304.281	343.25
304.511	327.25
304.741	326.25
304.971	314.25
305.201	317.25
305.431	330.25
305.661	328.25
305.891	304.25
306.121	329.25
306.352	331.25
306.582	347.25
306.812	345.25
307.042	321.25
307.272	337.25
307.502	335.25
307.731	321.25
307.961	332.25
308.191	320.25
308.421	341.25
308.651	339.25
308.881	328.25
309.111	338.25
309.341	349.25
309.571	347.25
309.8	345.25
310.03	375.25
310.26	372.25
310.49	364.25
310.72	394.25
310.949	417.25
311.179	422.25
311.409	404.25
311.639	392.25
311.868	383.25
312.098	379.25
312.328	402.25
312.557	412.25
312.787	427.25
313.017	421.25
313.246	394.25
313.476	377.25
313.706	380.25
313.935	392.25
314.165	391.25
314.394	413.25
314.624	420.25
314.853	384.25
315.083	400.25
315.312	375.25
315.542	380.25
315.771	374.25
316.001	356.25
316.23	366.25
316.46	377.25
316.689	387.25
316.919	396.25
317.148	391.25
317.377	404.25
317.607	404.25
317.836	404.25
318.065	392.25
318.295	385.25
318.524	379.25
318.753	396.25
318.983	404.25
319.212	392.25
319.441	394.25
319.67	407.25
319.9	374.25
320.129	394.25
320.358	413.25
320.587	388.25
320.816	395.25
321.046	424.25
321.275	427.25
321.504	405.25
321.733	406.25
321.962	445.25
322.191	434.25
322.42	459.25
322.649	475.25
322.878	481.25
323.108	481.25
323.337	530.25
323.566	524.25
323.795	582.25
324.024	654.25
324.253	772.25
324.482	1112.25
324.71	1685.25
324.939	2432.25
325.168	2154.25
325.397	1109.25
325.626	737.25
325.855	624.25
326.084	578.25
326.313	567.25
326.542	585.25
326.77	653.25
326.999	723.25
327.228	1008.25
327.457	1528.25
327.686	1894.25
327.914	1274.25
328.143	851.25
328.372	771.25
328.6	703.25
328.829	644.25
329.058	690.25
329.287	693.25
329.515	644.25
329.744	643.25
329.972	648.25
330.201	702.25
330.43	776.25
330.658	768.25
330.887	720.25
331.115	722.25
331.344	609.25
331.572	554.25
331.801	530.25
332.03	539.25
332.258	506.25
332.486	506.25
332.715	481.25
332.943	488.25
333.172	486.25
333.4	501.25
333.629	518.25
333.857	569.25
334.085	597.25
334.314	691.25
334.542	792.25
334.771	794.25
334.999	670.25
335.227	542.25
335.455	512.25
335.684	491.25
335.912	464.25
336.14	456.25
336.369	463.25
336.597	470.25
336.825	455.25
337.053	460.25
337.281	451.25
337.51	452.25
337.738	455.25
337.966	459.25
338.194	455.25
338.422	448.25
338.65	443.25
338.878	441.25
339.106	432.25
339.334	423.25
339.562	423.25
339.79	438.25
340.018	416.25
340.246	433.25
340.474	436.25
340.702	445.25
340.93	409.25
341.158	425.25
341.386	429.25
341.614	419.25
341.842	443.25
342.07	420.25
342.298	431.25
342.526	412.25
342.754	424.25
342.981	417.25
343.209	402.25
343.437	404.25
343.665	420.25
343.893	426.25
344.12	426.25
344.348	413.25
344.576	421.25
344.804	436.25
345.031	452.25
345.259	438.25
345.487	439.25
345.714	427.25
345.942	417.25
346.17	411.25
346.397	399.25
346.625	393.25
346.853	397.25
347.08	426.25
347.308	406.25
347.535	416.25
347.763	419.25
347.99	430.25
348.218	409.25
348.445	407.25
348.673	420.25
348.9	425.25
349.128	390.25
349.355	373.25
349.583	407.25
349.81	394.25
350.037	390.25
350.265	393.25
350.492	393.25
350.72	399.25
350.947	401.25
351.174	394.25
351.402	414.25
351.629	417.25
351.856	416.25
352.083	449.25
352.311	444.25
352.538	436.25
352.765	446.25
352.992	402.25
353.22	427.25
353.447	397.25
353.674	389.25
353.901	394.25
354.128	411.25
354.355	392.25
354.583	379.25
354.81	389.25
355.037	360.25
355.264	386.25
355.491	373.25
355.718	365.25
355.945	376.25
356.172	372.25
356.399	377.25
356.626	376.25
356.853	375.25
357.08	362.25
357.307	368.25
357.534	390.25
357.761	380.25
357.988	379.25
358.215	376.25
358.441	379.25
358.668	360.25
358.895	397.25
359.122	388.25
359.349	409.25
359.576	404.25
359.802	442.25
360.029	458.25
360.256	481.25
360.483	441.25
360.709	417.25
360.936	400.25
361.163	396.25
361.39	401.25
361.616	412.25
361.843	404.25
362.07	429.25
362.296	414.25
362.523	404.25
362.749	414.25
362.976	396.25
363.203	408.25
363.429	383.25
363.656	372.25
363.882	385.25
364.109	402.25
364.335	395.25
364.562	396.25
364.788	404.25
365.015	396.25
365.241	386.25
365.468	378.25
365.694	388.25
365.92	402.25
366.147	379.25
366.373	384.25
366.599	358.25
366.826	390.25
367.052	389.25
367.278	375.25
367.505	388.25
367.731	364.25
367.957	380.25
368.184	387.25
368.41	386.25
368.636	380.25
368.862	404.25
369.089	386.25
369.315	412.25
369.541	378.25
369.767	378.25
369.993	387.25
370.219	397.25
370.445	371.25
370.672	386.25
370.898	373.25
371.124	378.25
371.35	374.25
371.576	374.25
371.802	386.25
372.028	349.25
372.254	372.25
372.48	384.25
372.706	373.25
372.932	373.25
373.158	361.25
373.384	354.25
373.61	399.25
373.835	378.25
374.061	369.25
374.287	376.25
374.513	382.25
374.739	361.25
374.965	357.25
375.191	370.25
375.416	372.25
375.642	376.25
375.868	386.25
376.094	389.25
376.319	361.25
376.545	353.25
376.771	363.25
376.997	361.25
377.222	360.25
377.448	372.25
377.674	360.25
377.899	360.25
378.125	381.25
378.35	360.25
378.576	359.25
378.802	361.25
379.027	372.25
379.253	335.25
379.478	372.25
379.704	384.25
379.929	369.25
380.155	368.25
380.38	365.25
380.606	378.25
380.831	381.25
381.057	381.25
381.282	357.25
381.507	376.25
381.733	358.25
381.958	354.25
382.184	358.25
382.409	370.25
382.634	357.25
382.86	374.25
383.085	376.25
383.31	364.25
383.535	378.25
383.761	370.25
383.986	377.25
384.211	366.25
384.436	397.25
384.662	381.25
384.887	373.25
385.112	393.25
385.337	372.25
385.562	379.25
385.787	378.25
386.013	386.25
386.238	418.25
386.463	387.25
386.688	412.25
386.913	386.25
387.138	373.25
387.363	390.25
387.588	386.25
387.813	377.25
388.038	375.25
388.263	386.25
388.488	377.25
388.713	392.25
388.938	393.25
389.163	406.25
389.387	406.25
389.612	378.25
389.837	378.25
390.062	380.25
390.287	387.25
390.512	371.25
390.736	387.25
390.961	396.25
391.186	377.25
391.411	378.25
391.636	390.25
391.86	390.25
392.085	376.25
392.31	386.25
392.534	398.25
392.759	380.25
392.984	381.25
393.208	390.25
393.433	377.25
393.658	390.25
393.882	384.25
394.107	392.25
394.331	401.25
394.556	374.25
394.78	363.25
395.005	376.25
395.229	383.25
395.454	390.25
395.678	397.25
395.903	398.25
396.127	424.25
396.352	439.25
396.576	392.25
396.801	390.25
397.025	393.25
397.249	386.25
397.474	392.25
397.698	411.25
397.922	420.25
398.147	433.25
398.371	422.25
398.595	443.25
398.82	418.25
399.044	428.25
399.268	420.25
399.492	465.25
399.717	474.25
399.941	488.25
400.165	492.25
400.389	520.25
400.613	495.25
400.837	454.25
401.062	436.25
401.286	442.25
401.51	440.25
401.734	426.25
401.958	419.25
402.182	442.25
402.406	449.25
402.63	439.25
402.854	442.25
403.078	438.25
403.302	448.25
403.526	472.25
403.75	466.25
403.974	447.25
404.198	469.25
404.422	468.25
404.645	451.25
404.869	497.25
405.093	533.25
405.317	583.25
405.541	620.25
405.765	570.25
405.988	510.25
406.212	523.25
406.436	529.25
406.66	533.25
406.883	490.25
407.107	516.25
407.331	569.25
407.555	599.25
407.778	626.25
408.002	540.25
408.226	520.25
408.449	495.25
408.673	504.25
408.896	534.25
409.12	567.25
409.344	553.25
409.567	479.25
409.791	470.25
410.014	458.25
410.238	444.25
410.461	458.25
410.685	470.25
410.908	488.25
411.132	527.25
411.355	542.25
411.578	537.25
411.802	494.25
412.025	478.25
412.249	488.25
412.472	521.25
412.695	588.25
412.919	606.25
413.142	545.25
413.365	485.25
413.589	467.25
413.812	474.25
414.035	465.25
414.258	464.25
414.482	462.25
414.705	447.25
414.928	434.25
415.151	451.25
415.374	426.25
415.597	419.25
415.821	417.25
416.044	434.25
416.267	458.25
416.49	428.25
416.713	438.25
416.936	424.25
417.159	428.25
417.382	424.25
417.605	439.25
417.828	475.25
418.051	496.25
418.274	461.25
418.497	437.25
418.72	444.25
418.943	416.25
419.166	456.25
419.389	450.25
419.611	490.25
419.834	478.25
420.057	474.25
420.28	482.25
420.503	514.25
420.726	502.25
420.948	513.25
421.171	558.25
421.394	568.25
421.617	485.25
421.839	446.25
422.062	469.25
422.285	482.25
422.507	539.25
422.73	613.25
422.953	582.25
423.175	499.25
423.398	498.25
423.621	476.25
423.843	489.25
424.066	503.25
424.288	502.25
424.511	523.25
424.733	573.25
424.956	648.25
425.178	639.25
425.401	611.25
425.623	655.25
425.846	566.25
426.068	504.25
426.291	524.25
426.513	516.25
426.735	514.25
426.958	552.25
427.18	646.25
427.402	743.25
427.625	841.25
427.847	788.25
428.069	706.25
428.292	628.25
428.514	536.25
428.736	502.25
428.958	500.25
429.181	485.25
429.403	475.25
429.625	486.25
429.847	524.25
430.069	596.25
430.292	566.25
430.514	494.25
430.736	474.25
430.958	472.25
431.18	441.25
431.402	451.25
431.624	429.25
431.846	458.25
432.068	454.25
432.29	424.25
432.512	434.25
432.734	434.25
432.956	467.25
433.178	456.25
433.4	475.25
433.622	440.25
433.844	439.25
434.066	449.25
434.287	450.25
434.509	437.25
434.731	442.25
434.953	449.25
435.175	471.25
435.397	521.25
435.618	521.25
435.84	539.25
436.062	630.25
436.284	719.25
436.505	597.25
436.727	538.25
436.949	489.25
437.17	478.25
437.392	469.25
437.614	509.25
437.835	532.25
438.057	619.25
438.278	712.25
438.5	728.25
438.721	794.25
438.943	762.25
439.165	608.25
439.386	564.25
439.608	530.25
439.829	531.25
440.05	564.25
440.272	600.25
440.493	578.25
440.715	508.25
440.936	483.25
441.158	470.25
441.379	460.25
441.6	497.25
441.822	523.25
442.043	555.25
442.264	633.25
442.486	656.25
442.707	573.25
442.928	533.25
443.149	532.25
443.371	548.25
443.592	598.25
443.813	693.25
444.034	725.25
444.255	625.25
444.476	547.25
444.698	500.25
444.919	502.25
445.14	598.25
445.361	563.25
445.582	547.25
445.803	611.25
446.024	724.25
446.245	748.25
446.466	682.25
446.687	579.25
446.908	536.25
447.129	494.25
447.35	473.25
447.571	468.25
447.792	460.25
448.013	481.25
448.234	493.25
448.455	568.25
448.675	671.25
448.896	803.25
449.117	657.25
449.338	620.25
449.559	709.25
449.779	798.25
450	644.25
450.221	542.25
450.442	489.25
450.662	487.25
450.883	496.25
451.104	498.25
451.324	482.25
451.545	496.25
451.766	428.25
451.986	437.25
452.207	421.25
452.428	413.25
452.648	413.25
452.869	443.25
453.089	430.25
453.31	441.25
453.53	432.25
453.751	425.25
453.971	426.25
454.192	452.25
454.412	426.25
454.633	429.25
454.853	418.25
455.073	420.25
455.294	449.25
455.514	525.25
455.734	503.25
455.955	435.25
456.175	414.25
456.395	393.25
456.616	388.25
456.836	397.25
457.056	391.25
457.276	377.25
457.497	387.25
457.717	396.25
457.937	412.25
458.157	427.25
458.377	425.25
458.598	452.25
458.818	491.25
459.038	585.25
459.258	592.25
459.478	513.25
459.698	448.25
459.918	418.25
460.138	423.25
460.358	426.25
460.578	412.25
460.798	435.25
461.018	438.25
461.238	429.25
461.458	413.25
461.678	404.25
461.898	438.25
462.118	422.25
462.338	436.25
462.558	432.25
462.777	436.25
462.997	468.25
463.217	456.25
463.437	450.25
463.657	441.25
463.876	433.25
464.096	416.25
464.316	455.25
464.536	466.25
464.755	472.25
464.975	478.25
465.195	507.25
465.414	605.25
465.634	518.25
465.854	489.25
466.073	465.25
466.293	426.25
466.512	441.25
466.732	417.25
466.951	409.25
467.171	420.25
467.391	434.25
467.61	458.25
467.829	452.25
468.049	459.25
468.268	474.25
468.488	464.25
468.707	436.25
468.927	432.25
469.146	421.25
469.365	429.25
469.585	397.25
469.804	434.25
470.023	438.25
470.243	439.25
470.462	452.25
470.681	468.25
470.901	470.25
471.12	435.25
471.339	427.25
471.558	457.25
471.777	428.25
471.997	440.25
472.216	485.25
472.435	631.25
472.654	613.25
472.873	529.25
473.092	489.25
473.311	468.25
473.53	471.25
473.749	467.25
473.968	510.25
474.187	628.25
474.406	645.25
474.625	509.25
474.844	475.25
475.063	462.25
475.282	445.25
475.501	451.25
475.72	472.25
475.939	450.25
476.158	449.25
476.377	471.25
476.596	460.25
476.814	468.25
477.033	478.25
477.252	470.25
477.471	467.25
477.69	470.25
477.908	465.25
478.127	472.25
478.346	480.25
478.564	477.25
478.783	489.25
479.002	498.25
479.22	500.25
479.439	531.25
479.658	532.25
479.876	519.25
480.095	547.25
480.313	570.25
480.532	578.25
480.751	570.25
480.969	608.25
481.188	793.25
481.406	984.25
481.624	727.25
481.843	618.25
482.061	594.25
482.28	560.25
482.498	550.25
482.717	563.25
482.935	554.25
483.153	534.25
483.372	541.25
483.59	531.25
483.808	539.25
484.027	523.25
484.245	534.25
484.463	541.25
484.681	555.25
484.9	567.25
485.118	548.25
485.336	522.25
485.554	554.25
485.772	536.25
485.99	556.25
486.209	534.25
486.427	571.25
486.645	566.25
486.863	578.25
487.081	603.25
487.299	584.25
487.517	589.25
487.735	597.25
487.953	578.25
488.171	573.25
488.389	591.25
488.607	564.25
488.825	589.25
489.043	574.25
489.261	585.25
489.479	588.25
489.696	586.25
489.914	597.25
490.132	615.25
490.35	621.25
490.568	640.25
490.786	626.25
491.003	634.25
491.221	643.25
491.439	696.25
491.657	691.25
491.874	687.25
492.092	694.25
492.31	683.25
492.527	668.25
492.745	706.25
492.963	720.25
493.18	692.25
493.398	704.25
493.615	698.25
493.833	725.25
494.05	714.25
494.268	695.25
494.485	690.25
494.703	701.25
494.92	693.25
495.138	684.25
495.355	702.25
495.573	730.25
495.79	705.25
496.008	708.25
496.225	695.25
496.442	682.25
496.66	695.25
496.877	692.25
497.094	688.25
497.312	679.25
497.529	681.25
497.746	686.25
497.963	715.25
498.181	714.25
498.398	726.25
498.615	723.25
498.832	721.25
499.049	736.25
499.267	730.25
499.484	740.25
499.701	752.25
499.918	794.25
500.135	796.25
500.352	799.25
500.569	810.25
500.786	849.25
501.003	831.25
501.22	795.25
501.437	802.25
501.654	822.25
501.871	818.25
