Data from 1986.PennyLincolnUp.Lamp.En5.5.200Scan.071819.P2_HRD10591_17-12-44-973.txt Node
Date: Thu Jul 18 17:12:44 EDT 2019
User: cochatt
Spectrometer: HR+D1059
Trigger mode: 1
Integration Time (sec): 1.000000E-1
Scans to average: 1
Electric dark correction enabled: true
Nonlinearity correction enabled: false
Boxcar width: 0
XAxis mode: Wavelengths
Number of Pixels in Spectrum: 2048
>>>>>Begin Spectral Data<<<<<
223.165	-14.31
223.4	-14.31
223.635	-14.31
223.869	-22.31
224.104	-12.31
224.338	-11.31
224.573	-16.31
224.808	-2.31
225.042	-7.31
225.277	2.69
225.511	8.69
225.746	-4.31
225.98	2.69
226.215	8.69
226.449	7.69
226.683	13.69
226.918	20.69
227.152	25.69
227.387	37.69
227.621	42.69
227.856	44.69
228.09	40.69
228.324	58.69
228.559	54.69
228.793	58.69
229.027	107.69
229.262	119.69
229.496	121.69
229.73	134.69
229.964	154.69
230.199	132.69
230.433	114.69
230.667	124.69
230.901	129.69
231.136	119.69
231.37	122.69
231.604	112.69
231.838	124.69
232.072	114.69
232.306	112.69
232.541	118.69
232.775	109.69
233.009	120.69
233.243	118.69
233.477	106.69
233.711	117.69
233.945	111.69
234.179	122.69
234.413	132.69
234.647	138.69
234.881	125.69
235.115	117.69
235.349	129.69
235.583	127.69
235.817	127.69
236.051	130.69
236.285	134.69
236.519	130.69
236.753	134.69
236.987	152.69
237.221	204.69
237.455	251.69
237.689	205.69
237.922	150.69
238.156	148.69
238.39	147.69
238.624	137.69
238.858	136.69
239.091	132.69
239.325	125.69
239.559	130.69
239.793	150.69
240.027	145.69
240.26	140.69
240.494	157.69
240.728	162.69
240.961	170.69
241.195	149.69
241.429	147.69
241.662	154.69
241.896	152.69
242.13	126.69
242.363	134.69
242.597	146.69
242.83	142.69
243.064	162.69
243.298	155.69
243.531	135.69
243.765	136.69
243.998	144.69
244.232	166.69
244.465	150.69
244.699	162.69
244.932	163.69
245.166	149.69
245.399	161.69
245.633	148.69
245.866	158.69
246.099	162.69
246.333	146.69
246.566	164.69
246.8	161.69
247.033	181.69
247.266	176.69
247.5	188.69
247.733	196.69
247.966	186.69
248.2	196.69
248.433	185.69
248.666	188.69
248.899	201.69
249.133	214.69
249.366	247.69
249.599	224.69
249.832	215.69
250.066	221.69
250.299	212.69
250.532	253.69
250.765	266.69
250.998	298.69
251.231	284.69
251.465	267.69
251.698	249.69
251.931	245.69
252.164	212.69
252.397	226.69
252.63	227.69
252.863	231.69
253.096	247.69
253.329	246.69
253.562	258.69
253.795	246.69
254.028	245.69
254.261	234.69
254.494	281.69
254.727	265.69
254.96	330.69
255.193	340.69
255.426	318.69
255.659	298.69
255.892	325.69
256.124	383.69
256.357	404.69
256.59	376.69
256.823	352.69
257.056	304.69
257.289	281.69
257.521	272.69
257.754	263.69
257.987	256.69
258.22	266.69
258.452	253.69
258.685	242.69
258.918	250.69
259.151	227.69
259.383	251.69
259.616	248.69
259.849	244.69
260.081	264.69
260.314	278.69
260.547	279.69
260.779	291.69
261.012	270.69
261.244	247.69
261.477	250.69
261.71	239.69
261.942	256.69
262.175	264.69
262.407	257.69
262.64	240.69
262.872	244.69
263.105	237.69
263.337	236.69
263.57	230.69
263.802	227.69
264.035	234.69
264.267	253.69
264.499	253.69
264.732	224.69
264.964	240.69
265.197	227.69
265.429	232.69
265.661	245.69
265.894	218.69
266.126	226.69
266.358	234.69
266.591	240.69
266.823	236.69
267.055	248.69
267.287	238.69
267.52	237.69
267.752	228.69
267.984	261.69
268.216	237.69
268.448	256.69
268.681	262.69
268.913	245.69
269.145	287.69
269.377	295.69
269.609	293.69
269.841	284.69
270.073	290.69
270.306	295.69
270.538	331.69
270.77	328.69
271.002	308.69
271.234	308.69
271.466	311.69
271.698	334.69
271.93	349.69
272.162	352.69
272.394	351.69
272.626	335.69
272.858	306.69
273.09	314.69
273.322	286.69
273.553	280.69
273.785	286.69
274.017	291.69
274.249	263.69
274.481	288.69
274.713	309.69
274.945	299.69
275.176	310.69
275.408	286.69
275.64	308.69
275.872	285.69
276.104	279.69
276.335	300.69
276.567	306.69
276.799	315.69
277.031	333.69
277.262	366.69
277.494	354.69
277.726	343.69
277.957	320.69
278.189	303.69
278.421	312.69
278.652	294.69
278.884	285.69
279.115	295.69
279.347	287.69
279.579	272.69
279.81	286.69
280.042	289.69
280.273	300.69
280.505	314.69
280.736	298.69
280.968	298.69
281.199	292.69
281.431	289.69
281.662	285.69
281.894	303.69
282.125	303.69
282.356	291.69
282.588	311.69
282.819	349.69
283.051	295.69
283.282	281.69
283.513	293.69
283.745	308.69
283.976	294.69
284.207	311.69
284.439	283.69
284.67	307.69
284.901	287.69
285.132	286.69
285.364	288.69
285.595	271.69
285.826	291.69
286.057	300.69
286.288	308.69
286.52	297.69
286.751	286.69
286.982	299.69
287.213	306.69
287.444	306.69
287.675	306.69
287.906	319.69
288.138	310.69
288.369	315.69
288.6	332.69
288.831	320.69
289.062	327.69
289.293	320.69
289.524	303.69
289.755	303.69
289.986	313.69
290.217	294.69
290.448	290.69
290.679	316.69
290.91	308.69
291.141	295.69
291.371	306.69
291.602	289.69
291.833	296.69
292.064	299.69
292.295	294.69
292.526	319.69
292.757	303.69
292.987	294.69
293.218	303.69
293.449	307.69
293.68	313.69
293.91	288.69
294.141	300.69
294.372	301.69
294.603	296.69
294.833	291.69
295.064	288.69
295.295	311.69
295.525	294.69
295.756	309.69
295.987	294.69
296.217	344.69
296.448	357.69
296.679	310.69
296.909	302.69
297.14	309.69
297.37	316.69
297.601	310.69
297.831	315.69
298.062	313.69
298.292	292.69
298.523	310.69
298.753	307.69
298.984	301.69
299.214	311.69
299.445	318.69
299.675	308.69
299.905	320.69
300.136	328.69
300.366	314.69
300.597	312.69
300.827	320.69
301.057	324.69
301.288	321.69
301.518	326.69
301.748	333.69
301.979	329.69
302.209	329.69
302.439	345.69
302.669	349.69
302.9	332.69
303.13	333.69
303.36	342.69
303.59	341.69
303.82	357.69
304.051	326.69
304.281	340.69
304.511	326.69
304.741	337.69
304.971	333.69
305.201	308.69
305.431	321.69
305.661	329.69
305.891	342.69
306.121	337.69
306.352	342.69
306.582	375.69
306.812	338.69
307.042	337.69
307.272	325.69
307.502	345.69
307.731	349.69
307.961	344.69
308.191	333.69
308.421	348.69
308.651	351.69
308.881	350.69
309.111	339.69
309.341	363.69
309.571	367.69
309.8	391.69
310.03	368.69
310.26	400.69
310.49	391.69
310.72	418.69
310.949	418.69
311.179	408.69
311.409	392.69
311.639	384.69
311.868	392.69
312.098	401.69
312.328	375.69
312.557	405.69
312.787	411.69
313.017	425.69
313.246	398.69
313.476	396.69
313.706	388.69
313.935	411.69
314.165	396.69
314.394	425.69
314.624	428.69
314.853	398.69
315.083	398.69
315.312	404.69
315.542	377.69
315.771	378.69
316.001	387.69
316.23	396.69
316.46	361.69
316.689	385.69
316.919	387.69
317.148	397.69
317.377	410.69
317.607	405.69
317.836	402.69
318.065	391.69
318.295	375.69
318.524	405.69
318.753	383.69
318.983	400.69
319.212	392.69
319.441	405.69
319.67	408.69
319.9	413.69
320.129	404.69
320.358	413.69
320.587	399.69
320.816	408.69
321.046	420.69
321.275	442.69
321.504	434.69
321.733	412.69
321.962	437.69
322.191	466.69
322.42	463.69
322.649	468.69
322.878	485.69
323.108	534.69
323.337	522.69
323.566	554.69
323.795	595.69
324.024	650.69
324.253	774.69
324.482	1086.69
324.71	1642.69
324.939	2428.69
325.168	2130.69
325.397	1148.69
325.626	770.69
325.855	614.69
326.084	587.69
326.313	581.69
326.542	595.69
326.77	636.69
326.999	740.69
327.228	986.69
327.457	1548.69
327.686	1882.69
327.914	1321.69
328.143	925.69
328.372	864.69
328.6	810.69
328.829	706.69
329.058	710.69
329.287	732.69
329.515	687.69
329.744	684.69
329.972	740.69
330.201	862.69
330.43	996.69
330.658	946.69
330.887	815.69
331.115	751.69
331.344	650.69
331.572	614.69
331.801	592.69
332.03	599.69
332.258	543.69
332.486	530.69
332.715	531.69
332.943	536.69
333.172	551.69
333.4	566.69
333.629	597.69
333.857	637.69
334.085	728.69
334.314	876.69
334.542	1046.69
334.771	1118.69
334.999	851.69
335.227	651.69
335.455	591.69
335.684	550.69
335.912	534.69
336.14	514.69
336.369	498.69
336.597	502.69
336.825	483.69
337.053	488.69
337.281	454.69
337.51	463.69
337.738	484.69
337.966	480.69
338.194	463.69
338.422	444.69
338.65	460.69
338.878	452.69
339.106	427.69
339.334	442.69
339.562	455.69
339.79	449.69
340.018	436.69
340.246	427.69
340.474	438.69
340.702	448.69
340.93	429.69
341.158	448.69
341.386	420.69
341.614	439.69
341.842	436.69
342.07	420.69
342.298	418.69
342.526	416.69
342.754	436.69
342.981	423.69
343.209	425.69
343.437	416.69
343.665	422.69
343.893	421.69
344.12	446.69
344.348	463.69
344.576	429.69
344.804	414.69
345.031	455.69
345.259	448.69
345.487	447.69
345.714	427.69
345.942	420.69
346.17	431.69
346.397	420.69
346.625	419.69
346.853	423.69
347.08	414.69
347.308	430.69
347.535	419.69
347.763	443.69
347.99	430.69
348.218	438.69
348.445	427.69
348.673	426.69
348.9	437.69
349.128	415.69
349.355	413.69
349.583	391.69
349.81	410.69
350.037	408.69
350.265	405.69
350.492	404.69
350.72	400.69
350.947	405.69
351.174	407.69
351.402	444.69
351.629	401.69
351.856	438.69
352.083	432.69
352.311	440.69
352.538	422.69
352.765	434.69
352.992	416.69
353.22	414.69
353.447	418.69
353.674	424.69
353.901	390.69
354.128	398.69
354.355	406.69
354.583	383.69
354.81	391.69
355.037	381.69
355.264	391.69
355.491	374.69
355.718	386.69
355.945	388.69
356.172	370.69
356.399	375.69
356.626	356.69
356.853	370.69
357.08	372.69
357.307	366.69
357.534	376.69
357.761	374.69
357.988	397.69
358.215	371.69
358.441	375.69
358.668	362.69
358.895	386.69
359.122	386.69
359.349	380.69
359.576	412.69
359.802	422.69
360.029	434.69
360.256	491.69
360.483	444.69
360.709	419.69
360.936	434.69
361.163	418.69
361.39	416.69
361.616	433.69
361.843	413.69
362.07	412.69
362.296	418.69
362.523	400.69
362.749	407.69
362.976	404.69
363.203	398.69
363.429	404.69
363.656	378.69
363.882	388.69
364.109	377.69
364.335	410.69
364.562	395.69
364.788	391.69
365.015	400.69
365.241	398.69
365.468	381.69
365.694	405.69
365.92	402.69
366.147	388.69
366.373	388.69
366.599	389.69
366.826	381.69
367.052	394.69
367.278	390.69
367.505	407.69
367.731	370.69
367.957	367.69
368.184	369.69
368.41	382.69
368.636	396.69
368.862	388.69
369.089	396.69
369.315	386.69
369.541	381.69
369.767	410.69
369.993	380.69
370.219	389.69
370.445	382.69
370.672	379.69
370.898	375.69
371.124	383.69
371.35	393.69
371.576	348.69
371.802	375.69
372.028	391.69
372.254	379.69
372.48	346.69
372.706	376.69
372.932	388.69
373.158	388.69
373.384	396.69
373.61	371.69
373.835	406.69
374.061	386.69
374.287	388.69
374.513	380.69
374.739	382.69
374.965	375.69
375.191	376.69
375.416	373.69
375.642	367.69
375.868	390.69
376.094	351.69
376.319	370.69
376.545	362.69
376.771	358.69
376.997	380.69
377.222	351.69
377.448	361.69
377.674	373.69
377.899	352.69
378.125	376.69
378.35	391.69
378.576	373.69
378.802	376.69
379.027	377.69
379.253	370.69
379.478	355.69
379.704	365.69
379.929	378.69
380.155	378.69
380.38	377.69
380.606	365.69
380.831	373.69
381.057	379.69
381.282	373.69
381.507	368.69
381.733	375.69
381.958	380.69
382.184	390.69
382.409	377.69
382.634	386.69
382.86	362.69
383.085	382.69
383.31	378.69
383.535	378.69
383.761	403.69
383.986	382.69
384.211	375.69
384.436	388.69
384.662	378.69
384.887	371.69
385.112	390.69
385.337	385.69
385.562	391.69
385.787	372.69
386.013	412.69
386.238	423.69
386.463	404.69
386.688	385.69
386.913	396.69
387.138	382.69
387.363	397.69
387.588	385.69
387.813	386.69
388.038	398.69
388.263	393.69
388.488	399.69
388.713	405.69
388.938	386.69
389.163	399.69
389.387	396.69
389.612	388.69
389.837	376.69
390.062	387.69
390.287	392.69
390.512	389.69
390.736	405.69
390.961	394.69
391.186	384.69
391.411	390.69
391.636	389.69
391.86	386.69
392.085	407.69
392.31	406.69
392.534	390.69
392.759	385.69
392.984	383.69
393.208	390.69
393.433	377.69
393.658	390.69
393.882	367.69
394.107	392.69
394.331	386.69
394.556	398.69
394.78	398.69
395.005	401.69
395.229	385.69
395.454	415.69
395.678	404.69
395.903	421.69
396.127	444.69
396.352	449.69
396.576	405.69
396.801	400.69
397.025	413.69
397.249	412.69
397.474	405.69
397.698	410.69
397.922	431.69
398.147	451.69
398.371	439.69
398.595	430.69
398.82	431.69
399.044	451.69
399.268	456.69
399.492	459.69
399.717	472.69
399.941	487.69
400.165	505.69
400.389	530.69
400.613	479.69
400.837	466.69
401.062	439.69
401.286	434.69
401.51	448.69
401.734	415.69
401.958	429.69
402.182	444.69
402.406	459.69
402.63	468.69
402.854	449.69
403.078	438.69
403.302	442.69
403.526	469.69
403.75	471.69
403.974	450.69
404.198	468.69
404.422	474.69
404.645	514.69
404.869	495.69
405.093	556.69
405.317	607.69
405.541	646.69
405.765	596.69
405.988	535.69
406.212	530.69
406.436	544.69
406.66	549.69
406.883	515.69
407.107	526.69
407.331	558.69
407.555	620.69
407.778	622.69
408.002	563.69
408.226	532.69
408.449	517.69
408.673	531.69
408.896	538.69
409.12	570.69
409.344	574.69
409.567	493.69
409.791	514.69
410.014	475.69
410.238	460.69
410.461	475.69
410.685	489.69
410.908	479.69
411.132	532.69
411.355	549.69
411.578	524.69
411.802	491.69
412.025	498.69
412.249	520.69
412.472	585.69
412.695	631.69
412.919	606.69
413.142	584.69
413.365	556.69
413.589	530.69
413.812	483.69
414.035	481.69
414.258	473.69
414.482	480.69
414.705	468.69
414.928	462.69
415.151	456.69
415.374	442.69
415.597	454.69
415.821	435.69
416.044	467.69
416.267	448.69
416.49	455.69
416.713	423.69
416.936	446.69
417.159	448.69
417.382	448.69
417.605	477.69
417.828	477.69
418.051	482.69
418.274	491.69
418.497	470.69
418.72	472.69
418.943	467.69
419.166	470.69
419.389	498.69
419.611	486.69
419.834	502.69
420.057	516.69
420.28	531.69
420.503	564.69
420.726	543.69
420.948	532.69
421.171	575.69
421.394	575.69
421.617	519.69
421.839	491.69
422.062	488.69
422.285	488.69
422.507	538.69
422.73	615.69
422.953	596.69
423.175	525.69
423.398	513.69
423.621	514.69
423.843	540.69
424.066	514.69
424.288	520.69
424.511	540.69
424.733	582.69
424.956	655.69
425.178	642.69
425.401	652.69
425.623	634.69
425.846	547.69
426.068	527.69
426.291	543.69
426.513	517.69
426.735	543.69
426.958	566.69
427.18	652.69
427.402	768.69
427.625	846.69
427.847	778.69
428.069	724.69
428.292	643.69
428.514	564.69
428.736	526.69
428.958	517.69
429.181	491.69
429.403	491.69
429.625	490.69
429.847	536.69
430.069	587.69
430.292	580.69
430.514	499.69
430.736	471.69
430.958	471.69
431.18	431.69
431.402	463.69
431.624	451.69
431.846	462.69
432.068	448.69
432.29	455.69
432.512	436.69
432.734	456.69
432.956	455.69
433.178	460.69
433.4	485.69
433.622	478.69
433.844	447.69
434.066	448.69
434.287	440.69
434.509	425.69
434.731	460.69
434.953	456.69
435.175	463.69
435.397	493.69
435.618	486.69
435.84	557.69
436.062	649.69
436.284	750.69
436.505	605.69
436.727	541.69
436.949	496.69
437.17	500.69
437.392	478.69
437.614	489.69
437.835	522.69
438.057	625.69
438.278	727.69
438.5	707.69
438.721	803.69
438.943	761.69
439.165	588.69
439.386	539.69
439.608	533.69
439.829	564.69
440.05	565.69
440.272	596.69
440.493	574.69
440.715	525.69
440.936	477.69
441.158	471.69
441.379	489.69
441.6	490.69
441.822	516.69
442.043	565.69
442.264	637.69
442.486	662.69
442.707	580.69
442.928	531.69
443.149	529.69
443.371	557.69
443.592	583.69
443.813	692.69
444.034	731.69
444.255	594.69
444.476	527.69
444.698	522.69
444.919	523.69
445.14	603.69
445.361	538.69
445.582	576.69
445.803	643.69
446.024	733.69
446.245	721.69
446.466	681.69
446.687	575.69
446.908	530.69
447.129	470.69
447.35	504.69
447.571	497.69
447.792	479.69
448.013	496.69
448.234	523.69
448.455	556.69
448.675	667.69
448.896	779.69
449.117	680.69
449.338	620.69
449.559	734.69
449.779	795.69
450	640.69
450.221	555.69
450.442	500.69
450.662	488.69
450.883	473.69
451.104	511.69
451.324	491.69
451.545	470.69
451.766	453.69
451.986	429.69
452.207	445.69
452.428	428.69
452.648	419.69
452.869	425.69
453.089	435.69
453.31	462.69
453.53	447.69
453.751	440.69
453.971	436.69
454.192	453.69
454.412	446.69
454.633	427.69
454.853	432.69
455.073	419.69
455.294	460.69
455.514	515.69
455.734	526.69
455.955	430.69
456.175	416.69
456.395	392.69
456.616	413.69
456.836	416.69
457.056	422.69
457.276	373.69
457.497	404.69
457.717	404.69
457.937	428.69
458.157	384.69
458.377	434.69
458.598	447.69
458.818	483.69
459.038	598.69
459.258	596.69
459.478	486.69
459.698	468.69
459.918	428.69
460.138	418.69
460.358	436.69
460.578	436.69
460.798	429.69
461.018	446.69
461.238	411.69
461.458	440.69
461.678	434.69
461.898	432.69
462.118	430.69
462.338	436.69
462.558	439.69
462.777	426.69
462.997	448.69
463.217	451.69
463.437	440.69
463.657	442.69
463.876	436.69
464.096	446.69
464.316	432.69
464.536	470.69
464.755	463.69
464.975	459.69
465.195	532.69
465.414	595.69
465.634	505.69
465.854	491.69
466.073	448.69
466.293	454.69
466.512	443.69
466.732	428.69
466.951	427.69
467.171	431.69
467.391	437.69
467.61	428.69
467.829	456.69
468.049	482.69
468.268	550.69
468.488	498.69
468.707	488.69
468.927	444.69
469.146	442.69
469.365	439.69
469.585	438.69
469.804	437.69
470.023	460.69
470.243	459.69
470.462	472.69
470.681	486.69
470.901	472.69
471.12	464.69
471.339	447.69
471.558	465.69
471.777	481.69
471.997	461.69
472.216	551.69
472.435	788.69
472.654	718.69
472.873	581.69
473.092	532.69
473.311	493.69
473.53	490.69
473.749	496.69
473.968	529.69
474.187	642.69
474.406	663.69
474.625	516.69
474.844	480.69
475.063	472.69
475.282	471.69
475.501	477.69
475.72	493.69
475.939	449.69
476.158	469.69
476.377	487.69
476.596	475.69
476.814	478.69
477.033	468.69
477.252	470.69
477.471	480.69
477.69	485.69
477.908	503.69
478.127	484.69
478.346	478.69
478.564	518.69
478.783	514.69
479.002	512.69
479.22	506.69
479.439	548.69
479.658	540.69
479.876	536.69
480.095	564.69
480.313	602.69
480.532	603.69
480.751	592.69
480.969	687.69
481.188	1028.69
481.406	1303.69
481.624	891.69
481.843	720.69
482.061	670.69
482.28	640.69
482.498	613.69
482.717	580.69
482.935	587.69
483.153	590.69
483.372	574.69
483.59	568.69
483.808	566.69
484.027	572.69
484.245	570.69
484.463	585.69
484.681	585.69
484.9	562.69
485.118	557.69
485.336	563.69
485.554	559.69
485.772	584.69
485.99	574.69
486.209	582.69
486.427	579.69
486.645	590.69
486.863	623.69
487.081	613.69
487.299	598.69
487.517	612.69
487.735	623.69
487.953	603.69
488.171	627.69
488.389	614.69
488.607	600.69
488.825	603.69
489.043	608.69
489.261	605.69
489.479	596.69
489.696	629.69
489.914	653.69
490.132	651.69
490.35	666.69
490.568	637.69
490.786	678.69
491.003	674.69
491.221	666.69
491.439	720.69
491.657	742.69
491.874	735.69
492.092	734.69
492.31	730.69
492.527	746.69
492.745	746.69
492.963	781.69
493.18	774.69
493.398	746.69
493.615	762.69
493.833	779.69
494.05	767.69
494.268	737.69
494.485	741.69
494.703	747.69
494.92	740.69
495.138	749.69
495.355	726.69
495.573	726.69
495.79	711.69
496.008	734.69
496.225	729.69
496.442	716.69
496.66	727.69
496.877	736.69
497.094	715.69
497.312	719.69
497.529	703.69
497.746	723.69
497.963	721.69
498.181	755.69
498.398	721.69
498.615	758.69
498.832	758.69
499.049	739.69
499.267	766.69
499.484	732.69
499.701	778.69
499.918	796.69
500.135	809.69
500.352	842.69
500.569	846.69
500.786	852.69
501.003	846.69
501.22	852.69
501.437	830.69
501.654	805.69
501.871	815.69
