Data from 1986.PennyLincolnUp.Lamp.En5.5.200Scan.071819.P2_HRD10591_17-12-29-972.txt Node
Date: Thu Jul 18 17:12:29 EDT 2019
User: cochatt
Spectrometer: HR+D1059
Trigger mode: 1
Integration Time (sec): 1.000000E-1
Scans to average: 1
Electric dark correction enabled: true
Nonlinearity correction enabled: false
Boxcar width: 0
XAxis mode: Wavelengths
Number of Pixels in Spectrum: 2048
>>>>>Begin Spectral Data<<<<<
223.165	-14.19
223.4	-14.19
223.635	-14.19
223.869	-30.19
224.104	-16.19
224.338	-13.19
224.573	-23.19
224.808	-1.19
225.042	-8.19
225.277	-7.19
225.511	-1.19
225.746	-2.19
225.98	-1.19
226.215	-0.19
226.449	21.81
226.683	24.81
226.918	36.81
227.152	34.81
227.387	44.81
227.621	48.81
227.856	56.81
228.09	45.81
228.324	45.81
228.559	54.81
228.793	68.81
229.027	108.81
229.262	105.81
229.496	117.81
229.73	151.81
229.964	155.81
230.199	121.81
230.433	126.81
230.667	117.81
230.901	119.81
231.136	109.81
231.37	117.81
231.604	114.81
231.838	118.81
232.072	109.81
232.306	116.81
232.541	122.81
232.775	115.81
233.009	122.81
233.243	117.81
233.477	116.81
233.711	116.81
233.945	100.81
234.179	119.81
234.413	139.81
234.647	117.81
234.881	112.81
235.115	118.81
235.349	132.81
235.583	125.81
235.817	138.81
236.051	117.81
236.285	115.81
236.519	115.81
236.753	133.81
236.987	140.81
237.221	188.81
237.455	243.81
237.689	209.81
237.922	148.81
238.156	149.81
238.39	141.81
238.624	137.81
238.858	139.81
239.091	130.81
239.325	129.81
239.559	126.81
239.793	148.81
240.027	136.81
240.26	150.81
240.494	168.81
240.728	160.81
240.961	164.81
241.195	170.81
241.429	140.81
241.662	137.81
241.896	158.81
242.13	134.81
242.363	142.81
242.597	144.81
242.83	130.81
243.064	130.81
243.298	147.81
243.531	148.81
243.765	162.81
243.998	141.81
244.232	144.81
244.465	152.81
244.699	173.81
244.932	170.81
245.166	159.81
245.399	150.81
245.633	147.81
245.866	159.81
246.099	160.81
246.333	164.81
246.566	152.81
246.8	156.81
247.033	153.81
247.266	165.81
247.5	173.81
247.733	189.81
247.966	177.81
248.2	155.81
248.433	178.81
248.666	195.81
248.899	205.81
249.133	202.81
249.366	256.81
249.599	219.81
249.832	207.81
250.066	209.81
250.299	225.81
250.532	247.81
250.765	280.81
250.998	284.81
251.231	263.81
251.465	276.81
251.698	260.81
251.931	235.81
252.164	231.81
252.397	226.81
252.63	238.81
252.863	228.81
253.096	246.81
253.329	266.81
253.562	253.81
253.795	241.81
254.028	251.81
254.261	246.81
254.494	253.81
254.727	268.81
254.96	307.81
255.193	301.81
255.426	300.81
255.659	307.81
255.892	298.81
256.124	345.81
256.357	400.81
256.59	360.81
256.823	321.81
257.056	300.81
257.289	280.81
257.521	267.81
257.754	270.81
257.987	261.81
258.22	242.81
258.452	247.81
258.685	235.81
258.918	253.81
259.151	256.81
259.383	261.81
259.616	238.81
259.849	258.81
260.081	250.81
260.314	289.81
260.547	281.81
260.779	266.81
261.012	268.81
261.244	269.81
261.477	234.81
261.71	267.81
261.942	258.81
262.175	262.81
262.407	248.81
262.64	237.81
262.872	242.81
263.105	225.81
263.337	252.81
263.57	242.81
263.802	234.81
264.035	230.81
264.267	250.81
264.499	228.81
264.732	228.81
264.964	228.81
265.197	241.81
265.429	234.81
265.661	240.81
265.894	236.81
266.126	244.81
266.358	229.81
266.591	222.81
266.823	242.81
267.055	224.81
267.287	257.81
267.52	242.81
267.752	247.81
267.984	245.81
268.216	237.81
268.448	244.81
268.681	257.81
268.913	260.81
269.145	267.81
269.377	296.81
269.609	289.81
269.841	283.81
270.073	297.81
270.306	315.81
270.538	339.81
270.77	341.81
271.002	313.81
271.234	308.81
271.466	320.81
271.698	320.81
271.93	355.81
272.162	338.81
272.394	343.81
272.626	342.81
272.858	323.81
273.09	314.81
273.322	297.81
273.553	272.81
273.785	300.81
274.017	301.81
274.249	289.81
274.481	276.81
274.713	275.81
274.945	316.81
275.176	278.81
275.408	305.81
275.64	294.81
275.872	295.81
276.104	292.81
276.335	293.81
276.567	270.81
276.799	304.81
277.031	327.81
277.262	352.81
277.494	365.81
277.726	350.81
277.957	317.81
278.189	317.81
278.421	291.81
278.652	309.81
278.884	283.81
279.115	294.81
279.347	300.81
279.579	278.81
279.81	284.81
280.042	296.81
280.273	306.81
280.505	297.81
280.736	315.81
280.968	293.81
281.199	302.81
281.431	310.81
281.662	283.81
281.894	284.81
282.125	283.81
282.356	306.81
282.588	324.81
282.819	332.81
283.051	304.81
283.282	284.81
283.513	302.81
283.745	305.81
283.976	313.81
284.207	294.81
284.439	289.81
284.67	296.81
284.901	288.81
285.132	280.81
285.364	283.81
285.595	279.81
285.826	273.81
286.057	294.81
286.288	291.81
286.52	291.81
286.751	290.81
286.982	296.81
287.213	280.81
287.444	288.81
287.675	299.81
287.906	299.81
288.138	292.81
288.369	318.81
288.6	300.81
288.831	301.81
289.062	299.81
289.293	307.81
289.524	306.81
289.755	285.81
289.986	292.81
290.217	294.81
290.448	288.81
290.679	299.81
290.91	316.81
291.141	294.81
291.371	282.81
291.602	280.81
291.833	294.81
292.064	296.81
292.295	296.81
292.526	305.81
292.757	296.81
292.987	316.81
293.218	284.81
293.449	311.81
293.68	274.81
293.91	291.81
294.141	286.81
294.372	295.81
294.603	304.81
294.833	297.81
295.064	289.81
295.295	307.81
295.525	281.81
295.756	306.81
295.987	299.81
296.217	318.81
296.448	336.81
296.679	308.81
296.909	306.81
297.14	313.81
297.37	296.81
297.601	310.81
297.831	327.81
298.062	287.81
298.292	336.81
298.523	320.81
298.753	315.81
298.984	299.81
299.214	300.81
299.445	309.81
299.675	315.81
299.905	322.81
300.136	310.81
300.366	327.81
300.597	312.81
300.827	321.81
301.057	334.81
301.288	355.81
301.518	320.81
301.748	319.81
301.979	339.81
302.209	326.81
302.439	313.81
302.669	318.81
302.9	322.81
303.13	320.81
303.36	340.81
303.59	321.81
303.82	344.81
304.051	351.81
304.281	331.81
304.511	331.81
304.741	335.81
304.971	318.81
305.201	324.81
305.431	330.81
305.661	327.81
305.891	331.81
306.121	324.81
306.352	355.81
306.582	338.81
306.812	335.81
307.042	325.81
307.272	353.81
307.502	349.81
307.731	343.81
307.961	357.81
308.191	354.81
308.421	347.81
308.651	323.81
308.881	346.81
309.111	347.81
309.341	353.81
309.571	352.81
309.8	350.81
310.03	394.81
310.26	400.81
310.49	399.81
310.72	394.81
310.949	404.81
311.179	422.81
311.409	409.81
311.639	409.81
311.868	396.81
312.098	378.81
312.328	388.81
312.557	409.81
312.787	433.81
313.017	417.81
313.246	394.81
313.476	385.81
313.706	397.81
313.935	403.81
314.165	398.81
314.394	420.81
314.624	416.81
314.853	392.81
315.083	407.81
315.312	385.81
315.542	373.81
315.771	385.81
316.001	372.81
316.23	370.81
316.46	385.81
316.689	384.81
316.919	395.81
317.148	390.81
317.377	398.81
317.607	408.81
317.836	372.81
318.065	376.81
318.295	383.81
318.524	380.81
318.753	399.81
318.983	386.81
319.212	402.81
319.441	402.81
319.67	417.81
319.9	402.81
320.129	400.81
320.358	406.81
320.587	411.81
320.816	395.81
321.046	418.81
321.275	418.81
321.504	425.81
321.733	421.81
321.962	429.81
322.191	455.81
322.42	457.81
322.649	481.81
322.878	493.81
323.108	478.81
323.337	522.81
323.566	544.81
323.795	590.81
324.024	652.81
324.253	766.81
324.482	1126.81
324.71	1727.81
324.939	2440.81
325.168	2207.81
325.397	1143.81
325.626	776.81
325.855	648.81
326.084	585.81
326.313	578.81
326.542	586.81
326.77	664.81
326.999	750.81
327.228	1027.81
327.457	1538.81
327.686	1871.81
327.914	1282.81
328.143	916.81
328.372	852.81
328.6	774.81
328.829	705.81
329.058	714.81
329.287	702.81
329.515	693.81
329.744	677.81
329.972	721.81
330.201	823.81
330.43	954.81
330.658	905.81
330.887	795.81
331.115	726.81
331.344	649.81
331.572	596.81
331.801	600.81
332.03	568.81
332.258	563.81
332.486	527.81
332.715	539.81
332.943	534.81
333.172	534.81
333.4	540.81
333.629	584.81
333.857	633.81
334.085	678.81
334.314	803.81
334.542	955.81
334.771	1055.81
334.999	787.81
335.227	629.81
335.455	572.81
335.684	538.81
335.912	522.81
336.14	504.81
336.369	483.81
336.597	478.81
336.825	482.81
337.053	470.81
337.281	477.81
337.51	448.81
337.738	462.81
337.966	458.81
338.194	450.81
338.422	441.81
338.65	442.81
338.878	461.81
339.106	425.81
339.334	442.81
339.562	428.81
339.79	421.81
340.018	439.81
340.246	424.81
340.474	453.81
340.702	448.81
340.93	439.81
341.158	423.81
341.386	443.81
341.614	446.81
341.842	451.81
342.07	424.81
342.298	428.81
342.526	423.81
342.754	436.81
342.981	414.81
343.209	412.81
343.437	427.81
343.665	411.81
343.893	422.81
344.12	409.81
344.348	417.81
344.576	438.81
344.804	460.81
345.031	451.81
345.259	449.81
345.487	442.81
345.714	444.81
345.942	432.81
346.17	415.81
346.397	419.81
346.625	422.81
346.853	408.81
347.08	397.81
347.308	413.81
347.535	422.81
347.763	423.81
347.99	440.81
348.218	422.81
348.445	434.81
348.673	452.81
348.9	422.81
349.128	399.81
349.355	401.81
349.583	423.81
349.81	397.81
350.037	401.81
350.265	386.81
350.492	389.81
350.72	408.81
350.947	395.81
351.174	418.81
351.402	426.81
351.629	426.81
351.856	450.81
352.083	430.81
352.311	463.81
352.538	431.81
352.765	445.81
352.992	434.81
353.22	406.81
353.447	410.81
353.674	412.81
353.901	397.81
354.128	396.81
354.355	396.81
354.583	385.81
354.81	382.81
355.037	386.81
355.264	389.81
355.491	376.81
355.718	372.81
355.945	386.81
356.172	393.81
356.399	397.81
356.626	375.81
356.853	383.81
357.08	366.81
357.307	380.81
357.534	397.81
357.761	372.81
357.988	378.81
358.215	380.81
358.441	377.81
358.668	380.81
358.895	398.81
359.122	377.81
359.349	391.81
359.576	397.81
359.802	410.81
360.029	441.81
360.256	462.81
360.483	453.81
360.709	420.81
360.936	416.81
361.163	421.81
361.39	429.81
361.616	412.81
361.843	409.81
362.07	408.81
362.296	403.81
362.523	416.81
362.749	421.81
362.976	413.81
363.203	404.81
363.429	406.81
363.656	393.81
363.882	400.81
364.109	402.81
364.335	403.81
364.562	380.81
364.788	394.81
365.015	394.81
365.241	405.81
365.468	389.81
365.694	398.81
365.92	388.81
366.147	368.81
366.373	397.81
366.599	382.81
366.826	382.81
367.052	377.81
367.278	373.81
367.505	389.81
367.731	403.81
367.957	400.81
368.184	398.81
368.41	370.81
368.636	394.81
368.862	411.81
369.089	380.81
369.315	369.81
369.541	392.81
369.767	386.81
369.993	406.81
370.219	389.81
370.445	398.81
370.672	377.81
370.898	368.81
371.124	378.81
371.35	380.81
371.576	387.81
371.802	364.81
372.028	386.81
372.254	372.81
372.48	376.81
372.706	368.81
372.932	377.81
373.158	374.81
373.384	378.81
373.61	380.81
373.835	378.81
374.061	380.81
374.287	376.81
374.513	375.81
374.739	380.81
374.965	376.81
375.191	372.81
375.416	393.81
375.642	378.81
375.868	374.81
376.094	377.81
376.319	370.81
376.545	384.81
376.771	377.81
376.997	360.81
377.222	380.81
377.448	349.81
377.674	368.81
377.899	374.81
378.125	360.81
378.35	373.81
378.576	374.81
378.802	358.81
379.027	356.81
379.253	362.81
379.478	365.81
379.704	354.81
379.929	368.81
380.155	376.81
380.38	363.81
380.606	384.81
380.831	380.81
381.057	357.81
381.282	362.81
381.507	374.81
381.733	368.81
381.958	372.81
382.184	370.81
382.409	366.81
382.634	366.81
382.86	361.81
383.085	372.81
383.31	370.81
383.535	390.81
383.761	390.81
383.986	360.81
384.211	377.81
384.436	392.81
384.662	377.81
384.887	382.81
385.112	386.81
385.337	362.81
385.562	391.81
385.787	382.81
386.013	391.81
386.238	394.81
386.463	420.81
386.688	373.81
386.913	401.81
387.138	369.81
387.363	373.81
387.588	398.81
387.813	368.81
388.038	394.81
388.263	388.81
388.488	376.81
388.713	400.81
388.938	394.81
389.163	391.81
389.387	392.81
389.612	396.81
389.837	372.81
390.062	403.81
390.287	389.81
390.512	385.81
390.736	373.81
390.961	373.81
391.186	383.81
391.411	386.81
391.636	387.81
391.86	404.81
392.085	388.81
392.31	374.81
392.534	381.81
392.759	389.81
392.984	370.81
393.208	389.81
393.433	409.81
393.658	384.81
393.882	377.81
394.107	388.81
394.331	382.81
394.556	376.81
394.78	390.81
395.005	372.81
395.229	391.81
395.454	391.81
395.678	399.81
395.903	412.81
396.127	417.81
396.352	432.81
396.576	399.81
396.801	378.81
397.025	411.81
397.249	412.81
397.474	398.81
397.698	397.81
397.922	429.81
398.147	450.81
398.371	428.81
398.595	418.81
398.82	437.81
399.044	420.81
399.268	416.81
399.492	436.81
399.717	456.81
399.941	488.81
400.165	502.81
400.389	540.81
400.613	477.81
400.837	459.81
401.062	440.81
401.286	466.81
401.51	450.81
401.734	437.81
401.958	417.81
402.182	433.81
402.406	444.81
402.63	442.81
402.854	449.81
403.078	448.81
403.302	460.81
403.526	452.81
403.75	456.81
403.974	455.81
404.198	465.81
404.422	487.81
404.645	494.81
404.869	508.81
405.093	562.81
405.317	602.81
405.541	650.81
405.765	583.81
405.988	530.81
406.212	544.81
406.436	535.81
406.66	535.81
406.883	509.81
407.107	517.81
407.331	552.81
407.555	618.81
407.778	592.81
408.002	578.81
408.226	547.81
408.449	518.81
408.673	514.81
408.896	548.81
409.12	565.81
409.344	536.81
409.567	484.81
409.791	484.81
410.014	481.81
410.238	452.81
410.461	456.81
410.685	441.81
410.908	476.81
411.132	514.81
411.355	553.81
411.578	509.81
411.802	490.81
412.025	488.81
412.249	501.81
412.472	542.81
412.695	627.81
412.919	634.81
413.142	551.81
413.365	522.81
413.589	515.81
413.812	477.81
414.035	465.81
414.258	450.81
414.482	458.81
414.705	462.81
414.928	430.81
415.151	433.81
415.374	444.81
415.597	433.81
415.821	438.81
416.044	440.81
416.267	441.81
416.49	453.81
416.713	424.81
416.936	454.81
417.159	432.81
417.382	437.81
417.605	474.81
417.828	466.81
418.051	487.81
418.274	480.81
418.497	447.81
418.72	447.81
418.943	457.81
419.166	473.81
419.389	483.81
419.611	497.81
419.834	470.81
420.057	498.81
420.28	534.81
420.503	533.81
420.726	524.81
420.948	533.81
421.171	571.81
421.394	569.81
421.617	505.81
421.839	496.81
422.062	475.81
422.285	497.81
422.507	544.81
422.73	635.81
422.953	599.81
423.175	529.81
423.398	484.81
423.621	478.81
423.843	507.81
424.066	498.81
424.288	524.81
424.511	547.81
424.733	570.81
424.956	658.81
425.178	634.81
425.401	615.81
425.623	635.81
425.846	543.81
426.068	518.81
426.291	481.81
426.513	500.81
426.735	515.81
426.958	550.81
427.18	659.81
427.402	759.81
427.625	880.81
427.847	790.81
428.069	726.81
428.292	640.81
428.514	563.81
428.736	522.81
428.958	502.81
429.181	491.81
429.403	470.81
429.625	489.81
429.847	517.81
430.069	581.81
430.292	593.81
430.514	478.81
430.736	472.81
430.958	467.81
431.18	451.81
431.402	460.81
431.624	441.81
431.846	424.81
432.068	448.81
432.29	445.81
432.512	448.81
432.734	463.81
432.956	465.81
433.178	438.81
433.4	461.81
433.622	445.81
433.844	441.81
434.066	448.81
434.287	442.81
434.509	440.81
434.731	423.81
434.953	440.81
435.175	482.81
435.397	502.81
435.618	504.81
435.84	534.81
436.062	649.81
436.284	715.81
436.505	614.81
436.727	524.81
436.949	502.81
437.17	482.81
437.392	485.81
437.614	488.81
437.835	524.81
438.057	634.81
438.278	735.81
438.5	714.81
438.721	777.81
438.943	729.81
439.165	571.81
439.386	545.81
439.608	519.81
439.829	522.81
440.05	570.81
440.272	609.81
440.493	576.81
440.715	518.81
440.936	471.81
441.158	486.81
441.379	496.81
441.6	456.81
441.822	504.81
442.043	547.81
442.264	628.81
442.486	689.81
442.707	565.81
442.928	525.81
443.149	538.81
443.371	559.81
443.592	610.81
443.813	658.81
444.034	731.81
444.255	634.81
444.476	538.81
444.698	498.81
444.919	521.81
445.14	590.81
445.361	553.81
445.582	564.81
445.803	630.81
446.024	726.81
446.245	734.81
446.466	686.81
446.687	588.81
446.908	534.81
447.129	486.81
447.35	476.81
447.571	481.81
447.792	482.81
448.013	477.81
448.234	489.81
448.455	531.81
448.675	660.81
448.896	794.81
449.117	653.81
449.338	634.81
449.559	709.81
449.779	801.81
450	655.81
450.221	551.81
450.442	472.81
450.662	482.81
450.883	492.81
451.104	512.81
451.324	486.81
451.545	454.81
451.766	443.81
451.986	440.81
452.207	430.81
452.428	416.81
452.648	418.81
452.869	435.81
453.089	427.81
453.31	464.81
453.53	446.81
453.751	433.81
453.971	429.81
454.192	444.81
454.412	438.81
454.633	419.81
454.853	436.81
455.073	404.81
455.294	452.81
455.514	533.81
455.734	507.81
455.955	426.81
456.175	436.81
456.395	406.81
456.616	396.81
456.836	369.81
457.056	420.81
457.276	396.81
457.497	391.81
457.717	409.81
457.937	414.81
458.157	418.81
458.377	414.81
458.598	424.81
458.818	500.81
459.038	604.81
459.258	607.81
459.478	503.81
459.698	458.81
459.918	436.81
460.138	443.81
460.358	435.81
460.578	422.81
460.798	448.81
461.018	431.81
461.238	444.81
461.458	437.81
461.678	445.81
461.898	416.81
462.118	408.81
462.338	437.81
462.558	443.81
462.777	473.81
462.997	438.81
463.217	438.81
463.437	452.81
463.657	441.81
463.876	458.81
464.096	460.81
464.316	465.81
464.536	441.81
464.755	486.81
464.975	467.81
465.195	510.81
465.414	592.81
465.634	539.81
465.854	485.81
466.073	460.81
466.293	451.81
466.512	442.81
466.732	448.81
466.951	421.81
467.171	447.81
467.391	457.81
467.61	452.81
467.829	472.81
468.049	481.81
468.268	538.81
468.488	486.81
468.707	468.81
468.927	465.81
469.146	411.81
469.365	435.81
469.585	419.81
469.804	427.81
470.023	438.81
470.243	434.81
470.462	473.81
470.681	471.81
470.901	468.81
471.12	446.81
471.339	450.81
471.558	455.81
471.777	474.81
471.997	466.81
472.216	546.81
472.435	759.81
472.654	699.81
472.873	547.81
473.092	502.81
473.311	460.81
473.53	494.81
473.749	513.81
473.968	530.81
474.187	617.81
474.406	649.81
474.625	520.81
474.844	501.81
475.063	488.81
475.282	464.81
475.501	458.81
475.72	463.81
475.939	477.81
476.158	470.81
476.377	480.81
476.596	483.81
476.814	483.81
477.033	473.81
477.252	480.81
477.471	483.81
477.69	475.81
477.908	491.81
478.127	494.81
478.346	474.81
478.564	483.81
478.783	487.81
479.002	496.81
479.22	502.81
479.439	536.81
479.658	551.81
479.876	566.81
480.095	560.81
480.313	581.81
480.532	586.81
480.751	598.81
480.969	672.81
481.188	954.81
481.406	1219.81
481.624	861.81
481.843	716.81
482.061	650.81
482.28	634.81
482.498	604.81
482.717	586.81
482.935	568.81
483.153	569.81
483.372	554.81
483.59	550.81
483.808	555.81
484.027	571.81
484.245	572.81
484.463	562.81
484.681	575.81
484.9	570.81
485.118	554.81
485.336	561.81
485.554	578.81
485.772	580.81
485.99	553.81
486.209	572.81
486.427	570.81
486.645	594.81
486.863	609.81
487.081	596.81
487.299	611.81
487.517	607.81
487.735	605.81
487.953	600.81
488.171	599.81
488.389	582.81
488.607	589.81
488.825	598.81
489.043	584.81
489.261	618.81
489.479	605.81
489.696	606.81
489.914	636.81
490.132	652.81
490.35	628.81
490.568	642.81
490.786	651.81
491.003	679.81
491.221	693.81
491.439	682.81
491.657	688.81
491.874	723.81
492.092	704.81
492.31	758.81
492.527	731.81
492.745	733.81
492.963	720.81
493.18	756.81
493.398	760.81
493.615	728.81
493.833	739.81
494.05	737.81
494.268	733.81
494.485	727.81
494.703	723.81
494.92	745.81
495.138	721.81
495.355	738.81
495.573	720.81
495.79	740.81
496.008	752.81
496.225	702.81
496.442	703.81
496.66	716.81
496.877	725.81
497.094	709.81
497.312	706.81
497.529	710.81
497.746	692.81
497.963	730.81
498.181	766.81
498.398	746.81
498.615	733.81
498.832	761.81
499.049	747.81
499.267	780.81
499.484	785.81
499.701	761.81
499.918	754.81
500.135	809.81
500.352	811.81
500.569	823.81
500.786	843.81
501.003	863.81
501.22	839.81
501.437	830.81
501.654	843.81
501.871	808.81
