Data from 1986.PennyLincolnUp.Lamp.En5.5.200Scan.071819.P2_HRD10591_17-12-28-972.txt Node
Date: Thu Jul 18 17:12:28 EDT 2019
User: cochatt
Spectrometer: HR+D1059
Trigger mode: 1
Integration Time (sec): 1.000000E-1
Scans to average: 1
Electric dark correction enabled: true
Nonlinearity correction enabled: false
Boxcar width: 0
XAxis mode: Wavelengths
Number of Pixels in Spectrum: 2048
>>>>>Begin Spectral Data<<<<<
223.165	-11.81
223.4	-11.81
223.635	-11.81
223.869	-19.81
224.104	-24.81
224.338	-9.81
224.573	-13.81
224.808	3.19
225.042	0.19
225.277	-10.81
225.511	-5.81
225.746	1.19
225.98	15.19
226.215	7.19
226.449	19.19
226.683	8.19
226.918	23.19
227.152	19.19
227.387	35.19
227.621	31.19
227.856	41.19
228.09	36.19
228.324	58.19
228.559	53.19
228.793	67.19
229.027	113.19
229.262	123.19
229.496	112.19
229.73	138.19
229.964	164.19
230.199	125.19
230.433	117.19
230.667	118.19
230.901	107.19
231.136	115.19
231.37	123.19
231.604	119.19
231.838	126.19
232.072	120.19
232.306	97.19
232.541	104.19
232.775	117.19
233.009	111.19
233.243	130.19
233.477	109.19
233.711	124.19
233.945	102.19
234.179	110.19
234.413	119.19
234.647	131.19
234.881	126.19
235.115	100.19
235.349	105.19
235.583	106.19
235.817	128.19
236.051	135.19
236.285	118.19
236.519	123.19
236.753	141.19
236.987	152.19
237.221	198.19
237.455	249.19
237.689	180.19
237.922	148.19
238.156	136.19
238.39	132.19
238.624	133.19
238.858	123.19
239.091	121.19
239.325	128.19
239.559	132.19
239.793	126.19
240.027	153.19
240.26	154.19
240.494	191.19
240.728	153.19
240.961	143.19
241.195	147.19
241.429	137.19
241.662	121.19
241.896	140.19
242.13	141.19
242.363	144.19
242.597	156.19
242.83	146.19
243.064	135.19
243.298	161.19
243.531	141.19
243.765	149.19
243.998	163.19
244.232	153.19
244.465	163.19
244.699	135.19
244.932	137.19
245.166	146.19
245.399	137.19
245.633	155.19
245.866	147.19
246.099	137.19
246.333	170.19
246.566	142.19
246.8	162.19
247.033	166.19
247.266	164.19
247.5	160.19
247.733	174.19
247.966	183.19
248.2	179.19
248.433	193.19
248.666	176.19
248.899	205.19
249.133	213.19
249.366	220.19
249.599	212.19
249.832	220.19
250.066	221.19
250.299	233.19
250.532	232.19
250.765	266.19
250.998	265.19
251.231	271.19
251.465	259.19
251.698	248.19
251.931	243.19
252.164	214.19
252.397	207.19
252.63	226.19
252.863	220.19
253.096	230.19
253.329	267.19
253.562	246.19
253.795	240.19
254.028	248.19
254.261	232.19
254.494	259.19
254.727	271.19
254.96	296.19
255.193	291.19
255.426	291.19
255.659	296.19
255.892	316.19
256.124	355.19
256.357	384.19
256.59	341.19
256.823	303.19
257.056	292.19
257.289	279.19
257.521	249.19
257.754	251.19
257.987	266.19
258.22	241.19
258.452	244.19
258.685	250.19
258.918	235.19
259.151	236.19
259.383	234.19
259.616	245.19
259.849	262.19
260.081	265.19
260.314	282.19
260.547	269.19
260.779	262.19
261.012	268.19
261.244	264.19
261.477	260.19
261.71	239.19
261.942	232.19
262.175	243.19
262.407	255.19
262.64	231.19
262.872	242.19
263.105	234.19
263.337	211.19
263.57	221.19
263.802	239.19
264.035	232.19
264.267	229.19
264.499	211.19
264.732	234.19
264.964	209.19
265.197	231.19
265.429	212.19
265.661	225.19
265.894	206.19
266.126	227.19
266.358	227.19
266.591	215.19
266.823	232.19
267.055	239.19
267.287	237.19
267.52	235.19
267.752	230.19
267.984	221.19
268.216	234.19
268.448	251.19
268.681	239.19
268.913	234.19
269.145	259.19
269.377	309.19
269.609	288.19
269.841	288.19
270.073	297.19
270.306	302.19
270.538	332.19
270.77	339.19
271.002	327.19
271.234	283.19
271.466	318.19
271.698	333.19
271.93	348.19
272.162	349.19
272.394	324.19
272.626	313.19
272.858	295.19
273.09	296.19
273.322	286.19
273.553	309.19
273.785	268.19
274.017	260.19
274.249	297.19
274.481	287.19
274.713	288.19
274.945	286.19
275.176	269.19
275.408	270.19
275.64	264.19
275.872	291.19
276.104	296.19
276.335	281.19
276.567	298.19
276.799	319.19
277.031	325.19
277.262	335.19
277.494	343.19
277.726	318.19
277.957	313.19
278.189	303.19
278.421	298.19
278.652	298.19
278.884	287.19
279.115	281.19
279.347	284.19
279.579	296.19
279.81	292.19
280.042	289.19
280.273	274.19
280.505	292.19
280.736	292.19
280.968	273.19
281.199	265.19
281.431	310.19
281.662	277.19
281.894	273.19
282.125	289.19
282.356	298.19
282.588	313.19
282.819	337.19
283.051	297.19
283.282	265.19
283.513	288.19
283.745	294.19
283.976	300.19
284.207	283.19
284.439	307.19
284.67	272.19
284.901	267.19
285.132	285.19
285.364	281.19
285.595	283.19
285.826	285.19
286.057	276.19
286.288	279.19
286.52	307.19
286.751	289.19
286.982	290.19
287.213	275.19
287.444	291.19
287.675	300.19
287.906	295.19
288.138	311.19
288.369	315.19
288.6	314.19
288.831	305.19
289.062	301.19
289.293	306.19
289.524	296.19
289.755	275.19
289.986	297.19
290.217	297.19
290.448	285.19
290.679	276.19
290.91	300.19
291.141	282.19
291.371	290.19
291.602	308.19
291.833	307.19
292.064	297.19
292.295	293.19
292.526	289.19
292.757	282.19
292.987	295.19
293.218	294.19
293.449	284.19
293.68	278.19
293.91	292.19
294.141	291.19
294.372	281.19
294.603	303.19
294.833	301.19
295.064	296.19
295.295	289.19
295.525	306.19
295.756	284.19
295.987	295.19
296.217	326.19
296.448	348.19
296.679	304.19
296.909	273.19
297.14	291.19
297.37	292.19
297.601	297.19
297.831	296.19
298.062	292.19
298.292	309.19
298.523	311.19
298.753	290.19
298.984	285.19
299.214	310.19
299.445	307.19
299.675	309.19
299.905	316.19
300.136	314.19
300.366	290.19
300.597	288.19
300.827	320.19
301.057	343.19
301.288	325.19
301.518	321.19
301.748	308.19
301.979	319.19
302.209	332.19
302.439	319.19
302.669	331.19
302.9	314.19
303.13	316.19
303.36	322.19
303.59	341.19
303.82	337.19
304.051	331.19
304.281	311.19
304.511	314.19
304.741	313.19
304.971	312.19
305.201	320.19
305.431	321.19
305.661	332.19
305.891	311.19
306.121	329.19
306.352	327.19
306.582	336.19
306.812	340.19
307.042	332.19
307.272	319.19
307.502	333.19
307.731	328.19
307.961	322.19
308.191	327.19
308.421	333.19
308.651	332.19
308.881	330.19
309.111	339.19
309.341	352.19
309.571	351.19
309.8	379.19
310.03	385.19
310.26	380.19
310.49	365.19
310.72	374.19
310.949	385.19
311.179	410.19
311.409	389.19
311.639	394.19
311.868	384.19
312.098	389.19
312.328	379.19
312.557	399.19
312.787	410.19
313.017	437.19
313.246	401.19
313.476	378.19
313.706	376.19
313.935	389.19
314.165	393.19
314.394	396.19
314.624	399.19
314.853	403.19
315.083	382.19
315.312	380.19
315.542	376.19
315.771	365.19
316.001	353.19
316.23	381.19
316.46	352.19
316.689	387.19
316.919	391.19
317.148	384.19
317.377	373.19
317.607	358.19
317.836	389.19
318.065	380.19
318.295	374.19
318.524	377.19
318.753	373.19
318.983	391.19
319.212	376.19
319.441	387.19
319.67	399.19
319.9	394.19
320.129	377.19
320.358	381.19
320.587	395.19
320.816	396.19
321.046	405.19
321.275	422.19
321.504	405.19
321.733	435.19
321.962	428.19
322.191	440.19
322.42	459.19
322.649	470.19
322.878	480.19
323.108	509.19
323.337	523.19
323.566	525.19
323.795	549.19
324.024	616.19
324.253	747.19
324.482	1053.19
324.71	1656.19
324.939	2375.19
325.168	2161.19
325.397	1135.19
325.626	738.19
325.855	634.19
326.084	575.19
326.313	565.19
326.542	588.19
326.77	611.19
326.999	737.19
327.228	961.19
327.457	1496.19
327.686	1814.19
327.914	1268.19
328.143	883.19
328.372	815.19
328.6	759.19
328.829	672.19
329.058	685.19
329.287	668.19
329.515	672.19
329.744	655.19
329.972	706.19
330.201	798.19
330.43	892.19
330.658	874.19
330.887	783.19
331.115	709.19
331.344	602.19
331.572	563.19
331.801	575.19
332.03	592.19
332.258	549.19
332.486	531.19
332.715	532.19
332.943	523.19
333.172	511.19
333.4	527.19
333.629	560.19
333.857	598.19
334.085	691.19
334.314	805.19
334.542	950.19
334.771	1033.19
334.999	778.19
335.227	591.19
335.455	540.19
335.684	536.19
335.912	495.19
336.14	477.19
336.369	492.19
336.597	460.19
336.825	475.19
337.053	444.19
337.281	461.19
337.51	459.19
337.738	445.19
337.966	443.19
338.194	446.19
338.422	443.19
338.65	426.19
338.878	437.19
339.106	442.19
339.334	422.19
339.562	420.19
339.79	411.19
340.018	434.19
340.246	429.19
340.474	418.19
340.702	429.19
340.93	436.19
341.158	409.19
341.386	419.19
341.614	420.19
341.842	422.19
342.07	411.19
342.298	419.19
342.526	394.19
342.754	397.19
342.981	404.19
343.209	393.19
343.437	415.19
343.665	398.19
343.893	396.19
344.12	430.19
344.348	417.19
344.576	423.19
344.804	427.19
345.031	408.19
345.259	435.19
345.487	447.19
345.714	420.19
345.942	440.19
346.17	418.19
346.397	402.19
346.625	395.19
346.853	403.19
347.08	391.19
347.308	407.19
347.535	421.19
347.763	426.19
347.99	407.19
348.218	426.19
348.445	427.19
348.673	425.19
348.9	428.19
349.128	395.19
349.355	367.19
349.583	420.19
349.81	401.19
350.037	393.19
350.265	396.19
350.492	396.19
350.72	413.19
350.947	404.19
351.174	419.19
351.402	409.19
351.629	421.19
351.856	423.19
352.083	416.19
352.311	427.19
352.538	423.19
352.765	427.19
352.992	424.19
353.22	401.19
353.447	403.19
353.674	395.19
353.901	399.19
354.128	388.19
354.355	380.19
354.583	380.19
354.81	382.19
355.037	377.19
355.264	369.19
355.491	380.19
355.718	374.19
355.945	363.19
356.172	385.19
356.399	379.19
356.626	389.19
356.853	368.19
357.08	369.19
357.307	376.19
357.534	355.19
357.761	369.19
357.988	379.19
358.215	348.19
358.441	385.19
358.668	386.19
358.895	378.19
359.122	368.19
359.349	373.19
359.576	412.19
359.802	413.19
360.029	450.19
360.256	472.19
360.483	441.19
360.709	410.19
360.936	393.19
361.163	412.19
361.39	384.19
361.616	393.19
361.843	379.19
362.07	395.19
362.296	405.19
362.523	391.19
362.749	394.19
362.976	395.19
363.203	403.19
363.429	385.19
363.656	367.19
363.882	381.19
364.109	358.19
364.335	387.19
364.562	367.19
364.788	373.19
365.015	382.19
365.241	383.19
365.468	392.19
365.694	407.19
365.92	396.19
366.147	381.19
366.373	388.19
366.599	389.19
366.826	389.19
367.052	388.19
367.278	373.19
367.505	381.19
367.731	390.19
367.957	395.19
368.184	374.19
368.41	377.19
368.636	378.19
368.862	391.19
369.089	385.19
369.315	379.19
369.541	365.19
369.767	379.19
369.993	368.19
370.219	355.19
370.445	395.19
370.672	390.19
370.898	357.19
371.124	357.19
371.35	376.19
371.576	375.19
371.802	368.19
372.028	369.19
372.254	390.19
372.48	358.19
372.706	361.19
372.932	375.19
373.158	362.19
373.384	377.19
373.61	369.19
373.835	378.19
374.061	360.19
374.287	371.19
374.513	364.19
374.739	363.19
374.965	358.19
375.191	379.19
375.416	387.19
375.642	362.19
375.868	395.19
376.094	361.19
376.319	356.19
376.545	363.19
376.771	356.19
376.997	370.19
377.222	371.19
377.448	379.19
377.674	356.19
377.899	361.19
378.125	365.19
378.35	353.19
378.576	347.19
378.802	353.19
379.027	361.19
379.253	375.19
379.478	363.19
379.704	357.19
379.929	368.19
380.155	375.19
380.38	361.19
380.606	367.19
380.831	371.19
381.057	376.19
381.282	358.19
381.507	363.19
381.733	381.19
381.958	355.19
382.184	364.19
382.409	376.19
382.634	363.19
382.86	367.19
383.085	371.19
383.31	361.19
383.535	359.19
383.761	372.19
383.986	367.19
384.211	371.19
384.436	362.19
384.662	368.19
384.887	357.19
385.112	363.19
385.337	364.19
385.562	371.19
385.787	381.19
386.013	400.19
386.238	378.19
386.463	380.19
386.688	386.19
386.913	384.19
387.138	369.19
387.363	388.19
387.588	387.19
387.813	399.19
388.038	387.19
388.263	379.19
388.488	392.19
388.713	388.19
388.938	387.19
389.163	403.19
389.387	392.19
389.612	387.19
389.837	367.19
390.062	386.19
390.287	373.19
390.512	370.19
390.736	394.19
390.961	384.19
391.186	385.19
391.411	358.19
391.636	382.19
391.86	364.19
392.085	389.19
392.31	406.19
392.534	380.19
392.759	379.19
392.984	376.19
393.208	356.19
393.433	388.19
393.658	371.19
393.882	375.19
394.107	377.19
394.331	391.19
394.556	378.19
394.78	375.19
395.005	399.19
395.229	384.19
395.454	374.19
395.678	375.19
395.903	382.19
396.127	419.19
396.352	425.19
396.576	397.19
396.801	396.19
397.025	386.19
397.249	395.19
397.474	405.19
397.698	387.19
397.922	407.19
398.147	419.19
398.371	435.19
398.595	436.19
398.82	425.19
399.044	437.19
399.268	435.19
399.492	464.19
399.717	474.19
399.941	496.19
400.165	528.19
400.389	537.19
400.613	477.19
400.837	450.19
401.062	446.19
401.286	436.19
401.51	432.19
401.734	432.19
401.958	446.19
402.182	427.19
402.406	440.19
402.63	427.19
402.854	455.19
403.078	433.19
403.302	452.19
403.526	455.19
403.75	444.19
403.974	462.19
404.198	450.19
404.422	491.19
404.645	509.19
404.869	489.19
405.093	544.19
405.317	610.19
405.541	650.19
405.765	590.19
405.988	532.19
406.212	531.19
406.436	521.19
406.66	552.19
406.883	502.19
407.107	521.19
407.331	555.19
407.555	617.19
407.778	599.19
408.002	549.19
408.226	521.19
408.449	468.19
408.673	483.19
408.896	530.19
409.12	571.19
409.344	569.19
409.567	475.19
409.791	479.19
410.014	440.19
410.238	443.19
410.461	483.19
410.685	452.19
410.908	483.19
411.132	506.19
411.355	566.19
411.578	514.19
411.802	489.19
412.025	513.19
412.249	488.19
412.472	530.19
412.695	634.19
412.919	604.19
413.142	549.19
413.365	515.19
413.589	488.19
413.812	478.19
414.035	449.19
414.258	464.19
414.482	470.19
414.705	450.19
414.928	447.19
415.151	451.19
415.374	449.19
415.597	428.19
415.821	439.19
416.044	450.19
416.267	436.19
416.49	448.19
416.713	450.19
416.936	427.19
417.159	446.19
417.382	459.19
417.605	443.19
417.828	465.19
418.051	476.19
418.274	453.19
418.497	447.19
418.72	434.19
418.943	451.19
419.166	444.19
419.389	477.19
419.611	470.19
419.834	474.19
420.057	479.19
420.28	530.19
420.503	533.19
420.726	521.19
420.948	531.19
421.171	528.19
421.394	563.19
421.617	490.19
421.839	485.19
422.062	473.19
422.285	465.19
422.507	528.19
422.73	603.19
422.953	577.19
423.175	523.19
423.398	503.19
423.621	469.19
423.843	483.19
424.066	490.19
424.288	485.19
424.511	511.19
424.733	589.19
424.956	659.19
425.178	626.19
425.401	614.19
425.623	647.19
425.846	532.19
426.068	499.19
426.291	500.19
426.513	496.19
426.735	523.19
426.958	565.19
427.18	630.19
427.402	740.19
427.625	832.19
427.847	771.19
428.069	717.19
428.292	624.19
428.514	553.19
428.736	497.19
428.958	491.19
429.181	465.19
429.403	477.19
429.625	480.19
429.847	495.19
430.069	578.19
430.292	588.19
430.514	480.19
430.736	469.19
430.958	460.19
431.18	449.19
431.402	445.19
431.624	456.19
431.846	412.19
432.068	428.19
432.29	443.19
432.512	418.19
432.734	443.19
432.956	461.19
433.178	453.19
433.4	462.19
433.622	434.19
433.844	439.19
434.066	424.19
434.287	439.19
434.509	442.19
434.731	440.19
434.953	444.19
435.175	465.19
435.397	456.19
435.618	482.19
435.84	535.19
436.062	639.19
436.284	693.19
436.505	575.19
436.727	530.19
436.949	480.19
437.17	472.19
437.392	462.19
437.614	500.19
437.835	511.19
438.057	601.19
438.278	697.19
438.5	739.19
438.721	759.19
438.943	715.19
439.165	588.19
439.386	541.19
439.608	548.19
439.829	523.19
440.05	549.19
440.272	596.19
440.493	570.19
440.715	521.19
440.936	495.19
441.158	482.19
441.379	461.19
441.6	503.19
441.822	496.19
442.043	533.19
442.264	613.19
442.486	651.19
442.707	561.19
442.928	525.19
443.149	537.19
443.371	535.19
443.592	580.19
443.813	667.19
444.034	736.19
444.255	610.19
444.476	540.19
444.698	510.19
444.919	505.19
445.14	581.19
445.361	568.19
445.582	550.19
445.803	611.19
446.024	707.19
446.245	721.19
446.466	647.19
446.687	577.19
446.908	530.19
447.129	498.19
447.35	457.19
447.571	471.19
447.792	463.19
448.013	484.19
448.234	504.19
448.455	531.19
448.675	663.19
448.896	767.19
449.117	650.19
449.338	589.19
449.559	718.19
449.779	810.19
450	616.19
450.221	543.19
450.442	492.19
450.662	453.19
450.883	492.19
451.104	497.19
451.324	475.19
451.545	455.19
451.766	415.19
451.986	419.19
452.207	429.19
452.428	408.19
452.648	417.19
452.869	411.19
453.089	427.19
453.31	434.19
453.53	397.19
453.751	461.19
453.971	445.19
454.192	430.19
454.412	403.19
454.633	401.19
454.853	423.19
455.073	410.19
455.294	445.19
455.514	537.19
455.734	490.19
455.955	426.19
456.175	434.19
456.395	399.19
456.616	391.19
456.836	393.19
457.056	385.19
457.276	379.19
457.497	405.19
457.717	389.19
457.937	400.19
458.157	417.19
458.377	383.19
458.598	424.19
458.818	479.19
459.038	552.19
459.258	577.19
459.478	498.19
459.698	454.19
459.918	448.19
460.138	443.19
460.358	435.19
460.578	440.19
460.798	419.19
461.018	423.19
461.238	429.19
461.458	428.19
461.678	417.19
461.898	436.19
462.118	412.19
462.338	442.19
462.558	432.19
462.777	420.19
462.997	439.19
463.217	459.19
463.437	442.19
463.657	432.19
463.876	436.19
464.096	458.19
464.316	452.19
464.536	452.19
464.755	447.19
464.975	468.19
465.195	523.19
465.414	564.19
465.634	510.19
465.854	458.19
466.073	435.19
466.293	442.19
466.512	437.19
466.732	444.19
466.951	436.19
467.171	414.19
467.391	435.19
467.61	431.19
467.829	454.19
468.049	470.19
468.268	532.19
468.488	490.19
468.707	455.19
468.927	427.19
469.146	431.19
469.365	422.19
469.585	424.19
469.804	446.19
470.023	442.19
470.243	417.19
470.462	458.19
470.681	454.19
470.901	449.19
471.12	443.19
471.339	447.19
471.558	457.19
471.777	445.19
471.997	468.19
472.216	509.19
472.435	735.19
472.654	668.19
472.873	534.19
473.092	478.19
473.311	491.19
473.53	467.19
473.749	502.19
473.968	527.19
474.187	595.19
474.406	635.19
474.625	543.19
474.844	482.19
475.063	477.19
475.282	435.19
475.501	436.19
475.72	445.19
475.939	451.19
476.158	476.19
476.377	452.19
476.596	450.19
476.814	464.19
477.033	467.19
477.252	449.19
477.471	474.19
477.69	461.19
477.908	481.19
478.127	475.19
478.346	470.19
478.564	479.19
478.783	476.19
479.002	503.19
479.22	508.19
479.439	488.19
479.658	517.19
479.876	557.19
480.095	587.19
480.313	567.19
480.532	568.19
480.751	581.19
480.969	646.19
481.188	945.19
481.406	1165.19
481.624	838.19
481.843	711.19
482.061	648.19
482.28	584.19
482.498	621.19
482.717	596.19
482.935	570.19
483.153	576.19
483.372	551.19
483.59	540.19
483.808	546.19
484.027	549.19
484.245	542.19
484.463	563.19
484.681	549.19
484.9	562.19
485.118	559.19
485.336	556.19
485.554	567.19
485.772	563.19
485.99	550.19
486.209	580.19
486.427	560.19
486.645	580.19
486.863	587.19
487.081	575.19
487.299	588.19
487.517	584.19
487.735	577.19
487.953	569.19
488.171	583.19
488.389	575.19
488.607	596.19
488.825	593.19
489.043	615.19
489.261	597.19
489.479	595.19
489.696	580.19
489.914	612.19
490.132	637.19
490.35	634.19
490.568	633.19
490.786	645.19
491.003	644.19
491.221	669.19
491.439	695.19
491.657	697.19
491.874	679.19
492.092	712.19
492.31	707.19
492.527	719.19
492.745	738.19
492.963	726.19
493.18	743.19
493.398	709.19
493.615	748.19
493.833	723.19
494.05	718.19
494.268	733.19
494.485	714.19
494.703	709.19
494.92	723.19
495.138	730.19
495.355	709.19
495.573	739.19
495.79	695.19
496.008	698.19
496.225	706.19
496.442	672.19
496.66	698.19
496.877	713.19
497.094	697.19
497.312	692.19
497.529	711.19
497.746	717.19
497.963	711.19
498.181	716.19
498.398	748.19
498.615	743.19
498.832	746.19
499.049	732.19
499.267	744.19
499.484	745.19
499.701	774.19
499.918	787.19
500.135	813.19
500.352	820.19
500.569	839.19
500.786	829.19
501.003	853.19
501.22	821.19
501.437	797.19
501.654	810.19
501.871	799.19
