Data from 1986.PennyLincolnUp.Lamp.En5.5.200Scan.071819.P2_HRD10591_17-10-17-975.txt Node
Date: Thu Jul 18 17:10:17 EDT 2019
User: cochatt
Spectrometer: HR+D1059
Trigger mode: 1
Integration Time (sec): 1.000000E-1
Scans to average: 1
Electric dark correction enabled: true
Nonlinearity correction enabled: false
Boxcar width: 0
XAxis mode: Wavelengths
Number of Pixels in Spectrum: 2048
>>>>>Begin Spectral Data<<<<<
223.165	-9.88
223.4	-9.88
223.635	-9.88
223.869	-22.88
224.104	-20.88
224.338	-8.88
224.573	-13.88
224.808	-3.88
225.042	-8.88
225.277	7.12
225.511	-11.88
225.746	14.12
225.98	-1.88
226.215	8.12
226.449	4.12
226.683	18.12
226.918	29.12
227.152	22.12
227.387	39.12
227.621	27.12
227.856	48.12
228.09	43.12
228.324	52.12
228.559	47.12
228.793	60.12
229.027	92.12
229.262	101.12
229.496	126.12
229.73	132.12
229.964	151.12
230.199	131.12
230.433	105.12
230.667	116.12
230.901	113.12
231.136	112.12
231.37	111.12
231.604	105.12
231.838	114.12
232.072	108.12
232.306	105.12
232.541	108.12
232.775	119.12
233.009	104.12
233.243	102.12
233.477	110.12
233.711	112.12
233.945	112.12
234.179	122.12
234.413	114.12
234.647	117.12
234.881	115.12
235.115	110.12
235.349	111.12
235.583	100.12
235.817	125.12
236.051	120.12
236.285	132.12
236.519	123.12
236.753	135.12
236.987	163.12
237.221	203.12
237.455	229.12
237.689	189.12
237.922	143.12
238.156	128.12
238.39	130.12
238.624	125.12
238.858	116.12
239.091	112.12
239.325	130.12
239.559	136.12
239.793	123.12
240.027	128.12
240.26	137.12
240.494	153.12
240.728	152.12
240.961	149.12
241.195	148.12
241.429	130.12
241.662	129.12
241.896	140.12
242.13	124.12
242.363	130.12
242.597	128.12
242.83	132.12
243.064	140.12
243.298	149.12
243.531	134.12
243.765	152.12
243.998	115.12
244.232	124.12
244.465	134.12
244.699	121.12
244.932	137.12
245.166	135.12
245.399	144.12
245.633	152.12
245.866	133.12
246.099	133.12
246.333	149.12
246.566	142.12
246.8	150.12
247.033	148.12
247.266	152.12
247.5	137.12
247.733	179.12
247.966	170.12
248.2	158.12
248.433	160.12
248.666	164.12
248.899	188.12
249.133	196.12
249.366	215.12
249.599	190.12
249.832	179.12
250.066	169.12
250.299	170.12
250.532	188.12
250.765	204.12
250.998	201.12
251.231	222.12
251.465	209.12
251.698	206.12
251.931	195.12
252.164	183.12
252.397	179.12
252.63	206.12
252.863	206.12
253.096	232.12
253.329	231.12
253.562	223.12
253.795	222.12
254.028	220.12
254.261	230.12
254.494	233.12
254.727	262.12
254.96	270.12
255.193	283.12
255.426	249.12
255.659	241.12
255.892	232.12
256.124	229.12
256.357	213.12
256.59	221.12
256.823	222.12
257.056	203.12
257.289	212.12
257.521	209.12
257.754	212.12
257.987	216.12
258.22	182.12
258.452	207.12
258.685	213.12
258.918	216.12
259.151	211.12
259.383	212.12
259.616	224.12
259.849	220.12
260.081	246.12
260.314	244.12
260.547	270.12
260.779	256.12
261.012	233.12
261.244	231.12
261.477	207.12
261.71	215.12
261.942	225.12
262.175	237.12
262.407	241.12
262.64	216.12
262.872	221.12
263.105	199.12
263.337	202.12
263.57	219.12
263.802	205.12
264.035	192.12
264.267	202.12
264.499	204.12
264.732	202.12
264.964	198.12
265.197	194.12
265.429	200.12
265.661	185.12
265.894	196.12
266.126	203.12
266.358	216.12
266.591	204.12
266.823	212.12
267.055	219.12
267.287	209.12
267.52	210.12
267.752	210.12
267.984	214.12
268.216	219.12
268.448	199.12
268.681	218.12
268.913	244.12
269.145	244.12
269.377	270.12
269.609	263.12
269.841	269.12
270.073	266.12
270.306	276.12
270.538	299.12
270.77	314.12
271.002	298.12
271.234	283.12
271.466	290.12
271.698	318.12
271.93	322.12
272.162	319.12
272.394	313.12
272.626	301.12
272.858	278.12
273.09	274.12
273.322	274.12
273.553	272.12
273.785	237.12
274.017	252.12
274.249	256.12
274.481	235.12
274.713	240.12
274.945	268.12
275.176	261.12
275.408	248.12
275.64	258.12
275.872	254.12
276.104	260.12
276.335	252.12
276.567	260.12
276.799	284.12
277.031	295.12
277.262	304.12
277.494	296.12
277.726	291.12
277.957	262.12
278.189	247.12
278.421	254.12
278.652	254.12
278.884	244.12
279.115	254.12
279.347	238.12
279.579	246.12
279.81	244.12
280.042	234.12
280.273	241.12
280.505	260.12
280.736	233.12
280.968	256.12
281.199	255.12
281.431	245.12
281.662	236.12
281.894	243.12
282.125	242.12
282.356	248.12
282.588	273.12
282.819	292.12
283.051	258.12
283.282	234.12
283.513	244.12
283.745	256.12
283.976	271.12
284.207	264.12
284.439	263.12
284.67	264.12
284.901	237.12
285.132	241.12
285.364	261.12
285.595	251.12
285.826	244.12
286.057	244.12
286.288	254.12
286.52	274.12
286.751	268.12
286.982	256.12
287.213	260.12
287.444	253.12
287.675	261.12
287.906	280.12
288.138	264.12
288.369	279.12
288.6	283.12
288.831	267.12
289.062	254.12
289.293	267.12
289.524	266.12
289.755	262.12
289.986	267.12
290.217	250.12
290.448	264.12
290.679	264.12
290.91	263.12
291.141	278.12
291.371	268.12
291.602	265.12
291.833	265.12
292.064	250.12
292.295	260.12
292.526	258.12
292.757	269.12
292.987	245.12
293.218	253.12
293.449	261.12
293.68	257.12
293.91	254.12
294.141	264.12
294.372	249.12
294.603	249.12
294.833	260.12
295.064	249.12
295.295	278.12
295.525	268.12
295.756	260.12
295.987	275.12
296.217	296.12
296.448	302.12
296.679	282.12
296.909	264.12
297.14	269.12
297.37	262.12
297.601	261.12
297.831	271.12
298.062	276.12
298.292	283.12
298.523	276.12
298.753	266.12
298.984	278.12
299.214	266.12
299.445	265.12
299.675	280.12
299.905	291.12
300.136	289.12
300.366	291.12
300.597	297.12
300.827	276.12
301.057	283.12
301.288	298.12
301.518	288.12
301.748	291.12
301.979	278.12
302.209	287.12
302.439	293.12
302.669	286.12
302.9	275.12
303.13	280.12
303.36	290.12
303.59	282.12
303.82	318.12
304.051	297.12
304.281	280.12
304.511	274.12
304.741	275.12
304.971	282.12
305.201	296.12
305.431	285.12
305.661	280.12
305.891	290.12
306.121	293.12
306.352	312.12
306.582	286.12
306.812	288.12
307.042	305.12
307.272	291.12
307.502	294.12
307.731	301.12
307.961	294.12
308.191	293.12
308.421	295.12
308.651	309.12
308.881	295.12
309.111	296.12
309.341	321.12
309.571	327.12
309.8	326.12
310.03	349.12
310.26	356.12
310.49	334.12
310.72	348.12
310.949	385.12
311.179	375.12
311.409	344.12
311.639	349.12
311.868	344.12
312.098	338.12
312.328	374.12
312.557	354.12
312.787	414.12
313.017	382.12
313.246	366.12
313.476	357.12
313.706	356.12
313.935	351.12
314.165	377.12
314.394	368.12
314.624	357.12
314.853	362.12
315.083	346.12
315.312	339.12
315.542	326.12
315.771	328.12
316.001	330.12
316.23	334.12
316.46	337.12
316.689	355.12
316.919	347.12
317.148	357.12
317.377	351.12
317.607	357.12
317.836	343.12
318.065	347.12
318.295	328.12
318.524	343.12
318.753	334.12
318.983	344.12
319.212	350.12
319.441	361.12
319.67	381.12
319.9	354.12
320.129	341.12
320.358	341.12
320.587	343.12
320.816	358.12
321.046	364.12
321.275	357.12
321.504	357.12
321.733	390.12
321.962	384.12
322.191	411.12
322.42	410.12
322.649	422.12
322.878	438.12
323.108	453.12
323.337	460.12
323.566	460.12
323.795	532.12
324.024	571.12
324.253	694.12
324.482	1028.12
324.71	1524.12
324.939	2212.12
325.168	1906.12
325.397	1058.12
325.626	689.12
325.855	530.12
326.084	524.12
326.313	488.12
326.542	500.12
326.77	547.12
326.999	637.12
327.228	893.12
327.457	1325.12
327.686	1619.12
327.914	1108.12
328.143	738.12
328.372	633.12
328.6	592.12
328.829	568.12
329.058	584.12
329.287	584.12
329.515	542.12
329.744	494.12
329.972	466.12
330.201	481.12
330.43	548.12
330.658	560.12
330.887	596.12
331.115	566.12
331.344	523.12
331.572	456.12
331.801	452.12
332.03	461.12
332.258	426.12
332.486	410.12
332.715	414.12
332.943	402.12
333.172	414.12
333.4	410.12
333.629	389.12
333.857	408.12
334.085	394.12
334.314	414.12
334.542	421.12
334.771	459.12
334.999	436.12
335.227	397.12
335.455	405.12
335.684	385.12
335.912	369.12
336.14	374.12
336.369	386.12
336.597	418.12
336.825	414.12
337.053	374.12
337.281	371.12
337.51	381.12
337.738	407.12
337.966	385.12
338.194	395.12
338.422	376.12
338.65	406.12
338.878	387.12
339.106	369.12
339.334	378.12
339.562	363.12
339.79	349.12
340.018	395.12
340.246	378.12
340.474	390.12
340.702	369.12
340.93	369.12
341.158	380.12
341.386	372.12
341.614	377.12
341.842	374.12
342.07	369.12
342.298	358.12
342.526	369.12
342.754	352.12
342.981	376.12
343.209	364.12
343.437	376.12
343.665	376.12
343.893	368.12
344.12	385.12
344.348	369.12
344.576	398.12
344.804	368.12
345.031	402.12
345.259	406.12
345.487	398.12
345.714	379.12
345.942	371.12
346.17	372.12
346.397	377.12
346.625	374.12
346.853	369.12
347.08	368.12
347.308	379.12
347.535	371.12
347.763	389.12
347.99	379.12
348.218	380.12
348.445	401.12
348.673	380.12
348.9	381.12
349.128	355.12
349.355	359.12
349.583	353.12
349.81	354.12
350.037	355.12
350.265	359.12
350.492	334.12
350.72	344.12
350.947	346.12
351.174	373.12
351.402	384.12
351.629	379.12
351.856	357.12
352.083	390.12
352.311	398.12
352.538	399.12
352.765	391.12
352.992	374.12
353.22	387.12
353.447	381.12
353.674	371.12
353.901	364.12
354.128	350.12
354.355	347.12
354.583	327.12
354.81	341.12
355.037	353.12
355.264	332.12
355.491	342.12
355.718	336.12
355.945	315.12
356.172	321.12
356.399	324.12
356.626	327.12
356.853	339.12
357.08	329.12
357.307	337.12
357.534	329.12
357.761	344.12
357.988	331.12
358.215	329.12
358.441	343.12
358.668	333.12
358.895	343.12
359.122	338.12
359.349	339.12
359.576	368.12
359.802	382.12
360.029	418.12
360.256	434.12
360.483	423.12
360.709	392.12
360.936	379.12
361.163	372.12
361.39	357.12
361.616	368.12
361.843	374.12
362.07	371.12
362.296	366.12
362.523	389.12
362.749	349.12
362.976	354.12
363.203	348.12
363.429	357.12
363.656	353.12
363.882	356.12
364.109	334.12
364.335	328.12
364.562	348.12
364.788	344.12
365.015	332.12
365.241	344.12
365.468	355.12
365.694	345.12
365.92	344.12
366.147	354.12
366.373	347.12
366.599	340.12
366.826	352.12
367.052	333.12
367.278	340.12
367.505	343.12
367.731	344.12
367.957	325.12
368.184	339.12
368.41	366.12
368.636	363.12
368.862	374.12
369.089	378.12
369.315	345.12
369.541	347.12
369.767	349.12
369.993	345.12
370.219	343.12
370.445	348.12
370.672	337.12
370.898	328.12
371.124	332.12
371.35	333.12
371.576	347.12
371.802	324.12
372.028	356.12
372.254	325.12
372.48	336.12
372.706	333.12
372.932	368.12
373.158	336.12
373.384	338.12
373.61	340.12
373.835	362.12
374.061	345.12
374.287	331.12
374.513	346.12
374.739	349.12
374.965	347.12
375.191	328.12
375.416	350.12
375.642	338.12
375.868	337.12
376.094	327.12
376.319	322.12
376.545	323.12
376.771	341.12
376.997	314.12
377.222	325.12
377.448	344.12
377.674	323.12
377.899	308.12
378.125	328.12
378.35	336.12
378.576	336.12
378.802	341.12
379.027	325.12
379.253	324.12
379.478	322.12
379.704	343.12
379.929	315.12
380.155	339.12
380.38	328.12
380.606	341.12
380.831	327.12
381.057	355.12
381.282	321.12
381.507	317.12
381.733	348.12
381.958	340.12
382.184	352.12
382.409	344.12
382.634	342.12
382.86	346.12
383.085	344.12
383.31	345.12
383.535	341.12
383.761	333.12
383.986	335.12
384.211	352.12
384.436	334.12
384.662	348.12
384.887	349.12
385.112	354.12
385.337	340.12
385.562	357.12
385.787	346.12
386.013	351.12
386.238	377.12
386.463	349.12
386.688	348.12
386.913	356.12
387.138	344.12
387.363	340.12
387.588	351.12
387.813	344.12
388.038	351.12
388.263	347.12
388.488	333.12
388.713	372.12
388.938	358.12
389.163	354.12
389.387	345.12
389.612	363.12
389.837	365.12
390.062	371.12
390.287	340.12
390.512	345.12
390.736	366.12
390.961	340.12
391.186	345.12
391.411	368.12
391.636	355.12
391.86	347.12
392.085	351.12
392.31	356.12
392.534	340.12
392.759	355.12
392.984	339.12
393.208	360.12
393.433	360.12
393.658	359.12
393.882	347.12
394.107	359.12
394.331	351.12
394.556	362.12
394.78	362.12
395.005	344.12
395.229	372.12
395.454	345.12
395.678	352.12
395.903	364.12
396.127	363.12
396.352	359.12
396.576	379.12
396.801	372.12
397.025	350.12
397.249	340.12
397.474	376.12
397.698	369.12
397.922	388.12
398.147	382.12
398.371	392.12
398.595	380.12
398.82	384.12
399.044	398.12
399.268	388.12
399.492	425.12
399.717	435.12
399.941	452.12
400.165	475.12
400.389	480.12
400.613	445.12
400.837	421.12
401.062	389.12
401.286	394.12
401.51	397.12
401.734	407.12
401.958	386.12
402.182	418.12
402.406	424.12
402.63	419.12
402.854	406.12
403.078	416.12
403.302	396.12
403.526	425.12
403.75	397.12
403.974	401.12
404.198	414.12
404.422	399.12
404.645	410.12
404.869	412.12
405.093	439.12
405.317	428.12
405.541	476.12
405.765	460.12
405.988	424.12
406.212	454.12
406.436	483.12
406.66	492.12
406.883	464.12
407.107	472.12
407.331	522.12
407.555	573.12
407.778	561.12
408.002	490.12
408.226	451.12
408.449	457.12
408.673	467.12
408.896	483.12
409.12	529.12
409.344	496.12
409.567	441.12
409.791	420.12
410.014	408.12
410.238	425.12
410.461	414.12
410.685	424.12
410.908	436.12
411.132	468.12
411.355	501.12
411.578	472.12
411.802	420.12
412.025	399.12
412.249	403.12
412.472	440.12
412.695	421.12
412.919	418.12
413.142	409.12
413.365	406.12
413.589	398.12
413.812	390.12
414.035	398.12
414.258	382.12
414.482	387.12
414.705	402.12
414.928	383.12
415.151	390.12
415.374	381.12
415.597	353.12
415.821	382.12
416.044	346.12
416.267	390.12
416.49	404.12
416.713	385.12
416.936	380.12
417.159	403.12
417.382	402.12
417.605	381.12
417.828	397.12
418.051	426.12
418.274	420.12
418.497	399.12
418.72	382.12
418.943	403.12
419.166	414.12
419.389	421.12
419.611	424.12
419.834	411.12
420.057	403.12
420.28	415.12
420.503	425.12
420.726	399.12
420.948	430.12
421.171	478.12
421.394	485.12
421.617	436.12
421.839	405.12
422.062	420.12
422.285	445.12
422.507	482.12
422.73	581.12
422.953	533.12
423.175	484.12
423.398	460.12
423.621	455.12
423.843	456.12
424.066	464.12
424.288	451.12
424.511	463.12
424.733	519.12
424.956	606.12
425.178	578.12
425.401	588.12
425.623	588.12
425.846	505.12
426.068	459.12
426.291	454.12
426.513	458.12
426.735	492.12
426.958	500.12
427.18	594.12
427.402	702.12
427.625	762.12
427.847	669.12
428.069	597.12
428.292	493.12
428.514	491.12
428.736	469.12
428.958	459.12
429.181	444.12
429.403	434.12
429.625	443.12
429.847	493.12
430.069	536.12
430.292	533.12
430.514	464.12
430.736	438.12
430.958	444.12
431.18	425.12
431.402	422.12
431.624	375.12
431.846	413.12
432.068	381.12
432.29	410.12
432.512	416.12
432.734	394.12
432.956	418.12
433.178	401.12
433.4	393.12
433.622	390.12
433.844	380.12
434.066	416.12
434.287	371.12
434.509	402.12
434.731	390.12
434.953	410.12
435.175	433.12
435.397	464.12
435.618	477.12
435.84	516.12
436.062	581.12
436.284	645.12
436.505	551.12
436.727	500.12
436.949	453.12
437.17	438.12
437.392	442.12
437.614	445.12
437.835	486.12
438.057	594.12
438.278	676.12
438.5	676.12
438.721	718.12
438.943	693.12
439.165	558.12
439.386	512.12
439.608	502.12
439.829	493.12
440.05	522.12
440.272	520.12
440.493	503.12
440.715	480.12
440.936	453.12
441.158	420.12
441.379	425.12
441.6	441.12
441.822	474.12
442.043	508.12
442.264	579.12
442.486	624.12
442.707	528.12
442.928	476.12
443.149	501.12
443.371	518.12
443.592	517.12
443.813	620.12
444.034	672.12
444.255	557.12
444.476	473.12
444.698	482.12
444.919	497.12
445.14	551.12
445.361	539.12
445.582	512.12
445.803	562.12
446.024	644.12
446.245	658.12
446.466	612.12
446.687	502.12
446.908	472.12
447.129	461.12
447.35	444.12
447.571	449.12
447.792	442.12
448.013	444.12
448.234	462.12
448.455	489.12
448.675	614.12
448.896	698.12
449.117	600.12
449.338	576.12
449.559	651.12
449.779	752.12
450	637.12
450.221	522.12
450.442	456.12
450.662	440.12
450.883	455.12
451.104	481.12
451.324	452.12
451.545	415.12
451.766	390.12
451.986	404.12
452.207	397.12
452.428	372.12
452.648	382.12
452.869	398.12
453.089	409.12
453.31	428.12
453.53	425.12
453.751	403.12
453.971	418.12
454.192	402.12
454.412	399.12
454.633	391.12
454.853	399.12
455.073	380.12
455.294	419.12
455.514	481.12
455.734	474.12
455.955	410.12
456.175	381.12
456.395	385.12
456.616	359.12
456.836	368.12
457.056	356.12
457.276	348.12
457.497	357.12
457.717	369.12
457.937	376.12
458.157	357.12
458.377	372.12
458.598	409.12
458.818	456.12
459.038	558.12
459.258	559.12
459.478	457.12
459.698	406.12
459.918	392.12
460.138	386.12
460.358	395.12
460.578	405.12
460.798	392.12
461.018	398.12
461.238	391.12
461.458	376.12
461.678	387.12
461.898	392.12
462.118	394.12
462.338	381.12
462.558	379.12
462.777	395.12
462.997	409.12
463.217	407.12
463.437	416.12
463.657	402.12
463.876	429.12
464.096	408.12
464.316	412.12
464.536	422.12
464.755	424.12
464.975	442.12
465.195	470.12
465.414	565.12
465.634	494.12
465.854	451.12
466.073	406.12
466.293	404.12
466.512	383.12
466.732	397.12
466.951	365.12
467.171	383.12
467.391	380.12
467.61	423.12
467.829	420.12
468.049	402.12
468.268	377.12
468.488	380.12
468.707	388.12
468.927	373.12
469.146	359.12
469.365	370.12
469.585	381.12
469.804	386.12
470.023	399.12
470.243	389.12
470.462	401.12
470.681	430.12
470.901	423.12
471.12	406.12
471.339	406.12
471.558	381.12
471.777	410.12
471.997	397.12
472.216	380.12
472.435	410.12
472.654	412.12
472.873	372.12
473.092	371.12
473.311	402.12
473.53	391.12
473.749	404.12
473.968	429.12
474.187	546.12
474.406	578.12
474.625	463.12
474.844	429.12
475.063	407.12
475.282	389.12
475.501	406.12
475.72	420.12
475.939	397.12
476.158	418.12
476.377	412.12
476.596	404.12
476.814	405.12
477.033	414.12
477.252	436.12
477.471	418.12
477.69	428.12
477.908	417.12
478.127	426.12
478.346	424.12
478.564	429.12
478.783	441.12
479.002	420.12
479.22	452.12
479.439	459.12
479.658	469.12
479.876	502.12
480.095	470.12
480.313	498.12
480.532	508.12
480.751	470.12
480.969	478.12
481.188	530.12
481.406	554.12
481.624	499.12
481.843	472.12
482.061	466.12
482.28	470.12
482.498	452.12
482.717	456.12
482.935	481.12
483.153	457.12
483.372	465.12
483.59	470.12
483.808	464.12
484.027	472.12
484.245	477.12
484.463	466.12
484.681	466.12
484.9	477.12
485.118	493.12
485.336	476.12
485.554	485.12
485.772	488.12
485.99	469.12
486.209	488.12
486.427	505.12
486.645	508.12
486.863	532.12
487.081	539.12
487.299	529.12
487.517	508.12
487.735	492.12
487.953	500.12
488.171	499.12
488.389	488.12
488.607	520.12
488.825	502.12
489.043	506.12
489.261	493.12
489.479	500.12
489.696	505.12
489.914	521.12
490.132	524.12
490.35	514.12
490.568	534.12
490.786	529.12
491.003	541.12
491.221	542.12
491.439	546.12
491.657	565.12
491.874	573.12
492.092	582.12
492.31	594.12
492.527	595.12
492.745	589.12
492.963	586.12
493.18	596.12
493.398	597.12
493.615	585.12
493.833	596.12
494.05	604.12
494.268	618.12
494.485	595.12
494.703	591.12
494.92	611.12
495.138	624.12
495.355	611.12
495.573	609.12
495.79	600.12
496.008	594.12
496.225	589.12
496.442	612.12
496.66	599.12
496.877	598.12
497.094	610.12
497.312	626.12
497.529	635.12
497.746	644.12
497.963	640.12
498.181	646.12
498.398	650.12
498.615	655.12
498.832	660.12
499.049	654.12
499.267	669.12
499.484	682.12
499.701	674.12
499.918	725.12
500.135	716.12
500.352	721.12
500.569	765.12
500.786	755.12
501.003	739.12
501.22	722.12
501.437	744.12
501.654	721.12
501.871	730.12
