Data from 1986.PennyLincolnUp.Lamp.En5.5.200Scan.071819.P2_HRD10591_17-11-34-973.txt Node
Date: Thu Jul 18 17:11:34 EDT 2019
User: cochatt
Spectrometer: HR+D1059
Trigger mode: 1
Integration Time (sec): 1.000000E-1
Scans to average: 1
Electric dark correction enabled: true
Nonlinearity correction enabled: false
Boxcar width: 0
XAxis mode: Wavelengths
Number of Pixels in Spectrum: 2048
>>>>>Begin Spectral Data<<<<<
223.165	-4.06
223.4	-4.06
223.635	-4.06
223.869	-17.06
224.104	-3.06
224.338	-5.06
224.573	-9.06
224.808	-17.06
225.042	-9.06
225.277	-0.06
225.511	-5.06
225.746	-10.06
225.98	7.94
226.215	5.94
226.449	21.94
226.683	22.94
226.918	10.94
227.152	9.94
227.387	15.94
227.621	33.94
227.856	36.94
228.09	48.94
228.324	51.94
228.559	52.94
228.793	54.94
229.027	95.94
229.262	108.94
229.496	114.94
229.73	136.94
229.964	156.94
230.199	135.94
230.433	124.94
230.667	119.94
230.901	118.94
231.136	108.94
231.37	107.94
231.604	117.94
231.838	120.94
232.072	112.94
232.306	119.94
232.541	110.94
232.775	104.94
233.009	101.94
233.243	110.94
233.477	124.94
233.711	115.94
233.945	115.94
234.179	100.94
234.413	132.94
234.647	123.94
234.881	130.94
235.115	127.94
235.349	131.94
235.583	116.94
235.817	120.94
236.051	126.94
236.285	133.94
236.519	132.94
236.753	133.94
236.987	147.94
237.221	193.94
237.455	252.94
237.689	224.94
237.922	138.94
238.156	126.94
238.39	130.94
238.624	118.94
238.858	118.94
239.091	135.94
239.325	134.94
239.559	135.94
239.793	121.94
240.027	140.94
240.26	147.94
240.494	164.94
240.728	164.94
240.961	147.94
241.195	144.94
241.429	154.94
241.662	140.94
241.896	143.94
242.13	146.94
242.363	143.94
242.597	137.94
242.83	132.94
243.064	141.94
243.298	135.94
243.531	134.94
243.765	136.94
243.998	137.94
244.232	139.94
244.465	152.94
244.699	148.94
244.932	150.94
245.166	150.94
245.399	146.94
245.633	140.94
245.866	154.94
246.099	147.94
246.333	167.94
246.566	150.94
246.8	155.94
247.033	168.94
247.266	131.94
247.5	165.94
247.733	170.94
247.966	178.94
248.2	181.94
248.433	172.94
248.666	185.94
248.899	178.94
249.133	202.94
249.366	236.94
249.599	218.94
249.832	209.94
250.066	193.94
250.299	226.94
250.532	216.94
250.765	246.94
250.998	263.94
251.231	254.94
251.465	249.94
251.698	227.94
251.931	224.94
252.164	223.94
252.397	227.94
252.63	234.94
252.863	227.94
253.096	226.94
253.329	239.94
253.562	240.94
253.795	247.94
254.028	239.94
254.261	233.94
254.494	252.94
254.727	286.94
254.96	299.94
255.193	290.94
255.426	283.94
255.659	260.94
255.892	259.94
256.124	313.94
256.357	323.94
256.59	276.94
256.823	264.94
257.056	271.94
257.289	261.94
257.521	240.94
257.754	248.94
257.987	218.94
258.22	235.94
258.452	218.94
258.685	226.94
258.918	211.94
259.151	231.94
259.383	235.94
259.616	239.94
259.849	242.94
260.081	245.94
260.314	280.94
260.547	280.94
260.779	262.94
261.012	241.94
261.244	245.94
261.477	244.94
261.71	227.94
261.942	250.94
262.175	258.94
262.407	242.94
262.64	242.94
262.872	227.94
263.105	235.94
263.337	238.94
263.57	222.94
263.802	230.94
264.035	239.94
264.267	230.94
264.499	226.94
264.732	223.94
264.964	208.94
265.197	218.94
265.429	227.94
265.661	227.94
265.894	224.94
266.126	222.94
266.358	232.94
266.591	234.94
266.823	222.94
267.055	229.94
267.287	227.94
267.52	222.94
267.752	232.94
267.984	233.94
268.216	227.94
268.448	242.94
268.681	222.94
268.913	254.94
269.145	258.94
269.377	277.94
269.609	298.94
269.841	283.94
270.073	288.94
270.306	318.94
270.538	338.94
270.77	346.94
271.002	321.94
271.234	306.94
271.466	315.94
271.698	336.94
271.93	336.94
272.162	342.94
272.394	335.94
272.626	338.94
272.858	299.94
273.09	305.94
273.322	284.94
273.553	274.94
273.785	274.94
274.017	288.94
274.249	266.94
274.481	286.94
274.713	264.94
274.945	278.94
275.176	273.94
275.408	281.94
275.64	273.94
275.872	262.94
276.104	278.94
276.335	269.94
276.567	267.94
276.799	271.94
277.031	327.94
277.262	344.94
277.494	344.94
277.726	339.94
277.957	299.94
278.189	286.94
278.421	289.94
278.652	287.94
278.884	290.94
279.115	258.94
279.347	306.94
279.579	265.94
279.81	277.94
280.042	282.94
280.273	269.94
280.505	281.94
280.736	261.94
280.968	279.94
281.199	283.94
281.431	285.94
281.662	270.94
281.894	263.94
282.125	291.94
282.356	299.94
282.588	305.94
282.819	292.94
283.051	289.94
283.282	277.94
283.513	279.94
283.745	287.94
283.976	289.94
284.207	302.94
284.439	272.94
284.67	281.94
284.901	257.94
285.132	275.94
285.364	278.94
285.595	268.94
285.826	287.94
286.057	293.94
286.288	273.94
286.52	289.94
286.751	292.94
286.982	289.94
287.213	294.94
287.444	269.94
287.675	296.94
287.906	298.94
288.138	309.94
288.369	313.94
288.6	307.94
288.831	301.94
289.062	282.94
289.293	282.94
289.524	288.94
289.755	310.94
289.986	294.94
290.217	281.94
290.448	287.94
290.679	289.94
290.91	288.94
291.141	284.94
291.371	274.94
291.602	263.94
291.833	267.94
292.064	290.94
292.295	288.94
292.526	291.94
292.757	291.94
292.987	270.94
293.218	286.94
293.449	273.94
293.68	278.94
293.91	294.94
294.141	277.94
294.372	283.94
294.603	283.94
294.833	282.94
295.064	286.94
295.295	278.94
295.525	261.94
295.756	302.94
295.987	308.94
296.217	318.94
296.448	316.94
296.679	312.94
296.909	303.94
297.14	307.94
297.37	290.94
297.601	282.94
297.831	293.94
298.062	283.94
298.292	283.94
298.523	288.94
298.753	289.94
298.984	289.94
299.214	310.94
299.445	288.94
299.675	308.94
299.905	313.94
300.136	306.94
300.366	307.94
300.597	297.94
300.827	305.94
301.057	326.94
301.288	314.94
301.518	306.94
301.748	308.94
301.979	303.94
302.209	326.94
302.439	329.94
302.669	314.94
302.9	334.94
303.13	314.94
303.36	322.94
303.59	317.94
303.82	339.94
304.051	340.94
304.281	336.94
304.511	321.94
304.741	323.94
304.971	308.94
305.201	320.94
305.431	299.94
305.661	332.94
305.891	297.94
306.121	326.94
306.352	321.94
306.582	338.94
306.812	330.94
307.042	324.94
307.272	312.94
307.502	336.94
307.731	323.94
307.961	322.94
308.191	316.94
308.421	318.94
308.651	328.94
308.881	321.94
309.111	343.94
309.341	339.94
309.571	343.94
309.8	354.94
310.03	371.94
310.26	362.94
310.49	404.94
310.72	425.94
310.949	400.94
311.179	406.94
311.409	379.94
311.639	401.94
311.868	396.94
312.098	376.94
312.328	394.94
312.557	417.94
312.787	422.94
313.017	426.94
313.246	394.94
313.476	393.94
313.706	389.94
313.935	388.94
314.165	395.94
314.394	406.94
314.624	418.94
314.853	402.94
315.083	386.94
315.312	357.94
315.542	372.94
315.771	370.94
316.001	382.94
316.23	371.94
316.46	384.94
316.689	372.94
316.919	373.94
317.148	381.94
317.377	418.94
317.607	388.94
317.836	386.94
318.065	387.94
318.295	370.94
318.524	374.94
318.753	372.94
318.983	368.94
319.212	388.94
319.441	366.94
319.67	382.94
319.9	383.94
320.129	394.94
320.358	383.94
320.587	386.94
320.816	402.94
321.046	415.94
321.275	400.94
321.504	400.94
321.733	422.94
321.962	410.94
322.191	453.94
322.42	452.94
322.649	471.94
322.878	471.94
323.108	490.94
323.337	550.94
323.566	568.94
323.795	607.94
324.024	632.94
324.253	832.94
324.482	1146.94
324.71	1767.94
324.939	2464.94
325.168	2165.94
325.397	1185.94
325.626	779.94
325.855	624.94
326.084	564.94
326.313	564.94
326.542	543.94
326.77	619.94
326.999	721.94
327.228	1012.94
327.457	1544.94
327.686	1920.94
327.914	1300.94
328.143	883.94
328.372	759.94
328.6	725.94
328.829	672.94
329.058	686.94
329.287	692.94
329.515	639.94
329.744	581.94
329.972	603.94
330.201	668.94
330.43	763.94
330.658	795.94
330.887	722.94
331.115	696.94
331.344	591.94
331.572	547.94
331.801	548.94
332.03	515.94
332.258	513.94
332.486	495.94
332.715	479.94
332.943	497.94
333.172	459.94
333.4	478.94
333.629	516.94
333.857	530.94
334.085	584.94
334.314	629.94
334.542	731.94
334.771	780.94
334.999	639.94
335.227	543.94
335.455	482.94
335.684	462.94
335.912	457.94
336.14	455.94
336.369	448.94
336.597	470.94
336.825	480.94
337.053	454.94
337.281	441.94
337.51	423.94
337.738	455.94
337.966	450.94
338.194	440.94
338.422	425.94
338.65	415.94
338.878	434.94
339.106	418.94
339.334	420.94
339.562	406.94
339.79	414.94
340.018	430.94
340.246	438.94
340.474	436.94
340.702	421.94
340.93	404.94
341.158	412.94
341.386	405.94
341.614	396.94
341.842	436.94
342.07	424.94
342.298	405.94
342.526	406.94
342.754	397.94
342.981	399.94
343.209	397.94
343.437	399.94
343.665	387.94
343.893	402.94
344.12	402.94
344.348	422.94
344.576	431.94
344.804	425.94
345.031	438.94
345.259	465.94
345.487	426.94
345.714	403.94
345.942	394.94
346.17	400.94
346.397	411.94
346.625	411.94
346.853	420.94
347.08	397.94
347.308	400.94
347.535	406.94
347.763	407.94
347.99	418.94
348.218	410.94
348.445	423.94
348.673	424.94
348.9	435.94
349.128	408.94
349.355	406.94
349.583	392.94
349.81	392.94
350.037	392.94
350.265	385.94
350.492	386.94
350.72	400.94
350.947	413.94
351.174	414.94
351.402	425.94
351.629	402.94
351.856	416.94
352.083	418.94
352.311	439.94
352.538	442.94
352.765	427.94
352.992	427.94
353.22	401.94
353.447	414.94
353.674	402.94
353.901	384.94
354.128	382.94
354.355	379.94
354.583	378.94
354.81	344.94
355.037	380.94
355.264	373.94
355.491	347.94
355.718	369.94
355.945	378.94
356.172	358.94
356.399	350.94
356.626	369.94
356.853	350.94
357.08	370.94
357.307	355.94
357.534	363.94
357.761	371.94
357.988	377.94
358.215	347.94
358.441	372.94
358.668	376.94
358.895	377.94
359.122	368.94
359.349	398.94
359.576	412.94
359.802	430.94
360.029	464.94
360.256	478.94
360.483	458.94
360.709	413.94
360.936	424.94
361.163	409.94
361.39	414.94
361.616	404.94
361.843	422.94
362.07	401.94
362.296	397.94
362.523	414.94
362.749	410.94
362.976	395.94
363.203	373.94
363.429	396.94
363.656	385.94
363.882	388.94
364.109	372.94
364.335	385.94
364.562	384.94
364.788	383.94
365.015	366.94
365.241	367.94
365.468	378.94
365.694	383.94
365.92	388.94
366.147	390.94
366.373	376.94
366.599	375.94
366.826	371.94
367.052	367.94
367.278	351.94
367.505	380.94
367.731	366.94
367.957	375.94
368.184	386.94
368.41	392.94
368.636	397.94
368.862	402.94
369.089	379.94
369.315	388.94
369.541	378.94
369.767	371.94
369.993	367.94
370.219	376.94
370.445	372.94
370.672	371.94
370.898	362.94
371.124	376.94
371.35	363.94
371.576	362.94
371.802	370.94
372.028	370.94
372.254	356.94
372.48	352.94
372.706	364.94
372.932	361.94
373.158	352.94
373.384	358.94
373.61	347.94
373.835	370.94
374.061	350.94
374.287	372.94
374.513	366.94
374.739	373.94
374.965	370.94
375.191	370.94
375.416	373.94
375.642	364.94
375.868	377.94
376.094	369.94
376.319	358.94
376.545	372.94
376.771	370.94
376.997	374.94
377.222	359.94
377.448	363.94
377.674	355.94
377.899	358.94
378.125	360.94
378.35	368.94
378.576	348.94
378.802	348.94
379.027	356.94
379.253	374.94
379.478	363.94
379.704	344.94
379.929	359.94
380.155	360.94
380.38	359.94
380.606	366.94
380.831	360.94
381.057	362.94
381.282	344.94
381.507	354.94
381.733	383.94
381.958	366.94
382.184	359.94
382.409	349.94
382.634	376.94
382.86	360.94
383.085	350.94
383.31	362.94
383.535	365.94
383.761	371.94
383.986	346.94
384.211	368.94
384.436	362.94
384.662	340.94
384.887	353.94
385.112	361.94
385.337	369.94
385.562	383.94
385.787	373.94
386.013	379.94
386.238	393.94
386.463	388.94
386.688	402.94
386.913	367.94
387.138	360.94
387.363	370.94
387.588	375.94
387.813	379.94
388.038	366.94
388.263	363.94
388.488	348.94
388.713	364.94
388.938	375.94
389.163	384.94
389.387	382.94
389.612	377.94
389.837	373.94
390.062	382.94
390.287	395.94
390.512	378.94
390.736	360.94
390.961	389.94
391.186	396.94
391.411	371.94
391.636	372.94
391.86	384.94
392.085	399.94
392.31	401.94
392.534	380.94
392.759	390.94
392.984	381.94
393.208	394.94
393.433	377.94
393.658	364.94
393.882	356.94
394.107	372.94
394.331	370.94
394.556	367.94
394.78	391.94
395.005	398.94
395.229	374.94
395.454	380.94
395.678	378.94
395.903	394.94
396.127	391.94
396.352	422.94
396.576	420.94
396.801	388.94
397.025	375.94
397.249	386.94
397.474	395.94
397.698	398.94
397.922	414.94
398.147	422.94
398.371	429.94
398.595	426.94
398.82	419.94
399.044	409.94
399.268	425.94
399.492	442.94
399.717	453.94
399.941	476.94
400.165	518.94
400.389	526.94
400.613	482.94
400.837	471.94
401.062	437.94
401.286	432.94
401.51	423.94
401.734	419.94
401.958	430.94
402.182	439.94
402.406	452.94
402.63	442.94
402.854	443.94
403.078	434.94
403.302	456.94
403.526	449.94
403.75	454.94
403.974	442.94
404.198	449.94
404.422	481.94
404.645	476.94
404.869	479.94
405.093	514.94
405.317	570.94
405.541	592.94
405.765	545.94
405.988	513.94
406.212	510.94
406.436	529.94
406.66	548.94
406.883	514.94
407.107	515.94
407.331	544.94
407.555	601.94
407.778	581.94
408.002	551.94
408.226	517.94
408.449	515.94
408.673	502.94
408.896	530.94
409.12	568.94
409.344	541.94
409.567	458.94
409.791	480.94
410.014	443.94
410.238	453.94
410.461	450.94
410.685	466.94
410.908	474.94
411.132	515.94
411.355	547.94
411.578	521.94
411.802	470.94
412.025	461.94
412.249	516.94
412.472	523.94
412.695	568.94
412.919	577.94
413.142	510.94
413.365	484.94
413.589	452.94
413.812	443.94
414.035	439.94
414.258	438.94
414.482	427.94
414.705	433.94
414.928	414.94
415.151	423.94
415.374	430.94
415.597	432.94
415.821	390.94
416.044	428.94
416.267	446.94
416.49	437.94
416.713	402.94
416.936	428.94
417.159	435.94
417.382	437.94
417.605	448.94
417.828	470.94
418.051	470.94
418.274	458.94
418.497	436.94
418.72	447.94
418.943	426.94
419.166	436.94
419.389	445.94
419.611	476.94
419.834	470.94
420.057	466.94
420.28	466.94
420.503	469.94
420.726	490.94
420.948	491.94
421.171	506.94
421.394	543.94
421.617	484.94
421.839	438.94
422.062	463.94
422.285	499.94
422.507	533.94
422.73	581.94
422.953	586.94
423.175	515.94
423.398	485.94
423.621	471.94
423.843	494.94
424.066	502.94
424.288	494.94
424.511	509.94
424.733	578.94
424.956	634.94
425.178	641.94
425.401	607.94
425.623	647.94
425.846	566.94
426.068	533.94
426.291	500.94
426.513	485.94
426.735	518.94
426.958	564.94
427.18	630.94
427.402	748.94
427.625	852.94
427.847	779.94
428.069	674.94
428.292	591.94
428.514	550.94
428.736	498.94
428.958	509.94
429.181	477.94
429.403	485.94
429.625	499.94
429.847	503.94
430.069	572.94
430.292	586.94
430.514	498.94
430.736	442.94
430.958	448.94
431.18	433.94
431.402	428.94
431.624	438.94
431.846	454.94
432.068	406.94
432.29	414.94
432.512	448.94
432.734	436.94
432.956	422.94
433.178	426.94
433.4	463.94
433.622	438.94
433.844	423.94
434.066	405.94
434.287	408.94
434.509	431.94
434.731	444.94
434.953	462.94
435.175	474.94
435.397	495.94
435.618	512.94
435.84	560.94
436.062	635.94
436.284	716.94
436.505	565.94
436.727	528.94
436.949	499.94
437.17	486.94
437.392	458.94
437.614	500.94
437.835	542.94
438.057	618.94
438.278	706.94
438.5	717.94
438.721	743.94
438.943	722.94
439.165	598.94
439.386	540.94
439.608	534.94
439.829	532.94
440.05	538.94
440.272	594.94
440.493	573.94
440.715	514.94
440.936	500.94
441.158	460.94
441.379	476.94
441.6	496.94
441.822	504.94
442.043	561.94
442.264	619.94
442.486	670.94
442.707	589.94
442.928	542.94
443.149	537.94
443.371	526.94
443.592	572.94
443.813	658.94
444.034	699.94
444.255	605.94
444.476	539.94
444.698	529.94
444.919	498.94
445.14	574.94
445.361	571.94
445.582	544.94
445.803	599.94
446.024	708.94
446.245	734.94
446.466	649.94
446.687	571.94
446.908	549.94
447.129	494.94
447.35	475.94
447.571	489.94
447.792	460.94
448.013	476.94
448.234	531.94
448.455	548.94
448.675	663.94
448.896	785.94
449.117	660.94
449.338	620.94
449.559	715.94
449.779	798.94
450	648.94
450.221	558.94
450.442	500.94
450.662	473.94
450.883	448.94
451.104	487.94
451.324	472.94
451.545	463.94
451.766	447.94
451.986	447.94
452.207	409.94
452.428	408.94
452.648	424.94
452.869	426.94
453.089	445.94
453.31	452.94
453.53	447.94
453.751	421.94
453.971	412.94
454.192	446.94
454.412	450.94
454.633	426.94
454.853	412.94
455.073	428.94
455.294	459.94
455.514	539.94
455.734	516.94
455.955	422.94
456.175	395.94
456.395	387.94
456.616	398.94
456.836	382.94
457.056	385.94
457.276	378.94
457.497	379.94
457.717	390.94
457.937	383.94
458.157	379.94
458.377	406.94
458.598	439.94
458.818	513.94
459.038	583.94
459.258	595.94
459.478	510.94
459.698	452.94
459.918	407.94
460.138	411.94
460.358	425.94
460.578	424.94
460.798	418.94
461.018	430.94
461.238	404.94
461.458	407.94
461.678	408.94
461.898	399.94
462.118	416.94
462.338	418.94
462.558	419.94
462.777	425.94
462.997	420.94
463.217	418.94
463.437	442.94
463.657	456.94
463.876	424.94
464.096	456.94
464.316	433.94
464.536	466.94
464.755	468.94
464.975	449.94
465.195	512.94
465.414	622.94
465.634	560.94
465.854	475.94
466.073	450.94
466.293	452.94
466.512	424.94
466.732	423.94
466.951	419.94
467.171	397.94
467.391	404.94
467.61	444.94
467.829	447.94
468.049	441.94
468.268	460.94
468.488	448.94
468.707	444.94
468.927	414.94
469.146	412.94
469.365	406.94
469.585	412.94
469.804	440.94
470.023	422.94
470.243	415.94
470.462	414.94
470.681	467.94
470.901	463.94
471.12	446.94
471.339	437.94
471.558	433.94
471.777	443.94
471.997	436.94
472.216	480.94
472.435	566.94
472.654	555.94
472.873	498.94
473.092	471.94
473.311	457.94
473.53	444.94
473.749	462.94
473.968	496.94
474.187	642.94
474.406	642.94
474.625	513.94
474.844	462.94
475.063	463.94
475.282	447.94
475.501	443.94
475.72	443.94
475.939	436.94
476.158	451.94
476.377	444.94
476.596	437.94
476.814	479.94
477.033	458.94
477.252	468.94
477.471	456.94
477.69	443.94
477.908	495.94
478.127	450.94
478.346	469.94
478.564	473.94
478.783	473.94
479.002	471.94
479.22	512.94
479.439	525.94
479.658	545.94
479.876	536.94
480.095	539.94
480.313	544.94
480.532	548.94
480.751	548.94
480.969	586.94
481.188	766.94
481.406	873.94
481.624	670.94
481.843	618.94
482.061	594.94
482.28	572.94
482.498	545.94
482.717	547.94
482.935	535.94
483.153	525.94
483.372	550.94
483.59	531.94
483.808	529.94
484.027	527.94
484.245	521.94
484.463	514.94
484.681	539.94
484.9	529.94
485.118	530.94
485.336	524.94
485.554	537.94
485.772	544.94
485.99	546.94
486.209	551.94
486.427	546.94
486.645	556.94
486.863	587.94
487.081	564.94
487.299	567.94
487.517	576.94
487.735	579.94
487.953	570.94
488.171	568.94
488.389	590.94
488.607	570.94
488.825	563.94
489.043	571.94
489.261	581.94
489.479	583.94
489.696	575.94
489.914	582.94
490.132	598.94
490.35	622.94
490.568	611.94
490.786	628.94
491.003	634.94
491.221	647.94
491.439	638.94
491.657	657.94
491.874	643.94
492.092	672.94
492.31	682.94
492.527	690.94
492.745	687.94
492.963	690.94
493.18	690.94
493.398	686.94
493.615	686.94
493.833	702.94
494.05	692.94
494.268	704.94
494.485	694.94
494.703	664.94
494.92	669.94
495.138	696.94
495.355	670.94
495.573	731.94
495.79	690.94
496.008	691.94
496.225	694.94
496.442	667.94
496.66	680.94
496.877	679.94
497.094	667.94
497.312	678.94
497.529	670.94
497.746	691.94
497.963	702.94
498.181	708.94
498.398	718.94
498.615	731.94
498.832	721.94
499.049	715.94
499.267	741.94
499.484	730.94
499.701	742.94
499.918	759.94
500.135	752.94
500.352	801.94
500.569	792.94
500.786	799.94
501.003	808.94
501.22	801.94
501.437	812.94
501.654	787.94
501.871	808.94
