Data from 1986.PennyLincolnUp.Lamp.En5.5.200Scan.071819.P2_HRD10591_17-12-11-973.txt Node
Date: Thu Jul 18 17:12:11 EDT 2019
User: cochatt
Spectrometer: HR+D1059
Trigger mode: 1
Integration Time (sec): 1.000000E-1
Scans to average: 1
Electric dark correction enabled: true
Nonlinearity correction enabled: false
Boxcar width: 0
XAxis mode: Wavelengths
Number of Pixels in Spectrum: 2048
>>>>>Begin Spectral Data<<<<<
223.165	-33.56
223.4	-33.56
223.635	-33.56
223.869	-14.56
224.104	-26.56
224.338	-5.56
224.573	-23.56
224.808	-15.56
225.042	0.44
225.277	-10.56
225.511	-1.56
225.746	-3.56
225.98	13.44
226.215	15.44
226.449	17.44
226.683	21.44
226.918	26.44
227.152	40.44
227.387	33.44
227.621	44.44
227.856	49.44
228.09	45.44
228.324	62.44
228.559	53.44
228.793	87.44
229.027	109.44
229.262	112.44
229.496	116.44
229.73	120.44
229.964	165.44
230.199	143.44
230.433	129.44
230.667	119.44
230.901	118.44
231.136	113.44
231.37	121.44
231.604	132.44
231.838	112.44
232.072	131.44
232.306	111.44
232.541	108.44
232.775	109.44
233.009	123.44
233.243	125.44
233.477	119.44
233.711	133.44
233.945	119.44
234.179	134.44
234.413	114.44
234.647	134.44
234.881	105.44
235.115	126.44
235.349	114.44
235.583	114.44
235.817	120.44
236.051	129.44
236.285	143.44
236.519	141.44
236.753	128.44
236.987	158.44
237.221	193.44
237.455	256.44
237.689	192.44
237.922	172.44
238.156	156.44
238.39	146.44
238.624	128.44
238.858	134.44
239.091	144.44
239.325	127.44
239.559	132.44
239.793	145.44
240.027	144.44
240.26	159.44
240.494	165.44
240.728	159.44
240.961	149.44
241.195	154.44
241.429	138.44
241.662	142.44
241.896	140.44
242.13	137.44
242.363	146.44
242.597	142.44
242.83	150.44
243.064	143.44
243.298	146.44
243.531	152.44
243.765	147.44
243.998	144.44
244.232	146.44
244.465	170.44
244.699	156.44
244.932	153.44
245.166	153.44
245.399	153.44
245.633	151.44
245.866	165.44
246.099	161.44
246.333	147.44
246.566	169.44
246.8	176.44
247.033	174.44
247.266	161.44
247.5	179.44
247.733	184.44
247.966	195.44
248.2	186.44
248.433	180.44
248.666	192.44
248.899	192.44
249.133	201.44
249.366	216.44
249.599	207.44
249.832	216.44
250.066	202.44
250.299	224.44
250.532	250.44
250.765	265.44
250.998	280.44
251.231	260.44
251.465	269.44
251.698	238.44
251.931	230.44
252.164	230.44
252.397	228.44
252.63	236.44
252.863	230.44
253.096	225.44
253.329	245.44
253.562	257.44
253.795	244.44
254.028	227.44
254.261	239.44
254.494	268.44
254.727	291.44
254.96	319.44
255.193	305.44
255.426	305.44
255.659	297.44
255.892	292.44
256.124	344.44
256.357	365.44
256.59	338.44
256.823	303.44
257.056	292.44
257.289	276.44
257.521	263.44
257.754	248.44
257.987	233.44
258.22	254.44
258.452	246.44
258.685	230.44
258.918	233.44
259.151	248.44
259.383	235.44
259.616	234.44
259.849	265.44
260.081	271.44
260.314	268.44
260.547	272.44
260.779	266.44
261.012	278.44
261.244	255.44
261.477	248.44
261.71	255.44
261.942	255.44
262.175	253.44
262.407	265.44
262.64	225.44
262.872	242.44
263.105	254.44
263.337	222.44
263.57	236.44
263.802	212.44
264.035	226.44
264.267	229.44
264.499	227.44
264.732	236.44
264.964	237.44
265.197	234.44
265.429	232.44
265.661	246.44
265.894	227.44
266.126	239.44
266.358	246.44
266.591	260.44
266.823	233.44
267.055	248.44
267.287	242.44
267.52	224.44
267.752	239.44
267.984	234.44
268.216	258.44
268.448	270.44
268.681	240.44
268.913	252.44
269.145	277.44
269.377	307.44
269.609	288.44
269.841	289.44
270.073	291.44
270.306	306.44
270.538	336.44
270.77	354.44
271.002	349.44
271.234	318.44
271.466	323.44
271.698	339.44
271.93	329.44
272.162	321.44
272.394	360.44
272.626	326.44
272.858	322.44
273.09	311.44
273.322	313.44
273.553	287.44
273.785	285.44
274.017	297.44
274.249	290.44
274.481	285.44
274.713	303.44
274.945	296.44
275.176	298.44
275.408	277.44
275.64	279.44
275.872	293.44
276.104	287.44
276.335	281.44
276.567	309.44
276.799	287.44
277.031	336.44
277.262	358.44
277.494	373.44
277.726	346.44
277.957	321.44
278.189	311.44
278.421	328.44
278.652	279.44
278.884	271.44
279.115	281.44
279.347	298.44
279.579	287.44
279.81	276.44
280.042	282.44
280.273	292.44
280.505	292.44
280.736	282.44
280.968	270.44
281.199	294.44
281.431	271.44
281.662	294.44
281.894	297.44
282.125	298.44
282.356	297.44
282.588	310.44
282.819	324.44
283.051	279.44
283.282	289.44
283.513	292.44
283.745	289.44
283.976	300.44
284.207	304.44
284.439	291.44
284.67	274.44
284.901	281.44
285.132	284.44
285.364	293.44
285.595	285.44
285.826	279.44
286.057	300.44
286.288	289.44
286.52	269.44
286.751	297.44
286.982	292.44
287.213	279.44
287.444	294.44
287.675	300.44
287.906	310.44
288.138	317.44
288.369	327.44
288.6	335.44
288.831	313.44
289.062	303.44
289.293	310.44
289.524	292.44
289.755	284.44
289.986	299.44
290.217	294.44
290.448	300.44
290.679	273.44
290.91	294.44
291.141	307.44
291.371	303.44
291.602	308.44
291.833	295.44
292.064	295.44
292.295	295.44
292.526	283.44
292.757	289.44
292.987	285.44
293.218	288.44
293.449	317.44
293.68	293.44
293.91	300.44
294.141	292.44
294.372	296.44
294.603	286.44
294.833	312.44
295.064	311.44
295.295	301.44
295.525	291.44
295.756	301.44
295.987	299.44
296.217	305.44
296.448	338.44
296.679	320.44
296.909	316.44
297.14	293.44
297.37	287.44
297.601	298.44
297.831	299.44
298.062	311.44
298.292	289.44
298.523	313.44
298.753	311.44
298.984	324.44
299.214	301.44
299.445	294.44
299.675	321.44
299.905	297.44
300.136	312.44
300.366	311.44
300.597	327.44
300.827	343.44
301.057	307.44
301.288	341.44
301.518	336.44
301.748	308.44
301.979	337.44
302.209	332.44
302.439	340.44
302.669	334.44
302.9	339.44
303.13	340.44
303.36	326.44
303.59	336.44
303.82	336.44
304.051	354.44
304.281	335.44
304.511	316.44
304.741	329.44
304.971	336.44
305.201	341.44
305.431	337.44
305.661	331.44
305.891	338.44
306.121	350.44
306.352	350.44
306.582	323.44
306.812	359.44
307.042	340.44
307.272	344.44
307.502	354.44
307.731	360.44
307.961	353.44
308.191	341.44
308.421	318.44
308.651	350.44
308.881	337.44
309.111	345.44
309.341	348.44
309.571	352.44
309.8	367.44
310.03	381.44
310.26	383.44
310.49	376.44
310.72	397.44
310.949	403.44
311.179	410.44
311.409	384.44
311.639	396.44
311.868	399.44
312.098	413.44
312.328	405.44
312.557	408.44
312.787	422.44
313.017	440.44
313.246	412.44
313.476	372.44
313.706	377.44
313.935	398.44
314.165	384.44
314.394	433.44
314.624	415.44
314.853	385.44
315.083	398.44
315.312	380.44
315.542	390.44
315.771	387.44
316.001	399.44
316.23	369.44
316.46	381.44
316.689	390.44
316.919	396.44
317.148	412.44
317.377	406.44
317.607	407.44
317.836	394.44
318.065	401.44
318.295	386.44
318.524	371.44
318.753	402.44
318.983	399.44
319.212	389.44
319.441	389.44
319.67	396.44
319.9	392.44
320.129	394.44
320.358	400.44
320.587	422.44
320.816	407.44
321.046	412.44
321.275	412.44
321.504	420.44
321.733	409.44
321.962	425.44
322.191	444.44
322.42	439.44
322.649	477.44
322.878	490.44
323.108	526.44
323.337	529.44
323.566	547.44
323.795	591.44
324.024	637.44
324.253	798.44
324.482	1106.44
324.71	1752.44
324.939	2468.44
325.168	2141.44
325.397	1144.44
325.626	752.44
325.855	669.44
326.084	609.44
326.313	571.44
326.542	572.44
326.77	625.44
326.999	756.44
327.228	994.44
327.457	1494.44
327.686	1847.44
327.914	1322.44
328.143	902.44
328.372	778.44
328.6	732.44
328.829	696.44
329.058	666.44
329.287	674.44
329.515	660.44
329.744	659.44
329.972	687.44
330.201	750.44
330.43	849.44
330.658	842.44
330.887	781.44
331.115	732.44
331.344	605.44
331.572	567.44
331.801	566.44
332.03	559.44
332.258	534.44
332.486	514.44
332.715	524.44
332.943	517.44
333.172	497.44
333.4	523.44
333.629	536.44
333.857	594.44
334.085	630.44
334.314	735.44
334.542	865.44
334.771	937.44
334.999	726.44
335.227	614.44
335.455	535.44
335.684	506.44
335.912	507.44
336.14	487.44
336.369	478.44
336.597	461.44
336.825	467.44
337.053	466.44
337.281	459.44
337.51	462.44
337.738	436.44
337.966	450.44
338.194	449.44
338.422	448.44
338.65	429.44
338.878	450.44
339.106	447.44
339.334	431.44
339.562	411.44
339.79	437.44
340.018	439.44
340.246	431.44
340.474	425.44
340.702	454.44
340.93	429.44
341.158	414.44
341.386	438.44
341.614	413.44
341.842	442.44
342.07	446.44
342.298	428.44
342.526	417.44
342.754	397.44
342.981	417.44
343.209	406.44
343.437	421.44
343.665	393.44
343.893	403.44
344.12	417.44
344.348	427.44
344.576	443.44
344.804	457.44
345.031	447.44
345.259	447.44
345.487	451.44
345.714	441.44
345.942	420.44
346.17	420.44
346.397	411.44
346.625	416.44
346.853	417.44
347.08	414.44
347.308	434.44
347.535	429.44
347.763	460.44
347.99	449.44
348.218	437.44
348.445	426.44
348.673	423.44
348.9	413.44
349.128	420.44
349.355	390.44
349.583	415.44
349.81	390.44
350.037	362.44
350.265	406.44
350.492	388.44
350.72	380.44
350.947	385.44
351.174	428.44
351.402	418.44
351.629	439.44
351.856	411.44
352.083	413.44
352.311	456.44
352.538	433.44
352.765	426.44
352.992	432.44
353.22	415.44
353.447	401.44
353.674	412.44
353.901	400.44
354.128	404.44
354.355	391.44
354.583	403.44
354.81	386.44
355.037	384.44
355.264	349.44
355.491	359.44
355.718	363.44
355.945	363.44
356.172	385.44
356.399	363.44
356.626	382.44
356.853	367.44
357.08	376.44
357.307	382.44
357.534	376.44
357.761	383.44
357.988	363.44
358.215	394.44
358.441	382.44
358.668	370.44
358.895	392.44
359.122	398.44
359.349	394.44
359.576	425.44
359.802	426.44
360.029	456.44
360.256	481.44
360.483	447.44
360.709	423.44
360.936	409.44
361.163	420.44
361.39	422.44
361.616	409.44
361.843	408.44
362.07	407.44
362.296	428.44
362.523	398.44
362.749	407.44
362.976	401.44
363.203	399.44
363.429	401.44
363.656	399.44
363.882	396.44
364.109	387.44
364.335	398.44
364.562	379.44
364.788	372.44
365.015	391.44
365.241	399.44
365.468	397.44
365.694	395.44
365.92	403.44
366.147	396.44
366.373	381.44
366.599	382.44
366.826	391.44
367.052	377.44
367.278	386.44
367.505	384.44
367.731	390.44
367.957	409.44
368.184	389.44
368.41	381.44
368.636	406.44
368.862	390.44
369.089	381.44
369.315	384.44
369.541	380.44
369.767	380.44
369.993	392.44
370.219	385.44
370.445	393.44
370.672	389.44
370.898	390.44
371.124	357.44
371.35	360.44
371.576	365.44
371.802	368.44
372.028	358.44
372.254	351.44
372.48	385.44
372.706	378.44
372.932	381.44
373.158	366.44
373.384	368.44
373.61	366.44
373.835	382.44
374.061	382.44
374.287	384.44
374.513	365.44
374.739	379.44
374.965	376.44
375.191	381.44
375.416	371.44
375.642	376.44
375.868	390.44
376.094	380.44
376.319	375.44
376.545	358.44
376.771	374.44
376.997	383.44
377.222	365.44
377.448	347.44
377.674	380.44
377.899	366.44
378.125	365.44
378.35	379.44
378.576	347.44
378.802	347.44
379.027	365.44
379.253	369.44
379.478	378.44
379.704	366.44
379.929	367.44
380.155	368.44
380.38	356.44
380.606	382.44
380.831	359.44
381.057	394.44
381.282	356.44
381.507	366.44
381.733	382.44
381.958	372.44
382.184	384.44
382.409	373.44
382.634	382.44
382.86	360.44
383.085	381.44
383.31	374.44
383.535	381.44
383.761	373.44
383.986	372.44
384.211	399.44
384.436	381.44
384.662	366.44
384.887	399.44
385.112	372.44
385.337	396.44
385.562	393.44
385.787	380.44
386.013	399.44
386.238	425.44
386.463	399.44
386.688	396.44
386.913	389.44
387.138	370.44
387.363	388.44
387.588	378.44
387.813	385.44
388.038	390.44
388.263	374.44
388.488	386.44
388.713	390.44
388.938	389.44
389.163	410.44
389.387	388.44
389.612	380.44
389.837	398.44
390.062	397.44
390.287	397.44
390.512	361.44
390.736	376.44
390.961	394.44
391.186	377.44
391.411	382.44
391.636	409.44
391.86	400.44
392.085	398.44
392.31	376.44
392.534	396.44
392.759	402.44
392.984	397.44
393.208	381.44
393.433	382.44
393.658	395.44
393.882	403.44
394.107	401.44
394.331	395.44
394.556	377.44
394.78	400.44
395.005	392.44
395.229	388.44
395.454	386.44
395.678	417.44
395.903	386.44
396.127	427.44
396.352	427.44
396.576	387.44
396.801	386.44
397.025	391.44
397.249	412.44
397.474	401.44
397.698	423.44
397.922	417.44
398.147	436.44
398.371	450.44
398.595	456.44
398.82	419.44
399.044	424.44
399.268	456.44
399.492	428.44
399.717	462.44
399.941	485.44
400.165	539.44
400.389	499.44
400.613	487.44
400.837	448.44
401.062	434.44
401.286	452.44
401.51	428.44
401.734	457.44
401.958	433.44
402.182	442.44
402.406	455.44
402.63	456.44
402.854	461.44
403.078	450.44
403.302	462.44
403.526	477.44
403.75	475.44
403.974	453.44
404.198	475.44
404.422	469.44
404.645	489.44
404.869	481.44
405.093	539.44
405.317	598.44
405.541	618.44
405.765	559.44
405.988	518.44
406.212	507.44
406.436	535.44
406.66	547.44
406.883	521.44
407.107	518.44
407.331	541.44
407.555	614.44
407.778	619.44
408.002	540.44
408.226	519.44
408.449	505.44
408.673	504.44
408.896	522.44
409.12	553.44
409.344	542.44
409.567	490.44
409.791	458.44
410.014	460.44
410.238	464.44
410.461	455.44
410.685	452.44
410.908	487.44
411.132	510.44
411.355	551.44
411.578	521.44
411.802	470.44
412.025	469.44
412.249	501.44
412.472	552.44
412.695	608.44
412.919	613.44
413.142	544.44
413.365	517.44
413.589	493.44
413.812	454.44
414.035	453.44
414.258	455.44
414.482	449.44
414.705	424.44
414.928	428.44
415.151	434.44
415.374	422.44
415.597	444.44
415.821	440.44
416.044	449.44
416.267	429.44
416.49	429.44
416.713	454.44
416.936	446.44
417.159	443.44
417.382	453.44
417.605	460.44
417.828	477.44
418.051	457.44
418.274	467.44
418.497	423.44
418.72	448.44
418.943	439.44
419.166	469.44
419.389	476.44
419.611	471.44
419.834	465.44
420.057	480.44
420.28	517.44
420.503	523.44
420.726	516.44
420.948	524.44
421.171	530.44
421.394	594.44
421.617	522.44
421.839	463.44
422.062	497.44
422.285	465.44
422.507	558.44
422.73	620.44
422.953	597.44
423.175	534.44
423.398	484.44
423.621	473.44
423.843	522.44
424.066	529.44
424.288	505.44
424.511	511.44
424.733	580.44
424.956	625.44
425.178	663.44
425.401	609.44
425.623	644.44
425.846	575.44
426.068	509.44
426.291	522.44
426.513	502.44
426.735	537.44
426.958	578.44
427.18	637.44
427.402	755.44
427.625	828.44
427.847	810.44
428.069	705.44
428.292	621.44
428.514	561.44
428.736	505.44
428.958	494.44
429.181	490.44
429.403	481.44
429.625	490.44
429.847	494.44
430.069	591.44
430.292	590.44
430.514	509.44
430.736	477.44
430.958	467.44
431.18	455.44
431.402	447.44
431.624	457.44
431.846	445.44
432.068	436.44
432.29	450.44
432.512	432.44
432.734	446.44
432.956	447.44
433.178	464.44
433.4	477.44
433.622	466.44
433.844	459.44
434.066	439.44
434.287	436.44
434.509	440.44
434.731	448.44
434.953	447.44
435.175	453.44
435.397	493.44
435.618	508.44
435.84	562.44
436.062	653.44
436.284	722.44
436.505	598.44
436.727	546.44
436.949	490.44
437.17	479.44
437.392	477.44
437.614	507.44
437.835	519.44
438.057	623.44
438.278	713.44
438.5	731.44
438.721	780.44
438.943	751.44
439.165	609.44
439.386	553.44
439.608	527.44
439.829	540.44
440.05	557.44
440.272	600.44
440.493	542.44
440.715	524.44
440.936	521.44
441.158	479.44
441.379	499.44
441.6	474.44
441.822	518.44
442.043	520.44
442.264	628.44
442.486	680.44
442.707	570.44
442.928	548.44
443.149	509.44
443.371	544.44
443.592	599.44
443.813	658.44
444.034	730.44
444.255	615.44
444.476	538.44
444.698	505.44
444.919	501.44
445.14	634.44
445.361	571.44
445.582	561.44
445.803	620.44
446.024	725.44
446.245	740.44
446.466	664.44
446.687	574.44
446.908	531.44
447.129	487.44
447.35	474.44
447.571	477.44
447.792	464.44
448.013	478.44
448.234	524.44
448.455	537.44
448.675	667.44
448.896	794.44
449.117	664.44
449.338	617.44
449.559	734.44
449.779	816.44
450	651.44
450.221	537.44
450.442	502.44
450.662	477.44
450.883	484.44
451.104	524.44
451.324	489.44
451.545	454.44
451.766	452.44
451.986	424.44
452.207	440.44
452.428	417.44
452.648	436.44
452.869	444.44
453.089	437.44
453.31	457.44
453.53	442.44
453.751	431.44
453.971	454.44
454.192	460.44
454.412	443.44
454.633	412.44
454.853	441.44
455.073	430.44
455.294	447.44
455.514	537.44
455.734	524.44
455.955	453.44
456.175	408.44
456.395	405.44
456.616	418.44
456.836	384.44
457.056	407.44
457.276	365.44
457.497	392.44
457.717	401.44
457.937	406.44
458.157	393.44
458.377	418.44
458.598	422.44
458.818	506.44
459.038	576.44
459.258	605.44
459.478	501.44
459.698	454.44
459.918	442.44
460.138	429.44
460.358	422.44
460.578	421.44
460.798	437.44
461.018	443.44
461.238	445.44
461.458	410.44
461.678	408.44
461.898	407.44
462.118	421.44
462.338	423.44
462.558	420.44
462.777	430.44
462.997	453.44
463.217	455.44
463.437	442.44
463.657	448.44
463.876	447.44
464.096	430.44
464.316	449.44
464.536	441.44
464.755	476.44
464.975	473.44
465.195	531.44
465.414	600.44
465.634	527.44
465.854	491.44
466.073	444.44
466.293	447.44
466.512	428.44
466.732	432.44
466.951	434.44
467.171	447.44
467.391	434.44
467.61	452.44
467.829	455.44
468.049	464.44
468.268	521.44
468.488	482.44
468.707	453.44
468.927	460.44
469.146	432.44
469.365	426.44
469.585	441.44
469.804	448.44
470.023	446.44
470.243	423.44
470.462	470.44
470.681	470.44
470.901	473.44
471.12	452.44
471.339	458.44
471.558	459.44
471.777	474.44
471.997	460.44
472.216	510.44
472.435	676.44
472.654	647.44
472.873	540.44
473.092	475.44
473.311	476.44
473.53	490.44
473.749	472.44
473.968	520.44
474.187	628.44
474.406	654.44
474.625	526.44
474.844	482.44
475.063	465.44
475.282	459.44
475.501	446.44
475.72	460.44
475.939	465.44
476.158	470.44
476.377	454.44
476.596	443.44
476.814	463.44
477.033	460.44
477.252	495.44
477.471	455.44
477.69	501.44
477.908	480.44
478.127	499.44
478.346	455.44
478.564	477.44
478.783	495.44
479.002	502.44
479.22	491.44
479.439	538.44
479.658	530.44
479.876	543.44
480.095	560.44
480.313	609.44
480.532	575.44
480.751	572.44
480.969	624.44
481.188	900.44
481.406	1101.44
481.624	798.44
481.843	688.44
482.061	639.44
482.28	592.44
482.498	582.44
482.717	574.44
482.935	557.44
483.153	569.44
483.372	534.44
483.59	566.44
483.808	539.44
484.027	544.44
484.245	547.44
484.463	559.44
484.681	551.44
484.9	582.44
485.118	569.44
485.336	561.44
485.554	546.44
485.772	531.44
485.99	548.44
486.209	556.44
486.427	556.44
486.645	585.44
486.863	594.44
487.081	611.44
487.299	610.44
487.517	597.44
487.735	591.44
487.953	602.44
488.171	608.44
488.389	581.44
488.607	593.44
488.825	597.44
489.043	599.44
489.261	581.44
489.479	590.44
489.696	610.44
489.914	612.44
490.132	605.44
490.35	613.44
490.568	635.44
490.786	654.44
491.003	650.44
491.221	643.44
491.439	681.44
491.657	717.44
491.874	680.44
492.092	682.44
492.31	717.44
492.527	710.44
492.745	720.44
492.963	715.44
493.18	734.44
493.398	722.44
493.615	740.44
493.833	706.44
494.05	726.44
494.268	744.44
494.485	714.44
494.703	724.44
494.92	731.44
495.138	721.44
495.355	730.44
495.573	723.44
495.79	711.44
496.008	744.44
496.225	704.44
496.442	680.44
496.66	696.44
496.877	710.44
497.094	696.44
497.312	720.44
497.529	705.44
497.746	729.44
497.963	727.44
498.181	731.44
498.398	743.44
498.615	727.44
498.832	737.44
499.049	718.44
499.267	744.44
499.484	743.44
499.701	737.44
499.918	792.44
500.135	800.44
500.352	809.44
500.569	817.44
500.786	823.44
501.003	830.44
501.22	863.44
501.437	827.44
501.654	799.44
501.871	816.44
