Data from 1986.PennyLincolnUp.Lamp.En5.5.200Scan.071819.P2_HRD10591_17-11-27-973.txt Node
Date: Thu Jul 18 17:11:27 EDT 2019
User: cochatt
Spectrometer: HR+D1059
Trigger mode: 1
Integration Time (sec): 1.000000E-1
Scans to average: 1
Electric dark correction enabled: true
Nonlinearity correction enabled: false
Boxcar width: 0
XAxis mode: Wavelengths
Number of Pixels in Spectrum: 2048
>>>>>Begin Spectral Data<<<<<
223.165	-20.75
223.4	-20.75
223.635	-20.75
223.869	-3.75
224.104	-14.75
224.338	-18.75
224.573	-18.75
224.808	-10.75
225.042	4.25
225.277	-4.75
225.511	-8.75
225.746	1.25
225.98	-2.75
226.215	9.25
226.449	13.25
226.683	22.25
226.918	24.25
227.152	29.25
227.387	23.25
227.621	35.25
227.856	45.25
228.09	63.25
228.324	62.25
228.559	69.25
228.793	82.25
229.027	101.25
229.262	107.25
229.496	131.25
229.73	152.25
229.964	164.25
230.199	142.25
230.433	119.25
230.667	125.25
230.901	130.25
231.136	119.25
231.37	113.25
231.604	116.25
231.838	127.25
232.072	105.25
232.306	116.25
232.541	110.25
232.775	117.25
233.009	127.25
233.243	118.25
233.477	114.25
233.711	121.25
233.945	111.25
234.179	101.25
234.413	121.25
234.647	123.25
234.881	127.25
235.115	126.25
235.349	110.25
235.583	127.25
235.817	119.25
236.051	112.25
236.285	127.25
236.519	120.25
236.753	161.25
236.987	170.25
237.221	185.25
237.455	252.25
237.689	211.25
237.922	151.25
238.156	127.25
238.39	133.25
238.624	138.25
238.858	120.25
239.091	115.25
239.325	128.25
239.559	125.25
239.793	125.25
240.027	143.25
240.26	149.25
240.494	171.25
240.728	170.25
240.961	157.25
241.195	141.25
241.429	147.25
241.662	127.25
241.896	132.25
242.13	132.25
242.363	144.25
242.597	139.25
242.83	140.25
243.064	146.25
243.298	143.25
243.531	155.25
243.765	139.25
243.998	152.25
244.232	151.25
244.465	148.25
244.699	148.25
244.932	138.25
245.166	157.25
245.399	152.25
245.633	148.25
245.866	158.25
246.099	161.25
246.333	166.25
246.566	145.25
246.8	158.25
247.033	153.25
247.266	166.25
247.5	149.25
247.733	155.25
247.966	169.25
248.2	190.25
248.433	180.25
248.666	174.25
248.899	188.25
249.133	224.25
249.366	245.25
249.599	201.25
249.832	232.25
250.066	202.25
250.299	191.25
250.532	212.25
250.765	241.25
250.998	279.25
251.231	252.25
251.465	253.25
251.698	233.25
251.931	209.25
252.164	214.25
252.397	219.25
252.63	219.25
252.863	224.25
253.096	230.25
253.329	269.25
253.562	233.25
253.795	259.25
254.028	227.25
254.261	226.25
254.494	229.25
254.727	258.25
254.96	309.25
255.193	320.25
255.426	272.25
255.659	259.25
255.892	283.25
256.124	277.25
256.357	301.25
256.59	286.25
256.823	263.25
257.056	247.25
257.289	255.25
257.521	246.25
257.754	225.25
257.987	232.25
258.22	233.25
258.452	221.25
258.685	234.25
258.918	214.25
259.151	210.25
259.383	243.25
259.616	237.25
259.849	247.25
260.081	253.25
260.314	277.25
260.547	287.25
260.779	263.25
261.012	263.25
261.244	234.25
261.477	245.25
261.71	236.25
261.942	238.25
262.175	257.25
262.407	248.25
262.64	235.25
262.872	225.25
263.105	223.25
263.337	233.25
263.57	224.25
263.802	228.25
264.035	232.25
264.267	220.25
264.499	229.25
264.732	227.25
264.964	223.25
265.197	217.25
265.429	228.25
265.661	238.25
265.894	225.25
266.126	217.25
266.358	215.25
266.591	213.25
266.823	234.25
267.055	244.25
267.287	229.25
267.52	222.25
267.752	237.25
267.984	224.25
268.216	222.25
268.448	251.25
268.681	244.25
268.913	265.25
269.145	276.25
269.377	286.25
269.609	261.25
269.841	293.25
270.073	302.25
270.306	301.25
270.538	339.25
270.77	328.25
271.002	315.25
271.234	310.25
271.466	331.25
271.698	348.25
271.93	338.25
272.162	347.25
272.394	350.25
272.626	332.25
272.858	310.25
273.09	288.25
273.322	278.25
273.553	284.25
273.785	277.25
274.017	267.25
274.249	261.25
274.481	286.25
274.713	287.25
274.945	284.25
275.176	291.25
275.408	271.25
275.64	261.25
275.872	266.25
276.104	282.25
276.335	281.25
276.567	281.25
276.799	300.25
277.031	321.25
277.262	325.25
277.494	337.25
277.726	328.25
277.957	299.25
278.189	316.25
278.421	296.25
278.652	297.25
278.884	282.25
279.115	289.25
279.347	279.25
279.579	263.25
279.81	269.25
280.042	261.25
280.273	279.25
280.505	269.25
280.736	270.25
280.968	272.25
281.199	274.25
281.431	293.25
281.662	263.25
281.894	277.25
282.125	287.25
282.356	299.25
282.588	317.25
282.819	313.25
283.051	287.25
283.282	284.25
283.513	272.25
283.745	260.25
283.976	280.25
284.207	267.25
284.439	283.25
284.67	291.25
284.901	274.25
285.132	281.25
285.364	272.25
285.595	272.25
285.826	286.25
286.057	283.25
286.288	292.25
286.52	285.25
286.751	280.25
286.982	273.25
287.213	285.25
287.444	282.25
287.675	288.25
287.906	307.25
288.138	307.25
288.369	308.25
288.6	309.25
288.831	311.25
289.062	309.25
289.293	286.25
289.524	294.25
289.755	280.25
289.986	285.25
290.217	284.25
290.448	293.25
290.679	289.25
290.91	291.25
291.141	269.25
291.371	306.25
291.602	267.25
291.833	269.25
292.064	291.25
292.295	288.25
292.526	281.25
292.757	290.25
292.987	301.25
293.218	298.25
293.449	272.25
293.68	283.25
293.91	286.25
294.141	285.25
294.372	284.25
294.603	273.25
294.833	304.25
295.064	275.25
295.295	298.25
295.525	287.25
295.756	288.25
295.987	308.25
296.217	353.25
296.448	315.25
296.679	299.25
296.909	289.25
297.14	305.25
297.37	281.25
297.601	271.25
297.831	295.25
298.062	285.25
298.292	303.25
298.523	285.25
298.753	299.25
298.984	295.25
299.214	292.25
299.445	291.25
299.675	311.25
299.905	306.25
300.136	330.25
300.366	299.25
300.597	304.25
300.827	301.25
301.057	315.25
301.288	330.25
301.518	328.25
301.748	330.25
301.979	329.25
302.209	326.25
302.439	325.25
302.669	331.25
302.9	302.25
303.13	319.25
303.36	318.25
303.59	324.25
303.82	345.25
304.051	331.25
304.281	318.25
304.511	327.25
304.741	302.25
304.971	323.25
305.201	305.25
305.431	333.25
305.661	325.25
305.891	330.25
306.121	324.25
306.352	334.25
306.582	336.25
306.812	321.25
307.042	328.25
307.272	313.25
307.502	329.25
307.731	338.25
307.961	337.25
308.191	321.25
308.421	337.25
308.651	320.25
308.881	330.25
309.111	345.25
309.341	322.25
309.571	360.25
309.8	356.25
310.03	348.25
310.26	377.25
310.49	369.25
310.72	399.25
310.949	406.25
311.179	415.25
311.409	387.25
311.639	399.25
311.868	373.25
312.098	366.25
312.328	397.25
312.557	409.25
312.787	443.25
313.017	402.25
313.246	401.25
313.476	384.25
313.706	373.25
313.935	367.25
314.165	407.25
314.394	407.25
314.624	405.25
314.853	408.25
315.083	391.25
315.312	384.25
315.542	378.25
315.771	370.25
316.001	355.25
316.23	369.25
316.46	379.25
316.689	385.25
316.919	398.25
317.148	410.25
317.377	398.25
317.607	377.25
317.836	394.25
318.065	392.25
318.295	380.25
318.524	378.25
318.753	392.25
318.983	383.25
319.212	382.25
319.441	383.25
319.67	403.25
319.9	389.25
320.129	383.25
320.358	391.25
320.587	388.25
320.816	394.25
321.046	417.25
321.275	400.25
321.504	402.25
321.733	407.25
321.962	407.25
322.191	417.25
322.42	432.25
322.649	463.25
322.878	477.25
323.108	480.25
323.337	517.25
323.566	538.25
323.795	579.25
324.024	659.25
324.253	780.25
324.482	1111.25
324.71	1742.25
324.939	2493.25
325.168	2149.25
325.397	1149.25
325.626	755.25
325.855	612.25
326.084	556.25
326.313	547.25
326.542	549.25
326.77	640.25
326.999	721.25
327.228	999.25
327.457	1507.25
327.686	1845.25
327.914	1294.25
328.143	863.25
328.372	760.25
328.6	704.25
328.829	651.25
329.058	668.25
329.287	684.25
329.515	619.25
329.744	566.25
329.972	594.25
330.201	631.25
330.43	724.25
330.658	745.25
330.887	710.25
331.115	695.25
331.344	555.25
331.572	507.25
331.801	543.25
332.03	546.25
332.258	501.25
332.486	485.25
332.715	468.25
332.943	473.25
333.172	473.25
333.4	461.25
333.629	504.25
333.857	509.25
334.085	546.25
334.314	599.25
334.542	679.25
334.771	707.25
334.999	594.25
335.227	534.25
335.455	480.25
335.684	463.25
335.912	468.25
336.14	435.25
336.369	435.25
336.597	459.25
336.825	464.25
337.053	458.25
337.281	424.25
337.51	420.25
337.738	439.25
337.966	435.25
338.194	429.25
338.422	446.25
338.65	422.25
338.878	440.25
339.106	399.25
339.334	430.25
339.562	422.25
339.79	430.25
340.018	397.25
340.246	405.25
340.474	447.25
340.702	425.25
340.93	416.25
341.158	417.25
341.386	427.25
341.614	417.25
341.842	417.25
342.07	404.25
342.298	396.25
342.526	408.25
342.754	402.25
342.981	411.25
343.209	409.25
343.437	398.25
343.665	415.25
343.893	390.25
344.12	411.25
344.348	405.25
344.576	440.25
344.804	426.25
345.031	443.25
345.259	432.25
345.487	445.25
345.714	418.25
345.942	401.25
346.17	413.25
346.397	405.25
346.625	414.25
346.853	423.25
347.08	420.25
347.308	416.25
347.535	427.25
347.763	436.25
347.99	401.25
348.218	415.25
348.445	415.25
348.673	429.25
348.9	432.25
349.128	404.25
349.355	367.25
349.583	401.25
349.81	392.25
350.037	394.25
350.265	387.25
350.492	392.25
350.72	391.25
350.947	403.25
351.174	426.25
351.402	423.25
351.629	439.25
351.856	405.25
352.083	432.25
352.311	431.25
352.538	429.25
352.765	428.25
352.992	410.25
353.22	414.25
353.447	412.25
353.674	398.25
353.901	396.25
354.128	390.25
354.355	372.25
354.583	385.25
354.81	355.25
355.037	380.25
355.264	362.25
355.491	375.25
355.718	368.25
355.945	354.25
356.172	365.25
356.399	372.25
356.626	358.25
356.853	368.25
357.08	359.25
357.307	345.25
357.534	353.25
357.761	371.25
357.988	365.25
358.215	377.25
358.441	371.25
358.668	369.25
358.895	356.25
359.122	393.25
359.349	405.25
359.576	417.25
359.802	428.25
360.029	474.25
360.256	467.25
360.483	463.25
360.709	431.25
360.936	404.25
361.163	389.25
361.39	413.25
361.616	410.25
361.843	402.25
362.07	401.25
362.296	428.25
362.523	398.25
362.749	394.25
362.976	390.25
363.203	392.25
363.429	384.25
363.656	379.25
363.882	375.25
364.109	374.25
364.335	390.25
364.562	387.25
364.788	386.25
365.015	385.25
365.241	387.25
365.468	397.25
365.694	389.25
365.92	396.25
366.147	385.25
366.373	375.25
366.599	372.25
366.826	392.25
367.052	376.25
367.278	374.25
367.505	366.25
367.731	370.25
367.957	379.25
368.184	385.25
368.41	384.25
368.636	397.25
368.862	395.25
369.089	391.25
369.315	380.25
369.541	366.25
369.767	361.25
369.993	392.25
370.219	373.25
370.445	372.25
370.672	366.25
370.898	368.25
371.124	378.25
371.35	357.25
371.576	350.25
371.802	379.25
372.028	355.25
372.254	355.25
372.48	377.25
372.706	371.25
372.932	370.25
373.158	359.25
373.384	381.25
373.61	367.25
373.835	366.25
374.061	376.25
374.287	370.25
374.513	366.25
374.739	379.25
374.965	376.25
375.191	373.25
375.416	359.25
375.642	380.25
375.868	379.25
376.094	372.25
376.319	373.25
376.545	364.25
376.771	359.25
376.997	363.25
377.222	370.25
377.448	355.25
377.674	376.25
377.899	371.25
378.125	350.25
378.35	355.25
378.576	341.25
378.802	354.25
379.027	353.25
379.253	356.25
379.478	343.25
379.704	348.25
379.929	361.25
380.155	364.25
380.38	353.25
380.606	378.25
380.831	359.25
381.057	369.25
381.282	355.25
381.507	359.25
381.733	374.25
381.958	372.25
382.184	348.25
382.409	363.25
382.634	357.25
382.86	360.25
383.085	372.25
383.31	375.25
383.535	371.25
383.761	355.25
383.986	349.25
384.211	377.25
384.436	359.25
384.662	371.25
384.887	385.25
385.112	360.25
385.337	367.25
385.562	385.25
385.787	364.25
386.013	381.25
386.238	375.25
386.463	371.25
386.688	398.25
386.913	376.25
387.138	383.25
387.363	372.25
387.588	392.25
387.813	379.25
388.038	375.25
388.263	379.25
388.488	388.25
388.713	399.25
388.938	377.25
389.163	363.25
389.387	393.25
389.612	375.25
389.837	392.25
390.062	377.25
390.287	379.25
390.512	379.25
390.736	379.25
390.961	372.25
391.186	351.25
391.411	367.25
391.636	365.25
391.86	392.25
392.085	377.25
392.31	376.25
392.534	365.25
392.759	375.25
392.984	403.25
393.208	381.25
393.433	373.25
393.658	369.25
393.882	365.25
394.107	384.25
394.331	383.25
394.556	363.25
394.78	371.25
395.005	375.25
395.229	371.25
395.454	400.25
395.678	381.25
395.903	392.25
396.127	398.25
396.352	432.25
396.576	398.25
396.801	399.25
397.025	389.25
397.249	426.25
397.474	411.25
397.698	394.25
397.922	389.25
398.147	430.25
398.371	451.25
398.595	414.25
398.82	407.25
399.044	420.25
399.268	404.25
399.492	435.25
399.717	456.25
399.941	497.25
400.165	518.25
400.389	557.25
400.613	492.25
400.837	449.25
401.062	413.25
401.286	429.25
401.51	427.25
401.734	438.25
401.958	430.25
402.182	460.25
402.406	460.25
402.63	455.25
402.854	438.25
403.078	453.25
403.302	441.25
403.526	445.25
403.75	446.25
403.974	446.25
404.198	451.25
404.422	453.25
404.645	491.25
404.869	472.25
405.093	507.25
405.317	570.25
405.541	574.25
405.765	566.25
405.988	512.25
406.212	503.25
406.436	528.25
406.66	556.25
406.883	514.25
407.107	534.25
407.331	543.25
407.555	599.25
407.778	618.25
408.002	565.25
408.226	500.25
408.449	495.25
408.673	490.25
408.896	515.25
409.12	569.25
409.344	542.25
409.567	491.25
409.791	475.25
410.014	452.25
410.238	444.25
410.461	451.25
410.685	469.25
410.908	480.25
411.132	502.25
411.355	551.25
411.578	543.25
411.802	477.25
412.025	485.25
412.249	470.25
412.472	526.25
412.695	554.25
412.919	567.25
413.142	505.25
413.365	503.25
413.589	473.25
413.812	462.25
414.035	448.25
414.258	421.25
414.482	428.25
414.705	447.25
414.928	424.25
415.151	417.25
415.374	419.25
415.597	448.25
415.821	419.25
416.044	420.25
416.267	438.25
416.49	421.25
416.713	425.25
416.936	429.25
417.159	439.25
417.382	435.25
417.605	432.25
417.828	448.25
418.051	437.25
418.274	446.25
418.497	448.25
418.72	444.25
418.943	439.25
419.166	431.25
419.389	459.25
419.611	472.25
419.834	466.25
420.057	485.25
420.28	473.25
420.503	502.25
420.726	499.25
420.948	487.25
421.171	529.25
421.394	564.25
421.617	473.25
421.839	476.25
422.062	446.25
422.285	469.25
422.507	542.25
422.73	608.25
422.953	583.25
423.175	503.25
423.398	479.25
423.621	454.25
423.843	493.25
424.066	499.25
424.288	495.25
424.511	519.25
424.733	575.25
424.956	667.25
425.178	622.25
425.401	619.25
425.623	651.25
425.846	552.25
426.068	505.25
426.291	494.25
426.513	503.25
426.735	525.25
426.958	563.25
427.18	628.25
427.402	762.25
427.625	854.25
427.847	761.25
428.069	679.25
428.292	592.25
428.514	529.25
428.736	511.25
428.958	494.25
429.181	473.25
429.403	457.25
429.625	475.25
429.847	520.25
430.069	579.25
430.292	596.25
430.514	526.25
430.736	483.25
430.958	465.25
431.18	461.25
431.402	449.25
431.624	424.25
431.846	406.25
432.068	428.25
432.29	443.25
432.512	429.25
432.734	448.25
432.956	451.25
433.178	443.25
433.4	433.25
433.622	439.25
433.844	442.25
434.066	429.25
434.287	443.25
434.509	448.25
434.731	439.25
434.953	440.25
435.175	459.25
435.397	506.25
435.618	503.25
435.84	542.25
436.062	640.25
436.284	719.25
436.505	595.25
436.727	544.25
436.949	494.25
437.17	485.25
437.392	464.25
437.614	501.25
437.835	536.25
438.057	599.25
438.278	725.25
438.5	700.25
438.721	784.25
438.943	739.25
439.165	585.25
439.386	552.25
439.608	523.25
439.829	537.25
440.05	577.25
440.272	592.25
440.493	552.25
440.715	514.25
440.936	500.25
441.158	485.25
441.379	472.25
441.6	487.25
441.822	491.25
442.043	534.25
442.264	656.25
442.486	669.25
442.707	589.25
442.928	539.25
443.149	523.25
443.371	544.25
443.592	592.25
443.813	685.25
444.034	751.25
444.255	627.25
444.476	536.25
444.698	487.25
444.919	507.25
445.14	603.25
445.361	547.25
445.582	559.25
445.803	625.25
446.024	724.25
446.245	748.25
446.466	671.25
446.687	581.25
446.908	519.25
447.129	506.25
447.35	480.25
447.571	491.25
447.792	482.25
448.013	476.25
448.234	508.25
448.455	584.25
448.675	676.25
448.896	767.25
449.117	661.25
449.338	605.25
449.559	705.25
449.779	774.25
450	635.25
450.221	541.25
450.442	482.25
450.662	487.25
450.883	484.25
451.104	494.25
451.324	489.25
451.545	463.25
451.766	455.25
451.986	429.25
452.207	410.25
452.428	413.25
452.648	440.25
452.869	426.25
453.089	443.25
453.31	455.25
453.53	446.25
453.751	414.25
453.971	420.25
454.192	440.25
454.412	438.25
454.633	432.25
454.853	428.25
455.073	423.25
455.294	450.25
455.514	527.25
455.734	496.25
455.955	438.25
456.175	397.25
456.395	395.25
456.616	389.25
456.836	393.25
457.056	394.25
457.276	376.25
457.497	387.25
457.717	394.25
457.937	411.25
458.157	428.25
458.377	413.25
458.598	448.25
458.818	496.25
459.038	615.25
459.258	591.25
459.478	518.25
459.698	470.25
459.918	432.25
460.138	413.25
460.358	428.25
460.578	412.25
460.798	415.25
461.018	404.25
461.238	436.25
461.458	422.25
461.678	415.25
461.898	424.25
462.118	437.25
462.338	437.25
462.558	435.25
462.777	448.25
462.997	430.25
463.217	456.25
463.437	451.25
463.657	431.25
463.876	443.25
464.096	443.25
464.316	442.25
464.536	468.25
464.755	465.25
464.975	478.25
465.195	519.25
465.414	614.25
465.634	544.25
465.854	472.25
466.073	462.25
466.293	444.25
466.512	431.25
466.732	428.25
466.951	437.25
467.171	420.25
467.391	415.25
467.61	456.25
467.829	438.25
468.049	468.25
468.268	471.25
468.488	458.25
468.707	444.25
468.927	400.25
469.146	406.25
469.365	416.25
469.585	438.25
469.804	421.25
470.023	445.25
470.243	424.25
470.462	435.25
470.681	445.25
470.901	474.25
471.12	435.25
471.339	431.25
471.558	441.25
471.777	424.25
471.997	469.25
472.216	451.25
472.435	573.25
472.654	541.25
472.873	478.25
473.092	491.25
473.311	465.25
473.53	441.25
473.749	464.25
473.968	485.25
474.187	639.25
474.406	639.25
474.625	515.25
474.844	459.25
475.063	453.25
475.282	438.25
475.501	441.25
475.72	459.25
475.939	471.25
476.158	440.25
476.377	442.25
476.596	456.25
476.814	466.25
477.033	464.25
477.252	452.25
477.471	452.25
477.69	470.25
477.908	457.25
478.127	480.25
478.346	468.25
478.564	478.25
478.783	463.25
479.002	477.25
479.22	492.25
479.439	516.25
479.658	531.25
479.876	516.25
480.095	518.25
480.313	559.25
480.532	557.25
480.751	525.25
480.969	581.25
481.188	739.25
481.406	843.25
481.624	645.25
481.843	590.25
482.061	544.25
482.28	538.25
482.498	538.25
482.717	527.25
482.935	515.25
483.153	534.25
483.372	516.25
483.59	537.25
483.808	524.25
484.027	518.25
484.245	519.25
484.463	529.25
484.681	530.25
484.9	543.25
485.118	541.25
485.336	542.25
485.554	535.25
485.772	536.25
485.99	533.25
486.209	527.25
486.427	543.25
486.645	555.25
486.863	584.25
487.081	565.25
487.299	556.25
487.517	568.25
487.735	559.25
487.953	570.25
488.171	569.25
488.389	565.25
488.607	555.25
488.825	580.25
489.043	578.25
489.261	555.25
489.479	559.25
489.696	578.25
489.914	569.25
490.132	596.25
490.35	599.25
490.568	598.25
490.786	612.25
491.003	598.25
491.221	644.25
491.439	642.25
491.657	653.25
491.874	639.25
492.092	658.25
492.31	683.25
492.527	677.25
492.745	683.25
492.963	672.25
493.18	667.25
493.398	703.25
493.615	695.25
493.833	649.25
494.05	682.25
494.268	667.25
494.485	677.25
494.703	671.25
494.92	686.25
495.138	667.25
495.355	666.25
495.573	694.25
495.79	680.25
496.008	683.25
496.225	673.25
496.442	679.25
496.66	666.25
496.877	683.25
497.094	688.25
497.312	686.25
497.529	665.25
497.746	667.25
497.963	688.25
498.181	716.25
498.398	720.25
498.615	713.25
498.832	694.25
499.049	711.25
499.267	707.25
499.484	728.25
499.701	743.25
499.918	751.25
500.135	777.25
500.352	827.25
500.569	807.25
500.786	829.25
501.003	829.25
501.22	776.25
501.437	798.25
501.654	784.25
501.871	822.25
