Data from 1986.PennyLincolnUp.Lamp.En5.5.200Scan.071819.P2_HRD10591_17-10-29-973.txt Node
Date: Thu Jul 18 17:10:29 EDT 2019
User: cochatt
Spectrometer: HR+D1059
Trigger mode: 1
Integration Time (sec): 1.000000E-1
Scans to average: 1
Electric dark correction enabled: true
Nonlinearity correction enabled: false
Boxcar width: 0
XAxis mode: Wavelengths
Number of Pixels in Spectrum: 2048
>>>>>Begin Spectral Data<<<<<
223.165	-22.31
223.4	-22.31
223.635	-22.31
223.869	-10.31
224.104	-6.31
224.338	-14.31
224.573	-16.31
224.808	-1.31
225.042	-10.31
225.277	-7.31
225.511	-11.31
225.746	-7.31
225.98	20.69
226.215	4.69
226.449	1.69
226.683	18.69
226.918	30.69
227.152	30.69
227.387	47.69
227.621	42.69
227.856	47.69
228.09	47.69
228.324	42.69
228.559	52.69
228.793	77.69
229.027	81.69
229.262	108.69
229.496	115.69
229.73	135.69
229.964	146.69
230.199	117.69
230.433	121.69
230.667	105.69
230.901	101.69
231.136	98.69
231.37	109.69
231.604	117.69
231.838	107.69
232.072	109.69
232.306	115.69
232.541	108.69
232.775	111.69
233.009	114.69
233.243	97.69
233.477	117.69
233.711	127.69
233.945	124.69
234.179	122.69
234.413	115.69
234.647	120.69
234.881	118.69
235.115	123.69
235.349	113.69
235.583	130.69
235.817	109.69
236.051	121.69
236.285	117.69
236.519	125.69
236.753	124.69
236.987	134.69
237.221	196.69
237.455	259.69
237.689	185.69
237.922	145.69
238.156	149.69
238.39	123.69
238.624	125.69
238.858	109.69
239.091	131.69
239.325	130.69
239.559	114.69
239.793	132.69
240.027	137.69
240.26	143.69
240.494	162.69
240.728	161.69
240.961	146.69
241.195	143.69
241.429	135.69
241.662	137.69
241.896	144.69
242.13	133.69
242.363	131.69
242.597	127.69
242.83	151.69
243.064	129.69
243.298	138.69
243.531	139.69
243.765	138.69
243.998	132.69
244.232	135.69
244.465	157.69
244.699	144.69
244.932	133.69
245.166	155.69
245.399	153.69
245.633	136.69
245.866	141.69
246.099	148.69
246.333	155.69
246.566	138.69
246.8	140.69
247.033	143.69
247.266	163.69
247.5	166.69
247.733	181.69
247.966	165.69
248.2	171.69
248.433	193.69
248.666	201.69
248.899	196.69
249.133	189.69
249.366	206.69
249.599	215.69
249.832	193.69
250.066	187.69
250.299	179.69
250.532	186.69
250.765	197.69
250.998	211.69
251.231	233.69
251.465	211.69
251.698	217.69
251.931	195.69
252.164	212.69
252.397	201.69
252.63	197.69
252.863	200.69
253.096	235.69
253.329	243.69
253.562	228.69
253.795	226.69
254.028	206.69
254.261	218.69
254.494	232.69
254.727	275.69
254.96	290.69
255.193	283.69
255.426	262.69
255.659	244.69
255.892	246.69
256.124	245.69
256.357	241.69
256.59	231.69
256.823	220.69
257.056	217.69
257.289	230.69
257.521	208.69
257.754	197.69
257.987	228.69
258.22	213.69
258.452	204.69
258.685	217.69
258.918	219.69
259.151	209.69
259.383	219.69
259.616	233.69
259.849	207.69
260.081	227.69
260.314	278.69
260.547	265.69
260.779	261.69
261.012	229.69
261.244	204.69
261.477	232.69
261.71	226.69
261.942	235.69
262.175	238.69
262.407	238.69
262.64	213.69
262.872	210.69
263.105	218.69
263.337	211.69
263.57	207.69
263.802	223.69
264.035	225.69
264.267	197.69
264.499	212.69
264.732	215.69
264.964	208.69
265.197	207.69
265.429	206.69
265.661	212.69
265.894	205.69
266.126	202.69
266.358	211.69
266.591	210.69
266.823	215.69
267.055	204.69
267.287	229.69
267.52	226.69
267.752	211.69
267.984	229.69
268.216	217.69
268.448	226.69
268.681	228.69
268.913	230.69
269.145	268.69
269.377	276.69
269.609	262.69
269.841	275.69
270.073	277.69
270.306	285.69
270.538	318.69
270.77	322.69
271.002	284.69
271.234	298.69
271.466	317.69
271.698	300.69
271.93	326.69
272.162	312.69
272.394	315.69
272.626	321.69
272.858	283.69
273.09	276.69
273.322	266.69
273.553	249.69
273.785	265.69
274.017	251.69
274.249	265.69
274.481	235.69
274.713	257.69
274.945	261.69
275.176	251.69
275.408	275.69
275.64	253.69
275.872	263.69
276.104	255.69
276.335	256.69
276.567	253.69
276.799	277.69
277.031	295.69
277.262	304.69
277.494	300.69
277.726	311.69
277.957	275.69
278.189	262.69
278.421	274.69
278.652	258.69
278.884	241.69
279.115	256.69
279.347	254.69
279.579	249.69
279.81	265.69
280.042	247.69
280.273	240.69
280.505	268.69
280.736	237.69
280.968	247.69
281.199	256.69
281.431	257.69
281.662	247.69
281.894	264.69
282.125	270.69
282.356	286.69
282.588	308.69
282.819	302.69
283.051	269.69
283.282	265.69
283.513	286.69
283.745	258.69
283.976	259.69
284.207	251.69
284.439	236.69
284.67	253.69
284.901	251.69
285.132	266.69
285.364	259.69
285.595	263.69
285.826	268.69
286.057	277.69
286.288	275.69
286.52	249.69
286.751	259.69
286.982	269.69
287.213	258.69
287.444	290.69
287.675	268.69
287.906	281.69
288.138	296.69
288.369	286.69
288.6	283.69
288.831	276.69
289.062	286.69
289.293	294.69
289.524	264.69
289.755	300.69
289.986	274.69
290.217	279.69
290.448	279.69
290.679	270.69
290.91	262.69
291.141	250.69
291.371	267.69
291.602	287.69
291.833	267.69
292.064	260.69
292.295	266.69
292.526	266.69
292.757	268.69
292.987	286.69
293.218	269.69
293.449	273.69
293.68	267.69
293.91	264.69
294.141	268.69
294.372	255.69
294.603	258.69
294.833	269.69
295.064	278.69
295.295	262.69
295.525	270.69
295.756	271.69
295.987	292.69
296.217	295.69
296.448	326.69
296.679	279.69
296.909	271.69
297.14	267.69
297.37	289.69
297.601	269.69
297.831	267.69
298.062	284.69
298.292	292.69
298.523	286.69
298.753	300.69
298.984	290.69
299.214	285.69
299.445	283.69
299.675	276.69
299.905	285.69
300.136	293.69
300.366	271.69
300.597	278.69
300.827	283.69
301.057	306.69
301.288	303.69
301.518	315.69
301.748	291.69
301.979	285.69
302.209	282.69
302.439	279.69
302.669	288.69
302.9	291.69
303.13	303.69
303.36	314.69
303.59	306.69
303.82	313.69
304.051	311.69
304.281	298.69
304.511	299.69
304.741	291.69
304.971	299.69
305.201	287.69
305.431	314.69
305.661	315.69
305.891	286.69
306.121	304.69
306.352	310.69
306.582	322.69
306.812	301.69
307.042	286.69
307.272	291.69
307.502	310.69
307.731	314.69
307.961	306.69
308.191	309.69
308.421	299.69
308.651	316.69
308.881	315.69
309.111	318.69
309.341	314.69
309.571	335.69
309.8	335.69
310.03	354.69
310.26	372.69
310.49	331.69
310.72	363.69
310.949	403.69
311.179	399.69
311.409	366.69
311.639	346.69
311.868	356.69
312.098	365.69
312.328	366.69
312.557	395.69
312.787	395.69
313.017	408.69
313.246	397.69
313.476	344.69
313.706	362.69
313.935	374.69
314.165	340.69
314.394	369.69
314.624	401.69
314.853	362.69
315.083	359.69
315.312	354.69
315.542	341.69
315.771	333.69
316.001	347.69
316.23	341.69
316.46	338.69
316.689	340.69
316.919	347.69
317.148	362.69
317.377	377.69
317.607	356.69
317.836	361.69
318.065	348.69
318.295	361.69
318.524	346.69
318.753	322.69
318.983	348.69
319.212	346.69
319.441	366.69
319.67	386.69
319.9	368.69
320.129	344.69
320.358	345.69
320.587	362.69
320.816	388.69
321.046	398.69
321.275	390.69
321.504	379.69
321.733	374.69
321.962	383.69
322.191	403.69
322.42	412.69
322.649	455.69
322.878	466.69
323.108	472.69
323.337	499.69
323.566	512.69
323.795	545.69
324.024	634.69
324.253	773.69
324.482	1080.69
324.71	1645.69
324.939	2345.69
325.168	2062.69
325.397	1097.69
325.626	732.69
325.855	598.69
326.084	537.69
326.313	500.69
326.542	533.69
326.77	575.69
326.999	689.69
327.228	935.69
327.457	1438.69
327.686	1722.69
327.914	1204.69
328.143	831.69
328.372	686.69
328.6	631.69
328.829	581.69
329.058	596.69
329.287	618.69
329.515	561.69
329.744	510.69
329.972	511.69
330.201	538.69
330.43	562.69
330.658	598.69
330.887	654.69
331.115	609.69
331.344	521.69
331.572	484.69
331.801	475.69
332.03	484.69
332.258	461.69
332.486	440.69
332.715	435.69
332.943	407.69
333.172	413.69
333.4	415.69
333.629	417.69
333.857	430.69
334.085	449.69
334.314	455.69
334.542	484.69
334.771	486.69
334.999	460.69
335.227	451.69
335.455	401.69
335.684	424.69
335.912	424.69
336.14	393.69
336.369	410.69
336.597	419.69
336.825	427.69
337.053	411.69
337.281	410.69
337.51	402.69
337.738	403.69
337.966	383.69
338.194	417.69
338.422	421.69
338.65	422.69
338.878	405.69
339.106	394.69
339.334	384.69
339.562	403.69
339.79	407.69
340.018	405.69
340.246	378.69
340.474	383.69
340.702	399.69
340.93	407.69
341.158	383.69
341.386	385.69
341.614	402.69
341.842	404.69
342.07	396.69
342.298	381.69
342.526	387.69
342.754	392.69
342.981	381.69
343.209	363.69
343.437	379.69
343.665	382.69
343.893	369.69
344.12	405.69
344.348	386.69
344.576	386.69
344.804	431.69
345.031	423.69
345.259	426.69
345.487	398.69
345.714	404.69
345.942	399.69
346.17	394.69
346.397	382.69
346.625	384.69
346.853	384.69
347.08	372.69
347.308	419.69
347.535	409.69
347.763	419.69
347.99	426.69
348.218	403.69
348.445	416.69
348.673	433.69
348.9	379.69
349.128	372.69
349.355	365.69
349.583	373.69
349.81	365.69
350.037	384.69
350.265	382.69
350.492	383.69
350.72	397.69
350.947	377.69
351.174	400.69
351.402	408.69
351.629	388.69
351.856	390.69
352.083	379.69
352.311	395.69
352.538	414.69
352.765	417.69
352.992	407.69
353.22	394.69
353.447	400.69
353.674	366.69
353.901	362.69
354.128	365.69
354.355	341.69
354.583	337.69
354.81	343.69
355.037	350.69
355.264	353.69
355.491	351.69
355.718	341.69
355.945	351.69
356.172	332.69
356.399	341.69
356.626	353.69
356.853	348.69
357.08	342.69
357.307	349.69
357.534	346.69
357.761	344.69
357.988	352.69
358.215	358.69
358.441	343.69
358.668	345.69
358.895	338.69
359.122	366.69
359.349	385.69
359.576	370.69
359.802	405.69
360.029	427.69
360.256	477.69
360.483	431.69
360.709	393.69
360.936	373.69
361.163	371.69
361.39	388.69
361.616	377.69
361.843	382.69
362.07	390.69
362.296	406.69
362.523	390.69
362.749	370.69
362.976	390.69
363.203	376.69
363.429	382.69
363.656	363.69
363.882	359.69
364.109	362.69
364.335	358.69
364.562	342.69
364.788	341.69
365.015	389.69
365.241	357.69
365.468	374.69
365.694	387.69
365.92	382.69
366.147	369.69
366.373	373.69
366.599	360.69
366.826	353.69
367.052	354.69
367.278	343.69
367.505	371.69
367.731	349.69
367.957	358.69
368.184	360.69
368.41	376.69
368.636	367.69
368.862	378.69
369.089	385.69
369.315	361.69
369.541	361.69
369.767	362.69
369.993	358.69
370.219	389.69
370.445	354.69
370.672	354.69
370.898	347.69
371.124	369.69
371.35	343.69
371.576	350.69
371.802	341.69
372.028	359.69
372.254	354.69
372.48	346.69
372.706	334.69
372.932	351.69
373.158	356.69
373.384	363.69
373.61	347.69
373.835	363.69
374.061	350.69
374.287	353.69
374.513	361.69
374.739	359.69
374.965	356.69
375.191	367.69
375.416	339.69
375.642	352.69
375.868	347.69
376.094	353.69
376.319	342.69
376.545	361.69
376.771	346.69
376.997	339.69
377.222	346.69
377.448	347.69
377.674	333.69
377.899	362.69
378.125	343.69
378.35	323.69
378.576	342.69
378.802	339.69
379.027	334.69
379.253	359.69
379.478	335.69
379.704	342.69
379.929	347.69
380.155	346.69
380.38	336.69
380.606	341.69
380.831	338.69
381.057	338.69
381.282	378.69
381.507	331.69
381.733	360.69
381.958	352.69
382.184	338.69
382.409	346.69
382.634	365.69
382.86	349.69
383.085	340.69
383.31	353.69
383.535	346.69
383.761	349.69
383.986	352.69
384.211	363.69
384.436	353.69
384.662	349.69
384.887	377.69
385.112	338.69
385.337	358.69
385.562	361.69
385.787	361.69
386.013	358.69
386.238	371.69
386.463	387.69
386.688	367.69
386.913	350.69
387.138	366.69
387.363	354.69
387.588	362.69
387.813	369.69
388.038	347.69
388.263	373.69
388.488	361.69
388.713	353.69
388.938	380.69
389.163	374.69
389.387	377.69
389.612	357.69
389.837	346.69
390.062	350.69
390.287	385.69
390.512	357.69
390.736	355.69
390.961	365.69
391.186	367.69
391.411	372.69
391.636	365.69
391.86	363.69
392.085	370.69
392.31	354.69
392.534	369.69
392.759	355.69
392.984	372.69
393.208	349.69
393.433	376.69
393.658	366.69
393.882	369.69
394.107	346.69
394.331	365.69
394.556	363.69
394.78	348.69
395.005	346.69
395.229	354.69
395.454	380.69
395.678	363.69
395.903	379.69
396.127	406.69
396.352	391.69
396.576	378.69
396.801	382.69
397.025	363.69
397.249	378.69
397.474	397.69
397.698	376.69
397.922	381.69
398.147	419.69
398.371	415.69
398.595	396.69
398.82	391.69
399.044	406.69
399.268	397.69
399.492	404.69
399.717	441.69
399.941	463.69
400.165	501.69
400.389	489.69
400.613	451.69
400.837	431.69
401.062	424.69
401.286	425.69
401.51	425.69
401.734	417.69
401.958	411.69
402.182	404.69
402.406	417.69
402.63	439.69
402.854	420.69
403.078	405.69
403.302	435.69
403.526	424.69
403.75	420.69
403.974	417.69
404.198	408.69
404.422	430.69
404.645	444.69
404.869	419.69
405.093	465.69
405.317	505.69
405.541	507.69
405.765	492.69
405.988	450.69
406.212	463.69
406.436	494.69
406.66	512.69
406.883	489.69
407.107	501.69
407.331	535.69
407.555	551.69
407.778	569.69
408.002	510.69
408.226	485.69
408.449	453.69
408.673	474.69
408.896	494.69
409.12	543.69
409.344	502.69
409.567	467.69
409.791	441.69
410.014	415.69
410.238	441.69
410.461	414.69
410.685	428.69
410.908	447.69
411.132	464.69
411.355	526.69
411.578	489.69
411.802	436.69
412.025	409.69
412.249	427.69
412.472	466.69
412.695	459.69
412.919	455.69
413.142	437.69
413.365	426.69
413.589	401.69
413.812	418.69
414.035	403.69
414.258	399.69
414.482	387.69
414.705	404.69
414.928	424.69
415.151	389.69
415.374	397.69
415.597	392.69
415.821	399.69
416.044	402.69
416.267	411.69
416.49	420.69
416.713	399.69
416.936	400.69
417.159	396.69
417.382	417.69
417.605	401.69
417.828	425.69
418.051	450.69
418.274	443.69
418.497	422.69
418.72	411.69
418.943	385.69
419.166	395.69
419.389	439.69
419.611	446.69
419.834	443.69
420.057	433.69
420.28	427.69
420.503	431.69
420.726	426.69
420.948	449.69
421.171	499.69
421.394	503.69
421.617	456.69
421.839	438.69
422.062	429.69
422.285	428.69
422.507	522.69
422.73	556.69
422.953	569.69
423.175	497.69
423.398	449.69
423.621	459.69
423.843	479.69
424.066	482.69
424.288	478.69
424.511	482.69
424.733	553.69
424.956	629.69
425.178	598.69
425.401	577.69
425.623	623.69
425.846	534.69
426.068	493.69
426.291	461.69
426.513	490.69
426.735	490.69
426.958	534.69
427.18	607.69
427.402	714.69
427.625	833.69
427.847	743.69
428.069	630.69
428.292	525.69
428.514	505.69
428.736	474.69
428.958	443.69
429.181	460.69
429.403	453.69
429.625	455.69
429.847	506.69
430.069	557.69
430.292	537.69
430.514	457.69
430.736	451.69
430.958	449.69
431.18	400.69
431.402	425.69
431.624	400.69
431.846	412.69
432.068	403.69
432.29	413.69
432.512	406.69
432.734	422.69
432.956	413.69
433.178	424.69
433.4	452.69
433.622	423.69
433.844	415.69
434.066	419.69
434.287	396.69
434.509	418.69
434.731	417.69
434.953	427.69
435.175	450.69
435.397	478.69
435.618	481.69
435.84	531.69
436.062	582.69
436.284	681.69
436.505	573.69
436.727	505.69
436.949	467.69
437.17	446.69
437.392	438.69
437.614	437.69
437.835	497.69
438.057	612.69
438.278	725.69
438.5	663.69
438.721	736.69
438.943	703.69
439.165	583.69
439.386	524.69
439.608	518.69
439.829	477.69
440.05	517.69
440.272	581.69
440.493	547.69
440.715	484.69
440.936	469.69
441.158	462.69
441.379	445.69
441.6	468.69
441.822	476.69
442.043	528.69
442.264	614.69
442.486	642.69
442.707	549.69
442.928	474.69
443.149	508.69
443.371	530.69
443.592	577.69
443.813	636.69
444.034	694.69
444.255	584.69
444.476	515.69
444.698	481.69
444.919	490.69
445.14	545.69
445.361	535.69
445.582	516.69
445.803	591.69
446.024	694.69
446.245	697.69
446.466	631.69
446.687	543.69
446.908	487.69
447.129	458.69
447.35	451.69
447.571	451.69
447.792	470.69
448.013	449.69
448.234	480.69
448.455	525.69
448.675	641.69
448.896	728.69
449.117	634.69
449.338	571.69
449.559	677.69
449.779	764.69
450	619.69
450.221	512.69
450.442	466.69
450.662	468.69
450.883	455.69
451.104	470.69
451.324	449.69
451.545	433.69
451.766	427.69
451.986	411.69
452.207	410.69
452.428	399.69
452.648	387.69
452.869	418.69
453.089	408.69
453.31	419.69
453.53	396.69
453.751	408.69
453.971	405.69
454.192	456.69
454.412	429.69
454.633	391.69
454.853	403.69
455.073	418.69
455.294	415.69
455.514	481.69
455.734	474.69
455.955	416.69
456.175	386.69
456.395	379.69
456.616	366.69
456.836	348.69
457.056	363.69
457.276	381.69
457.497	383.69
457.717	366.69
457.937	372.69
458.157	383.69
458.377	398.69
458.598	419.69
458.818	484.69
459.038	555.69
459.258	577.69
459.478	478.69
459.698	421.69
459.918	410.69
460.138	401.69
460.358	405.69
460.578	390.69
460.798	401.69
461.018	428.69
461.238	416.69
461.458	391.69
461.678	391.69
461.898	404.69
462.118	393.69
462.338	417.69
462.558	402.69
462.777	407.69
462.997	388.69
463.217	419.69
463.437	445.69
463.657	427.69
463.876	414.69
464.096	415.69
464.316	418.69
464.536	429.69
464.755	451.69
464.975	441.69
465.195	498.69
465.414	583.69
465.634	497.69
465.854	473.69
466.073	429.69
466.293	415.69
466.512	412.69
466.732	402.69
466.951	393.69
467.171	414.69
467.391	410.69
467.61	413.69
467.829	436.69
468.049	420.69
468.268	419.69
468.488	400.69
468.707	378.69
468.927	380.69
469.146	383.69
469.365	393.69
469.585	387.69
469.804	403.69
470.023	409.69
470.243	423.69
470.462	404.69
470.681	439.69
470.901	433.69
471.12	413.69
471.339	423.69
471.558	422.69
471.777	403.69
471.997	393.69
472.216	382.69
472.435	436.69
472.654	437.69
472.873	413.69
473.092	411.69
473.311	410.69
473.53	413.69
473.749	414.69
473.968	477.69
474.187	559.69
474.406	604.69
474.625	475.69
474.844	418.69
475.063	419.69
475.282	427.69
475.501	395.69
475.72	429.69
475.939	420.69
476.158	429.69
476.377	420.69
476.596	402.69
476.814	440.69
477.033	416.69
477.252	417.69
477.471	414.69
477.69	417.69
477.908	433.69
478.127	455.69
478.346	425.69
478.564	437.69
478.783	452.69
479.002	461.69
479.22	470.69
479.439	483.69
479.658	486.69
479.876	498.69
480.095	498.69
480.313	534.69
480.532	503.69
480.751	484.69
480.969	510.69
481.188	578.69
481.406	587.69
481.624	532.69
481.843	506.69
482.061	486.69
482.28	494.69
482.498	491.69
482.717	482.69
482.935	475.69
483.153	502.69
483.372	465.69
483.59	474.69
483.808	505.69
484.027	498.69
484.245	486.69
484.463	486.69
484.681	501.69
484.9	492.69
485.118	486.69
485.336	497.69
485.554	501.69
485.772	503.69
485.99	511.69
486.209	516.69
486.427	512.69
486.645	516.69
486.863	556.69
487.081	527.69
487.299	535.69
487.517	526.69
487.735	527.69
487.953	521.69
488.171	537.69
488.389	515.69
488.607	522.69
488.825	518.69
489.043	537.69
489.261	517.69
489.479	535.69
489.696	527.69
489.914	535.69
490.132	545.69
490.35	550.69
490.568	551.69
490.786	574.69
491.003	583.69
491.221	580.69
491.439	561.69
491.657	624.69
491.874	611.69
492.092	612.69
492.31	612.69
492.527	622.69
492.745	602.69
492.963	642.69
493.18	635.69
493.398	613.69
493.615	629.69
493.833	611.69
494.05	630.69
494.268	602.69
494.485	625.69
494.703	622.69
494.92	639.69
495.138	635.69
495.355	634.69
495.573	628.69
495.79	608.69
496.008	635.69
496.225	614.69
496.442	632.69
496.66	627.69
496.877	628.69
497.094	612.69
497.312	612.69
497.529	669.69
497.746	645.69
497.963	661.69
498.181	680.69
498.398	650.69
498.615	675.69
498.832	693.69
499.049	691.69
499.267	669.69
499.484	694.69
499.701	709.69
499.918	718.69
500.135	747.69
500.352	777.69
500.569	796.69
500.786	782.69
501.003	756.69
501.22	754.69
501.437	734.69
501.654	720.69
501.871	767.69
