Data from 1986.PennyLincolnUp.Lamp.En5.5.200Scan.071819.P2_HRD10591_17-10-57-973.txt Node
Date: Thu Jul 18 17:10:57 EDT 2019
User: cochatt
Spectrometer: HR+D1059
Trigger mode: 1
Integration Time (sec): 1.000000E-1
Scans to average: 1
Electric dark correction enabled: true
Nonlinearity correction enabled: false
Boxcar width: 0
XAxis mode: Wavelengths
Number of Pixels in Spectrum: 2048
>>>>>Begin Spectral Data<<<<<
223.165	-2.5
223.4	-2.5
223.635	-2.5
223.869	-13.5
224.104	-31.5
224.338	-8.5
224.573	-16.5
224.808	-5.5
225.042	-2.5
225.277	-6.5
225.511	-10.5
225.746	-0.5
225.98	-3.5
226.215	3.5
226.449	7.5
226.683	18.5
226.918	31.5
227.152	40.5
227.387	37.5
227.621	41.5
227.856	39.5
228.09	50.5
228.324	44.5
228.559	60.5
228.793	70.5
229.027	113.5
229.262	117.5
229.496	125.5
229.73	153.5
229.964	179.5
230.199	143.5
230.433	131.5
230.667	112.5
230.901	127.5
231.136	98.5
231.37	123.5
231.604	104.5
231.838	126.5
232.072	115.5
232.306	111.5
232.541	129.5
232.775	126.5
233.009	133.5
233.243	113.5
233.477	120.5
233.711	129.5
233.945	125.5
234.179	126.5
234.413	121.5
234.647	109.5
234.881	132.5
235.115	114.5
235.349	114.5
235.583	122.5
235.817	139.5
236.051	130.5
236.285	138.5
236.519	131.5
236.753	129.5
236.987	159.5
237.221	197.5
237.455	244.5
237.689	222.5
237.922	170.5
238.156	140.5
238.39	147.5
238.624	137.5
238.858	120.5
239.091	133.5
239.325	123.5
239.559	127.5
239.793	131.5
240.027	124.5
240.26	172.5
240.494	171.5
240.728	155.5
240.961	171.5
241.195	145.5
241.429	154.5
241.662	135.5
241.896	139.5
242.13	150.5
242.363	129.5
242.597	137.5
242.83	127.5
243.064	144.5
243.298	135.5
243.531	143.5
243.765	133.5
243.998	142.5
244.232	136.5
244.465	149.5
244.699	157.5
244.932	153.5
245.166	151.5
245.399	145.5
245.633	156.5
245.866	145.5
246.099	144.5
246.333	151.5
246.566	153.5
246.8	161.5
247.033	158.5
247.266	165.5
247.5	192.5
247.733	173.5
247.966	190.5
248.2	172.5
248.433	181.5
248.666	187.5
248.899	211.5
249.133	226.5
249.366	220.5
249.599	205.5
249.832	206.5
250.066	207.5
250.299	196.5
250.532	207.5
250.765	202.5
250.998	250.5
251.231	266.5
251.465	246.5
251.698	225.5
251.931	218.5
252.164	215.5
252.397	226.5
252.63	221.5
252.863	233.5
253.096	234.5
253.329	249.5
253.562	246.5
253.795	257.5
254.028	237.5
254.261	248.5
254.494	259.5
254.727	285.5
254.96	305.5
255.193	305.5
255.426	278.5
255.659	261.5
255.892	265.5
256.124	261.5
256.357	264.5
256.59	262.5
256.823	256.5
257.056	234.5
257.289	251.5
257.521	240.5
257.754	239.5
257.987	211.5
258.22	210.5
258.452	227.5
258.685	202.5
258.918	224.5
259.151	222.5
259.383	230.5
259.616	238.5
259.849	227.5
260.081	240.5
260.314	256.5
260.547	262.5
260.779	277.5
261.012	260.5
261.244	251.5
261.477	221.5
261.71	236.5
261.942	244.5
262.175	269.5
262.407	246.5
262.64	239.5
262.872	228.5
263.105	228.5
263.337	226.5
263.57	223.5
263.802	218.5
264.035	211.5
264.267	211.5
264.499	223.5
264.732	231.5
264.964	217.5
265.197	221.5
265.429	214.5
265.661	208.5
265.894	223.5
266.126	229.5
266.358	224.5
266.591	219.5
266.823	222.5
267.055	232.5
267.287	242.5
267.52	239.5
267.752	214.5
267.984	237.5
268.216	250.5
268.448	231.5
268.681	237.5
268.913	242.5
269.145	271.5
269.377	303.5
269.609	274.5
269.841	275.5
270.073	276.5
270.306	301.5
270.538	341.5
270.77	326.5
271.002	325.5
271.234	296.5
271.466	315.5
271.698	337.5
271.93	330.5
272.162	348.5
272.394	345.5
272.626	317.5
272.858	299.5
273.09	300.5
273.322	293.5
273.553	287.5
273.785	279.5
274.017	273.5
274.249	278.5
274.481	267.5
274.713	272.5
274.945	276.5
275.176	273.5
275.408	254.5
275.64	269.5
275.872	267.5
276.104	266.5
276.335	239.5
276.567	283.5
276.799	285.5
277.031	318.5
277.262	338.5
277.494	322.5
277.726	310.5
277.957	295.5
278.189	293.5
278.421	284.5
278.652	285.5
278.884	277.5
279.115	274.5
279.347	278.5
279.579	259.5
279.81	262.5
280.042	263.5
280.273	264.5
280.505	278.5
280.736	251.5
280.968	251.5
281.199	257.5
281.431	265.5
281.662	266.5
281.894	265.5
282.125	272.5
282.356	290.5
282.588	318.5
282.819	327.5
283.051	277.5
283.282	277.5
283.513	270.5
283.745	279.5
283.976	275.5
284.207	279.5
284.439	281.5
284.67	288.5
284.901	280.5
285.132	269.5
285.364	258.5
285.595	282.5
285.826	258.5
286.057	292.5
286.288	276.5
286.52	266.5
286.751	275.5
286.982	254.5
287.213	268.5
287.444	267.5
287.675	271.5
287.906	281.5
288.138	284.5
288.369	311.5
288.6	296.5
288.831	284.5
289.062	302.5
289.293	293.5
289.524	279.5
289.755	277.5
289.986	284.5
290.217	267.5
290.448	265.5
290.679	276.5
290.91	273.5
291.141	263.5
291.371	272.5
291.602	280.5
291.833	274.5
292.064	274.5
292.295	273.5
292.526	272.5
292.757	286.5
292.987	279.5
293.218	271.5
293.449	267.5
293.68	286.5
293.91	290.5
294.141	291.5
294.372	280.5
294.603	280.5
294.833	257.5
295.064	286.5
295.295	275.5
295.525	287.5
295.756	289.5
295.987	299.5
296.217	325.5
296.448	322.5
296.679	298.5
296.909	281.5
297.14	293.5
297.37	286.5
297.601	283.5
297.831	289.5
298.062	296.5
298.292	305.5
298.523	294.5
298.753	289.5
298.984	289.5
299.214	290.5
299.445	279.5
299.675	281.5
299.905	294.5
300.136	278.5
300.366	278.5
300.597	296.5
300.827	295.5
301.057	312.5
301.288	301.5
301.518	314.5
301.748	298.5
301.979	309.5
302.209	301.5
302.439	303.5
302.669	302.5
302.9	313.5
303.13	306.5
303.36	309.5
303.59	317.5
303.82	328.5
304.051	331.5
304.281	315.5
304.511	318.5
304.741	296.5
304.971	303.5
305.201	300.5
305.431	296.5
305.661	303.5
305.891	296.5
306.121	309.5
306.352	309.5
306.582	329.5
306.812	315.5
307.042	326.5
307.272	326.5
307.502	327.5
307.731	337.5
307.961	306.5
308.191	317.5
308.421	317.5
308.651	325.5
308.881	327.5
309.111	337.5
309.341	315.5
309.571	330.5
309.8	354.5
310.03	368.5
310.26	373.5
310.49	369.5
310.72	346.5
310.949	395.5
311.179	411.5
311.409	382.5
311.639	354.5
311.868	362.5
312.098	361.5
312.328	386.5
312.557	397.5
312.787	412.5
313.017	421.5
313.246	374.5
313.476	379.5
313.706	379.5
313.935	397.5
314.165	412.5
314.394	391.5
314.624	396.5
314.853	384.5
315.083	384.5
315.312	346.5
315.542	364.5
315.771	366.5
316.001	363.5
316.23	362.5
316.46	349.5
316.689	364.5
316.919	358.5
317.148	370.5
317.377	364.5
317.607	352.5
317.836	361.5
318.065	378.5
318.295	379.5
318.524	370.5
318.753	343.5
318.983	375.5
319.212	360.5
319.441	377.5
319.67	386.5
319.9	390.5
320.129	354.5
320.358	385.5
320.587	381.5
320.816	375.5
321.046	395.5
321.275	409.5
321.504	405.5
321.733	409.5
321.962	418.5
322.191	427.5
322.42	427.5
322.649	467.5
322.878	462.5
323.108	479.5
323.337	527.5
323.566	523.5
323.795	560.5
324.024	655.5
324.253	788.5
324.482	1095.5
324.71	1700.5
324.939	2391.5
325.168	2135.5
325.397	1153.5
325.626	745.5
325.855	616.5
326.084	552.5
326.313	518.5
326.542	541.5
326.77	595.5
326.999	708.5
327.228	974.5
327.457	1473.5
327.686	1859.5
327.914	1304.5
328.143	842.5
328.372	718.5
328.6	658.5
328.829	632.5
329.058	648.5
329.287	641.5
329.515	597.5
329.744	562.5
329.972	528.5
330.201	570.5
330.43	646.5
330.658	680.5
330.887	681.5
331.115	649.5
331.344	561.5
331.572	542.5
331.801	504.5
332.03	488.5
332.258	474.5
332.486	460.5
332.715	443.5
332.943	438.5
333.172	460.5
333.4	458.5
333.629	473.5
333.857	471.5
334.085	504.5
334.314	503.5
334.542	557.5
334.771	598.5
334.999	523.5
335.227	468.5
335.455	459.5
335.684	433.5
335.912	418.5
336.14	426.5
336.369	442.5
336.597	427.5
336.825	443.5
337.053	430.5
337.281	426.5
337.51	421.5
337.738	410.5
337.966	422.5
338.194	418.5
338.422	437.5
338.65	419.5
338.878	407.5
339.106	411.5
339.334	409.5
339.562	388.5
339.79	392.5
340.018	390.5
340.246	402.5
340.474	404.5
340.702	418.5
340.93	387.5
341.158	397.5
341.386	399.5
341.614	411.5
341.842	413.5
342.07	413.5
342.298	391.5
342.526	406.5
342.754	391.5
342.981	383.5
343.209	374.5
343.437	374.5
343.665	392.5
343.893	393.5
344.12	378.5
344.348	393.5
344.576	416.5
344.804	419.5
345.031	442.5
345.259	448.5
345.487	417.5
345.714	415.5
345.942	391.5
346.17	409.5
346.397	388.5
346.625	395.5
346.853	390.5
347.08	399.5
347.308	397.5
347.535	399.5
347.763	422.5
347.99	417.5
348.218	416.5
348.445	422.5
348.673	412.5
348.9	400.5
349.128	373.5
349.355	386.5
349.583	372.5
349.81	381.5
350.037	373.5
350.265	376.5
350.492	378.5
350.72	391.5
350.947	403.5
351.174	405.5
351.402	408.5
351.629	423.5
351.856	416.5
352.083	409.5
352.311	433.5
352.538	425.5
352.765	423.5
352.992	428.5
353.22	391.5
353.447	395.5
353.674	376.5
353.901	368.5
354.128	372.5
354.355	378.5
354.583	370.5
354.81	361.5
355.037	357.5
355.264	353.5
355.491	349.5
355.718	368.5
355.945	369.5
356.172	353.5
356.399	361.5
356.626	354.5
356.853	364.5
357.08	354.5
357.307	354.5
357.534	373.5
357.761	343.5
357.988	365.5
358.215	357.5
358.441	365.5
358.668	359.5
358.895	356.5
359.122	374.5
359.349	373.5
359.576	371.5
359.802	411.5
360.029	454.5
360.256	459.5
360.483	427.5
360.709	414.5
360.936	398.5
361.163	408.5
361.39	404.5
361.616	412.5
361.843	399.5
362.07	394.5
362.296	417.5
362.523	403.5
362.749	397.5
362.976	387.5
363.203	376.5
363.429	364.5
363.656	371.5
363.882	361.5
364.109	367.5
364.335	368.5
364.562	379.5
364.788	373.5
365.015	383.5
365.241	378.5
365.468	382.5
365.694	359.5
365.92	381.5
366.147	389.5
366.373	374.5
366.599	373.5
366.826	354.5
367.052	357.5
367.278	354.5
367.505	355.5
367.731	392.5
367.957	358.5
368.184	375.5
368.41	381.5
368.636	392.5
368.862	383.5
369.089	384.5
369.315	365.5
369.541	364.5
369.767	366.5
369.993	364.5
370.219	365.5
370.445	357.5
370.672	346.5
370.898	357.5
371.124	334.5
371.35	364.5
371.576	339.5
371.802	364.5
372.028	360.5
372.254	343.5
372.48	360.5
372.706	367.5
372.932	354.5
373.158	348.5
373.384	333.5
373.61	357.5
373.835	354.5
374.061	355.5
374.287	361.5
374.513	362.5
374.739	369.5
374.965	360.5
375.191	340.5
375.416	355.5
375.642	354.5
375.868	356.5
376.094	357.5
376.319	331.5
376.545	371.5
376.771	333.5
376.997	368.5
377.222	338.5
377.448	346.5
377.674	355.5
377.899	354.5
378.125	351.5
378.35	354.5
378.576	351.5
378.802	354.5
379.027	342.5
379.253	345.5
379.478	328.5
379.704	352.5
379.929	336.5
380.155	359.5
380.38	366.5
380.606	346.5
380.831	358.5
381.057	359.5
381.282	360.5
381.507	351.5
381.733	358.5
381.958	359.5
382.184	349.5
382.409	379.5
382.634	349.5
382.86	353.5
383.085	347.5
383.31	343.5
383.535	355.5
383.761	345.5
383.986	354.5
384.211	348.5
384.436	376.5
384.662	340.5
384.887	345.5
385.112	363.5
385.337	362.5
385.562	376.5
385.787	360.5
386.013	385.5
386.238	393.5
386.463	389.5
386.688	352.5
386.913	344.5
387.138	361.5
387.363	369.5
387.588	359.5
387.813	370.5
388.038	368.5
388.263	363.5
388.488	370.5
388.713	359.5
388.938	346.5
389.163	367.5
389.387	377.5
389.612	379.5
389.837	366.5
390.062	387.5
390.287	373.5
390.512	363.5
390.736	361.5
390.961	376.5
391.186	363.5
391.411	336.5
391.636	373.5
391.86	377.5
392.085	382.5
392.31	388.5
392.534	357.5
392.759	385.5
392.984	366.5
393.208	355.5
393.433	356.5
393.658	381.5
393.882	356.5
394.107	391.5
394.331	357.5
394.556	376.5
394.78	361.5
395.005	365.5
395.229	363.5
395.454	363.5
395.678	379.5
395.903	383.5
396.127	413.5
396.352	408.5
396.576	380.5
396.801	386.5
397.025	370.5
397.249	392.5
397.474	377.5
397.698	368.5
397.922	393.5
398.147	422.5
398.371	421.5
398.595	392.5
398.82	396.5
399.044	406.5
399.268	412.5
399.492	440.5
399.717	437.5
399.941	480.5
400.165	501.5
400.389	525.5
400.613	463.5
400.837	441.5
401.062	418.5
401.286	408.5
401.51	429.5
401.734	430.5
401.958	407.5
402.182	418.5
402.406	435.5
402.63	432.5
402.854	432.5
403.078	431.5
403.302	443.5
403.526	425.5
403.75	430.5
403.974	442.5
404.198	441.5
404.422	411.5
404.645	437.5
404.869	434.5
405.093	481.5
405.317	541.5
405.541	541.5
405.765	506.5
405.988	472.5
406.212	494.5
406.436	519.5
406.66	497.5
406.883	486.5
407.107	523.5
407.331	546.5
407.555	589.5
407.778	605.5
408.002	521.5
408.226	483.5
408.449	486.5
408.673	471.5
408.896	497.5
409.12	537.5
409.344	509.5
409.567	458.5
409.791	450.5
410.014	454.5
410.238	437.5
410.461	426.5
410.685	441.5
410.908	462.5
411.132	496.5
411.355	521.5
411.578	512.5
411.802	475.5
412.025	459.5
412.249	443.5
412.472	487.5
412.695	519.5
412.919	527.5
413.142	478.5
413.365	428.5
413.589	418.5
413.812	427.5
414.035	411.5
414.258	425.5
414.482	410.5
414.705	417.5
414.928	422.5
415.151	408.5
415.374	407.5
415.597	397.5
415.821	414.5
416.044	398.5
416.267	422.5
416.49	407.5
416.713	384.5
416.936	395.5
417.159	415.5
417.382	444.5
417.605	433.5
417.828	442.5
418.051	444.5
418.274	428.5
418.497	417.5
418.72	427.5
418.943	401.5
419.166	451.5
419.389	454.5
419.611	432.5
419.834	443.5
420.057	436.5
420.28	430.5
420.503	445.5
420.726	452.5
420.948	455.5
421.171	485.5
421.394	541.5
421.617	476.5
421.839	457.5
422.062	426.5
422.285	456.5
422.507	531.5
422.73	573.5
422.953	576.5
423.175	510.5
423.398	480.5
423.621	471.5
423.843	492.5
424.066	482.5
424.288	480.5
424.511	499.5
424.733	566.5
424.956	638.5
425.178	619.5
425.401	589.5
425.623	606.5
425.846	536.5
426.068	511.5
426.291	494.5
426.513	482.5
426.735	504.5
426.958	565.5
427.18	625.5
427.402	744.5
427.625	833.5
427.847	751.5
428.069	646.5
428.292	571.5
428.514	527.5
428.736	463.5
428.958	465.5
429.181	468.5
429.403	442.5
429.625	473.5
429.847	519.5
430.069	572.5
430.292	563.5
430.514	482.5
430.736	432.5
430.958	448.5
431.18	427.5
431.402	435.5
431.624	418.5
431.846	423.5
432.068	425.5
432.29	423.5
432.512	409.5
432.734	421.5
432.956	417.5
433.178	427.5
433.4	439.5
433.622	441.5
433.844	427.5
434.066	423.5
434.287	409.5
434.509	426.5
434.731	439.5
434.953	429.5
435.175	457.5
435.397	471.5
435.618	463.5
435.84	553.5
436.062	649.5
436.284	695.5
436.505	594.5
436.727	516.5
436.949	468.5
437.17	476.5
437.392	464.5
437.614	492.5
437.835	491.5
438.057	601.5
438.278	698.5
438.5	689.5
438.721	750.5
438.943	741.5
439.165	601.5
439.386	543.5
439.608	539.5
439.829	524.5
440.05	547.5
440.272	592.5
440.493	549.5
440.715	496.5
440.936	472.5
441.158	453.5
441.379	460.5
441.6	465.5
441.822	490.5
442.043	535.5
442.264	611.5
442.486	652.5
442.707	571.5
442.928	527.5
443.149	527.5
443.371	532.5
443.592	565.5
443.813	663.5
444.034	716.5
444.255	603.5
444.476	531.5
444.698	493.5
444.919	481.5
445.14	584.5
445.361	550.5
445.582	541.5
445.803	603.5
446.024	719.5
446.245	738.5
446.466	645.5
446.687	567.5
446.908	525.5
447.129	486.5
447.35	468.5
447.571	453.5
447.792	439.5
448.013	449.5
448.234	501.5
448.455	526.5
448.675	647.5
448.896	738.5
449.117	668.5
449.338	624.5
449.559	687.5
449.779	766.5
450	637.5
450.221	533.5
450.442	489.5
450.662	478.5
450.883	485.5
451.104	484.5
451.324	446.5
451.545	461.5
451.766	448.5
451.986	428.5
452.207	409.5
452.428	404.5
452.648	419.5
452.869	399.5
453.089	442.5
453.31	446.5
453.53	439.5
453.751	421.5
453.971	413.5
454.192	460.5
454.412	458.5
454.633	444.5
454.853	431.5
455.073	404.5
455.294	435.5
455.514	508.5
455.734	502.5
455.955	420.5
456.175	387.5
456.395	388.5
456.616	382.5
456.836	384.5
457.056	370.5
457.276	370.5
457.497	384.5
457.717	386.5
457.937	369.5
458.157	391.5
458.377	401.5
458.598	434.5
458.818	490.5
459.038	558.5
459.258	610.5
459.478	500.5
459.698	427.5
459.918	403.5
460.138	444.5
460.358	419.5
460.578	391.5
460.798	397.5
461.018	440.5
461.238	416.5
461.458	413.5
461.678	392.5
461.898	413.5
462.118	407.5
462.338	418.5
462.558	408.5
462.777	418.5
462.997	427.5
463.217	429.5
463.437	410.5
463.657	434.5
463.876	426.5
464.096	415.5
464.316	407.5
464.536	435.5
464.755	460.5
464.975	470.5
465.195	510.5
465.414	614.5
465.634	518.5
465.854	474.5
466.073	437.5
466.293	437.5
466.512	395.5
466.732	407.5
466.951	419.5
467.171	403.5
467.391	432.5
467.61	413.5
467.829	430.5
468.049	434.5
468.268	429.5
468.488	424.5
468.707	400.5
468.927	399.5
469.146	383.5
469.365	404.5
469.585	409.5
469.804	399.5
470.023	440.5
470.243	426.5
470.462	413.5
470.681	437.5
470.901	441.5
471.12	414.5
471.339	432.5
471.558	430.5
471.777	427.5
471.997	411.5
472.216	432.5
472.435	502.5
472.654	492.5
472.873	423.5
473.092	426.5
473.311	401.5
473.53	426.5
473.749	433.5
473.968	483.5
474.187	606.5
474.406	601.5
474.625	509.5
474.844	437.5
475.063	435.5
475.282	433.5
475.501	417.5
475.72	437.5
475.939	432.5
476.158	434.5
476.377	442.5
476.596	441.5
476.814	421.5
477.033	454.5
477.252	449.5
477.471	445.5
477.69	455.5
477.908	438.5
478.127	427.5
478.346	457.5
478.564	455.5
478.783	458.5
479.002	454.5
479.22	465.5
479.439	490.5
479.658	507.5
479.876	519.5
480.095	501.5
480.313	530.5
480.532	531.5
480.751	523.5
480.969	540.5
481.188	619.5
481.406	749.5
481.624	587.5
481.843	537.5
482.061	539.5
482.28	505.5
482.498	496.5
482.717	509.5
482.935	505.5
483.153	473.5
483.372	481.5
483.59	506.5
483.808	496.5
484.027	495.5
484.245	515.5
484.463	526.5
484.681	529.5
484.9	509.5
485.118	547.5
485.336	524.5
485.554	521.5
485.772	520.5
485.99	525.5
486.209	510.5
486.427	521.5
486.645	547.5
486.863	546.5
487.081	562.5
487.299	550.5
487.517	532.5
487.735	535.5
487.953	522.5
488.171	543.5
488.389	541.5
488.607	539.5
488.825	556.5
489.043	553.5
489.261	543.5
489.479	544.5
489.696	555.5
489.914	575.5
490.132	580.5
490.35	578.5
490.568	576.5
490.786	574.5
491.003	586.5
491.221	603.5
491.439	621.5
491.657	622.5
491.874	616.5
492.092	617.5
492.31	621.5
492.527	632.5
492.745	627.5
492.963	633.5
493.18	637.5
493.398	655.5
493.615	654.5
493.833	633.5
494.05	664.5
494.268	641.5
494.485	633.5
494.703	652.5
494.92	647.5
495.138	647.5
495.355	669.5
495.573	659.5
495.79	637.5
496.008	654.5
496.225	647.5
496.442	658.5
496.66	654.5
496.877	626.5
497.094	664.5
497.312	671.5
497.529	683.5
497.746	666.5
497.963	673.5
498.181	679.5
498.398	698.5
498.615	717.5
498.832	697.5
499.049	670.5
499.267	706.5
499.484	714.5
499.701	716.5
499.918	730.5
500.135	724.5
500.352	773.5
500.569	765.5
500.786	774.5
501.003	757.5
501.22	782.5
501.437	775.5
501.654	787.5
501.871	799.5
502.088	759.5
502.305	745.5
502.522	683.5
502.739	691.5
502.956	666.5
503.172	669.5
503.389	661.5
503.606	698.5
503.823	655.5
504.04	676.5
504.256	645.5
504.473	644.5
504.69	639.5
504.907	626.5
505.123	635.5
505.34	642.5
505.557	631.5
505.773	642.5
505.99	626.5
506.207	603.5
506.423	638.5
506.64	613.5
506.856	593.5
507.073	599.5
507.289	609.5
507.506	598.5
507.722	643.5
507.939	664.5
508.155	649.5
508.372	634.5
508.588	606.5
508.805	601.5
509.021	617.5
509.238	622.5
509.454	623.5
509.67	634.5
509.887	620.5
510.103	626.5
510.319	626.5
510.536	774.5
510.752	1321.5
510.968	1065.5
511.184	662.5
511.401	621.5
511.617	608.5
511.833	616.5
512.049	582.5
512.265	587.5
512.481	588.5
512.698	573.5
512.914	590.5
513.13	591.5
513.346	579.5
513.562	583.5
513.778	595.5
513.994	608.5
514.21	609.5
514.426	636.5
514.642	694.5
514.858	739.5
515.074	797.5
515.29	966.5
515.506	1507.5
515.721	1171.5
515.937	775.5
516.153	679.5
516.369	619.5
516.585	622.5
516.801	594.5
517.016	606.5
517.232	592.5
517.448	583.5
517.664	590.5
517.879	559.5
518.095	601.5
518.311	556.5
518.527	558.5
518.742	565.5
518.958	573.5
519.173	586.5
519.389	565.5
519.605	582.5
519.82	584.5
