Data from 1986.PennyLincolnUp.Lamp.En5.5.200Scan.071819.P2_HRD10591_17-09-47-973.txt Node
Date: Thu Jul 18 17:09:47 EDT 2019
User: cochatt
Spectrometer: HR+D1059
Trigger mode: 1
Integration Time (sec): 1.000000E-1
Scans to average: 1
Electric dark correction enabled: true
Nonlinearity correction enabled: false
Boxcar width: 0
XAxis mode: Wavelengths
Number of Pixels in Spectrum: 2048
>>>>>Begin Spectral Data<<<<<
223.165	-15.62
223.4	-15.62
223.635	-15.62
223.869	-20.62
224.104	-16.62
224.338	-16.62
224.573	-6.62
224.808	-1.62
225.042	-15.62
225.277	-14.62
225.511	-2.62
225.746	-8.62
225.98	13.38
226.215	13.38
226.449	20.38
226.683	22.38
226.918	17.38
227.152	32.38
227.387	36.38
227.621	51.38
227.856	31.38
228.09	55.38
228.324	67.38
228.559	40.38
228.793	54.38
229.027	115.38
229.262	92.38
229.496	110.38
229.73	136.38
229.964	162.38
230.199	124.38
230.433	109.38
230.667	115.38
230.901	100.38
231.136	121.38
231.37	118.38
231.604	109.38
231.838	111.38
232.072	117.38
232.306	99.38
232.541	100.38
232.775	118.38
233.009	103.38
233.243	95.38
233.477	104.38
233.711	114.38
233.945	109.38
234.179	112.38
234.413	110.38
234.647	106.38
234.881	119.38
235.115	107.38
235.349	112.38
235.583	115.38
235.817	110.38
236.051	116.38
236.285	122.38
236.519	124.38
236.753	135.38
236.987	141.38
237.221	167.38
237.455	227.38
237.689	185.38
237.922	137.38
238.156	131.38
238.39	132.38
238.624	123.38
238.858	132.38
239.091	115.38
239.325	120.38
239.559	117.38
239.793	123.38
240.027	136.38
240.26	164.38
240.494	164.38
240.728	160.38
240.961	144.38
241.195	149.38
241.429	134.38
241.662	144.38
241.896	128.38
242.13	124.38
242.363	123.38
242.597	119.38
242.83	110.38
243.064	138.38
243.298	139.38
243.531	118.38
243.765	140.38
243.998	137.38
244.232	136.38
244.465	148.38
244.699	136.38
244.932	140.38
245.166	148.38
245.399	133.38
245.633	141.38
245.866	131.38
246.099	135.38
246.333	130.38
246.566	140.38
246.8	143.38
247.033	150.38
247.266	156.38
247.5	157.38
247.733	152.38
247.966	175.38
248.2	149.38
248.433	176.38
248.666	170.38
248.899	184.38
249.133	186.38
249.366	206.38
249.599	182.38
249.832	180.38
250.066	186.38
250.299	166.38
250.532	173.38
250.765	197.38
250.998	200.38
251.231	216.38
251.465	215.38
251.698	198.38
251.931	198.38
252.164	185.38
252.397	192.38
252.63	185.38
252.863	202.38
253.096	201.38
253.329	221.38
253.562	235.38
253.795	231.38
254.028	208.38
254.261	216.38
254.494	230.38
254.727	238.38
254.96	256.38
255.193	272.38
255.426	258.38
255.659	237.38
255.892	210.38
256.124	216.38
256.357	208.38
256.59	218.38
256.823	197.38
257.056	205.38
257.289	202.38
257.521	203.38
257.754	187.38
257.987	189.38
258.22	213.38
258.452	195.38
258.685	195.38
258.918	183.38
259.151	189.38
259.383	210.38
259.616	216.38
259.849	218.38
260.081	216.38
260.314	239.38
260.547	250.38
260.779	247.38
261.012	218.38
261.244	225.38
261.477	214.38
261.71	221.38
261.942	221.38
262.175	225.38
262.407	216.38
262.64	212.38
262.872	200.38
263.105	189.38
263.337	198.38
263.57	211.38
263.802	204.38
264.035	205.38
264.267	205.38
264.499	185.38
264.732	212.38
264.964	205.38
265.197	221.38
265.429	190.38
265.661	200.38
265.894	192.38
266.126	199.38
266.358	194.38
266.591	198.38
266.823	213.38
267.055	213.38
267.287	232.38
267.52	195.38
267.752	210.38
267.984	214.38
268.216	211.38
268.448	206.38
268.681	247.38
268.913	240.38
269.145	252.38
269.377	271.38
269.609	253.38
269.841	231.38
270.073	249.38
270.306	290.38
270.538	296.38
270.77	276.38
271.002	271.38
271.234	279.38
271.466	300.38
271.698	301.38
271.93	299.38
272.162	302.38
272.394	303.38
272.626	285.38
272.858	286.38
273.09	281.38
273.322	256.38
273.553	249.38
273.785	258.38
274.017	250.38
274.249	251.38
274.481	256.38
274.713	236.38
274.945	233.38
275.176	251.38
275.408	244.38
275.64	235.38
275.872	230.38
276.104	235.38
276.335	246.38
276.567	250.38
276.799	276.38
277.031	291.38
277.262	289.38
277.494	268.38
277.726	277.38
277.957	272.38
278.189	272.38
278.421	261.38
278.652	264.38
278.884	243.38
279.115	240.38
279.347	249.38
279.579	242.38
279.81	239.38
280.042	238.38
280.273	231.38
280.505	224.38
280.736	240.38
280.968	250.38
281.199	242.38
281.431	231.38
281.662	227.38
281.894	258.38
282.125	235.38
282.356	235.38
282.588	270.38
282.819	268.38
283.051	244.38
283.282	224.38
283.513	245.38
283.745	244.38
283.976	249.38
284.207	264.38
284.439	260.38
284.67	258.38
284.901	261.38
285.132	246.38
285.364	229.38
285.595	237.38
285.826	248.38
286.057	246.38
286.288	244.38
286.52	260.38
286.751	233.38
286.982	251.38
287.213	243.38
287.444	240.38
287.675	257.38
287.906	260.38
288.138	260.38
288.369	280.38
288.6	256.38
288.831	264.38
289.062	262.38
289.293	282.38
289.524	232.38
289.755	258.38
289.986	264.38
290.217	261.38
290.448	243.38
290.679	245.38
290.91	272.38
291.141	267.38
291.371	263.38
291.602	243.38
291.833	254.38
292.064	261.38
292.295	249.38
292.526	238.38
292.757	264.38
292.987	252.38
293.218	246.38
293.449	258.38
293.68	259.38
293.91	257.38
294.141	252.38
294.372	252.38
294.603	231.38
294.833	257.38
295.064	263.38
295.295	278.38
295.525	261.38
295.756	264.38
295.987	269.38
296.217	287.38
296.448	273.38
296.679	282.38
296.909	258.38
297.14	258.38
297.37	264.38
297.601	260.38
297.831	257.38
298.062	261.38
298.292	269.38
298.523	251.38
298.753	248.38
298.984	258.38
299.214	246.38
299.445	255.38
299.675	273.38
299.905	298.38
300.136	284.38
300.366	293.38
300.597	285.38
300.827	272.38
301.057	289.38
301.288	291.38
301.518	277.38
301.748	280.38
301.979	289.38
302.209	274.38
302.439	295.38
302.669	282.38
302.9	283.38
303.13	284.38
303.36	291.38
303.59	279.38
303.82	299.38
304.051	282.38
304.281	282.38
304.511	276.38
304.741	286.38
304.971	272.38
305.201	284.38
305.431	286.38
305.661	287.38
305.891	282.38
306.121	287.38
306.352	286.38
306.582	294.38
306.812	301.38
307.042	290.38
307.272	288.38
307.502	294.38
307.731	289.38
307.961	276.38
308.191	298.38
308.421	297.38
308.651	291.38
308.881	288.38
309.111	298.38
309.341	296.38
309.571	292.38
309.8	317.38
310.03	323.38
310.26	335.38
310.49	336.38
310.72	334.38
310.949	334.38
311.179	371.38
311.409	330.38
311.639	336.38
311.868	339.38
312.098	323.38
312.328	350.38
312.557	357.38
312.787	363.38
313.017	365.38
313.246	352.38
313.476	311.38
313.706	335.38
313.935	328.38
314.165	343.38
314.394	344.38
314.624	346.38
314.853	338.38
315.083	322.38
315.312	327.38
315.542	350.38
315.771	320.38
316.001	327.38
316.23	330.38
316.46	337.38
316.689	329.38
316.919	341.38
317.148	349.38
317.377	342.38
317.607	327.38
317.836	328.38
318.065	323.38
318.295	330.38
318.524	324.38
318.753	316.38
318.983	328.38
319.212	330.38
319.441	333.38
319.67	338.38
319.9	338.38
320.129	330.38
320.358	320.38
320.587	338.38
320.816	342.38
321.046	363.38
321.275	341.38
321.504	353.38
321.733	350.38
321.962	364.38
322.191	349.38
322.42	365.38
322.649	416.38
322.878	388.38
323.108	397.38
323.337	427.38
323.566	451.38
323.795	476.38
324.024	530.38
324.253	638.38
324.482	894.38
324.71	1379.38
324.939	1979.38
325.168	1767.38
325.397	894.38
325.626	610.38
325.855	502.38
326.084	456.38
326.313	451.38
326.542	440.38
326.77	486.38
326.999	606.38
327.228	824.38
327.457	1221.38
327.686	1471.38
327.914	1030.38
328.143	654.38
328.372	558.38
328.6	512.38
328.829	484.38
329.058	515.38
329.287	518.38
329.515	487.38
329.744	445.38
329.972	429.38
330.201	440.38
330.43	448.38
330.658	499.38
330.887	533.38
331.115	512.38
331.344	454.38
331.572	442.38
331.801	442.38
332.03	451.38
332.258	417.38
332.486	400.38
332.715	379.38
332.943	368.38
333.172	355.38
333.4	367.38
333.629	376.38
333.857	388.38
334.085	412.38
334.314	399.38
334.542	379.38
334.771	411.38
334.999	398.38
335.227	388.38
335.455	408.38
335.684	388.38
335.912	362.38
336.14	382.38
336.369	372.38
336.597	382.38
336.825	375.38
337.053	387.38
337.281	381.38
337.51	367.38
337.738	352.38
337.966	374.38
338.194	380.38
338.422	356.38
338.65	388.38
338.878	363.38
339.106	367.38
339.334	362.38
339.562	343.38
339.79	364.38
340.018	364.38
340.246	379.38
340.474	378.38
340.702	381.38
340.93	334.38
341.158	363.38
341.386	359.38
341.614	362.38
341.842	370.38
342.07	370.38
342.298	355.38
342.526	363.38
342.754	358.38
342.981	344.38
343.209	360.38
343.437	349.38
343.665	353.38
343.893	364.38
344.12	354.38
344.348	357.38
344.576	352.38
344.804	370.38
345.031	392.38
345.259	392.38
345.487	380.38
345.714	370.38
345.942	349.38
346.17	347.38
346.397	354.38
346.625	366.38
346.853	363.38
347.08	351.38
347.308	373.38
347.535	379.38
347.763	393.38
347.99	385.38
348.218	354.38
348.445	376.38
348.673	370.38
348.9	338.38
349.128	374.38
349.355	351.38
349.583	345.38
349.81	327.38
350.037	343.38
350.265	353.38
350.492	344.38
350.72	320.38
350.947	344.38
351.174	361.38
351.402	366.38
351.629	357.38
351.856	366.38
352.083	369.38
352.311	399.38
352.538	366.38
352.765	376.38
352.992	372.38
353.22	365.38
353.447	357.38
353.674	343.38
353.901	334.38
354.128	336.38
354.355	349.38
354.583	325.38
354.81	313.38
355.037	328.38
355.264	316.38
355.491	325.38
355.718	338.38
355.945	332.38
356.172	321.38
356.399	323.38
356.626	320.38
356.853	318.38
357.08	320.38
357.307	323.38
357.534	317.38
357.761	313.38
357.988	332.38
358.215	330.38
358.441	338.38
358.668	316.38
358.895	338.38
359.122	326.38
359.349	336.38
359.576	343.38
359.802	383.38
360.029	410.38
360.256	393.38
360.483	391.38
360.709	364.38
360.936	358.38
361.163	356.38
361.39	357.38
361.616	366.38
361.843	371.38
362.07	367.38
362.296	355.38
362.523	368.38
362.749	359.38
362.976	346.38
363.203	335.38
363.429	335.38
363.656	341.38
363.882	333.38
364.109	340.38
364.335	340.38
364.562	351.38
364.788	327.38
365.015	340.38
365.241	349.38
365.468	349.38
365.694	340.38
365.92	335.38
366.147	346.38
366.373	320.38
366.599	344.38
366.826	321.38
367.052	328.38
367.278	335.38
367.505	321.38
367.731	318.38
367.957	323.38
368.184	316.38
368.41	329.38
368.636	340.38
368.862	371.38
369.089	347.38
369.315	340.38
369.541	334.38
369.767	342.38
369.993	333.38
370.219	330.38
370.445	325.38
370.672	332.38
370.898	324.38
371.124	335.38
371.35	322.38
371.576	326.38
371.802	320.38
372.028	327.38
372.254	318.38
372.48	308.38
372.706	337.38
372.932	336.38
373.158	338.38
373.384	333.38
373.61	338.38
373.835	331.38
374.061	343.38
374.287	335.38
374.513	339.38
374.739	344.38
374.965	332.38
375.191	330.38
375.416	334.38
375.642	335.38
375.868	331.38
376.094	327.38
376.319	339.38
376.545	330.38
376.771	334.38
376.997	324.38
377.222	338.38
377.448	335.38
377.674	328.38
377.899	325.38
378.125	322.38
378.35	319.38
378.576	313.38
378.802	323.38
379.027	330.38
379.253	345.38
379.478	343.38
379.704	325.38
379.929	339.38
380.155	318.38
380.38	334.38
380.606	340.38
380.831	336.38
381.057	333.38
381.282	335.38
381.507	356.38
381.733	324.38
381.958	321.38
382.184	347.38
382.409	349.38
382.634	321.38
382.86	335.38
383.085	347.38
383.31	345.38
383.535	348.38
383.761	334.38
383.986	354.38
384.211	337.38
384.436	341.38
384.662	330.38
384.887	337.38
385.112	350.38
385.337	343.38
385.562	354.38
385.787	354.38
386.013	345.38
386.238	364.38
386.463	362.38
386.688	348.38
386.913	319.38
387.138	335.38
387.363	344.38
387.588	349.38
387.813	346.38
388.038	351.38
388.263	325.38
388.488	340.38
388.713	366.38
388.938	342.38
389.163	344.38
389.387	352.38
389.612	376.38
389.837	338.38
390.062	346.38
390.287	340.38
390.512	347.38
390.736	342.38
390.961	346.38
391.186	354.38
391.411	348.38
391.636	363.38
391.86	339.38
392.085	351.38
392.31	359.38
392.534	342.38
392.759	351.38
392.984	346.38
393.208	354.38
393.433	339.38
393.658	344.38
393.882	366.38
394.107	363.38
394.331	338.38
394.556	350.38
394.78	351.38
395.005	363.38
395.229	349.38
395.454	351.38
395.678	356.38
395.903	379.38
396.127	380.38
396.352	417.38
396.576	374.38
396.801	360.38
397.025	372.38
397.249	356.38
397.474	356.38
397.698	351.38
397.922	378.38
398.147	370.38
398.371	406.38
398.595	392.38
398.82	387.38
399.044	363.38
399.268	419.38
399.492	431.38
399.717	406.38
399.941	436.38
400.165	467.38
400.389	477.38
400.613	448.38
400.837	407.38
401.062	399.38
401.286	400.38
401.51	387.38
401.734	382.38
401.958	392.38
402.182	398.38
402.406	407.38
402.63	391.38
402.854	413.38
403.078	396.38
403.302	414.38
403.526	423.38
403.75	416.38
403.974	391.38
404.198	379.38
404.422	412.38
404.645	398.38
404.869	400.38
405.093	421.38
405.317	434.38
405.541	457.38
405.765	444.38
405.988	428.38
406.212	420.38
406.436	457.38
406.66	483.38
406.883	448.38
407.107	452.38
407.331	486.38
407.555	539.38
407.778	528.38
408.002	489.38
408.226	468.38
408.449	460.38
408.673	464.38
408.896	484.38
409.12	520.38
409.344	482.38
409.567	429.38
409.791	435.38
410.014	397.38
410.238	410.38
410.461	384.38
410.685	409.38
410.908	424.38
411.132	446.38
411.355	481.38
411.578	453.38
411.802	414.38
412.025	398.38
412.249	383.38
412.472	399.38
412.695	392.38
412.919	387.38
413.142	376.38
413.365	378.38
413.589	389.38
413.812	391.38
414.035	378.38
414.258	390.38
414.482	380.38
414.705	375.38
414.928	384.38
415.151	378.38
415.374	381.38
415.597	358.38
415.821	360.38
416.044	376.38
416.267	407.38
416.49	364.38
416.713	392.38
416.936	362.38
417.159	398.38
417.382	388.38
417.605	388.38
417.828	396.38
418.051	414.38
418.274	393.38
418.497	381.38
418.72	383.38
418.943	395.38
419.166	396.38
419.389	388.38
419.611	402.38
419.834	377.38
420.057	416.38
420.28	413.38
420.503	396.38
420.726	403.38
420.948	422.38
421.171	446.38
421.394	488.38
421.617	416.38
421.839	429.38
422.062	412.38
422.285	423.38
422.507	470.38
422.73	554.38
422.953	521.38
423.175	466.38
423.398	436.38
423.621	436.38
423.843	419.38
424.066	434.38
424.288	473.38
424.511	475.38
424.733	490.38
424.956	609.38
425.178	580.38
425.401	571.38
425.623	578.38
425.846	509.38
426.068	467.38
426.291	451.38
426.513	478.38
426.735	451.38
426.958	493.38
427.18	568.38
427.402	688.38
427.625	742.38
427.847	634.38
428.069	522.38
428.292	494.38
428.514	454.38
428.736	430.38
428.958	447.38
429.181	429.38
429.403	409.38
429.625	428.38
429.847	454.38
430.069	514.38
430.292	514.38
430.514	437.38
430.736	393.38
430.958	401.38
431.18	403.38
431.402	410.38
431.624	383.38
431.846	382.38
432.068	387.38
432.29	396.38
432.512	394.38
432.734	402.38
432.956	401.38
433.178	414.38
433.4	418.38
433.622	398.38
433.844	380.38
434.066	377.38
434.287	387.38
434.509	394.38
434.731	415.38
434.953	398.38
435.175	423.38
435.397	435.38
435.618	465.38
435.84	500.38
436.062	573.38
436.284	648.38
436.505	536.38
436.727	467.38
436.949	437.38
437.17	420.38
437.392	425.38
437.614	434.38
437.835	461.38
438.057	548.38
438.278	644.38
438.5	644.38
438.721	691.38
438.943	665.38
439.165	542.38
439.386	487.38
439.608	460.38
439.829	464.38
440.05	483.38
440.272	530.38
440.493	495.38
440.715	465.38
440.936	435.38
441.158	427.38
441.379	435.38
441.6	448.38
441.822	440.38
442.043	478.38
442.264	540.38
442.486	602.38
442.707	509.38
442.928	479.38
443.149	468.38
443.371	488.38
443.592	548.38
443.813	598.38
444.034	672.38
444.255	562.38
444.476	484.38
444.698	460.38
444.919	437.38
445.14	562.38
445.361	524.38
445.582	503.38
445.803	563.38
446.024	653.38
446.245	664.38
446.466	585.38
446.687	496.38
446.908	475.38
447.129	448.38
447.35	422.38
447.571	429.38
447.792	412.38
448.013	454.38
448.234	438.38
448.455	489.38
448.675	580.38
448.896	683.38
449.117	598.38
449.338	559.38
449.559	650.38
449.779	712.38
450	576.38
450.221	492.38
450.442	434.38
450.662	424.38
450.883	421.38
451.104	447.38
451.324	442.38
451.545	406.38
451.766	397.38
451.986	381.38
452.207	378.38
452.428	373.38
452.648	378.38
452.869	366.38
453.089	384.38
453.31	398.38
453.53	388.38
453.751	377.38
453.971	397.38
454.192	387.38
454.412	381.38
454.633	369.38
454.853	351.38
455.073	383.38
455.294	422.38
455.514	451.38
455.734	444.38
455.955	374.38
456.175	366.38
456.395	342.38
456.616	340.38
456.836	351.38
457.056	342.38
457.276	338.38
457.497	347.38
457.717	342.38
457.937	342.38
458.157	371.38
458.377	354.38
458.598	384.38
458.818	438.38
459.038	506.38
459.258	499.38
459.478	434.38
459.698	391.38
459.918	379.38
460.138	382.38
460.358	396.38
460.578	376.38
460.798	392.38
461.018	411.38
461.238	390.38
461.458	372.38
461.678	375.38
461.898	398.38
462.118	375.38
462.338	396.38
462.558	380.38
462.777	371.38
462.997	395.38
463.217	408.38
463.437	407.38
463.657	391.38
463.876	388.38
464.096	380.38
464.316	397.38
464.536	406.38
464.755	394.38
464.975	411.38
465.195	464.38
465.414	537.38
465.634	468.38
465.854	431.38
466.073	416.38
466.293	407.38
466.512	391.38
466.732	365.38
466.951	363.38
467.171	368.38
467.391	370.38
467.61	404.38
467.829	402.38
468.049	398.38
468.268	384.38
468.488	385.38
468.707	358.38
468.927	370.38
469.146	353.38
469.365	368.38
469.585	374.38
469.804	390.38
470.023	387.38
470.243	377.38
470.462	366.38
470.681	400.38
470.901	414.38
471.12	422.38
471.339	379.38
471.558	386.38
471.777	395.38
471.997	358.38
472.216	378.38
472.435	367.38
472.654	372.38
472.873	384.38
473.092	379.38
473.311	386.38
473.53	358.38
473.749	384.38
473.968	438.38
474.187	528.38
474.406	541.38
474.625	472.38
474.844	398.38
475.063	405.38
475.282	363.38
475.501	390.38
475.72	384.38
475.939	408.38
476.158	388.38
476.377	408.38
476.596	400.38
476.814	409.38
477.033	408.38
477.252	406.38
477.471	393.38
477.69	437.38
477.908	395.38
478.127	432.38
478.346	401.38
478.564	418.38
478.783	419.38
479.002	405.38
479.22	434.38
479.439	452.38
479.658	446.38
479.876	448.38
480.095	452.38
480.313	470.38
480.532	450.38
480.751	444.38
480.969	461.38
481.188	450.38
481.406	465.38
481.624	467.38
481.843	460.38
482.061	434.38
482.28	449.38
482.498	457.38
482.717	457.38
482.935	450.38
483.153	445.38
483.372	441.38
483.59	450.38
483.808	446.38
484.027	444.38
484.245	447.38
484.463	438.38
484.681	454.38
484.9	473.38
485.118	468.38
485.336	477.38
485.554	478.38
485.772	465.38
485.99	472.38
486.209	466.38
486.427	460.38
486.645	482.38
486.863	509.38
487.081	484.38
487.299	487.38
487.517	485.38
487.735	471.38
487.953	473.38
488.171	493.38
488.389	482.38
488.607	477.38
488.825	468.38
489.043	491.38
489.261	498.38
489.479	485.38
489.696	483.38
489.914	496.38
490.132	507.38
490.35	503.38
490.568	517.38
490.786	504.38
491.003	541.38
491.221	525.38
491.439	536.38
491.657	552.38
491.874	546.38
492.092	576.38
492.31	553.38
492.527	571.38
492.745	540.38
492.963	558.38
493.18	544.38
493.398	555.38
493.615	564.38
493.833	574.38
494.05	582.38
494.268	580.38
494.485	590.38
494.703	546.38
494.92	579.38
495.138	591.38
495.355	581.38
495.573	577.38
495.79	564.38
496.008	610.38
496.225	599.38
496.442	588.38
496.66	584.38
496.877	585.38
497.094	619.38
497.312	568.38
497.529	616.38
497.746	606.38
497.963	608.38
498.181	631.38
498.398	616.38
498.615	621.38
498.832	608.38
499.049	648.38
499.267	652.38
499.484	656.38
499.701	675.38
499.918	674.38
500.135	694.38
500.352	720.38
500.569	723.38
500.786	727.38
501.003	735.38
501.22	721.38
501.437	688.38
501.654	676.38
501.871	709.38
