Data from 1986.PennyLincolnUp.Lamp.En5.5.200Scan.071819.P2_HRD10591_17-12-32-974.txt Node
Date: Thu Jul 18 17:12:32 EDT 2019
User: cochatt
Spectrometer: HR+D1059
Trigger mode: 1
Integration Time (sec): 1.000000E-1
Scans to average: 1
Electric dark correction enabled: true
Nonlinearity correction enabled: false
Boxcar width: 0
XAxis mode: Wavelengths
Number of Pixels in Spectrum: 2048
>>>>>Begin Spectral Data<<<<<
223.165	-14.88
223.4	-14.88
223.635	-14.88
223.869	-24.88
224.104	-12.88
224.338	-17.88
224.573	-0.88
224.808	-2.88
225.042	-9.88
225.277	-12.88
225.511	-9.88
225.746	1.12
225.98	4.12
226.215	2.12
226.449	21.12
226.683	19.12
226.918	26.12
227.152	33.12
227.387	38.12
227.621	29.12
227.856	32.12
228.09	52.12
228.324	58.12
228.559	62.12
228.793	67.12
229.027	105.12
229.262	121.12
229.496	116.12
229.73	140.12
229.964	161.12
230.199	132.12
230.433	133.12
230.667	118.12
230.901	126.12
231.136	117.12
231.37	120.12
231.604	123.12
231.838	126.12
232.072	120.12
232.306	115.12
232.541	116.12
232.775	108.12
233.009	118.12
233.243	124.12
233.477	117.12
233.711	105.12
233.945	126.12
234.179	108.12
234.413	122.12
234.647	120.12
234.881	118.12
235.115	117.12
235.349	103.12
235.583	115.12
235.817	133.12
236.051	123.12
236.285	121.12
236.519	138.12
236.753	133.12
236.987	156.12
237.221	172.12
237.455	229.12
237.689	200.12
237.922	133.12
238.156	130.12
238.39	145.12
238.624	129.12
238.858	130.12
239.091	124.12
239.325	141.12
239.559	142.12
239.793	152.12
240.027	129.12
240.26	155.12
240.494	182.12
240.728	147.12
240.961	167.12
241.195	164.12
241.429	149.12
241.662	162.12
241.896	147.12
242.13	138.12
242.363	149.12
242.597	121.12
242.83	131.12
243.064	146.12
243.298	151.12
243.531	153.12
243.765	134.12
243.998	146.12
244.232	136.12
244.465	160.12
244.699	153.12
244.932	144.12
245.166	144.12
245.399	171.12
245.633	159.12
245.866	152.12
246.099	161.12
246.333	168.12
246.566	168.12
246.8	168.12
247.033	150.12
247.266	179.12
247.5	184.12
247.733	171.12
247.966	179.12
248.2	185.12
248.433	199.12
248.666	181.12
248.899	193.12
249.133	215.12
249.366	215.12
249.599	215.12
249.832	210.12
250.066	214.12
250.299	216.12
250.532	244.12
250.765	283.12
250.998	277.12
251.231	290.12
251.465	253.12
251.698	251.12
251.931	250.12
252.164	244.12
252.397	225.12
252.63	226.12
252.863	220.12
253.096	239.12
253.329	266.12
253.562	235.12
253.795	250.12
254.028	244.12
254.261	240.12
254.494	262.12
254.727	269.12
254.96	318.12
255.193	301.12
255.426	300.12
255.659	300.12
255.892	318.12
256.124	337.12
256.357	381.12
256.59	347.12
256.823	313.12
257.056	306.12
257.289	276.12
257.521	269.12
257.754	269.12
257.987	267.12
258.22	234.12
258.452	238.12
258.685	243.12
258.918	235.12
259.151	234.12
259.383	265.12
259.616	249.12
259.849	244.12
260.081	246.12
260.314	277.12
260.547	286.12
260.779	252.12
261.012	272.12
261.244	259.12
261.477	250.12
261.71	252.12
261.942	238.12
262.175	249.12
262.407	257.12
262.64	230.12
262.872	223.12
263.105	235.12
263.337	248.12
263.57	241.12
263.802	231.12
264.035	227.12
264.267	240.12
264.499	227.12
264.732	226.12
264.964	238.12
265.197	204.12
265.429	228.12
265.661	213.12
265.894	216.12
266.126	240.12
266.358	227.12
266.591	226.12
266.823	225.12
267.055	250.12
267.287	259.12
267.52	237.12
267.752	245.12
267.984	254.12
268.216	238.12
268.448	236.12
268.681	247.12
268.913	261.12
269.145	285.12
269.377	307.12
269.609	287.12
269.841	281.12
270.073	296.12
270.306	295.12
270.538	318.12
270.77	343.12
271.002	335.12
271.234	317.12
271.466	331.12
271.698	335.12
271.93	343.12
272.162	342.12
272.394	346.12
272.626	336.12
272.858	319.12
273.09	317.12
273.322	296.12
273.553	308.12
273.785	284.12
274.017	291.12
274.249	286.12
274.481	313.12
274.713	278.12
274.945	295.12
275.176	286.12
275.408	268.12
275.64	281.12
275.872	286.12
276.104	283.12
276.335	307.12
276.567	295.12
276.799	307.12
277.031	335.12
277.262	352.12
277.494	355.12
277.726	330.12
277.957	318.12
278.189	317.12
278.421	292.12
278.652	277.12
278.884	277.12
279.115	293.12
279.347	270.12
279.579	277.12
279.81	279.12
280.042	289.12
280.273	313.12
280.505	294.12
280.736	291.12
280.968	293.12
281.199	271.12
281.431	287.12
281.662	285.12
281.894	291.12
282.125	306.12
282.356	309.12
282.588	328.12
282.819	345.12
283.051	293.12
283.282	271.12
283.513	305.12
283.745	299.12
283.976	317.12
284.207	305.12
284.439	273.12
284.67	302.12
284.901	289.12
285.132	299.12
285.364	297.12
285.595	290.12
285.826	273.12
286.057	287.12
286.288	310.12
286.52	311.12
286.751	305.12
286.982	311.12
287.213	299.12
287.444	296.12
287.675	303.12
287.906	302.12
288.138	310.12
288.369	334.12
288.6	319.12
288.831	317.12
289.062	315.12
289.293	300.12
289.524	291.12
289.755	306.12
289.986	293.12
290.217	297.12
290.448	272.12
290.679	293.12
290.91	303.12
291.141	294.12
291.371	301.12
291.602	289.12
291.833	294.12
292.064	296.12
292.295	289.12
292.526	300.12
292.757	306.12
292.987	309.12
293.218	307.12
293.449	302.12
293.68	310.12
293.91	292.12
294.141	285.12
294.372	291.12
294.603	281.12
294.833	299.12
295.064	280.12
295.295	306.12
295.525	301.12
295.756	296.12
295.987	311.12
296.217	330.12
296.448	341.12
296.679	302.12
296.909	291.12
297.14	291.12
297.37	313.12
297.601	300.12
297.831	300.12
298.062	293.12
298.292	294.12
298.523	279.12
298.753	323.12
298.984	317.12
299.214	315.12
299.445	310.12
299.675	313.12
299.905	312.12
300.136	316.12
300.366	318.12
300.597	314.12
300.827	323.12
301.057	325.12
301.288	333.12
301.518	308.12
301.748	335.12
301.979	330.12
302.209	331.12
302.439	328.12
302.669	313.12
302.9	321.12
303.13	317.12
303.36	348.12
303.59	325.12
303.82	349.12
304.051	362.12
304.281	341.12
304.511	325.12
304.741	323.12
304.971	339.12
305.201	309.12
305.431	325.12
305.661	323.12
305.891	311.12
306.121	329.12
306.352	331.12
306.582	341.12
306.812	347.12
307.042	330.12
307.272	356.12
307.502	354.12
307.731	347.12
307.961	356.12
308.191	339.12
308.421	346.12
308.651	355.12
308.881	350.12
309.111	355.12
309.341	344.12
309.571	377.12
309.8	372.12
310.03	389.12
310.26	384.12
310.49	389.12
310.72	393.12
310.949	419.12
311.179	422.12
311.409	393.12
311.639	377.12
311.868	411.12
312.098	406.12
312.328	412.12
312.557	440.12
312.787	430.12
313.017	417.12
313.246	412.12
313.476	388.12
313.706	375.12
313.935	388.12
314.165	420.12
314.394	428.12
314.624	422.12
314.853	413.12
315.083	374.12
315.312	389.12
315.542	376.12
315.771	379.12
316.001	386.12
316.23	367.12
316.46	396.12
316.689	389.12
316.919	387.12
317.148	414.12
317.377	403.12
317.607	396.12
317.836	400.12
318.065	375.12
318.295	377.12
318.524	379.12
318.753	378.12
318.983	394.12
319.212	399.12
319.441	392.12
319.67	399.12
319.9	406.12
320.129	398.12
320.358	392.12
320.587	389.12
320.816	400.12
321.046	417.12
321.275	422.12
321.504	422.12
321.733	429.12
321.962	424.12
322.191	449.12
322.42	450.12
322.649	460.12
322.878	503.12
323.108	498.12
323.337	531.12
323.566	550.12
323.795	596.12
324.024	655.12
324.253	772.12
324.482	1107.12
324.71	1703.12
324.939	2471.12
325.168	2171.12
325.397	1138.12
325.626	758.12
325.855	651.12
326.084	598.12
326.313	557.12
326.542	569.12
326.77	620.12
326.999	741.12
327.228	1013.12
327.457	1534.12
327.686	1911.12
327.914	1320.12
328.143	921.12
328.372	829.12
328.6	765.12
328.829	696.12
329.058	715.12
329.287	719.12
329.515	677.12
329.744	679.12
329.972	717.12
330.201	821.12
330.43	932.12
330.658	879.12
330.887	811.12
331.115	751.12
331.344	639.12
331.572	572.12
331.801	589.12
332.03	549.12
332.258	542.12
332.486	532.12
332.715	533.12
332.943	503.12
333.172	531.12
333.4	524.12
333.629	569.12
333.857	610.12
334.085	687.12
334.314	822.12
334.542	976.12
334.771	1020.12
334.999	802.12
335.227	636.12
335.455	561.12
335.684	548.12
335.912	512.12
336.14	499.12
336.369	474.12
336.597	502.12
336.825	485.12
337.053	461.12
337.281	459.12
337.51	464.12
337.738	475.12
337.966	433.12
338.194	454.12
338.422	472.12
338.65	428.12
338.878	470.12
339.106	437.12
339.334	453.12
339.562	437.12
339.79	423.12
340.018	457.12
340.246	435.12
340.474	433.12
340.702	418.12
340.93	441.12
341.158	419.12
341.386	423.12
341.614	436.12
341.842	433.12
342.07	429.12
342.298	411.12
342.526	419.12
342.754	433.12
342.981	414.12
343.209	405.12
343.437	394.12
343.665	426.12
343.893	419.12
344.12	412.12
344.348	417.12
344.576	417.12
344.804	436.12
345.031	452.12
345.259	441.12
345.487	440.12
345.714	419.12
345.942	425.12
346.17	426.12
346.397	430.12
346.625	405.12
346.853	420.12
347.08	425.12
347.308	426.12
347.535	420.12
347.763	426.12
347.99	446.12
348.218	436.12
348.445	441.12
348.673	435.12
348.9	422.12
349.128	402.12
349.355	399.12
349.583	403.12
349.81	415.12
350.037	404.12
350.265	399.12
350.492	419.12
350.72	397.12
350.947	416.12
351.174	416.12
351.402	439.12
351.629	416.12
351.856	433.12
352.083	434.12
352.311	428.12
352.538	453.12
352.765	444.12
352.992	437.12
353.22	433.12
353.447	429.12
353.674	398.12
353.901	399.12
354.128	394.12
354.355	398.12
354.583	403.12
354.81	383.12
355.037	399.12
355.264	385.12
355.491	379.12
355.718	386.12
355.945	361.12
356.172	361.12
356.399	368.12
356.626	369.12
356.853	371.12
357.08	404.12
357.307	403.12
357.534	387.12
357.761	381.12
357.988	378.12
358.215	378.12
358.441	390.12
358.668	372.12
358.895	377.12
359.122	393.12
359.349	391.12
359.576	405.12
359.802	447.12
360.029	463.12
360.256	459.12
360.483	455.12
360.709	435.12
360.936	426.12
361.163	430.12
361.39	404.12
361.616	433.12
361.843	421.12
362.07	433.12
362.296	440.12
362.523	420.12
362.749	421.12
362.976	417.12
363.203	424.12
363.429	373.12
363.656	393.12
363.882	399.12
364.109	389.12
364.335	389.12
364.562	396.12
364.788	390.12
365.015	382.12
365.241	397.12
365.468	398.12
365.694	411.12
365.92	405.12
366.147	388.12
366.373	393.12
366.599	396.12
366.826	397.12
367.052	365.12
367.278	377.12
367.505	385.12
367.731	385.12
367.957	400.12
368.184	381.12
368.41	391.12
368.636	394.12
368.862	399.12
369.089	397.12
369.315	397.12
369.541	379.12
369.767	374.12
369.993	395.12
370.219	384.12
370.445	382.12
370.672	405.12
370.898	387.12
371.124	377.12
371.35	381.12
371.576	374.12
371.802	388.12
372.028	371.12
372.254	362.12
372.48	403.12
372.706	363.12
372.932	374.12
373.158	372.12
373.384	373.12
373.61	389.12
373.835	374.12
374.061	376.12
374.287	373.12
374.513	386.12
374.739	373.12
374.965	377.12
375.191	379.12
375.416	386.12
375.642	373.12
375.868	371.12
376.094	357.12
376.319	357.12
376.545	377.12
376.771	374.12
376.997	389.12
377.222	379.12
377.448	378.12
377.674	374.12
377.899	355.12
378.125	379.12
378.35	353.12
378.576	356.12
378.802	370.12
379.027	364.12
379.253	370.12
379.478	351.12
379.704	363.12
379.929	375.12
380.155	362.12
380.38	351.12
380.606	379.12
380.831	353.12
381.057	377.12
381.282	385.12
381.507	372.12
381.733	381.12
381.958	387.12
382.184	373.12
382.409	390.12
382.634	389.12
382.86	385.12
383.085	363.12
383.31	385.12
383.535	386.12
383.761	381.12
383.986	387.12
384.211	363.12
384.436	374.12
384.662	378.12
384.887	390.12
385.112	370.12
385.337	410.12
385.562	391.12
385.787	371.12
386.013	394.12
386.238	403.12
386.463	392.12
386.688	390.12
386.913	383.12
387.138	370.12
387.363	394.12
387.588	397.12
387.813	378.12
388.038	384.12
388.263	381.12
388.488	378.12
388.713	402.12
388.938	390.12
389.163	390.12
389.387	381.12
389.612	387.12
389.837	394.12
390.062	402.12
390.287	402.12
390.512	383.12
390.736	386.12
390.961	396.12
391.186	381.12
391.411	393.12
391.636	402.12
391.86	409.12
392.085	408.12
392.31	395.12
392.534	381.12
392.759	386.12
392.984	408.12
393.208	373.12
393.433	399.12
393.658	386.12
393.882	387.12
394.107	396.12
394.331	389.12
394.556	378.12
394.78	395.12
395.005	392.12
395.229	379.12
395.454	381.12
395.678	382.12
395.903	415.12
396.127	456.12
396.352	421.12
396.576	396.12
396.801	402.12
397.025	394.12
397.249	401.12
397.474	423.12
397.698	425.12
397.922	439.12
398.147	439.12
398.371	441.12
398.595	437.12
398.82	422.12
399.044	450.12
399.268	434.12
399.492	457.12
399.717	467.12
399.941	501.12
400.165	539.12
400.389	551.12
400.613	505.12
400.837	473.12
401.062	430.12
401.286	453.12
401.51	444.12
401.734	429.12
401.958	441.12
402.182	449.12
402.406	448.12
402.63	473.12
402.854	440.12
403.078	446.12
403.302	438.12
403.526	467.12
403.75	469.12
403.974	470.12
404.198	471.12
404.422	480.12
404.645	517.12
404.869	512.12
405.093	561.12
405.317	627.12
405.541	649.12
405.765	603.12
405.988	536.12
406.212	527.12
406.436	520.12
406.66	551.12
406.883	522.12
407.107	536.12
407.331	579.12
407.555	627.12
407.778	635.12
408.002	569.12
408.226	537.12
408.449	514.12
408.673	536.12
408.896	538.12
409.12	564.12
409.344	560.12
409.567	499.12
409.791	456.12
410.014	479.12
410.238	475.12
410.461	482.12
410.685	478.12
410.908	482.12
411.132	530.12
411.355	557.12
411.578	542.12
411.802	507.12
412.025	458.12
412.249	525.12
412.472	566.12
412.695	630.12
412.919	644.12
413.142	562.12
413.365	546.12
413.589	526.12
413.812	463.12
414.035	478.12
414.258	469.12
414.482	469.12
414.705	452.12
414.928	470.12
415.151	454.12
415.374	444.12
415.597	457.12
415.821	455.12
416.044	446.12
416.267	455.12
416.49	446.12
416.713	442.12
416.936	430.12
417.159	460.12
417.382	450.12
417.605	475.12
417.828	500.12
418.051	481.12
418.274	467.12
418.497	450.12
418.72	453.12
418.943	463.12
419.166	456.12
419.389	470.12
419.611	467.12
419.834	488.12
420.057	520.12
420.28	534.12
420.503	523.12
420.726	526.12
420.948	513.12
421.171	545.12
421.394	590.12
421.617	487.12
421.839	486.12
422.062	474.12
422.285	489.12
422.507	567.12
422.73	615.12
422.953	611.12
423.175	528.12
423.398	503.12
423.621	497.12
423.843	497.12
424.066	494.12
424.288	504.12
424.511	528.12
424.733	593.12
424.956	626.12
425.178	631.12
425.401	609.12
425.623	659.12
425.846	564.12
426.068	553.12
426.291	522.12
426.513	508.12
426.735	543.12
426.958	575.12
427.18	630.12
427.402	766.12
427.625	856.12
427.847	805.12
428.069	733.12
428.292	650.12
428.514	595.12
428.736	523.12
428.958	516.12
429.181	486.12
429.403	505.12
429.625	518.12
429.847	525.12
430.069	592.12
430.292	605.12
430.514	497.12
430.736	455.12
430.958	462.12
431.18	476.12
431.402	457.12
431.624	455.12
431.846	451.12
432.068	430.12
432.29	453.12
432.512	446.12
432.734	451.12
432.956	431.12
433.178	471.12
433.4	481.12
433.622	433.12
433.844	442.12
434.066	454.12
434.287	446.12
434.509	439.12
434.731	436.12
434.953	442.12
435.175	484.12
435.397	492.12
435.618	488.12
435.84	563.12
436.062	646.12
436.284	712.12
436.505	591.12
436.727	539.12
436.949	522.12
437.17	474.12
437.392	479.12
437.614	503.12
437.835	539.12
438.057	602.12
438.278	731.12
438.5	730.12
438.721	787.12
438.943	771.12
439.165	597.12
439.386	565.12
439.608	524.12
439.829	525.12
440.05	564.12
440.272	629.12
440.493	586.12
440.715	518.12
440.936	512.12
441.158	471.12
441.379	475.12
441.6	489.12
441.822	521.12
442.043	565.12
442.264	625.12
442.486	694.12
442.707	593.12
442.928	537.12
443.149	539.12
443.371	574.12
443.592	613.12
443.813	683.12
444.034	731.12
444.255	625.12
444.476	534.12
444.698	514.12
444.919	510.12
445.14	584.12
445.361	541.12
445.582	569.12
445.803	627.12
446.024	742.12
446.245	741.12
446.466	649.12
446.687	583.12
446.908	549.12
447.129	499.12
447.35	499.12
447.571	486.12
447.792	491.12
448.013	494.12
448.234	497.12
448.455	553.12
448.675	658.12
448.896	779.12
449.117	668.12
449.338	631.12
449.559	716.12
449.779	782.12
450	642.12
450.221	533.12
450.442	499.12
450.662	502.12
450.883	485.12
451.104	479.12
451.324	484.12
451.545	451.12
451.766	467.12
451.986	419.12
452.207	434.12
452.428	437.12
452.648	438.12
452.869	423.12
453.089	429.12
453.31	451.12
453.53	430.12
453.751	411.12
453.971	443.12
454.192	460.12
454.412	455.12
454.633	439.12
454.853	415.12
455.073	422.12
455.294	449.12
455.514	530.12
455.734	506.12
455.955	414.12
456.175	419.12
456.395	407.12
456.616	398.12
456.836	397.12
457.056	392.12
457.276	397.12
457.497	376.12
457.717	378.12
457.937	404.12
458.157	411.12
458.377	416.12
458.598	445.12
458.818	503.12
459.038	582.12
459.258	584.12
459.478	517.12
459.698	451.12
459.918	461.12
460.138	426.12
460.358	423.12
460.578	421.12
460.798	417.12
461.018	451.12
461.238	427.12
461.458	433.12
461.678	411.12
461.898	445.12
462.118	437.12
462.338	435.12
462.558	441.12
462.777	444.12
462.997	460.12
463.217	441.12
463.437	461.12
463.657	453.12
463.876	444.12
464.096	456.12
464.316	436.12
464.536	447.12
464.755	445.12
464.975	495.12
465.195	519.12
465.414	620.12
465.634	545.12
465.854	496.12
466.073	466.12
466.293	457.12
466.512	443.12
466.732	441.12
466.951	434.12
467.171	426.12
467.391	461.12
467.61	454.12
467.829	469.12
468.049	474.12
468.268	539.12
468.488	496.12
468.707	462.12
468.927	423.12
469.146	450.12
469.365	429.12
469.585	433.12
469.804	460.12
470.023	449.12
470.243	446.12
470.462	435.12
470.681	489.12
470.901	490.12
471.12	460.12
471.339	453.12
471.558	463.12
471.777	466.12
471.997	478.12
472.216	546.12
472.435	774.12
472.654	679.12
472.873	557.12
473.092	507.12
473.311	513.12
473.53	489.12
473.749	524.12
473.968	513.12
474.187	627.12
474.406	638.12
474.625	542.12
474.844	501.12
475.063	473.12
475.282	441.12
475.501	487.12
475.72	463.12
475.939	456.12
476.158	478.12
476.377	497.12
476.596	468.12
476.814	469.12
477.033	487.12
477.252	480.12
477.471	468.12
477.69	482.12
477.908	481.12
478.127	481.12
478.346	480.12
478.564	490.12
478.783	492.12
479.002	492.12
479.22	514.12
479.439	531.12
479.658	542.12
479.876	572.12
480.095	571.12
480.313	595.12
480.532	583.12
480.751	585.12
480.969	692.12
481.188	962.12
481.406	1223.12
481.624	881.12
481.843	705.12
482.061	677.12
482.28	635.12
482.498	590.12
482.717	589.12
482.935	577.12
483.153	563.12
483.372	558.12
483.59	574.12
483.808	550.12
484.027	555.12
484.245	542.12
484.463	559.12
484.681	564.12
484.9	553.12
485.118	547.12
485.336	569.12
485.554	545.12
485.772	575.12
485.99	558.12
486.209	574.12
486.427	591.12
486.645	575.12
486.863	619.12
487.081	609.12
487.299	599.12
487.517	602.12
487.735	604.12
487.953	610.12
488.171	574.12
488.389	606.12
488.607	609.12
488.825	613.12
489.043	589.12
489.261	610.12
489.479	600.12
489.696	622.12
489.914	628.12
490.132	645.12
490.35	634.12
490.568	662.12
490.786	641.12
491.003	697.12
491.221	698.12
491.439	711.12
491.657	708.12
491.874	693.12
492.092	732.12
492.31	700.12
492.527	729.12
492.745	734.12
492.963	748.12
493.18	788.12
493.398	777.12
493.615	747.12
493.833	759.12
494.05	734.12
494.268	731.12
494.485	734.12
494.703	726.12
494.92	748.12
495.138	747.12
495.355	724.12
495.573	713.12
495.79	728.12
496.008	743.12
496.225	708.12
496.442	720.12
496.66	718.12
496.877	685.12
497.094	714.12
497.312	696.12
497.529	717.12
497.746	744.12
497.963	712.12
498.181	743.12
498.398	732.12
498.615	769.12
498.832	755.12
499.049	723.12
499.267	738.12
499.484	765.12
499.701	784.12
499.918	787.12
500.135	813.12
500.352	838.12
500.569	825.12
500.786	849.12
501.003	855.12
501.22	828.12
501.437	820.12
501.654	824.12
501.871	827.12
