Data from 1986.PennyLincolnUp.Lamp.En5.5.200Scan.071819.P2_HRD10591_17-11-44-973.txt Node
Date: Thu Jul 18 17:11:44 EDT 2019
User: cochatt
Spectrometer: HR+D1059
Trigger mode: 1
Integration Time (sec): 1.000000E-1
Scans to average: 1
Electric dark correction enabled: true
Nonlinearity correction enabled: false
Boxcar width: 0
XAxis mode: Wavelengths
Number of Pixels in Spectrum: 2048
>>>>>Begin Spectral Data<<<<<
223.165	-22.31
223.4	-22.31
223.635	-22.31
223.869	-16.31
224.104	-23.31
224.338	-14.31
224.573	-34.31
224.808	-16.31
225.042	-7.31
225.277	-8.31
225.511	9.69
225.746	17.69
225.98	6.69
226.215	4.69
226.449	21.69
226.683	22.69
226.918	30.69
227.152	28.69
227.387	25.69
227.621	34.69
227.856	27.69
228.09	48.69
228.324	36.69
228.559	60.69
228.793	58.69
229.027	106.69
229.262	106.69
229.496	125.69
229.73	125.69
229.964	156.69
230.199	141.69
230.433	104.69
230.667	98.69
230.901	122.69
231.136	98.69
231.37	97.69
231.604	114.69
231.838	99.69
232.072	111.69
232.306	110.69
232.541	112.69
232.775	122.69
233.009	106.69
233.243	115.69
233.477	116.69
233.711	112.69
233.945	106.69
234.179	114.69
234.413	139.69
234.647	116.69
234.881	111.69
235.115	100.69
235.349	119.69
235.583	113.69
235.817	109.69
236.051	124.69
236.285	116.69
236.519	126.69
236.753	124.69
236.987	145.69
237.221	184.69
237.455	230.69
237.689	200.69
237.922	136.69
238.156	116.69
238.39	128.69
238.624	122.69
238.858	116.69
239.091	114.69
239.325	117.69
239.559	125.69
239.793	127.69
240.027	130.69
240.26	137.69
240.494	148.69
240.728	146.69
240.961	145.69
241.195	149.69
241.429	151.69
241.662	136.69
241.896	143.69
242.13	140.69
242.363	151.69
242.597	150.69
242.83	148.69
243.064	145.69
243.298	147.69
243.531	128.69
243.765	142.69
243.998	142.69
244.232	151.69
244.465	147.69
244.699	151.69
244.932	154.69
245.166	159.69
245.399	148.69
245.633	149.69
245.866	135.69
246.099	139.69
246.333	149.69
246.566	152.69
246.8	153.69
247.033	165.69
247.266	160.69
247.5	164.69
247.733	167.69
247.966	176.69
248.2	186.69
248.433	170.69
248.666	184.69
248.899	197.69
249.133	214.69
249.366	222.69
249.599	217.69
249.832	205.69
250.066	206.69
250.299	207.69
250.532	226.69
250.765	248.69
250.998	252.69
251.231	266.69
251.465	237.69
251.698	228.69
251.931	210.69
252.164	217.69
252.397	204.69
252.63	210.69
252.863	229.69
253.096	238.69
253.329	240.69
253.562	246.69
253.795	258.69
254.028	239.69
254.261	214.69
254.494	240.69
254.727	257.69
254.96	286.69
255.193	284.69
255.426	284.69
255.659	254.69
255.892	278.69
256.124	304.69
256.357	301.69
256.59	281.69
256.823	274.69
257.056	265.69
257.289	272.69
257.521	248.69
257.754	241.69
257.987	237.69
258.22	231.69
258.452	224.69
258.685	226.69
258.918	232.69
259.151	237.69
259.383	229.69
259.616	250.69
259.849	215.69
260.081	243.69
260.314	269.69
260.547	305.69
260.779	253.69
261.012	239.69
261.244	234.69
261.477	232.69
261.71	237.69
261.942	256.69
262.175	252.69
262.407	256.69
262.64	240.69
262.872	223.69
263.105	210.69
263.337	214.69
263.57	218.69
263.802	212.69
264.035	217.69
264.267	228.69
264.499	218.69
264.732	232.69
264.964	225.69
265.197	214.69
265.429	224.69
265.661	218.69
265.894	210.69
266.126	218.69
266.358	215.69
266.591	229.69
266.823	250.69
267.055	231.69
267.287	232.69
267.52	209.69
267.752	219.69
267.984	232.69
268.216	229.69
268.448	230.69
268.681	238.69
268.913	250.69
269.145	252.69
269.377	294.69
269.609	277.69
269.841	282.69
270.073	278.69
270.306	308.69
270.538	340.69
270.77	316.69
271.002	318.69
271.234	316.69
271.466	318.69
271.698	331.69
271.93	325.69
272.162	344.69
272.394	338.69
272.626	305.69
272.858	300.69
273.09	298.69
273.322	286.69
273.553	256.69
273.785	270.69
274.017	254.69
274.249	270.69
274.481	279.69
274.713	287.69
274.945	270.69
275.176	286.69
275.408	268.69
275.64	266.69
275.872	268.69
276.104	262.69
276.335	266.69
276.567	280.69
276.799	283.69
277.031	325.69
277.262	322.69
277.494	336.69
277.726	326.69
277.957	309.69
278.189	284.69
278.421	303.69
278.652	280.69
278.884	281.69
279.115	277.69
279.347	286.69
279.579	284.69
279.81	282.69
280.042	282.69
280.273	281.69
280.505	278.69
280.736	263.69
280.968	264.69
281.199	265.69
281.431	277.69
281.662	275.69
281.894	275.69
282.125	257.69
282.356	298.69
282.588	327.69
282.819	350.69
283.051	275.69
283.282	286.69
283.513	270.69
283.745	291.69
283.976	274.69
284.207	271.69
284.439	281.69
284.67	263.69
284.901	277.69
285.132	270.69
285.364	269.69
285.595	270.69
285.826	279.69
286.057	289.69
286.288	272.69
286.52	259.69
286.751	269.69
286.982	255.69
287.213	284.69
287.444	281.69
287.675	305.69
287.906	298.69
288.138	291.69
288.369	304.69
288.6	312.69
288.831	292.69
289.062	307.69
289.293	290.69
289.524	289.69
289.755	288.69
289.986	271.69
290.217	283.69
290.448	283.69
290.679	291.69
290.91	297.69
291.141	280.69
291.371	287.69
291.602	268.69
291.833	281.69
292.064	288.69
292.295	296.69
292.526	286.69
292.757	272.69
292.987	289.69
293.218	280.69
293.449	274.69
293.68	282.69
293.91	290.69
294.141	293.69
294.372	270.69
294.603	297.69
294.833	296.69
295.064	286.69
295.295	279.69
295.525	287.69
295.756	305.69
295.987	296.69
296.217	320.69
296.448	329.69
296.679	310.69
296.909	297.69
297.14	294.69
297.37	317.69
297.601	284.69
297.831	305.69
298.062	287.69
298.292	295.69
298.523	286.69
298.753	282.69
298.984	278.69
299.214	294.69
299.445	306.69
299.675	305.69
299.905	319.69
300.136	289.69
300.366	299.69
300.597	304.69
300.827	308.69
301.057	312.69
301.288	297.69
301.518	326.69
301.748	304.69
301.979	308.69
302.209	308.69
302.439	316.69
302.669	327.69
302.9	325.69
303.13	320.69
303.36	320.69
303.59	319.69
303.82	313.69
304.051	332.69
304.281	320.69
304.511	316.69
304.741	302.69
304.971	311.69
305.201	329.69
305.431	319.69
305.661	295.69
305.891	317.69
306.121	313.69
306.352	323.69
306.582	318.69
306.812	339.69
307.042	327.69
307.272	326.69
307.502	323.69
307.731	330.69
307.961	344.69
308.191	334.69
308.421	338.69
308.651	318.69
308.881	320.69
309.111	335.69
309.341	347.69
309.571	333.69
309.8	357.69
310.03	361.69
310.26	384.69
310.49	386.69
310.72	399.69
310.949	395.69
311.179	402.69
311.409	375.69
311.639	381.69
311.868	383.69
312.098	387.69
312.328	402.69
312.557	418.69
312.787	404.69
313.017	405.69
313.246	391.69
313.476	378.69
313.706	376.69
313.935	367.69
314.165	397.69
314.394	408.69
314.624	409.69
314.853	391.69
315.083	385.69
315.312	375.69
315.542	356.69
315.771	354.69
316.001	358.69
316.23	350.69
316.46	372.69
316.689	369.69
316.919	375.69
317.148	397.69
317.377	389.69
317.607	397.69
317.836	387.69
318.065	375.69
318.295	368.69
318.524	373.69
318.753	385.69
318.983	382.69
319.212	386.69
319.441	388.69
319.67	400.69
319.9	386.69
320.129	374.69
320.358	369.69
320.587	380.69
320.816	405.69
321.046	410.69
321.275	412.69
321.504	408.69
321.733	401.69
321.962	404.69
322.191	433.69
322.42	435.69
322.649	461.69
322.878	474.69
323.108	467.69
323.337	505.69
323.566	544.69
323.795	567.69
324.024	634.69
324.253	764.69
324.482	1081.69
324.71	1692.69
324.939	2398.69
325.168	2150.69
325.397	1122.69
325.626	743.69
325.855	626.69
326.084	584.69
326.313	551.69
326.542	543.69
326.77	618.69
326.999	694.69
327.228	990.69
327.457	1525.69
327.686	1839.69
327.914	1277.69
328.143	864.69
328.372	752.69
328.6	703.69
328.829	652.69
329.058	661.69
329.287	666.69
329.515	628.69
329.744	591.69
329.972	623.69
330.201	708.69
330.43	748.69
330.658	771.69
330.887	736.69
331.115	695.69
331.344	581.69
331.572	520.69
331.801	524.69
332.03	530.69
332.258	517.69
332.486	496.69
332.715	482.69
332.943	492.69
333.172	494.69
333.4	490.69
333.629	516.69
333.857	526.69
334.085	588.69
334.314	652.69
334.542	734.69
334.771	755.69
334.999	630.69
335.227	544.69
335.455	489.69
335.684	471.69
335.912	456.69
336.14	433.69
336.369	433.69
336.597	454.69
336.825	432.69
337.053	459.69
337.281	452.69
337.51	436.69
337.738	441.69
337.966	412.69
338.194	418.69
338.422	451.69
338.65	432.69
338.878	419.69
339.106	412.69
339.334	428.69
339.562	409.69
339.79	410.69
340.018	417.69
340.246	415.69
340.474	427.69
340.702	416.69
340.93	421.69
341.158	426.69
341.386	408.69
341.614	432.69
341.842	412.69
342.07	418.69
342.298	385.69
342.526	401.69
342.754	402.69
342.981	392.69
343.209	387.69
343.437	394.69
343.665	398.69
343.893	406.69
344.12	395.69
344.348	401.69
344.576	407.69
344.804	421.69
345.031	426.69
345.259	451.69
345.487	420.69
345.714	415.69
345.942	393.69
346.17	397.69
346.397	388.69
346.625	421.69
346.853	412.69
347.08	390.69
347.308	411.69
347.535	398.69
347.763	419.69
347.99	421.69
348.218	411.69
348.445	425.69
348.673	435.69
348.9	430.69
349.128	408.69
349.355	393.69
349.583	401.69
349.81	372.69
350.037	388.69
350.265	400.69
350.492	380.69
350.72	403.69
350.947	408.69
351.174	414.69
351.402	405.69
351.629	441.69
351.856	406.69
352.083	416.69
352.311	430.69
352.538	425.69
352.765	417.69
352.992	416.69
353.22	412.69
353.447	393.69
353.674	391.69
353.901	391.69
354.128	373.69
354.355	371.69
354.583	363.69
354.81	375.69
355.037	384.69
355.264	365.69
355.491	367.69
355.718	359.69
355.945	348.69
356.172	380.69
356.399	337.69
356.626	360.69
356.853	385.69
357.08	355.69
357.307	366.69
357.534	375.69
357.761	374.69
357.988	376.69
358.215	352.69
358.441	374.69
358.668	378.69
358.895	347.69
359.122	384.69
359.349	392.69
359.576	393.69
359.802	417.69
360.029	466.69
360.256	481.69
360.483	451.69
360.709	422.69
360.936	421.69
361.163	409.69
361.39	398.69
361.616	409.69
361.843	380.69
362.07	388.69
362.296	400.69
362.523	388.69
362.749	395.69
362.976	378.69
363.203	394.69
363.429	392.69
363.656	367.69
363.882	382.69
364.109	381.69
364.335	383.69
364.562	374.69
364.788	376.69
365.015	383.69
365.241	370.69
365.468	383.69
365.694	392.69
365.92	387.69
366.147	382.69
366.373	370.69
366.599	363.69
366.826	387.69
367.052	366.69
367.278	372.69
367.505	388.69
367.731	371.69
367.957	386.69
368.184	370.69
368.41	386.69
368.636	384.69
368.862	373.69
369.089	380.69
369.315	381.69
369.541	377.69
369.767	373.69
369.993	371.69
370.219	354.69
370.445	348.69
370.672	371.69
370.898	368.69
371.124	377.69
371.35	354.69
371.576	334.69
371.802	363.69
372.028	371.69
372.254	356.69
372.48	364.69
372.706	354.69
372.932	372.69
373.158	367.69
373.384	374.69
373.61	376.69
373.835	363.69
374.061	356.69
374.287	368.69
374.513	367.69
374.739	372.69
374.965	377.69
375.191	353.69
375.416	345.69
375.642	356.69
375.868	372.69
376.094	354.69
376.319	358.69
376.545	353.69
376.771	359.69
376.997	369.69
377.222	359.69
377.448	354.69
377.674	355.69
377.899	362.69
378.125	364.69
378.35	361.69
378.576	331.69
378.802	352.69
379.027	335.69
379.253	370.69
379.478	355.69
379.704	362.69
379.929	348.69
380.155	374.69
380.38	380.69
380.606	369.69
380.831	370.69
381.057	375.69
381.282	344.69
381.507	366.69
381.733	360.69
381.958	348.69
382.184	372.69
382.409	369.69
382.634	367.69
382.86	365.69
383.085	373.69
383.31	379.69
383.535	370.69
383.761	380.69
383.986	383.69
384.211	370.69
384.436	387.69
384.662	341.69
384.887	350.69
385.112	375.69
385.337	394.69
385.562	372.69
385.787	353.69
386.013	384.69
386.238	396.69
386.463	364.69
386.688	398.69
386.913	367.69
387.138	380.69
387.363	373.69
387.588	352.69
387.813	386.69
388.038	354.69
388.263	367.69
388.488	360.69
388.713	374.69
388.938	380.69
389.163	387.69
389.387	376.69
389.612	380.69
389.837	375.69
390.062	377.69
390.287	373.69
390.512	385.69
390.736	378.69
390.961	372.69
391.186	377.69
391.411	378.69
391.636	369.69
391.86	366.69
392.085	369.69
392.31	371.69
392.534	384.69
392.759	370.69
392.984	384.69
393.208	391.69
393.433	385.69
393.658	396.69
393.882	388.69
394.107	377.69
394.331	378.69
394.556	375.69
394.78	351.69
395.005	388.69
395.229	366.69
395.454	361.69
395.678	368.69
395.903	394.69
396.127	434.69
396.352	416.69
396.576	400.69
396.801	394.69
397.025	387.69
397.249	377.69
397.474	402.69
397.698	400.69
397.922	420.69
398.147	433.69
398.371	422.69
398.595	422.69
398.82	396.69
399.044	406.69
399.268	401.69
399.492	447.69
399.717	453.69
399.941	452.69
400.165	508.69
400.389	546.69
400.613	469.69
400.837	449.69
401.062	478.69
401.286	410.69
401.51	429.69
401.734	415.69
401.958	442.69
402.182	448.69
402.406	432.69
402.63	447.69
402.854	432.69
403.078	451.69
403.302	426.69
403.526	447.69
403.75	458.69
403.974	458.69
404.198	446.69
404.422	455.69
404.645	463.69
404.869	493.69
405.093	521.69
405.317	560.69
405.541	592.69
405.765	553.69
405.988	504.69
406.212	529.69
406.436	518.69
406.66	522.69
406.883	509.69
407.107	497.69
407.331	547.69
407.555	622.69
407.778	615.69
408.002	546.69
408.226	515.69
408.449	505.69
408.673	488.69
408.896	533.69
409.12	553.69
409.344	550.69
409.567	451.69
409.791	462.69
410.014	460.69
410.238	450.69
410.461	451.69
410.685	454.69
410.908	482.69
411.132	495.69
411.355	534.69
411.578	512.69
411.802	473.69
412.025	440.69
412.249	461.69
412.472	518.69
412.695	568.69
412.919	578.69
413.142	521.69
413.365	506.69
413.589	477.69
413.812	484.69
414.035	455.69
414.258	445.69
414.482	424.69
414.705	447.69
414.928	442.69
415.151	433.69
415.374	410.69
415.597	413.69
415.821	415.69
416.044	432.69
416.267	430.69
416.49	428.69
416.713	421.69
416.936	434.69
417.159	421.69
417.382	432.69
417.605	454.69
417.828	463.69
418.051	437.69
418.274	437.69
418.497	426.69
418.72	419.69
418.943	437.69
419.166	431.69
419.389	450.69
419.611	472.69
419.834	481.69
420.057	475.69
420.28	479.69
420.503	479.69
420.726	510.69
420.948	496.69
421.171	523.69
421.394	547.69
421.617	505.69
421.839	454.69
422.062	479.69
422.285	474.69
422.507	544.69
422.73	570.69
422.953	573.69
423.175	480.69
423.398	478.69
423.621	455.69
423.843	496.69
424.066	513.69
424.288	497.69
424.511	516.69
424.733	573.69
424.956	646.69
425.178	620.69
425.401	603.69
425.623	638.69
425.846	534.69
426.068	494.69
426.291	491.69
426.513	486.69
426.735	499.69
426.958	554.69
427.18	615.69
427.402	742.69
427.625	834.69
427.847	762.69
428.069	681.69
428.292	592.69
428.514	528.69
428.736	518.69
428.958	482.69
429.181	475.69
429.403	444.69
429.625	493.69
429.847	507.69
430.069	564.69
430.292	576.69
430.514	505.69
430.736	461.69
430.958	451.69
431.18	451.69
431.402	432.69
431.624	432.69
431.846	434.69
432.068	422.69
432.29	436.69
432.512	430.69
432.734	452.69
432.956	443.69
433.178	464.69
433.4	454.69
433.622	423.69
433.844	432.69
434.066	411.69
434.287	430.69
434.509	426.69
434.731	437.69
434.953	409.69
435.175	467.69
435.397	506.69
435.618	527.69
435.84	533.69
436.062	618.69
436.284	701.69
436.505	597.69
436.727	543.69
436.949	483.69
437.17	487.69
437.392	463.69
437.614	491.69
437.835	526.69
438.057	632.69
438.278	720.69
438.5	729.69
438.721	789.69
438.943	730.69
439.165	590.69
439.386	530.69
439.608	530.69
439.829	505.69
440.05	564.69
440.272	586.69
440.493	592.69
440.715	493.69
440.936	458.69
441.158	471.69
441.379	462.69
441.6	464.69
441.822	509.69
442.043	538.69
442.264	613.69
442.486	651.69
442.707	552.69
442.928	515.69
443.149	517.69
443.371	567.69
443.592	590.69
443.813	673.69
444.034	704.69
444.255	611.69
444.476	544.69
444.698	524.69
444.919	502.69
445.14	573.69
445.361	550.69
445.582	547.69
445.803	604.69
446.024	689.69
446.245	728.69
446.466	645.69
446.687	554.69
446.908	513.69
447.129	467.69
447.35	459.69
447.571	496.69
447.792	446.69
448.013	498.69
448.234	483.69
448.455	530.69
448.675	654.69
448.896	779.69
449.117	636.69
449.338	605.69
449.559	715.69
449.779	778.69
450	658.69
450.221	525.69
450.442	503.69
450.662	474.69
450.883	475.69
451.104	486.69
451.324	473.69
451.545	450.69
451.766	423.69
451.986	418.69
452.207	434.69
452.428	422.69
452.648	420.69
452.869	416.69
453.089	440.69
453.31	446.69
453.53	432.69
453.751	411.69
453.971	444.69
454.192	448.69
454.412	440.69
454.633	430.69
454.853	393.69
455.073	404.69
455.294	461.69
455.514	501.69
455.734	501.69
455.955	426.69
456.175	393.69
456.395	366.69
456.616	378.69
456.836	383.69
457.056	392.69
457.276	375.69
457.497	381.69
457.717	416.69
457.937	378.69
458.157	403.69
458.377	398.69
458.598	429.69
458.818	496.69
459.038	577.69
459.258	577.69
459.478	506.69
459.698	441.69
459.918	416.69
460.138	416.69
460.358	422.69
460.578	405.69
460.798	427.69
461.018	416.69
461.238	415.69
461.458	432.69
461.678	386.69
461.898	418.69
462.118	417.69
462.338	428.69
462.558	413.69
462.777	446.69
462.997	427.69
463.217	439.69
463.437	430.69
463.657	419.69
463.876	446.69
464.096	421.69
464.316	444.69
464.536	460.69
464.755	443.69
464.975	435.69
465.195	508.69
465.414	602.69
465.634	510.69
465.854	464.69
466.073	453.69
466.293	441.69
466.512	423.69
466.732	414.69
466.951	411.69
467.171	416.69
467.391	418.69
467.61	448.69
467.829	434.69
468.049	458.69
468.268	481.69
468.488	451.69
468.707	444.69
468.927	415.69
469.146	424.69
469.365	398.69
469.585	412.69
469.804	417.69
470.023	424.69
470.243	411.69
470.462	446.69
470.681	474.69
470.901	457.69
471.12	448.69
471.339	420.69
471.558	433.69
471.777	447.69
471.997	443.69
472.216	478.69
472.435	588.69
472.654	562.69
472.873	485.69
473.092	440.69
473.311	439.69
473.53	456.69
473.749	452.69
473.968	514.69
474.187	600.69
474.406	623.69
474.625	516.69
474.844	469.69
475.063	440.69
475.282	449.69
475.501	446.69
475.72	452.69
475.939	448.69
476.158	441.69
476.377	440.69
476.596	439.69
476.814	449.69
477.033	485.69
477.252	474.69
477.471	466.69
477.69	441.69
477.908	482.69
478.127	469.69
478.346	456.69
478.564	459.69
478.783	487.69
479.002	498.69
479.22	489.69
479.439	508.69
479.658	533.69
479.876	521.69
480.095	514.69
480.313	558.69
480.532	546.69
480.751	544.69
480.969	608.69
481.188	791.69
481.406	954.69
481.624	727.69
481.843	620.69
482.061	596.69
482.28	559.69
482.498	553.69
482.717	558.69
482.935	540.69
483.153	517.69
483.372	531.69
483.59	536.69
483.808	526.69
484.027	522.69
484.245	510.69
484.463	515.69
484.681	540.69
484.9	533.69
485.118	536.69
485.336	534.69
485.554	545.69
485.772	558.69
485.99	577.69
486.209	527.69
486.427	522.69
486.645	544.69
486.863	573.69
487.081	581.69
487.299	586.69
487.517	578.69
487.735	552.69
487.953	567.69
488.171	582.69
488.389	582.69
488.607	568.69
488.825	556.69
489.043	554.69
489.261	565.69
489.479	570.69
489.696	589.69
489.914	598.69
490.132	596.69
490.35	607.69
490.568	601.69
490.786	625.69
491.003	624.69
491.221	641.69
491.439	661.69
491.657	668.69
491.874	673.69
492.092	696.69
492.31	684.69
492.527	695.69
492.745	696.69
492.963	679.69
493.18	681.69
493.398	679.69
493.615	705.69
493.833	694.69
494.05	697.69
494.268	690.69
494.485	677.69
494.703	690.69
494.92	680.69
495.138	688.69
495.355	690.69
495.573	689.69
495.79	685.69
496.008	686.69
496.225	667.69
496.442	669.69
496.66	684.69
496.877	671.69
497.094	661.69
497.312	684.69
497.529	668.69
497.746	697.69
497.963	706.69
498.181	712.69
498.398	726.69
498.615	713.69
498.832	706.69
499.049	721.69
499.267	695.69
499.484	728.69
499.701	748.69
499.918	754.69
500.135	769.69
500.352	801.69
500.569	815.69
500.786	826.69
501.003	809.69
501.22	807.69
501.437	799.69
501.654	814.69
501.871	782.69
