Data from 1986.PennyLincolnUp.Lamp.En5.5.200Scan.071819.P2_HRD10591_17-10-33-974.txt Node
Date: Thu Jul 18 17:10:33 EDT 2019
User: cochatt
Spectrometer: HR+D1059
Trigger mode: 1
Integration Time (sec): 1.000000E-1
Scans to average: 1
Electric dark correction enabled: true
Nonlinearity correction enabled: false
Boxcar width: 0
XAxis mode: Wavelengths
Number of Pixels in Spectrum: 2048
>>>>>Begin Spectral Data<<<<<
223.165	-9.94
223.4	-9.94
223.635	-9.94
223.869	-10.94
224.104	-16.94
224.338	-8.94
224.573	4.06
224.808	-22.94
225.042	-15.94
225.277	-15.94
225.511	-4.94
225.746	3.06
225.98	11.06
226.215	12.06
226.449	14.06
226.683	31.06
226.918	22.06
227.152	9.06
227.387	28.06
227.621	35.06
227.856	48.06
228.09	50.06
228.324	47.06
228.559	62.06
228.793	74.06
229.027	93.06
229.262	106.06
229.496	113.06
229.73	134.06
229.964	175.06
230.199	134.06
230.433	99.06
230.667	106.06
230.901	118.06
231.136	108.06
231.37	101.06
231.604	110.06
231.838	103.06
232.072	108.06
232.306	109.06
232.541	110.06
232.775	98.06
233.009	99.06
233.243	115.06
233.477	102.06
233.711	123.06
233.945	111.06
234.179	112.06
234.413	130.06
234.647	114.06
234.881	126.06
235.115	103.06
235.349	115.06
235.583	114.06
235.817	114.06
236.051	119.06
236.285	131.06
236.519	137.06
236.753	119.06
236.987	149.06
237.221	179.06
237.455	225.06
237.689	197.06
237.922	144.06
238.156	135.06
238.39	124.06
238.624	124.06
238.858	121.06
239.091	131.06
239.325	135.06
239.559	133.06
239.793	125.06
240.027	146.06
240.26	140.06
240.494	149.06
240.728	151.06
240.961	164.06
241.195	145.06
241.429	148.06
241.662	131.06
241.896	133.06
242.13	135.06
242.363	137.06
242.597	136.06
242.83	137.06
243.064	151.06
243.298	129.06
243.531	142.06
243.765	111.06
243.998	142.06
244.232	132.06
244.465	130.06
244.699	140.06
244.932	144.06
245.166	135.06
245.399	137.06
245.633	135.06
245.866	154.06
246.099	144.06
246.333	146.06
246.566	134.06
246.8	156.06
247.033	153.06
247.266	146.06
247.5	166.06
247.733	167.06
247.966	168.06
248.2	172.06
248.433	190.06
248.666	170.06
248.899	179.06
249.133	213.06
249.366	218.06
249.599	204.06
249.832	194.06
250.066	181.06
250.299	177.06
250.532	192.06
250.765	214.06
250.998	221.06
251.231	227.06
251.465	215.06
251.698	219.06
251.931	209.06
252.164	213.06
252.397	193.06
252.63	229.06
252.863	213.06
253.096	217.06
253.329	224.06
253.562	225.06
253.795	224.06
254.028	219.06
254.261	228.06
254.494	242.06
254.727	261.06
254.96	289.06
255.193	296.06
255.426	266.06
255.659	239.06
255.892	252.06
256.124	222.06
256.357	249.06
256.59	230.06
256.823	219.06
257.056	214.06
257.289	211.06
257.521	211.06
257.754	216.06
257.987	210.06
258.22	206.06
258.452	196.06
258.685	217.06
258.918	221.06
259.151	214.06
259.383	206.06
259.616	236.06
259.849	229.06
260.081	241.06
260.314	270.06
260.547	275.06
260.779	249.06
261.012	245.06
261.244	242.06
261.477	239.06
261.71	219.06
261.942	224.06
262.175	234.06
262.407	226.06
262.64	222.06
262.872	216.06
263.105	199.06
263.337	215.06
263.57	213.06
263.802	205.06
264.035	204.06
264.267	191.06
264.499	198.06
264.732	202.06
264.964	211.06
265.197	215.06
265.429	215.06
265.661	202.06
265.894	214.06
266.126	200.06
266.358	211.06
266.591	217.06
266.823	232.06
267.055	236.06
267.287	210.06
267.52	215.06
267.752	211.06
267.984	226.06
268.216	212.06
268.448	207.06
268.681	216.06
268.913	223.06
269.145	266.06
269.377	270.06
269.609	254.06
269.841	278.06
270.073	278.06
270.306	305.06
270.538	308.06
270.77	317.06
271.002	302.06
271.234	297.06
271.466	313.06
271.698	318.06
271.93	324.06
272.162	311.06
272.394	330.06
272.626	318.06
272.858	287.06
273.09	265.06
273.322	259.06
273.553	271.06
273.785	273.06
274.017	277.06
274.249	261.06
274.481	262.06
274.713	256.06
274.945	258.06
275.176	264.06
275.408	265.06
275.64	256.06
275.872	242.06
276.104	261.06
276.335	245.06
276.567	270.06
276.799	291.06
277.031	302.06
277.262	313.06
277.494	297.06
277.726	289.06
277.957	283.06
278.189	287.06
278.421	247.06
278.652	249.06
278.884	261.06
279.115	268.06
279.347	246.06
279.579	268.06
279.81	262.06
280.042	269.06
280.273	253.06
280.505	255.06
280.736	247.06
280.968	251.06
281.199	249.06
281.431	259.06
281.662	236.06
281.894	257.06
282.125	266.06
282.356	281.06
282.588	299.06
282.819	288.06
283.051	265.06
283.282	236.06
283.513	249.06
283.745	246.06
283.976	262.06
284.207	255.06
284.439	260.06
284.67	261.06
284.901	252.06
285.132	252.06
285.364	247.06
285.595	244.06
285.826	242.06
286.057	258.06
286.288	270.06
286.52	244.06
286.751	266.06
286.982	255.06
287.213	267.06
287.444	275.06
287.675	260.06
287.906	274.06
288.138	261.06
288.369	275.06
288.6	292.06
288.831	297.06
289.062	278.06
289.293	267.06
289.524	254.06
289.755	277.06
289.986	258.06
290.217	256.06
290.448	264.06
290.679	270.06
290.91	257.06
291.141	274.06
291.371	263.06
291.602	249.06
291.833	255.06
292.064	267.06
292.295	264.06
292.526	257.06
292.757	261.06
292.987	246.06
293.218	260.06
293.449	265.06
293.68	271.06
293.91	264.06
294.141	256.06
294.372	264.06
294.603	268.06
294.833	246.06
295.064	255.06
295.295	262.06
295.525	246.06
295.756	256.06
295.987	291.06
296.217	317.06
296.448	311.06
296.679	282.06
296.909	265.06
297.14	277.06
297.37	267.06
297.601	270.06
297.831	268.06
298.062	272.06
298.292	270.06
298.523	277.06
298.753	259.06
298.984	273.06
299.214	275.06
299.445	279.06
299.675	269.06
299.905	278.06
300.136	278.06
300.366	268.06
300.597	275.06
300.827	289.06
301.057	302.06
301.288	297.06
301.518	290.06
301.748	294.06
301.979	292.06
302.209	316.06
302.439	281.06
302.669	301.06
302.9	281.06
303.13	281.06
303.36	295.06
303.59	290.06
303.82	311.06
304.051	341.06
304.281	286.06
304.511	297.06
304.741	285.06
304.971	284.06
305.201	305.06
305.431	280.06
305.661	293.06
305.891	291.06
306.121	292.06
306.352	307.06
306.582	320.06
306.812	295.06
307.042	293.06
307.272	295.06
307.502	294.06
307.731	282.06
307.961	280.06
308.191	303.06
308.421	295.06
308.651	304.06
308.881	295.06
309.111	322.06
309.341	316.06
309.571	340.06
309.8	334.06
310.03	334.06
310.26	342.06
310.49	352.06
310.72	365.06
310.949	392.06
311.179	381.06
311.409	369.06
311.639	351.06
311.868	339.06
312.098	341.06
312.328	346.06
312.557	359.06
312.787	381.06
313.017	395.06
313.246	375.06
313.476	354.06
313.706	356.06
313.935	355.06
314.165	377.06
314.394	390.06
314.624	360.06
314.853	374.06
315.083	359.06
315.312	345.06
315.542	361.06
315.771	348.06
316.001	342.06
316.23	362.06
316.46	322.06
316.689	359.06
316.919	338.06
317.148	370.06
317.377	361.06
317.607	365.06
317.836	338.06
318.065	354.06
318.295	339.06
318.524	343.06
318.753	333.06
318.983	342.06
319.212	358.06
319.441	348.06
319.67	354.06
319.9	360.06
320.129	364.06
320.358	340.06
320.587	365.06
320.816	369.06
321.046	367.06
321.275	383.06
321.504	386.06
321.733	401.06
321.962	392.06
322.191	389.06
322.42	422.06
322.649	421.06
322.878	435.06
323.108	456.06
323.337	484.06
323.566	507.06
323.795	552.06
324.024	621.06
324.253	753.06
324.482	1069.06
324.71	1599.06
324.939	2261.06
325.168	2003.06
325.397	1051.06
325.626	699.06
325.855	570.06
326.084	525.06
326.313	493.06
326.542	524.06
326.77	573.06
326.999	669.06
327.228	917.06
327.457	1405.06
327.686	1699.06
327.914	1171.06
328.143	775.06
328.372	669.06
328.6	585.06
328.829	575.06
329.058	589.06
329.287	601.06
329.515	570.06
329.744	505.06
329.972	519.06
330.201	534.06
330.43	556.06
330.658	622.06
330.887	633.06
331.115	609.06
331.344	509.06
331.572	474.06
331.801	463.06
332.03	473.06
332.258	434.06
332.486	430.06
332.715	401.06
332.943	413.06
333.172	390.06
333.4	417.06
333.629	431.06
333.857	445.06
334.085	434.06
334.314	450.06
334.542	465.06
334.771	495.06
334.999	435.06
335.227	416.06
335.455	426.06
335.684	400.06
335.912	412.06
336.14	402.06
336.369	396.06
336.597	391.06
336.825	408.06
337.053	404.06
337.281	385.06
337.51	392.06
337.738	388.06
337.966	393.06
338.194	392.06
338.422	397.06
338.65	390.06
338.878	380.06
339.106	371.06
339.334	386.06
339.562	369.06
339.79	385.06
340.018	391.06
340.246	399.06
340.474	397.06
340.702	390.06
340.93	391.06
341.158	374.06
341.386	371.06
341.614	380.06
341.842	386.06
342.07	341.06
342.298	373.06
342.526	374.06
342.754	370.06
342.981	364.06
343.209	367.06
343.437	376.06
343.665	365.06
343.893	361.06
344.12	365.06
344.348	375.06
344.576	387.06
344.804	392.06
345.031	402.06
345.259	433.06
345.487	389.06
345.714	394.06
345.942	389.06
346.17	383.06
346.397	377.06
346.625	358.06
346.853	380.06
347.08	387.06
347.308	388.06
347.535	391.06
347.763	395.06
347.99	383.06
348.218	381.06
348.445	396.06
348.673	394.06
348.9	383.06
349.128	369.06
349.355	367.06
349.583	354.06
349.81	375.06
350.037	363.06
350.265	367.06
350.492	346.06
350.72	369.06
350.947	361.06
351.174	381.06
351.402	394.06
351.629	375.06
351.856	390.06
352.083	396.06
352.311	391.06
352.538	395.06
352.765	420.06
352.992	381.06
353.22	380.06
353.447	373.06
353.674	377.06
353.901	346.06
354.128	361.06
354.355	343.06
354.583	362.06
354.81	327.06
355.037	346.06
355.264	340.06
355.491	350.06
355.718	343.06
355.945	342.06
356.172	333.06
356.399	319.06
356.626	333.06
356.853	342.06
357.08	329.06
357.307	323.06
357.534	318.06
357.761	340.06
357.988	334.06
358.215	340.06
358.441	341.06
358.668	335.06
358.895	340.06
359.122	349.06
359.349	358.06
359.576	383.06
359.802	390.06
360.029	412.06
360.256	456.06
360.483	407.06
360.709	366.06
360.936	385.06
361.163	374.06
361.39	344.06
361.616	369.06
361.843	350.06
362.07	377.06
362.296	369.06
362.523	359.06
362.749	352.06
362.976	360.06
363.203	356.06
363.429	347.06
363.656	356.06
363.882	334.06
364.109	350.06
364.335	348.06
364.562	338.06
364.788	355.06
365.015	339.06
365.241	346.06
365.468	362.06
365.694	374.06
365.92	373.06
366.147	363.06
366.373	340.06
366.599	341.06
366.826	327.06
367.052	340.06
367.278	345.06
367.505	357.06
367.731	348.06
367.957	342.06
368.184	353.06
368.41	362.06
368.636	350.06
368.862	363.06
369.089	342.06
369.315	333.06
369.541	358.06
369.767	344.06
369.993	336.06
370.219	340.06
370.445	358.06
370.672	334.06
370.898	325.06
371.124	351.06
371.35	336.06
371.576	347.06
371.802	347.06
372.028	333.06
372.254	351.06
372.48	329.06
372.706	333.06
372.932	352.06
373.158	341.06
373.384	334.06
373.61	327.06
373.835	335.06
374.061	371.06
374.287	321.06
374.513	340.06
374.739	360.06
374.965	338.06
375.191	354.06
375.416	341.06
375.642	333.06
375.868	338.06
376.094	348.06
376.319	334.06
376.545	324.06
376.771	350.06
376.997	345.06
377.222	343.06
377.448	344.06
377.674	321.06
377.899	319.06
378.125	321.06
378.35	317.06
378.576	315.06
378.802	323.06
379.027	321.06
379.253	327.06
379.478	329.06
379.704	333.06
379.929	328.06
380.155	332.06
380.38	333.06
380.606	319.06
380.831	334.06
381.057	327.06
381.282	333.06
381.507	363.06
381.733	335.06
381.958	326.06
382.184	324.06
382.409	337.06
382.634	345.06
382.86	350.06
383.085	347.06
383.31	334.06
383.535	347.06
383.761	338.06
383.986	333.06
384.211	339.06
384.436	343.06
384.662	345.06
384.887	345.06
385.112	345.06
385.337	341.06
385.562	360.06
385.787	362.06
386.013	366.06
386.238	362.06
386.463	372.06
386.688	363.06
386.913	334.06
387.138	339.06
387.363	366.06
387.588	359.06
387.813	363.06
388.038	357.06
388.263	377.06
388.488	353.06
388.713	354.06
388.938	344.06
389.163	359.06
389.387	365.06
389.612	347.06
389.837	355.06
390.062	364.06
390.287	357.06
390.512	342.06
390.736	343.06
390.961	370.06
391.186	354.06
391.411	369.06
391.636	366.06
391.86	337.06
392.085	355.06
392.31	369.06
392.534	347.06
392.759	375.06
392.984	349.06
393.208	359.06
393.433	355.06
393.658	339.06
393.882	340.06
394.107	338.06
394.331	346.06
394.556	345.06
394.78	337.06
395.005	349.06
395.229	338.06
395.454	368.06
395.678	381.06
395.903	336.06
396.127	384.06
396.352	381.06
396.576	375.06
396.801	370.06
397.025	363.06
397.249	372.06
397.474	381.06
397.698	365.06
397.922	377.06
398.147	387.06
398.371	392.06
398.595	393.06
398.82	373.06
399.044	389.06
399.268	388.06
399.492	400.06
399.717	426.06
399.941	451.06
400.165	468.06
400.389	486.06
400.613	453.06
400.837	400.06
401.062	407.06
401.286	414.06
401.51	382.06
401.734	406.06
401.958	403.06
402.182	388.06
402.406	436.06
402.63	415.06
402.854	399.06
403.078	417.06
403.302	410.06
403.526	405.06
403.75	404.06
403.974	397.06
404.198	422.06
404.422	399.06
404.645	430.06
404.869	408.06
405.093	422.06
405.317	469.06
405.541	511.06
405.765	473.06
405.988	444.06
406.212	450.06
406.436	469.06
406.66	483.06
406.883	453.06
407.107	480.06
407.331	516.06
407.555	571.06
407.778	554.06
408.002	484.06
408.226	463.06
408.449	488.06
408.673	467.06
408.896	476.06
409.12	519.06
409.344	510.06
409.567	438.06
409.791	447.06
410.014	395.06
410.238	414.06
410.461	402.06
410.685	425.06
410.908	438.06
411.132	471.06
411.355	514.06
411.578	471.06
411.802	457.06
412.025	417.06
412.249	404.06
412.472	422.06
412.695	476.06
412.919	456.06
413.142	422.06
413.365	420.06
413.589	402.06
413.812	403.06
414.035	392.06
414.258	409.06
414.482	388.06
414.705	388.06
414.928	379.06
415.151	388.06
415.374	383.06
415.597	383.06
415.821	378.06
416.044	385.06
416.267	395.06
416.49	381.06
416.713	388.06
416.936	400.06
417.159	395.06
417.382	397.06
417.605	399.06
417.828	384.06
418.051	434.06
418.274	409.06
418.497	391.06
418.72	385.06
418.943	418.06
419.166	405.06
419.389	405.06
419.611	429.06
419.834	418.06
420.057	421.06
420.28	413.06
420.503	417.06
420.726	418.06
420.948	420.06
421.171	470.06
421.394	499.06
421.617	460.06
421.839	427.06
422.062	438.06
422.285	455.06
422.507	494.06
422.73	562.06
422.953	545.06
423.175	482.06
423.398	437.06
423.621	451.06
423.843	450.06
424.066	464.06
424.288	471.06
424.511	487.06
424.733	540.06
424.956	604.06
425.178	595.06
425.401	591.06
425.623	586.06
425.846	505.06
426.068	454.06
426.291	473.06
426.513	457.06
426.735	477.06
426.958	509.06
427.18	595.06
427.402	691.06
427.625	779.06
427.847	705.06
428.069	626.06
428.292	531.06
428.514	508.06
428.736	435.06
428.958	415.06
429.181	439.06
429.403	427.06
429.625	442.06
429.847	478.06
430.069	535.06
430.292	527.06
430.514	457.06
430.736	433.06
430.958	421.06
431.18	415.06
431.402	413.06
431.624	418.06
431.846	403.06
432.068	405.06
432.29	373.06
432.512	399.06
432.734	408.06
432.956	399.06
433.178	412.06
433.4	417.06
433.622	398.06
433.844	412.06
434.066	411.06
434.287	392.06
434.509	407.06
434.731	406.06
434.953	423.06
435.175	456.06
435.397	461.06
435.618	482.06
435.84	516.06
436.062	589.06
436.284	643.06
436.505	553.06
436.727	483.06
436.949	478.06
437.17	453.06
437.392	442.06
437.614	431.06
437.835	469.06
438.057	568.06
438.278	655.06
438.5	653.06
438.721	715.06
438.943	706.06
439.165	563.06
439.386	500.06
439.608	492.06
439.829	501.06
440.05	521.06
440.272	552.06
440.493	521.06
440.715	455.06
440.936	444.06
441.158	436.06
441.379	452.06
441.6	460.06
441.822	458.06
442.043	511.06
442.264	601.06
442.486	621.06
442.707	541.06
442.928	509.06
443.149	519.06
443.371	543.06
443.592	547.06
443.813	642.06
444.034	698.06
444.255	569.06
444.476	489.06
444.698	480.06
444.919	456.06
445.14	537.06
445.361	505.06
445.582	501.06
445.803	563.06
446.024	667.06
446.245	666.06
446.466	619.06
446.687	532.06
446.908	515.06
447.129	455.06
447.35	430.06
447.571	425.06
447.792	440.06
448.013	414.06
448.234	456.06
448.455	497.06
448.675	615.06
448.896	683.06
449.117	595.06
449.338	578.06
449.559	650.06
449.779	726.06
450	607.06
450.221	514.06
450.442	482.06
450.662	449.06
450.883	452.06
451.104	460.06
451.324	437.06
451.545	417.06
451.766	389.06
451.986	394.06
452.207	386.06
452.428	403.06
452.648	397.06
452.869	402.06
453.089	407.06
453.31	418.06
453.53	411.06
453.751	411.06
453.971	412.06
454.192	419.06
454.412	411.06
454.633	407.06
454.853	388.06
455.073	402.06
455.294	449.06
455.514	502.06
455.734	485.06
455.955	414.06
456.175	370.06
456.395	365.06
456.616	364.06
456.836	357.06
457.056	340.06
457.276	346.06
457.497	367.06
457.717	362.06
457.937	358.06
458.157	389.06
458.377	380.06
458.598	386.06
458.818	454.06
459.038	550.06
459.258	565.06
459.478	469.06
459.698	424.06
459.918	399.06
460.138	390.06
460.358	393.06
460.578	391.06
460.798	404.06
461.018	406.06
461.238	382.06
461.458	394.06
461.678	380.06
461.898	373.06
462.118	402.06
462.338	389.06
462.558	392.06
462.777	385.06
462.997	402.06
463.217	393.06
463.437	421.06
463.657	416.06
463.876	386.06
464.096	399.06
464.316	396.06
464.536	419.06
464.755	424.06
464.975	431.06
465.195	482.06
465.414	579.06
465.634	499.06
465.854	442.06
466.073	416.06
466.293	395.06
466.512	403.06
466.732	400.06
466.951	400.06
467.171	407.06
467.391	389.06
467.61	400.06
467.829	420.06
468.049	408.06
468.268	391.06
468.488	397.06
468.707	393.06
468.927	381.06
469.146	369.06
469.365	388.06
469.585	382.06
469.804	389.06
470.023	422.06
470.243	408.06
470.462	410.06
470.681	414.06
470.901	427.06
471.12	414.06
471.339	394.06
471.558	402.06
471.777	408.06
471.997	392.06
472.216	393.06
472.435	415.06
472.654	401.06
472.873	390.06
473.092	403.06
473.311	382.06
473.53	407.06
473.749	411.06
473.968	444.06
474.187	563.06
474.406	565.06
474.625	472.06
474.844	406.06
475.063	410.06
475.282	393.06
475.501	392.06
475.72	399.06
475.939	403.06
476.158	404.06
476.377	419.06
476.596	404.06
476.814	399.06
477.033	419.06
477.252	415.06
477.471	403.06
477.69	437.06
477.908	413.06
478.127	416.06
478.346	401.06
478.564	423.06
478.783	433.06
479.002	441.06
479.22	433.06
479.439	452.06
479.658	489.06
479.876	471.06
480.095	482.06
480.313	507.06
480.532	500.06
480.751	479.06
480.969	501.06
481.188	556.06
481.406	593.06
481.624	525.06
481.843	490.06
482.061	477.06
482.28	479.06
482.498	467.06
482.717	470.06
482.935	478.06
483.153	473.06
483.372	458.06
483.59	482.06
483.808	459.06
484.027	470.06
484.245	482.06
484.463	467.06
484.681	474.06
484.9	460.06
485.118	474.06
485.336	486.06
485.554	492.06
485.772	461.06
485.99	469.06
486.209	512.06
486.427	492.06
486.645	507.06
486.863	531.06
487.081	525.06
487.299	503.06
487.517	501.06
487.735	518.06
487.953	499.06
488.171	495.06
488.389	508.06
488.607	512.06
488.825	519.06
489.043	521.06
489.261	523.06
489.479	536.06
489.696	514.06
489.914	517.06
490.132	509.06
490.35	521.06
490.568	527.06
490.786	549.06
491.003	556.06
491.221	573.06
491.439	577.06
491.657	588.06
491.874	581.06
492.092	587.06
492.31	573.06
492.527	598.06
492.745	595.06
492.963	603.06
493.18	603.06
493.398	621.06
493.615	611.06
493.833	622.06
494.05	595.06
494.268	605.06
494.485	612.06
494.703	621.06
494.92	608.06
495.138	608.06
495.355	621.06
495.573	608.06
495.79	604.06
496.008	603.06
496.225	637.06
496.442	629.06
496.66	620.06
496.877	630.06
497.094	631.06
497.312	637.06
497.529	635.06
497.746	629.06
497.963	636.06
498.181	644.06
498.398	646.06
498.615	647.06
498.832	642.06
499.049	643.06
499.267	634.06
499.484	653.06
499.701	675.06
499.918	692.06
500.135	721.06
500.352	745.06
500.569	737.06
500.786	761.06
501.003	727.06
501.22	729.06
501.437	727.06
501.654	727.06
501.871	725.06
502.088	717.06
