Data from 1986.PennyLincolnUp.Lamp.En5.5.200Scan.071819.P2_HRD10591_17-11-21-974.txt Node
Date: Thu Jul 18 17:11:21 EDT 2019
User: cochatt
Spectrometer: HR+D1059
Trigger mode: 1
Integration Time (sec): 1.000000E-1
Scans to average: 1
Electric dark correction enabled: true
Nonlinearity correction enabled: false
Boxcar width: 0
XAxis mode: Wavelengths
Number of Pixels in Spectrum: 2048
>>>>>Begin Spectral Data<<<<<
223.165	-21.19
223.4	-21.19
223.635	-21.19
223.869	-26.19
224.104	-21.19
224.338	-25.19
224.573	-10.19
224.808	0.81
225.042	-3.19
225.277	-1.19
225.511	-0.19
225.746	3.81
225.98	11.81
226.215	9.81
226.449	15.81
226.683	16.81
226.918	16.81
227.152	32.81
227.387	37.81
227.621	34.81
227.856	36.81
228.09	37.81
228.324	53.81
228.559	72.81
228.793	65.81
229.027	99.81
229.262	106.81
229.496	112.81
229.73	132.81
229.964	160.81
230.199	133.81
230.433	125.81
230.667	120.81
230.901	108.81
231.136	111.81
231.37	95.81
231.604	122.81
231.838	108.81
232.072	111.81
232.306	111.81
232.541	119.81
232.775	109.81
233.009	119.81
233.243	112.81
233.477	109.81
233.711	106.81
233.945	125.81
234.179	108.81
234.413	118.81
234.647	122.81
234.881	108.81
235.115	115.81
235.349	109.81
235.583	111.81
235.817	115.81
236.051	121.81
236.285	104.81
236.519	129.81
236.753	129.81
236.987	151.81
237.221	187.81
237.455	256.81
237.689	195.81
237.922	147.81
238.156	139.81
238.39	140.81
238.624	136.81
238.858	133.81
239.091	122.81
239.325	115.81
239.559	130.81
239.793	126.81
240.027	140.81
240.26	151.81
240.494	166.81
240.728	147.81
240.961	140.81
241.195	156.81
241.429	129.81
241.662	139.81
241.896	141.81
242.13	136.81
242.363	124.81
242.597	129.81
242.83	143.81
243.064	136.81
243.298	144.81
243.531	132.81
243.765	153.81
243.998	133.81
244.232	125.81
244.465	135.81
244.699	147.81
244.932	127.81
245.166	153.81
245.399	162.81
245.633	148.81
245.866	146.81
246.099	146.81
246.333	175.81
246.566	137.81
246.8	150.81
247.033	137.81
247.266	155.81
247.5	162.81
247.733	153.81
247.966	189.81
248.2	177.81
248.433	186.81
248.666	172.81
248.899	191.81
249.133	200.81
249.366	213.81
249.599	207.81
249.832	187.81
250.066	204.81
250.299	212.81
250.532	199.81
250.765	221.81
250.998	247.81
251.231	255.81
251.465	259.81
251.698	231.81
251.931	217.81
252.164	215.81
252.397	220.81
252.63	193.81
252.863	221.81
253.096	232.81
253.329	255.81
253.562	234.81
253.795	241.81
254.028	236.81
254.261	217.81
254.494	232.81
254.727	281.81
254.96	294.81
255.193	287.81
255.426	273.81
255.659	271.81
255.892	266.81
256.124	303.81
256.357	277.81
256.59	279.81
256.823	249.81
257.056	243.81
257.289	236.81
257.521	239.81
257.754	231.81
257.987	219.81
258.22	226.81
258.452	223.81
258.685	233.81
258.918	220.81
259.151	220.81
259.383	235.81
259.616	227.81
259.849	242.81
260.081	254.81
260.314	260.81
260.547	279.81
260.779	260.81
261.012	253.81
261.244	223.81
261.477	241.81
261.71	215.81
261.942	255.81
262.175	261.81
262.407	235.81
262.64	225.81
262.872	231.81
263.105	201.81
263.337	226.81
263.57	211.81
263.802	212.81
264.035	211.81
264.267	220.81
264.499	209.81
264.732	212.81
264.964	228.81
265.197	213.81
265.429	215.81
265.661	199.81
265.894	211.81
266.126	224.81
266.358	219.81
266.591	226.81
266.823	225.81
267.055	211.81
267.287	236.81
267.52	216.81
267.752	240.81
267.984	229.81
268.216	227.81
268.448	228.81
268.681	231.81
268.913	241.81
269.145	248.81
269.377	281.81
269.609	268.81
269.841	290.81
270.073	271.81
270.306	293.81
270.538	317.81
270.77	327.81
271.002	342.81
271.234	286.81
271.466	324.81
271.698	324.81
271.93	337.81
272.162	343.81
272.394	317.81
272.626	327.81
272.858	287.81
273.09	298.81
273.322	273.81
273.553	298.81
273.785	277.81
274.017	284.81
274.249	272.81
274.481	270.81
274.713	280.81
274.945	281.81
275.176	252.81
275.408	264.81
275.64	267.81
275.872	258.81
276.104	268.81
276.335	266.81
276.567	283.81
276.799	277.81
277.031	319.81
277.262	326.81
277.494	338.81
277.726	305.81
277.957	292.81
278.189	273.81
278.421	251.81
278.652	282.81
278.884	269.81
279.115	276.81
279.347	267.81
279.579	248.81
279.81	259.81
280.042	267.81
280.273	271.81
280.505	266.81
280.736	275.81
280.968	263.81
281.199	264.81
281.431	255.81
281.662	271.81
281.894	261.81
282.125	287.81
282.356	280.81
282.588	303.81
282.819	310.81
283.051	278.81
283.282	280.81
283.513	259.81
283.745	261.81
283.976	293.81
284.207	278.81
284.439	268.81
284.67	293.81
284.901	274.81
285.132	275.81
285.364	261.81
285.595	276.81
285.826	265.81
286.057	260.81
286.288	270.81
286.52	281.81
286.751	276.81
286.982	250.81
287.213	262.81
287.444	260.81
287.675	284.81
287.906	278.81
288.138	291.81
288.369	287.81
288.6	292.81
288.831	300.81
289.062	279.81
289.293	269.81
289.524	273.81
289.755	277.81
289.986	280.81
290.217	273.81
290.448	273.81
290.679	282.81
290.91	270.81
291.141	281.81
291.371	291.81
291.602	287.81
291.833	260.81
292.064	279.81
292.295	261.81
292.526	267.81
292.757	256.81
292.987	278.81
293.218	283.81
293.449	285.81
293.68	266.81
293.91	289.81
294.141	273.81
294.372	260.81
294.603	284.81
294.833	271.81
295.064	267.81
295.295	271.81
295.525	280.81
295.756	300.81
295.987	297.81
296.217	333.81
296.448	330.81
296.679	297.81
296.909	277.81
297.14	305.81
297.37	279.81
297.601	293.81
297.831	280.81
298.062	282.81
298.292	288.81
298.523	266.81
298.753	280.81
298.984	280.81
299.214	294.81
299.445	290.81
299.675	301.81
299.905	304.81
300.136	290.81
300.366	289.81
300.597	277.81
300.827	313.81
301.057	304.81
301.288	306.81
301.518	324.81
301.748	321.81
301.979	299.81
302.209	311.81
302.439	335.81
302.669	306.81
302.9	314.81
303.13	323.81
303.36	319.81
303.59	313.81
303.82	322.81
304.051	319.81
304.281	320.81
304.511	295.81
304.741	292.81
304.971	293.81
305.201	315.81
305.431	307.81
305.661	301.81
305.891	294.81
306.121	327.81
306.352	336.81
306.582	314.81
306.812	339.81
307.042	320.81
307.272	329.81
307.502	323.81
307.731	319.81
307.961	324.81
308.191	316.81
308.421	322.81
308.651	319.81
308.881	344.81
309.111	325.81
309.341	337.81
309.571	339.81
309.8	345.81
310.03	378.81
310.26	361.81
310.49	367.81
310.72	391.81
310.949	385.81
311.179	402.81
311.409	372.81
311.639	380.81
311.868	359.81
312.098	374.81
312.328	369.81
312.557	401.81
312.787	415.81
313.017	404.81
313.246	387.81
313.476	379.81
313.706	362.81
313.935	363.81
314.165	405.81
314.394	405.81
314.624	408.81
314.853	387.81
315.083	351.81
315.312	367.81
315.542	353.81
315.771	363.81
316.001	344.81
316.23	351.81
316.46	373.81
316.689	383.81
316.919	372.81
317.148	378.81
317.377	376.81
317.607	389.81
317.836	368.81
318.065	356.81
318.295	364.81
318.524	365.81
318.753	373.81
318.983	359.81
319.212	391.81
319.441	363.81
319.67	381.81
319.9	373.81
320.129	361.81
320.358	387.81
320.587	389.81
320.816	375.81
321.046	396.81
321.275	391.81
321.504	396.81
321.733	408.81
321.962	413.81
322.191	412.81
322.42	415.81
322.649	446.81
322.878	472.81
323.108	499.81
323.337	509.81
323.566	528.81
323.795	563.81
324.024	649.81
324.253	795.81
324.482	1116.81
324.71	1695.81
324.939	2415.81
325.168	2166.81
325.397	1153.81
325.626	771.81
325.855	620.81
326.084	563.81
326.313	551.81
326.542	549.81
326.77	584.81
326.999	697.81
327.228	981.81
327.457	1493.81
327.686	1867.81
327.914	1295.81
328.143	835.81
328.372	720.81
328.6	701.81
328.829	635.81
329.058	636.81
329.287	666.81
329.515	631.81
329.744	573.81
329.972	583.81
330.201	636.81
330.43	709.81
330.658	719.81
330.887	705.81
331.115	687.81
331.344	581.81
331.572	544.81
331.801	504.81
332.03	509.81
332.258	503.81
332.486	461.81
332.715	449.81
332.943	444.81
333.172	459.81
333.4	451.81
333.629	472.81
333.857	482.81
334.085	516.81
334.314	567.81
334.542	651.81
334.771	707.81
334.999	583.81
335.227	509.81
335.455	451.81
335.684	434.81
335.912	436.81
336.14	420.81
336.369	435.81
336.597	439.81
336.825	465.81
337.053	439.81
337.281	408.81
337.51	422.81
337.738	432.81
337.966	437.81
338.194	441.81
338.422	447.81
338.65	435.81
338.878	422.81
339.106	433.81
339.334	411.81
339.562	401.81
339.79	394.81
340.018	403.81
340.246	405.81
340.474	395.81
340.702	395.81
340.93	414.81
341.158	408.81
341.386	407.81
341.614	398.81
341.842	405.81
342.07	427.81
342.298	421.81
342.526	393.81
342.754	380.81
342.981	391.81
343.209	385.81
343.437	397.81
343.665	383.81
343.893	394.81
344.12	401.81
344.348	387.81
344.576	408.81
344.804	417.81
345.031	402.81
345.259	420.81
345.487	415.81
345.714	404.81
345.942	407.81
346.17	391.81
346.397	408.81
346.625	404.81
346.853	397.81
347.08	404.81
347.308	401.81
347.535	425.81
347.763	407.81
347.99	419.81
348.218	416.81
348.445	421.81
348.673	403.81
348.9	400.81
349.128	381.81
349.355	382.81
349.583	382.81
349.81	389.81
350.037	386.81
350.265	384.81
350.492	404.81
350.72	390.81
350.947	370.81
351.174	420.81
351.402	415.81
351.629	421.81
351.856	386.81
352.083	410.81
352.311	443.81
352.538	418.81
352.765	421.81
352.992	426.81
353.22	412.81
353.447	379.81
353.674	396.81
353.901	385.81
354.128	347.81
354.355	361.81
354.583	395.81
354.81	375.81
355.037	373.81
355.264	367.81
355.491	371.81
355.718	346.81
355.945	352.81
356.172	344.81
356.399	370.81
356.626	373.81
356.853	333.81
357.08	354.81
357.307	351.81
357.534	353.81
357.761	360.81
357.988	355.81
358.215	356.81
358.441	353.81
358.668	370.81
358.895	379.81
359.122	373.81
359.349	375.81
359.576	400.81
359.802	424.81
360.029	457.81
360.256	463.81
360.483	442.81
360.709	403.81
360.936	398.81
361.163	386.81
361.39	398.81
361.616	412.81
361.843	399.81
362.07	373.81
362.296	397.81
362.523	405.81
362.749	381.81
362.976	404.81
363.203	402.81
363.429	365.81
363.656	364.81
363.882	364.81
364.109	368.81
364.335	363.81
364.562	374.81
364.788	367.81
365.015	363.81
365.241	369.81
365.468	369.81
365.694	368.81
365.92	378.81
366.147	376.81
366.373	380.81
366.599	368.81
366.826	363.81
367.052	375.81
367.278	361.81
367.505	352.81
367.731	357.81
367.957	358.81
368.184	375.81
368.41	373.81
368.636	374.81
368.862	392.81
369.089	372.81
369.315	348.81
369.541	352.81
369.767	367.81
369.993	367.81
370.219	369.81
370.445	354.81
370.672	366.81
370.898	367.81
371.124	359.81
371.35	349.81
371.576	349.81
371.802	341.81
372.028	348.81
372.254	365.81
372.48	344.81
372.706	357.81
372.932	351.81
373.158	356.81
373.384	351.81
373.61	349.81
373.835	349.81
374.061	379.81
374.287	372.81
374.513	346.81
374.739	370.81
374.965	337.81
375.191	346.81
375.416	361.81
375.642	342.81
375.868	352.81
376.094	356.81
376.319	331.81
376.545	333.81
376.771	340.81
376.997	357.81
377.222	356.81
377.448	369.81
377.674	335.81
377.899	353.81
378.125	342.81
378.35	332.81
378.576	320.81
378.802	320.81
379.027	342.81
379.253	359.81
379.478	369.81
379.704	348.81
379.929	349.81
380.155	345.81
380.38	360.81
380.606	348.81
380.831	336.81
381.057	343.81
381.282	339.81
381.507	365.81
381.733	358.81
381.958	359.81
382.184	358.81
382.409	372.81
382.634	345.81
382.86	340.81
383.085	350.81
383.31	344.81
383.535	364.81
383.761	349.81
383.986	367.81
384.211	363.81
384.436	360.81
384.662	358.81
384.887	372.81
385.112	353.81
385.337	362.81
385.562	372.81
385.787	375.81
386.013	373.81
386.238	383.81
386.463	361.81
386.688	369.81
386.913	366.81
387.138	340.81
387.363	387.81
387.588	354.81
387.813	377.81
388.038	383.81
388.263	363.81
388.488	370.81
388.713	363.81
388.938	375.81
389.163	372.81
389.387	371.81
389.612	357.81
389.837	359.81
390.062	370.81
390.287	371.81
390.512	375.81
390.736	365.81
390.961	358.81
391.186	356.81
391.411	371.81
391.636	364.81
391.86	368.81
392.085	347.81
392.31	366.81
392.534	381.81
392.759	373.81
392.984	359.81
393.208	354.81
393.433	350.81
393.658	362.81
393.882	365.81
394.107	361.81
394.331	361.81
394.556	367.81
394.78	352.81
395.005	371.81
395.229	356.81
395.454	363.81
395.678	372.81
395.903	384.81
396.127	407.81
396.352	412.81
396.576	386.81
396.801	393.81
397.025	370.81
397.249	377.81
397.474	395.81
397.698	396.81
397.922	407.81
398.147	399.81
398.371	398.81
398.595	393.81
398.82	401.81
399.044	407.81
399.268	419.81
399.492	405.81
399.717	438.81
399.941	472.81
400.165	507.81
400.389	518.81
400.613	475.81
400.837	448.81
401.062	435.81
401.286	413.81
401.51	418.81
401.734	426.81
401.958	407.81
402.182	416.81
402.406	429.81
402.63	434.81
402.854	428.81
403.078	432.81
403.302	434.81
403.526	438.81
403.75	429.81
403.974	452.81
404.198	430.81
404.422	449.81
404.645	441.81
404.869	425.81
405.093	492.81
405.317	523.81
405.541	578.81
405.765	520.81
405.988	492.81
406.212	483.81
406.436	492.81
406.66	526.81
406.883	492.81
407.107	519.81
407.331	521.81
407.555	601.81
407.778	603.81
408.002	541.81
408.226	512.81
408.449	487.81
408.673	473.81
408.896	498.81
409.12	550.81
409.344	502.81
409.567	466.81
409.791	447.81
410.014	426.81
410.238	442.81
410.461	432.81
410.685	458.81
410.908	468.81
411.132	490.81
411.355	529.81
411.578	526.81
411.802	460.81
412.025	417.81
412.249	471.81
412.472	486.81
412.695	546.81
412.919	548.81
413.142	487.81
413.365	447.81
413.589	451.81
413.812	432.81
414.035	422.81
414.258	412.81
414.482	429.81
414.705	417.81
414.928	403.81
415.151	403.81
415.374	389.81
415.597	403.81
415.821	390.81
416.044	407.81
416.267	419.81
416.49	408.81
416.713	420.81
416.936	421.81
417.159	416.81
417.382	412.81
417.605	411.81
417.828	441.81
418.051	444.81
418.274	424.81
418.497	416.81
418.72	438.81
418.943	420.81
419.166	420.81
419.389	437.81
419.611	451.81
419.834	442.81
420.057	459.81
420.28	438.81
420.503	452.81
420.726	445.81
420.948	451.81
421.171	517.81
421.394	536.81
421.617	484.81
421.839	457.81
422.062	444.81
422.285	449.81
422.507	515.81
422.73	601.81
422.953	545.81
423.175	488.81
423.398	474.81
423.621	484.81
423.843	486.81
424.066	507.81
424.288	480.81
424.511	497.81
424.733	591.81
424.956	627.81
425.178	585.81
425.401	595.81
425.623	619.81
425.846	550.81
426.068	499.81
426.291	509.81
426.513	492.81
426.735	513.81
426.958	555.81
427.18	627.81
427.402	731.81
427.625	826.81
427.847	759.81
428.069	686.81
428.292	594.81
428.514	511.81
428.736	481.81
428.958	466.81
429.181	444.81
429.403	467.81
429.625	493.81
429.847	509.81
430.069	578.81
430.292	545.81
430.514	472.81
430.736	456.81
430.958	458.81
431.18	421.81
431.402	432.81
431.624	383.81
431.846	413.81
432.068	416.81
432.29	423.81
432.512	431.81
432.734	417.81
432.956	407.81
433.178	430.81
433.4	450.81
433.622	439.81
433.844	407.81
434.066	410.81
434.287	410.81
434.509	423.81
434.731	440.81
434.953	439.81
435.175	447.81
435.397	467.81
435.618	503.81
435.84	527.81
436.062	616.81
436.284	691.81
436.505	559.81
436.727	516.81
436.949	477.81
437.17	462.81
437.392	449.81
437.614	483.81
437.835	497.81
438.057	575.81
438.278	701.81
438.5	672.81
438.721	779.81
438.943	725.81
439.165	572.81
439.386	537.81
439.608	497.81
439.829	516.81
440.05	544.81
440.272	595.81
440.493	557.81
440.715	475.81
440.936	471.81
441.158	442.81
441.379	469.81
441.6	462.81
441.822	488.81
442.043	543.81
442.264	602.81
442.486	660.81
442.707	534.81
442.928	497.81
443.149	515.81
443.371	531.81
443.592	579.81
443.813	645.81
444.034	691.81
444.255	607.81
444.476	522.81
444.698	469.81
444.919	476.81
445.14	558.81
445.361	531.81
445.582	549.81
445.803	588.81
446.024	703.81
446.245	683.81
446.466	636.81
446.687	550.81
446.908	504.81
447.129	485.81
447.35	445.81
447.571	459.81
447.792	467.81
448.013	460.81
448.234	477.81
448.455	531.81
448.675	652.81
448.896	721.81
449.117	625.81
449.338	600.81
449.559	687.81
449.779	783.81
450	617.81
450.221	535.81
450.442	501.81
450.662	470.81
450.883	483.81
451.104	503.81
451.324	478.81
451.545	459.81
451.766	437.81
451.986	407.81
452.207	411.81
452.428	395.81
452.648	421.81
452.869	419.81
453.089	405.81
453.31	443.81
453.53	425.81
453.751	407.81
453.971	423.81
454.192	455.81
454.412	435.81
454.633	438.81
454.853	427.81
455.073	415.81
455.294	417.81
455.514	510.81
455.734	466.81
455.955	399.81
456.175	400.81
456.395	380.81
456.616	386.81
456.836	387.81
457.056	379.81
457.276	372.81
457.497	383.81
457.717	374.81
457.937	374.81
458.157	381.81
458.377	396.81
458.598	415.81
458.818	469.81
459.038	578.81
459.258	593.81
459.478	490.81
459.698	439.81
459.918	438.81
460.138	401.81
460.358	416.81
460.578	401.81
460.798	424.81
461.018	426.81
461.238	419.81
461.458	412.81
461.678	385.81
461.898	387.81
462.118	372.81
462.338	415.81
462.558	429.81
462.777	395.81
462.997	424.81
463.217	415.81
463.437	438.81
463.657	407.81
463.876	419.81
464.096	434.81
464.316	435.81
464.536	438.81
464.755	417.81
464.975	413.81
465.195	508.81
465.414	601.81
465.634	507.81
465.854	449.81
466.073	441.81
466.293	427.81
466.512	408.81
466.732	408.81
466.951	394.81
467.171	418.81
467.391	429.81
467.61	419.81
467.829	436.81
468.049	434.81
468.268	445.81
468.488	432.81
468.707	391.81
468.927	407.81
469.146	401.81
469.365	411.81
469.585	418.81
469.804	404.81
470.023	426.81
470.243	426.81
470.462	419.81
470.681	440.81
470.901	437.81
471.12	421.81
471.339	419.81
471.558	423.81
471.777	427.81
471.997	420.81
472.216	448.81
472.435	557.81
472.654	520.81
472.873	450.81
473.092	428.81
473.311	431.81
473.53	440.81
473.749	433.81
473.968	498.81
474.187	583.81
474.406	627.81
474.625	491.81
474.844	440.81
475.063	421.81
475.282	443.81
475.501	426.81
475.72	423.81
475.939	421.81
476.158	429.81
476.377	436.81
476.596	425.81
476.814	457.81
477.033	430.81
477.252	445.81
477.471	443.81
477.69	451.81
477.908	441.81
478.127	451.81
478.346	432.81
478.564	456.81
478.783	472.81
479.002	448.81
479.22	468.81
479.439	491.81
479.658	497.81
479.876	522.81
480.095	523.81
480.313	555.81
480.532	533.81
480.751	523.81
480.969	584.81
481.188	715.81
481.406	808.81
481.624	636.81
481.843	587.81
482.061	553.81
482.28	546.81
482.498	529.81
482.717	521.81
482.935	530.81
483.153	498.81
483.372	486.81
483.59	517.81
483.808	482.81
484.027	514.81
484.245	512.81
484.463	516.81
484.681	526.81
484.9	522.81
485.118	509.81
485.336	529.81
485.554	509.81
485.772	499.81
485.99	505.81
486.209	503.81
486.427	512.81
486.645	538.81
486.863	570.81
487.081	559.81
487.299	551.81
487.517	546.81
487.735	549.81
487.953	560.81
488.171	545.81
488.389	531.81
488.607	551.81
488.825	552.81
489.043	563.81
489.261	554.81
489.479	569.81
489.696	553.81
489.914	561.81
490.132	571.81
490.35	600.81
490.568	605.81
490.786	605.81
491.003	593.81
491.221	623.81
491.439	633.81
491.657	644.81
491.874	661.81
492.092	652.81
492.31	659.81
492.527	657.81
492.745	656.81
492.963	651.81
493.18	661.81
493.398	662.81
493.615	649.81
493.833	668.81
494.05	678.81
494.268	668.81
494.485	667.81
494.703	648.81
494.92	659.81
495.138	660.81
495.355	652.81
495.573	678.81
495.79	665.81
496.008	667.81
496.225	641.81
496.442	659.81
496.66	663.81
496.877	646.81
497.094	635.81
497.312	654.81
497.529	668.81
497.746	704.81
497.963	678.81
498.181	696.81
498.398	690.81
498.615	679.81
498.832	719.81
499.049	689.81
499.267	721.81
499.484	721.81
499.701	735.81
499.918	722.81
500.135	732.81
500.352	768.81
500.569	759.81
500.786	788.81
501.003	774.81
501.22	784.81
501.437	772.81
501.654	764.81
501.871	797.81
