Data from 1986.PennyLincolnUp.Lamp.En5.5.200Scan.071819.P1_HRD10591_17-08-12-973.txt Node
Date: Thu Jul 18 17:08:12 EDT 2019
User: cochatt
Spectrometer: HR+D1059
Trigger mode: 1
Integration Time (sec): 1.000000E-1
Scans to average: 1
Electric dark correction enabled: true
Nonlinearity correction enabled: false
Boxcar width: 0
XAxis mode: Wavelengths
Number of Pixels in Spectrum: 2048
>>>>>Begin Spectral Data<<<<<
223.165	-14.38
223.4	-14.38
223.635	-14.38
223.869	-14.38
224.104	-22.38
224.338	-8.38
224.573	-14.38
224.808	-29.38
225.042	-1.38
225.277	-7.38
225.511	0.62
225.746	4.62
225.98	6.62
226.215	16.62
226.449	17.62
226.683	7.62
226.918	33.62
227.152	24.62
227.387	36.62
227.621	38.62
227.856	34.62
228.09	44.62
228.324	48.62
228.559	49.62
228.793	67.62
229.027	82.62
229.262	87.62
229.496	96.62
229.73	105.62
229.964	116.62
230.199	100.62
230.433	97.62
230.667	97.62
230.901	93.62
231.136	97.62
231.37	99.62
231.604	120.62
231.838	99.62
232.072	107.62
232.306	105.62
232.541	97.62
232.775	96.62
233.009	103.62
233.243	99.62
233.477	101.62
233.711	109.62
233.945	108.62
234.179	91.62
234.413	108.62
234.647	105.62
234.881	120.62
235.115	112.62
235.349	94.62
235.583	93.62
235.817	106.62
236.051	113.62
236.285	108.62
236.519	112.62
236.753	113.62
236.987	111.62
237.221	139.62
237.455	170.62
237.689	138.62
237.922	117.62
238.156	112.62
238.39	115.62
238.624	117.62
238.858	114.62
239.091	107.62
239.325	111.62
239.559	112.62
239.793	119.62
240.027	103.62
240.26	123.62
240.494	124.62
240.728	124.62
240.961	125.62
241.195	120.62
241.429	112.62
241.662	124.62
241.896	114.62
242.13	123.62
242.363	119.62
242.597	101.62
242.83	103.62
243.064	116.62
243.298	110.62
243.531	115.62
243.765	129.62
243.998	120.62
244.232	116.62
244.465	108.62
244.699	103.62
244.932	118.62
245.166	133.62
245.399	109.62
245.633	113.62
245.866	121.62
246.099	122.62
246.333	131.62
246.566	115.62
246.8	105.62
247.033	135.62
247.266	130.62
247.5	134.62
247.733	146.62
247.966	136.62
248.2	147.62
248.433	145.62
248.666	135.62
248.899	152.62
249.133	166.62
249.366	159.62
249.599	159.62
249.832	139.62
250.066	142.62
250.299	146.62
250.532	148.62
250.765	173.62
250.998	179.62
251.231	172.62
251.465	164.62
251.698	141.62
251.931	156.62
252.164	140.62
252.397	157.62
252.63	156.62
252.863	161.62
253.096	175.62
253.329	159.62
253.562	168.62
253.795	165.62
254.028	163.62
254.261	163.62
254.494	179.62
254.727	187.62
254.96	197.62
255.193	209.62
255.426	177.62
255.659	173.62
255.892	175.62
256.124	169.62
256.357	172.62
256.59	172.62
256.823	170.62
257.056	152.62
257.289	154.62
257.521	156.62
257.754	163.62
257.987	145.62
258.22	155.62
258.452	165.62
258.685	150.62
258.918	149.62
259.151	157.62
259.383	149.62
259.616	162.62
259.849	164.62
260.081	178.62
260.314	209.62
260.547	177.62
260.779	183.62
261.012	188.62
261.244	177.62
261.477	168.62
261.71	169.62
261.942	176.62
262.175	193.62
262.407	193.62
262.64	179.62
262.872	167.62
263.105	166.62
263.337	186.62
263.57	165.62
263.802	172.62
264.035	154.62
264.267	181.62
264.499	182.62
264.732	187.62
264.964	183.62
265.197	182.62
265.429	175.62
265.661	164.62
265.894	167.62
266.126	154.62
266.358	167.62
266.591	159.62
266.823	180.62
267.055	185.62
267.287	186.62
267.52	181.62
267.752	189.62
267.984	185.62
268.216	184.62
268.448	184.62
268.681	192.62
268.913	176.62
269.145	194.62
269.377	218.62
269.609	220.62
269.841	204.62
270.073	208.62
270.306	204.62
270.538	221.62
270.77	223.62
271.002	234.62
271.234	212.62
271.466	225.62
271.698	237.62
271.93	240.62
272.162	221.62
272.394	233.62
272.626	227.62
272.858	215.62
273.09	214.62
273.322	208.62
273.553	202.62
273.785	208.62
274.017	215.62
274.249	213.62
274.481	209.62
274.713	199.62
274.945	227.62
275.176	199.62
275.408	185.62
275.64	207.62
275.872	193.62
276.104	233.62
276.335	208.62
276.567	229.62
276.799	226.62
277.031	229.62
277.262	229.62
277.494	228.62
277.726	218.62
277.957	210.62
278.189	218.62
278.421	211.62
278.652	215.62
278.884	215.62
279.115	211.62
279.347	205.62
279.579	234.62
279.81	230.62
280.042	227.62
280.273	196.62
280.505	231.62
280.736	207.62
280.968	207.62
281.199	223.62
281.431	213.62
281.662	212.62
281.894	220.62
282.125	210.62
282.356	242.62
282.588	249.62
282.819	239.62
283.051	227.62
283.282	222.62
283.513	231.62
283.745	228.62
283.976	208.62
284.207	221.62
284.439	219.62
284.67	221.62
284.901	217.62
285.132	229.62
285.364	216.62
285.595	218.62
285.826	216.62
286.057	220.62
286.288	235.62
286.52	232.62
286.751	214.62
286.982	225.62
287.213	228.62
287.444	225.62
287.675	232.62
287.906	244.62
288.138	255.62
288.369	246.62
288.6	223.62
288.831	248.62
289.062	221.62
289.293	215.62
289.524	236.62
289.755	224.62
289.986	230.62
290.217	228.62
290.448	233.62
290.679	215.62
290.91	229.62
291.141	220.62
291.371	208.62
291.602	217.62
291.833	233.62
292.064	220.62
292.295	232.62
292.526	242.62
292.757	221.62
292.987	225.62
293.218	233.62
293.449	248.62
293.68	252.62
293.91	239.62
294.141	233.62
294.372	245.62
294.603	229.62
294.833	229.62
295.064	232.62
295.295	228.62
295.525	228.62
295.756	260.62
295.987	246.62
296.217	247.62
296.448	263.62
296.679	240.62
296.909	226.62
297.14	248.62
297.37	237.62
297.601	243.62
297.831	250.62
298.062	238.62
298.292	232.62
298.523	243.62
298.753	255.62
298.984	257.62
299.214	246.62
299.445	236.62
299.675	259.62
299.905	251.62
300.136	257.62
300.366	253.62
300.597	274.62
300.827	251.62
301.057	244.62
301.288	287.62
301.518	257.62
301.748	253.62
301.979	272.62
302.209	257.62
302.439	282.62
302.669	278.62
302.9	278.62
303.13	258.62
303.36	261.62
303.59	261.62
303.82	278.62
304.051	272.62
304.281	271.62
304.511	275.62
304.741	274.62
304.971	264.62
305.201	265.62
305.431	268.62
305.661	287.62
305.891	259.62
306.121	250.62
306.352	263.62
306.582	266.62
306.812	277.62
307.042	273.62
307.272	264.62
307.502	279.62
307.731	275.62
307.961	274.62
308.191	267.62
308.421	260.62
308.651	279.62
308.881	291.62
309.111	264.62
309.341	263.62
309.571	284.62
309.8	304.62
310.03	283.62
310.26	283.62
310.49	293.62
310.72	295.62
310.949	309.62
311.179	323.62
311.409	305.62
311.639	287.62
311.868	306.62
312.098	310.62
312.328	307.62
312.557	299.62
312.787	328.62
313.017	318.62
313.246	315.62
313.476	306.62
313.706	300.62
313.935	280.62
314.165	300.62
314.394	324.62
314.624	311.62
314.853	314.62
315.083	303.62
315.312	299.62
315.542	298.62
315.771	291.62
316.001	294.62
316.23	295.62
316.46	284.62
316.689	287.62
316.919	316.62
317.148	314.62
317.377	311.62
317.607	311.62
317.836	294.62
318.065	314.62
318.295	303.62
318.524	310.62
318.753	299.62
318.983	303.62
319.212	317.62
319.441	312.62
319.67	309.62
319.9	312.62
320.129	295.62
320.358	298.62
320.587	303.62
320.816	330.62
321.046	296.62
321.275	306.62
321.504	314.62
321.733	316.62
321.962	322.62
322.191	340.62
322.42	342.62
322.649	340.62
322.878	356.62
323.108	345.62
323.337	362.62
323.566	381.62
323.795	405.62
324.024	435.62
324.253	520.62
324.482	751.62
324.71	1130.62
324.939	1575.62
325.168	1282.62
325.397	651.62
325.626	458.62
325.855	400.62
326.084	377.62
326.313	368.62
326.542	414.62
326.77	428.62
326.999	499.62
327.228	678.62
327.457	1004.62
327.686	1173.62
327.914	754.62
328.143	517.62
328.372	464.62
328.6	459.62
328.829	439.62
329.058	447.62
329.287	432.62
329.515	407.62
329.744	408.62
329.972	410.62
330.201	449.62
330.43	496.62
330.658	493.62
330.887	465.62
331.115	451.62
331.344	399.62
331.572	388.62
331.801	374.62
332.03	402.62
332.258	366.62
332.486	377.62
332.715	365.62
332.943	362.62
333.172	357.62
333.4	359.62
333.629	386.62
333.857	431.62
334.085	430.62
334.314	467.62
334.542	521.62
334.771	529.62
334.999	447.62
335.227	401.62
335.455	389.62
335.684	351.62
335.912	375.62
336.14	374.62
336.369	376.62
336.597	371.62
336.825	352.62
337.053	356.62
337.281	333.62
337.51	350.62
337.738	348.62
337.966	348.62
338.194	361.62
338.422	346.62
338.65	330.62
338.878	341.62
339.106	333.62
339.334	358.62
339.562	341.62
339.79	342.62
340.018	337.62
340.246	331.62
340.474	348.62
340.702	349.62
340.93	350.62
341.158	329.62
341.386	329.62
341.614	340.62
341.842	338.62
342.07	327.62
342.298	324.62
342.526	337.62
342.754	339.62
342.981	332.62
343.209	326.62
343.437	320.62
343.665	334.62
343.893	357.62
344.12	348.62
344.348	325.62
344.576	347.62
344.804	363.62
345.031	355.62
345.259	352.62
345.487	353.62
345.714	358.62
345.942	308.62
346.17	333.62
346.397	330.62
346.625	328.62
346.853	325.62
347.08	305.62
347.308	334.62
347.535	322.62
347.763	333.62
347.99	321.62
348.218	321.62
348.445	330.62
348.673	323.62
348.9	310.62
349.128	315.62
349.355	296.62
349.583	326.62
349.81	305.62
350.037	303.62
350.265	311.62
350.492	316.62
350.72	317.62
350.947	325.62
351.174	315.62
351.402	320.62
351.629	343.62
351.856	319.62
352.083	320.62
352.311	349.62
352.538	349.62
352.765	339.62
352.992	325.62
353.22	330.62
353.447	325.62
353.674	304.62
353.901	319.62
354.128	316.62
354.355	295.62
354.583	320.62
354.81	298.62
355.037	314.62
355.264	305.62
355.491	303.62
355.718	299.62
355.945	307.62
356.172	309.62
356.399	304.62
356.626	301.62
356.853	295.62
357.08	297.62
357.307	304.62
357.534	295.62
357.761	319.62
357.988	311.62
358.215	314.62
358.441	300.62
358.668	308.62
358.895	307.62
359.122	326.62
359.349	319.62
359.576	308.62
359.802	307.62
360.029	340.62
360.256	354.62
360.483	347.62
360.709	324.62
360.936	305.62
361.163	331.62
361.39	331.62
361.616	323.62
361.843	323.62
362.07	333.62
362.296	326.62
362.523	313.62
362.749	321.62
362.976	314.62
363.203	325.62
363.429	306.62
363.656	299.62
363.882	296.62
364.109	310.62
364.335	308.62
364.562	301.62
364.788	306.62
365.015	300.62
365.241	299.62
365.468	321.62
365.694	322.62
365.92	307.62
366.147	296.62
366.373	289.62
366.599	305.62
366.826	311.62
367.052	312.62
367.278	298.62
367.505	303.62
367.731	301.62
367.957	310.62
368.184	301.62
368.41	324.62
368.636	321.62
368.862	316.62
369.089	313.62
369.315	310.62
369.541	310.62
369.767	315.62
369.993	303.62
370.219	310.62
370.445	300.62
370.672	303.62
370.898	320.62
371.124	319.62
371.35	311.62
371.576	318.62
371.802	318.62
372.028	307.62
372.254	299.62
372.48	289.62
372.706	295.62
372.932	319.62
373.158	316.62
373.384	314.62
373.61	320.62
373.835	317.62
374.061	313.62
374.287	308.62
374.513	312.62
374.739	303.62
374.965	310.62
375.191	337.62
375.416	320.62
375.642	329.62
375.868	308.62
376.094	330.62
376.319	328.62
376.545	320.62
376.771	321.62
376.997	307.62
377.222	316.62
377.448	304.62
377.674	306.62
377.899	299.62
378.125	307.62
378.35	307.62
378.576	305.62
378.802	308.62
379.027	308.62
379.253	301.62
379.478	307.62
379.704	313.62
379.929	303.62
380.155	320.62
380.38	288.62
380.606	320.62
380.831	327.62
381.057	296.62
381.282	319.62
381.507	316.62
381.733	300.62
381.958	312.62
382.184	318.62
382.409	332.62
382.634	299.62
382.86	329.62
383.085	343.62
383.31	325.62
383.535	332.62
383.761	321.62
383.986	323.62
384.211	342.62
384.436	349.62
384.662	338.62
384.887	350.62
385.112	364.62
385.337	357.62
385.562	363.62
385.787	356.62
386.013	349.62
386.238	362.62
386.463	367.62
386.688	351.62
386.913	343.62
387.138	364.62
387.363	354.62
387.588	340.62
387.813	340.62
388.038	351.62
388.263	359.62
388.488	351.62
388.713	340.62
388.938	325.62
389.163	328.62
389.387	337.62
389.612	312.62
389.837	317.62
390.062	340.62
390.287	324.62
390.512	326.62
390.736	336.62
390.961	342.62
391.186	340.62
391.411	350.62
391.636	335.62
391.86	348.62
392.085	336.62
392.31	338.62
392.534	341.62
392.759	348.62
392.984	359.62
393.208	373.62
393.433	410.62
393.658	431.62
393.882	377.62
394.107	357.62
394.331	339.62
394.556	356.62
394.78	343.62
395.005	347.62
395.229	346.62
395.454	361.62
395.678	347.62
395.903	358.62
396.127	387.62
396.352	373.62
396.576	368.62
396.801	379.62
397.025	407.62
397.249	395.62
397.474	360.62
397.698	374.62
397.922	360.62
398.147	381.62
398.371	382.62
398.595	393.62
398.82	395.62
399.044	377.62
399.268	435.62
399.492	433.62
399.717	455.62
399.941	470.62
400.165	456.62
400.389	487.62
400.613	419.62
400.837	406.62
401.062	411.62
401.286	404.62
401.51	417.62
401.734	382.62
401.958	402.62
402.182	387.62
402.406	409.62
402.63	419.62
402.854	403.62
403.078	399.62
403.302	398.62
403.526	403.62
403.75	403.62
403.974	428.62
404.198	404.62
404.422	429.62
404.645	402.62
404.869	413.62
405.093	416.62
405.317	451.62
405.541	466.62
405.765	440.62
405.988	425.62
406.212	425.62
406.436	464.62
406.66	464.62
406.883	428.62
407.107	436.62
407.331	497.62
407.555	521.62
407.778	538.62
408.002	490.62
408.226	458.62
408.449	457.62
408.673	453.62
408.896	454.62
409.12	485.62
409.344	466.62
409.567	437.62
409.791	433.62
410.014	422.62
410.238	425.62
410.461	431.62
410.685	420.62
410.908	449.62
411.132	459.62
411.355	480.62
411.578	449.62
411.802	415.62
412.025	419.62
412.249	403.62
412.472	419.62
412.695	416.62
412.919	401.62
413.142	405.62
413.365	408.62
413.589	405.62
413.812	411.62
414.035	408.62
414.258	408.62
414.482	392.62
414.705	402.62
414.928	415.62
415.151	397.62
415.374	389.62
415.597	398.62
415.821	401.62
416.044	410.62
416.267	405.62
416.49	407.62
416.713	389.62
416.936	399.62
417.159	395.62
417.382	398.62
417.605	401.62
417.828	407.62
418.051	400.62
418.274	423.62
418.497	409.62
418.72	396.62
418.943	397.62
419.166	408.62
419.389	439.62
419.611	450.62
419.834	417.62
420.057	421.62
420.28	417.62
420.503	416.62
420.726	398.62
420.948	407.62
421.171	441.62
421.394	462.62
421.617	416.62
421.839	404.62
422.062	421.62
422.285	444.62
422.507	462.62
422.73	532.62
422.953	501.62
423.175	424.62
423.398	437.62
423.621	431.62
423.843	449.62
424.066	461.62
424.288	443.62
424.511	438.62
424.733	490.62
424.956	535.62
425.178	485.62
425.401	513.62
425.623	519.62
425.846	458.62
426.068	431.62
426.291	436.62
426.513	428.62
426.735	430.62
426.958	447.62
427.18	499.62
427.402	586.62
427.625	648.62
427.847	562.62
428.069	518.62
428.292	445.62
428.514	430.62
428.736	393.62
428.958	428.62
429.181	395.62
429.403	385.62
429.625	401.62
429.847	420.62
430.069	462.62
430.292	471.62
430.514	409.62
430.736	400.62
430.958	397.62
431.18	372.62
431.402	388.62
431.624	371.62
431.846	373.62
432.068	401.62
432.29	402.62
432.512	381.62
432.734	402.62
432.956	393.62
433.178	401.62
433.4	374.62
433.622	421.62
433.844	388.62
434.066	392.62
434.287	386.62
434.509	405.62
434.731	417.62
434.953	421.62
435.175	418.62
435.397	425.62
435.618	425.62
435.84	450.62
436.062	503.62
436.284	537.62
436.505	456.62
436.727	428.62
436.949	401.62
437.17	425.62
437.392	393.62
437.614	405.62
437.835	441.62
438.057	480.62
438.278	540.62
438.5	527.62
438.721	560.62
438.943	560.62
439.165	456.62
439.386	441.62
439.608	406.62
439.829	424.62
440.05	460.62
440.272	473.62
440.493	449.62
440.715	420.62
440.936	406.62
441.158	423.62
441.379	421.62
441.6	429.62
441.822	432.62
442.043	443.62
442.264	495.62
442.486	498.62
442.707	493.62
442.928	452.62
443.149	467.62
443.371	470.62
443.592	495.62
443.813	553.62
444.034	560.62
444.255	503.62
444.476	447.62
444.698	455.62
444.919	440.62
445.14	572.62
445.361	495.62
445.582	458.62
445.803	495.62
446.024	546.62
446.245	563.62
446.466	515.62
446.687	452.62
446.908	415.62
447.129	400.62
447.35	418.62
447.571	397.62
447.792	364.62
448.013	401.62
448.234	412.62
448.455	427.62
448.675	507.62
448.896	559.62
449.117	492.62
449.338	463.62
449.559	524.62
449.779	573.62
450	485.62
450.221	428.62
450.442	397.62
450.662	408.62
450.883	386.62
451.104	398.62
451.324	398.62
451.545	362.62
451.766	379.62
451.986	353.62
452.207	345.62
452.428	368.62
452.648	354.62
452.869	386.62
453.089	381.62
453.31	384.62
453.53	361.62
453.751	363.62
453.971	376.62
454.192	385.62
454.412	382.62
454.633	365.62
454.853	360.62
455.073	348.62
455.294	387.62
455.514	413.62
455.734	399.62
455.955	368.62
456.175	363.62
456.395	371.62
456.616	342.62
456.836	360.62
457.056	341.62
457.276	343.62
457.497	344.62
457.717	362.62
457.937	349.62
458.157	379.62
458.377	377.62
458.598	363.62
458.818	423.62
459.038	474.62
459.258	467.62
459.478	429.62
459.698	393.62
459.918	375.62
460.138	387.62
460.358	397.62
460.578	397.62
460.798	402.62
461.018	397.62
461.238	413.62
461.458	386.62
461.678	377.62
461.898	397.62
462.118	404.62
462.338	408.62
462.558	434.62
462.777	425.62
462.997	445.62
463.217	457.62
463.437	441.62
463.657	444.62
463.876	453.62
464.096	451.62
464.316	423.62
464.536	435.62
464.755	423.62
464.975	437.62
465.195	468.62
465.414	533.62
465.634	467.62
465.854	417.62
466.073	419.62
466.293	402.62
466.512	374.62
466.732	374.62
466.951	379.62
467.171	372.62
467.391	385.62
467.61	379.62
467.829	389.62
468.049	408.62
468.268	433.62
468.488	407.62
468.707	389.62
468.927	373.62
469.146	389.62
469.365	366.62
469.585	377.62
469.804	385.62
470.023	399.62
470.243	390.62
470.462	387.62
470.681	410.62
470.901	409.62
471.12	405.62
471.339	385.62
471.558	377.62
471.777	366.62
471.997	381.62
472.216	408.62
472.435	533.62
472.654	470.62
472.873	403.62
473.092	399.62
473.311	405.62
473.53	395.62
473.749	385.62
473.968	417.62
474.187	477.62
474.406	459.62
474.625	406.62
474.844	389.62
475.063	375.62
475.282	394.62
475.501	385.62
475.72	404.62
475.939	399.62
476.158	378.62
476.377	403.62
476.596	380.62
476.814	415.62
477.033	412.62
477.252	397.62
477.471	411.62
477.69	409.62
477.908	417.62
478.127	432.62
478.346	413.62
478.564	424.62
478.783	431.62
479.002	442.62
479.22	444.62
479.439	468.62
479.658	469.62
479.876	450.62
480.095	480.62
480.313	469.62
480.532	495.62
480.751	466.62
480.969	527.62
481.188	684.62
481.406	746.62
481.624	573.62
481.843	497.62
482.061	481.62
482.28	471.62
482.498	451.62
482.717	460.62
482.935	462.62
483.153	444.62
483.372	442.62
483.59	458.62
483.808	463.62
484.027	465.62
484.245	457.62
484.463	458.62
484.681	476.62
484.9	461.62
485.118	470.62
485.336	458.62
485.554	479.62
485.772	451.62
485.99	476.62
486.209	476.62
486.427	485.62
486.645	459.62
486.863	483.62
487.081	476.62
487.299	495.62
487.517	495.62
487.735	496.62
487.953	489.62
488.171	483.62
488.389	492.62
488.607	468.62
488.825	460.62
489.043	481.62
489.261	468.62
489.479	475.62
489.696	492.62
489.914	469.62
490.132	491.62
490.35	479.62
490.568	483.62
490.786	493.62
491.003	506.62
491.221	499.62
491.439	531.62
491.657	536.62
491.874	538.62
492.092	541.62
492.31	526.62
492.527	544.62
492.745	541.62
492.963	543.62
493.18	556.62
493.398	554.62
493.615	539.62
493.833	559.62
494.05	536.62
494.268	535.62
494.485	544.62
494.703	556.62
494.92	545.62
495.138	550.62
495.355	530.62
495.573	557.62
495.79	553.62
496.008	573.62
496.225	537.62
496.442	549.62
496.66	541.62
496.877	556.62
497.094	559.62
497.312	561.62
497.529	562.62
497.746	566.62
497.963	568.62
498.181	602.62
498.398	626.62
498.615	616.62
498.832	639.62
499.049	650.62
499.267	655.62
499.484	702.62
499.701	713.62
499.918	735.62
500.135	785.62
500.352	831.62
500.569	856.62
500.786	829.62
501.003	823.62
501.22	781.62
501.437	727.62
501.654	728.62
501.871	701.62
502.088	652.62
