Data from 1986.PennyLincolnUp.Lamp.En5.5.200Scan.071819.P2_HRD10591_17-09-48-974.txt Node
Date: Thu Jul 18 17:09:48 EDT 2019
User: cochatt
Spectrometer: HR+D1059
Trigger mode: 1
Integration Time (sec): 1.000000E-1
Scans to average: 1
Electric dark correction enabled: true
Nonlinearity correction enabled: false
Boxcar width: 0
XAxis mode: Wavelengths
Number of Pixels in Spectrum: 2048
>>>>>Begin Spectral Data<<<<<
223.165	-7.62
223.4	-7.62
223.635	-7.62
223.869	-12.62
224.104	-7.62
224.338	-23.62
224.573	-22.62
224.808	-22.62
225.042	-1.62
225.277	-7.62
225.511	9.38
225.746	6.38
225.98	-4.62
226.215	8.38
226.449	8.38
226.683	11.38
226.918	26.38
227.152	40.38
227.387	27.38
227.621	36.38
227.856	48.38
228.09	43.38
228.324	40.38
228.559	70.38
228.793	64.38
229.027	83.38
229.262	94.38
229.496	106.38
229.73	121.38
229.964	141.38
230.199	123.38
230.433	99.38
230.667	109.38
230.901	104.38
231.136	118.38
231.37	106.38
231.604	108.38
231.838	106.38
232.072	121.38
232.306	120.38
232.541	105.38
232.775	104.38
233.009	96.38
233.243	106.38
233.477	109.38
233.711	112.38
233.945	114.38
234.179	115.38
234.413	106.38
234.647	122.38
234.881	118.38
235.115	110.38
235.349	125.38
235.583	109.38
235.817	115.38
236.051	131.38
236.285	126.38
236.519	116.38
236.753	126.38
236.987	145.38
237.221	171.38
237.455	238.38
237.689	188.38
237.922	138.38
238.156	130.38
238.39	116.38
238.624	132.38
238.858	122.38
239.091	114.38
239.325	126.38
239.559	120.38
239.793	106.38
240.027	140.38
240.26	134.38
240.494	162.38
240.728	145.38
240.961	144.38
241.195	145.38
241.429	135.38
241.662	142.38
241.896	122.38
242.13	129.38
242.363	123.38
242.597	127.38
242.83	135.38
243.064	136.38
243.298	140.38
243.531	128.38
243.765	133.38
243.998	143.38
244.232	138.38
244.465	135.38
244.699	134.38
244.932	128.38
245.166	140.38
245.399	136.38
245.633	132.38
245.866	134.38
246.099	138.38
246.333	150.38
246.566	146.38
246.8	155.38
247.033	158.38
247.266	148.38
247.5	149.38
247.733	147.38
247.966	161.38
248.2	176.38
248.433	164.38
248.666	147.38
248.899	179.38
249.133	186.38
249.366	186.38
249.599	188.38
249.832	179.38
250.066	189.38
250.299	163.38
250.532	181.38
250.765	189.38
250.998	205.38
251.231	218.38
251.465	201.38
251.698	188.38
251.931	180.38
252.164	203.38
252.397	212.38
252.63	201.38
252.863	207.38
253.096	191.38
253.329	221.38
253.562	235.38
253.795	214.38
254.028	218.38
254.261	201.38
254.494	234.38
254.727	237.38
254.96	271.38
255.193	271.38
255.426	236.38
255.659	226.38
255.892	207.38
256.124	208.38
256.357	206.38
256.59	207.38
256.823	215.38
257.056	204.38
257.289	205.38
257.521	216.38
257.754	208.38
257.987	205.38
258.22	209.38
258.452	195.38
258.685	194.38
258.918	198.38
259.151	214.38
259.383	221.38
259.616	214.38
259.849	211.38
260.081	224.38
260.314	229.38
260.547	230.38
260.779	240.38
261.012	226.38
261.244	209.38
261.477	220.38
261.71	218.38
261.942	232.38
262.175	223.38
262.407	212.38
262.64	204.38
262.872	210.38
263.105	193.38
263.337	208.38
263.57	205.38
263.802	196.38
264.035	196.38
264.267	191.38
264.499	217.38
264.732	204.38
264.964	209.38
265.197	211.38
265.429	215.38
265.661	204.38
265.894	192.38
266.126	205.38
266.358	199.38
266.591	202.38
266.823	206.38
267.055	211.38
267.287	201.38
267.52	209.38
267.752	204.38
267.984	205.38
268.216	225.38
268.448	227.38
268.681	224.38
268.913	224.38
269.145	244.38
269.377	258.38
269.609	243.38
269.841	246.38
270.073	251.38
270.306	260.38
270.538	293.38
270.77	299.38
271.002	286.38
271.234	287.38
271.466	285.38
271.698	284.38
271.93	301.38
272.162	294.38
272.394	308.38
272.626	299.38
272.858	269.38
273.09	263.38
273.322	244.38
273.553	250.38
273.785	242.38
274.017	270.38
274.249	240.38
274.481	240.38
274.713	241.38
274.945	247.38
275.176	254.38
275.408	241.38
275.64	235.38
275.872	244.38
276.104	246.38
276.335	225.38
276.567	254.38
276.799	266.38
277.031	283.38
277.262	282.38
277.494	294.38
277.726	270.38
277.957	282.38
278.189	263.38
278.421	252.38
278.652	255.38
278.884	237.38
279.115	259.38
279.347	244.38
279.579	245.38
279.81	241.38
280.042	251.38
280.273	233.38
280.505	244.38
280.736	237.38
280.968	240.38
281.199	230.38
281.431	236.38
281.662	234.38
281.894	243.38
282.125	245.38
282.356	259.38
282.588	280.38
282.819	287.38
283.051	247.38
283.282	251.38
283.513	245.38
283.745	237.38
283.976	244.38
284.207	237.38
284.439	247.38
284.67	229.38
284.901	260.38
285.132	241.38
285.364	240.38
285.595	252.38
285.826	259.38
286.057	252.38
286.288	252.38
286.52	232.38
286.751	250.38
286.982	253.38
287.213	258.38
287.444	254.38
287.675	263.38
287.906	254.38
288.138	276.38
288.369	268.38
288.6	252.38
288.831	267.38
289.062	279.38
289.293	250.38
289.524	272.38
289.755	264.38
289.986	255.38
290.217	273.38
290.448	246.38
290.679	239.38
290.91	244.38
291.141	242.38
291.371	244.38
291.602	233.38
291.833	250.38
292.064	249.38
292.295	265.38
292.526	261.38
292.757	245.38
292.987	246.38
293.218	241.38
293.449	262.38
293.68	249.38
293.91	241.38
294.141	242.38
294.372	235.38
294.603	249.38
294.833	250.38
295.064	244.38
295.295	254.38
295.525	259.38
295.756	254.38
295.987	262.38
296.217	288.38
296.448	282.38
296.679	276.38
296.909	258.38
297.14	251.38
297.37	263.38
297.601	253.38
297.831	269.38
298.062	250.38
298.292	262.38
298.523	268.38
298.753	285.38
298.984	273.38
299.214	266.38
299.445	259.38
299.675	266.38
299.905	278.38
300.136	276.38
300.366	280.38
300.597	274.38
300.827	276.38
301.057	278.38
301.288	307.38
301.518	298.38
301.748	272.38
301.979	293.38
302.209	292.38
302.439	269.38
302.669	278.38
302.9	285.38
303.13	285.38
303.36	292.38
303.59	289.38
303.82	287.38
304.051	293.38
304.281	297.38
304.511	291.38
304.741	281.38
304.971	278.38
305.201	276.38
305.431	284.38
305.661	283.38
305.891	270.38
306.121	282.38
306.352	281.38
306.582	281.38
306.812	282.38
307.042	274.38
307.272	285.38
307.502	285.38
307.731	292.38
307.961	287.38
308.191	286.38
308.421	277.38
308.651	310.38
308.881	277.38
309.111	296.38
309.341	297.38
309.571	297.38
309.8	315.38
310.03	341.38
310.26	315.38
310.49	330.38
310.72	334.38
310.949	358.38
311.179	344.38
311.409	334.38
311.639	329.38
311.868	327.38
312.098	355.38
312.328	359.38
312.557	361.38
312.787	349.38
313.017	353.38
313.246	338.38
313.476	320.38
313.706	324.38
313.935	334.38
314.165	329.38
314.394	347.38
314.624	349.38
314.853	324.38
315.083	313.38
315.312	333.38
315.542	336.38
315.771	304.38
316.001	312.38
316.23	332.38
316.46	333.38
316.689	331.38
316.919	339.38
317.148	346.38
317.377	354.38
317.607	345.38
317.836	309.38
318.065	320.38
318.295	346.38
318.524	317.38
318.753	313.38
318.983	315.38
319.212	309.38
319.441	336.38
319.67	342.38
319.9	328.38
320.129	328.38
320.358	343.38
320.587	331.38
320.816	347.38
321.046	371.38
321.275	385.38
321.504	378.38
321.733	362.38
321.962	365.38
322.191	366.38
322.42	380.38
322.649	409.38
322.878	393.38
323.108	418.38
323.337	439.38
323.566	461.38
323.795	483.38
324.024	519.38
324.253	640.38
324.482	928.38
324.71	1405.38
324.939	2021.38
325.168	1812.38
325.397	952.38
325.626	618.38
325.855	524.38
326.084	484.38
326.313	461.38
326.542	443.38
326.77	524.38
326.999	590.38
327.228	800.38
327.457	1228.38
327.686	1486.38
327.914	1037.38
328.143	654.38
328.372	577.38
328.6	522.38
328.829	517.38
329.058	526.38
329.287	500.38
329.515	490.38
329.744	466.38
329.972	447.38
330.201	448.38
330.43	460.38
330.658	520.38
330.887	548.38
331.115	529.38
331.344	447.38
331.572	437.38
331.801	440.38
332.03	440.38
332.258	399.38
332.486	384.38
332.715	368.38
332.943	381.38
333.172	391.38
333.4	377.38
333.629	383.38
333.857	386.38
334.085	377.38
334.314	369.38
334.542	376.38
334.771	370.38
334.999	368.38
335.227	357.38
335.455	359.38
335.684	352.38
335.912	373.38
336.14	381.38
336.369	362.38
336.597	396.38
336.825	390.38
337.053	381.38
337.281	365.38
337.51	358.38
337.738	383.38
337.966	374.38
338.194	376.38
338.422	363.38
338.65	370.38
338.878	366.38
339.106	366.38
339.334	368.38
339.562	386.38
339.79	362.38
340.018	347.38
340.246	352.38
340.474	369.38
340.702	364.38
340.93	344.38
341.158	360.38
341.386	352.38
341.614	398.38
341.842	379.38
342.07	366.38
342.298	374.38
342.526	350.38
342.754	352.38
342.981	337.38
343.209	360.38
343.437	358.38
343.665	324.38
343.893	358.38
344.12	353.38
344.348	361.38
344.576	366.38
344.804	361.38
345.031	363.38
345.259	378.38
345.487	382.38
345.714	360.38
345.942	371.38
346.17	350.38
346.397	358.38
346.625	344.38
346.853	349.38
347.08	348.38
347.308	370.38
347.535	366.38
347.763	368.38
347.99	379.38
348.218	365.38
348.445	362.38
348.673	359.38
348.9	350.38
349.128	358.38
349.355	343.38
349.583	333.38
349.81	345.38
350.037	342.38
350.265	348.38
350.492	335.38
350.72	338.38
350.947	339.38
351.174	374.38
351.402	369.38
351.629	375.38
351.856	372.38
352.083	379.38
352.311	377.38
352.538	376.38
352.765	371.38
352.992	372.38
353.22	346.38
353.447	352.38
353.674	338.38
353.901	338.38
354.128	319.38
354.355	340.38
354.583	341.38
354.81	338.38
355.037	330.38
355.264	341.38
355.491	342.38
355.718	308.38
355.945	314.38
356.172	312.38
356.399	317.38
356.626	319.38
356.853	311.38
357.08	344.38
357.307	325.38
357.534	316.38
357.761	333.38
357.988	328.38
358.215	316.38
358.441	321.38
358.668	325.38
358.895	312.38
359.122	338.38
359.349	324.38
359.576	344.38
359.802	361.38
360.029	401.38
360.256	393.38
360.483	387.38
360.709	361.38
360.936	363.38
361.163	368.38
361.39	359.38
361.616	360.38
361.843	347.38
362.07	372.38
362.296	361.38
362.523	353.38
362.749	334.38
362.976	353.38
363.203	345.38
363.429	331.38
363.656	328.38
363.882	334.38
364.109	338.38
364.335	346.38
364.562	339.38
364.788	326.38
365.015	347.38
365.241	323.38
365.468	334.38
365.694	328.38
365.92	348.38
366.147	334.38
366.373	338.38
366.599	341.38
366.826	333.38
367.052	343.38
367.278	335.38
367.505	345.38
367.731	327.38
367.957	337.38
368.184	329.38
368.41	344.38
368.636	350.38
368.862	361.38
369.089	327.38
369.315	327.38
369.541	318.38
369.767	331.38
369.993	323.38
370.219	324.38
370.445	308.38
370.672	322.38
370.898	312.38
371.124	331.38
371.35	317.38
371.576	326.38
371.802	337.38
372.028	338.38
372.254	334.38
372.48	333.38
372.706	337.38
372.932	329.38
373.158	348.38
373.384	341.38
373.61	338.38
373.835	347.38
374.061	330.38
374.287	334.38
374.513	338.38
374.739	318.38
374.965	352.38
375.191	334.38
375.416	358.38
375.642	334.38
375.868	328.38
376.094	342.38
376.319	342.38
376.545	338.38
376.771	329.38
376.997	327.38
377.222	334.38
377.448	328.38
377.674	316.38
377.899	333.38
378.125	338.38
378.35	329.38
378.576	318.38
378.802	316.38
379.027	313.38
379.253	325.38
379.478	321.38
379.704	332.38
379.929	342.38
380.155	325.38
380.38	319.38
380.606	332.38
380.831	324.38
381.057	341.38
381.282	331.38
381.507	346.38
381.733	327.38
381.958	320.38
382.184	328.38
382.409	330.38
382.634	348.38
382.86	339.38
383.085	327.38
383.31	342.38
383.535	339.38
383.761	341.38
383.986	329.38
384.211	340.38
384.436	336.38
384.662	338.38
384.887	326.38
385.112	355.38
385.337	343.38
385.562	344.38
385.787	346.38
386.013	373.38
386.238	360.38
386.463	338.38
386.688	376.38
386.913	359.38
387.138	339.38
387.363	332.38
387.588	346.38
387.813	352.38
388.038	332.38
388.263	345.38
388.488	341.38
388.713	349.38
388.938	355.38
389.163	332.38
389.387	363.38
389.612	328.38
389.837	336.38
390.062	334.38
390.287	348.38
390.512	349.38
390.736	354.38
390.961	341.38
391.186	341.38
391.411	351.38
391.636	361.38
391.86	340.38
392.085	347.38
392.31	337.38
392.534	349.38
392.759	353.38
392.984	354.38
393.208	339.38
393.433	372.38
393.658	352.38
393.882	321.38
394.107	345.38
394.331	325.38
394.556	339.38
394.78	340.38
395.005	349.38
395.229	361.38
395.454	335.38
395.678	366.38
395.903	362.38
396.127	376.38
396.352	378.38
396.576	363.38
396.801	353.38
397.025	348.38
397.249	374.38
397.474	366.38
397.698	351.38
397.922	370.38
398.147	402.38
398.371	402.38
398.595	394.38
398.82	373.38
399.044	380.38
399.268	394.38
399.492	386.38
399.717	416.38
399.941	435.38
400.165	455.38
400.389	480.38
400.613	448.38
400.837	411.38
401.062	396.38
401.286	387.38
401.51	393.38
401.734	380.38
401.958	384.38
402.182	404.38
402.406	396.38
402.63	411.38
402.854	392.38
403.078	398.38
403.302	403.38
403.526	402.38
403.75	420.38
403.974	399.38
404.198	384.38
404.422	394.38
404.645	398.38
404.869	413.38
405.093	404.38
405.317	399.38
405.541	462.38
405.765	440.38
405.988	405.38
406.212	432.38
406.436	462.38
406.66	460.38
406.883	451.38
407.107	458.38
407.331	489.38
407.555	558.38
407.778	549.38
408.002	513.38
408.226	459.38
408.449	448.38
408.673	484.38
408.896	469.38
409.12	523.38
409.344	491.38
409.567	427.38
409.791	418.38
410.014	412.38
410.238	405.38
410.461	418.38
410.685	385.38
410.908	422.38
411.132	465.38
411.355	475.38
411.578	466.38
411.802	420.38
412.025	398.38
412.249	410.38
412.472	409.38
412.695	388.38
412.919	413.38
413.142	402.38
413.365	383.38
413.589	400.38
413.812	381.38
414.035	391.38
414.258	384.38
414.482	376.38
414.705	386.38
414.928	377.38
415.151	377.38
415.374	373.38
415.597	377.38
415.821	383.38
416.044	384.38
416.267	384.38
416.49	426.38
416.713	370.38
416.936	373.38
417.159	378.38
417.382	374.38
417.605	381.38
417.828	402.38
418.051	417.38
418.274	374.38
418.497	388.38
418.72	392.38
418.943	376.38
419.166	394.38
419.389	399.38
419.611	384.38
419.834	398.38
420.057	393.38
420.28	400.38
420.503	402.38
420.726	395.38
420.948	396.38
421.171	457.38
421.394	470.38
421.617	426.38
421.839	411.38
422.062	398.38
422.285	418.38
422.507	463.38
422.73	538.38
422.953	545.38
423.175	461.38
423.398	435.38
423.621	427.38
423.843	470.38
424.066	448.38
424.288	449.38
424.511	470.38
424.733	524.38
424.956	575.38
425.178	560.38
425.401	565.38
425.623	577.38
425.846	493.38
426.068	447.38
426.291	443.38
426.513	457.38
426.735	464.38
426.958	494.38
427.18	578.38
427.402	668.38
427.625	738.38
427.847	642.38
428.069	570.38
428.292	505.38
428.514	464.38
428.736	440.38
428.958	436.38
429.181	425.38
429.403	417.38
429.625	426.38
429.847	445.38
430.069	498.38
430.292	520.38
430.514	431.38
430.736	427.38
430.958	414.38
431.18	402.38
431.402	378.38
431.624	379.38
431.846	404.38
432.068	378.38
432.29	394.38
432.512	408.38
432.734	380.38
432.956	385.38
433.178	399.38
433.4	411.38
433.622	393.38
433.844	383.38
434.066	380.38
434.287	388.38
434.509	397.38
434.731	388.38
434.953	397.38
435.175	405.38
435.397	440.38
435.618	464.38
435.84	492.38
436.062	584.38
436.284	637.38
436.505	540.38
436.727	464.38
436.949	442.38
437.17	437.38
437.392	426.38
437.614	441.38
437.835	479.38
438.057	546.38
438.278	648.38
438.5	654.38
438.721	706.38
438.943	646.38
439.165	537.38
439.386	502.38
439.608	474.38
439.829	469.38
440.05	489.38
440.272	538.38
440.493	501.38
440.715	443.38
440.936	442.38
441.158	416.38
441.379	435.38
441.6	436.38
441.822	462.38
442.043	484.38
442.264	580.38
442.486	605.38
442.707	536.38
442.928	500.38
443.149	476.38
443.371	514.38
443.592	530.38
443.813	601.38
444.034	669.38
444.255	561.38
444.476	477.38
444.698	450.38
444.919	444.38
445.14	565.38
445.361	502.38
445.582	469.38
445.803	558.38
446.024	647.38
446.245	661.38
446.466	588.38
446.687	504.38
446.908	460.38
447.129	453.38
447.35	428.38
447.571	434.38
447.792	424.38
448.013	436.38
448.234	442.38
448.455	522.38
448.675	595.38
448.896	677.38
449.117	587.38
449.338	550.38
449.559	645.38
449.779	714.38
450	593.38
450.221	472.38
450.442	456.38
450.662	440.38
450.883	427.38
451.104	442.38
451.324	421.38
451.545	421.38
451.766	409.38
451.986	391.38
452.207	380.38
452.428	362.38
452.648	377.38
452.869	389.38
453.089	395.38
453.31	387.38
453.53	380.38
453.751	395.38
453.971	390.38
454.192	412.38
454.412	404.38
454.633	376.38
454.853	377.38
455.073	378.38
455.294	394.38
455.514	453.38
455.734	461.38
455.955	383.38
456.175	363.38
456.395	349.38
456.616	348.38
456.836	376.38
457.056	350.38
457.276	332.38
457.497	369.38
457.717	364.38
457.937	366.38
458.157	356.38
458.377	389.38
458.598	390.38
458.818	416.38
459.038	514.38
459.258	538.38
459.478	466.38
459.698	388.38
459.918	388.38
460.138	385.38
460.358	387.38
460.578	361.38
460.798	384.38
461.018	359.38
461.238	380.38
461.458	387.38
461.678	360.38
461.898	394.38
462.118	373.38
462.338	395.38
462.558	388.38
462.777	402.38
462.997	407.38
463.217	400.38
463.437	407.38
463.657	410.38
463.876	393.38
464.096	401.38
464.316	407.38
464.536	413.38
464.755	414.38
464.975	389.38
465.195	439.38
465.414	544.38
465.634	459.38
465.854	424.38
466.073	409.38
466.293	404.38
466.512	365.38
466.732	364.38
466.951	374.38
467.171	338.38
467.391	393.38
467.61	393.38
467.829	393.38
468.049	385.38
468.268	371.38
468.488	372.38
468.707	372.38
468.927	352.38
469.146	348.38
469.365	382.38
469.585	384.38
469.804	376.38
470.023	378.38
470.243	392.38
470.462	396.38
470.681	412.38
470.901	381.38
471.12	400.38
471.339	373.38
471.558	385.38
471.777	378.38
471.997	378.38
472.216	374.38
472.435	385.38
472.654	381.38
472.873	366.38
473.092	362.38
473.311	381.38
473.53	397.38
473.749	416.38
473.968	426.38
474.187	502.38
474.406	530.38
474.625	453.38
474.844	410.38
475.063	388.38
475.282	398.38
475.501	393.38
475.72	394.38
475.939	392.38
476.158	400.38
476.377	385.38
476.596	400.38
476.814	412.38
477.033	411.38
477.252	410.38
477.471	418.38
477.69	403.38
477.908	397.38
478.127	411.38
478.346	396.38
478.564	438.38
478.783	433.38
479.002	419.38
479.22	442.38
479.439	459.38
479.658	449.38
479.876	459.38
480.095	462.38
480.313	471.38
480.532	478.38
480.751	471.38
480.969	469.38
481.188	472.38
481.406	484.38
481.624	445.38
481.843	444.38
482.061	434.38
482.28	434.38
482.498	440.38
482.717	447.38
482.935	446.38
483.153	411.38
483.372	444.38
483.59	455.38
483.808	455.38
484.027	446.38
484.245	443.38
484.463	446.38
484.681	460.38
484.9	462.38
485.118	460.38
485.336	470.38
485.554	463.38
485.772	481.38
485.99	480.38
486.209	461.38
486.427	478.38
486.645	494.38
486.863	497.38
487.081	473.38
487.299	493.38
487.517	493.38
487.735	503.38
487.953	492.38
488.171	486.38
488.389	504.38
488.607	474.38
488.825	497.38
489.043	477.38
489.261	508.38
489.479	509.38
489.696	510.38
489.914	504.38
490.132	474.38
490.35	506.38
490.568	496.38
490.786	518.38
491.003	516.38
491.221	554.38
491.439	537.38
491.657	536.38
491.874	538.38
492.092	546.38
492.31	559.38
492.527	580.38
492.745	563.38
492.963	584.38
493.18	572.38
493.398	589.38
493.615	598.38
493.833	573.38
494.05	589.38
494.268	549.38
494.485	555.38
494.703	584.38
494.92	567.38
495.138	576.38
495.355	609.38
495.573	574.38
495.79	590.38
496.008	598.38
496.225	578.38
496.442	575.38
496.66	572.38
496.877	577.38
497.094	588.38
497.312	593.38
497.529	590.38
497.746	609.38
497.963	602.38
498.181	634.38
498.398	610.38
498.615	630.38
498.832	630.38
499.049	620.38
499.267	644.38
499.484	668.38
499.701	660.38
499.918	709.38
500.135	702.38
500.352	728.38
500.569	730.38
500.786	745.38
501.003	724.38
501.22	702.38
501.437	679.38
501.654	675.38
501.871	712.38
502.088	744.38
