Data from 1986.PennyLincolnUp.Lamp.En5.5.200Scan.071819.P2_HRD10591_17-11-56-973.txt Node
Date: Thu Jul 18 17:11:56 EDT 2019
User: cochatt
Spectrometer: HR+D1059
Trigger mode: 1
Integration Time (sec): 1.000000E-1
Scans to average: 1
Electric dark correction enabled: true
Nonlinearity correction enabled: false
Boxcar width: 0
XAxis mode: Wavelengths
Number of Pixels in Spectrum: 2048
>>>>>Begin Spectral Data<<<<<
223.165	-14.06
223.4	-14.06
223.635	-14.06
223.869	-21.06
224.104	-18.06
224.338	-3.06
224.573	-13.06
224.808	-20.06
225.042	-7.06
225.277	-0.06
225.511	-4.06
225.746	9.94
225.98	9.94
226.215	8.94
226.449	9.94
226.683	6.94
226.918	24.94
227.152	29.94
227.387	21.94
227.621	47.94
227.856	58.94
228.09	37.94
228.324	40.94
228.559	54.94
228.793	55.94
229.027	101.94
229.262	106.94
229.496	125.94
229.73	145.94
229.964	159.94
230.199	137.94
230.433	106.94
230.667	105.94
230.901	117.94
231.136	112.94
231.37	111.94
231.604	112.94
231.838	119.94
232.072	121.94
232.306	94.94
232.541	107.94
232.775	104.94
233.009	120.94
233.243	120.94
233.477	105.94
233.711	125.94
233.945	117.94
234.179	110.94
234.413	115.94
234.647	113.94
234.881	113.94
235.115	123.94
235.349	126.94
235.583	123.94
235.817	122.94
236.051	112.94
236.285	132.94
236.519	136.94
236.753	126.94
236.987	132.94
237.221	206.94
237.455	246.94
237.689	193.94
237.922	137.94
238.156	141.94
238.39	137.94
238.624	124.94
238.858	112.94
239.091	111.94
239.325	127.94
239.559	126.94
239.793	144.94
240.027	125.94
240.26	128.94
240.494	169.94
240.728	160.94
240.961	139.94
241.195	157.94
241.429	141.94
241.662	134.94
241.896	148.94
242.13	131.94
242.363	148.94
242.597	132.94
242.83	147.94
243.064	132.94
243.298	147.94
243.531	131.94
243.765	140.94
243.998	149.94
244.232	135.94
244.465	149.94
244.699	142.94
244.932	153.94
245.166	145.94
245.399	153.94
245.633	152.94
245.866	160.94
246.099	142.94
246.333	145.94
246.566	145.94
246.8	136.94
247.033	148.94
247.266	148.94
247.5	158.94
247.733	171.94
247.966	168.94
248.2	197.94
248.433	184.94
248.666	183.94
248.899	191.94
249.133	202.94
249.366	237.94
249.599	223.94
249.832	197.94
250.066	209.94
250.299	195.94
250.532	218.94
250.765	228.94
250.998	253.94
251.231	262.94
251.465	236.94
251.698	236.94
251.931	218.94
252.164	215.94
252.397	218.94
252.63	207.94
252.863	218.94
253.096	242.94
253.329	257.94
253.562	232.94
253.795	232.94
254.028	244.94
254.261	253.94
254.494	259.94
254.727	266.94
254.96	301.94
255.193	295.94
255.426	285.94
255.659	266.94
255.892	266.94
256.124	318.94
256.357	312.94
256.59	313.94
256.823	301.94
257.056	267.94
257.289	263.94
257.521	257.94
257.754	227.94
257.987	218.94
258.22	230.94
258.452	238.94
258.685	231.94
258.918	233.94
259.151	243.94
259.383	230.94
259.616	242.94
259.849	218.94
260.081	241.94
260.314	256.94
260.547	266.94
260.779	266.94
261.012	259.94
261.244	235.94
261.477	241.94
261.71	241.94
261.942	211.94
262.175	255.94
262.407	232.94
262.64	243.94
262.872	221.94
263.105	237.94
263.337	220.94
263.57	224.94
263.802	231.94
264.035	212.94
264.267	215.94
264.499	219.94
264.732	215.94
264.964	205.94
265.197	221.94
265.429	223.94
265.661	203.94
265.894	217.94
266.126	233.94
266.358	216.94
266.591	225.94
266.823	229.94
267.055	230.94
267.287	219.94
267.52	216.94
267.752	234.94
267.984	239.94
268.216	234.94
268.448	233.94
268.681	244.94
268.913	264.94
269.145	259.94
269.377	266.94
269.609	283.94
269.841	255.94
270.073	294.94
270.306	297.94
270.538	319.94
270.77	323.94
271.002	313.94
271.234	315.94
271.466	310.94
271.698	333.94
271.93	323.94
272.162	359.94
272.394	330.94
272.626	312.94
272.858	305.94
273.09	304.94
273.322	307.94
273.553	289.94
273.785	271.94
274.017	271.94
274.249	276.94
274.481	277.94
274.713	263.94
274.945	275.94
275.176	282.94
275.408	268.94
275.64	267.94
275.872	264.94
276.104	279.94
276.335	275.94
276.567	266.94
276.799	301.94
277.031	330.94
277.262	343.94
277.494	326.94
277.726	317.94
277.957	298.94
278.189	269.94
278.421	281.94
278.652	304.94
278.884	283.94
279.115	265.94
279.347	266.94
279.579	296.94
279.81	262.94
280.042	267.94
280.273	282.94
280.505	290.94
280.736	272.94
280.968	271.94
281.199	256.94
281.431	251.94
281.662	268.94
281.894	266.94
282.125	262.94
282.356	278.94
282.588	307.94
282.819	330.94
283.051	276.94
283.282	273.94
283.513	277.94
283.745	278.94
283.976	273.94
284.207	280.94
284.439	279.94
284.67	283.94
284.901	275.94
285.132	265.94
285.364	268.94
285.595	271.94
285.826	271.94
286.057	288.94
286.288	273.94
286.52	284.94
286.751	278.94
286.982	271.94
287.213	272.94
287.444	294.94
287.675	290.94
287.906	293.94
288.138	313.94
288.369	303.94
288.6	309.94
288.831	293.94
289.062	286.94
289.293	295.94
289.524	295.94
289.755	292.94
289.986	277.94
290.217	279.94
290.448	288.94
290.679	319.94
290.91	285.94
291.141	293.94
291.371	286.94
291.602	299.94
291.833	278.94
292.064	283.94
292.295	268.94
292.526	277.94
292.757	292.94
292.987	258.94
293.218	269.94
293.449	289.94
293.68	270.94
293.91	271.94
294.141	273.94
294.372	279.94
294.603	267.94
294.833	291.94
295.064	289.94
295.295	265.94
295.525	291.94
295.756	297.94
295.987	291.94
296.217	324.94
296.448	330.94
296.679	278.94
296.909	292.94
297.14	311.94
297.37	296.94
297.601	291.94
297.831	293.94
298.062	289.94
298.292	286.94
298.523	289.94
298.753	291.94
298.984	298.94
299.214	320.94
299.445	301.94
299.675	309.94
299.905	314.94
300.136	302.94
300.366	295.94
300.597	310.94
300.827	302.94
301.057	318.94
301.288	321.94
301.518	309.94
301.748	338.94
301.979	321.94
302.209	312.94
302.439	321.94
302.669	307.94
302.9	303.94
303.13	301.94
303.36	311.94
303.59	309.94
303.82	331.94
304.051	330.94
304.281	327.94
304.511	315.94
304.741	307.94
304.971	312.94
305.201	297.94
305.431	290.94
305.661	325.94
305.891	306.94
306.121	323.94
306.352	312.94
306.582	331.94
306.812	331.94
307.042	322.94
307.272	343.94
307.502	343.94
307.731	345.94
307.961	347.94
308.191	339.94
308.421	340.94
308.651	321.94
308.881	337.94
309.111	355.94
309.341	330.94
309.571	354.94
309.8	357.94
310.03	368.94
310.26	377.94
310.49	357.94
310.72	371.94
310.949	391.94
311.179	407.94
311.409	378.94
311.639	376.94
311.868	384.94
312.098	377.94
312.328	394.94
312.557	395.94
312.787	438.94
313.017	406.94
313.246	392.94
313.476	378.94
313.706	371.94
313.935	371.94
314.165	376.94
314.394	403.94
314.624	391.94
314.853	388.94
315.083	402.94
315.312	361.94
315.542	368.94
315.771	371.94
316.001	364.94
316.23	382.94
316.46	354.94
316.689	373.94
316.919	374.94
317.148	373.94
317.377	370.94
317.607	373.94
317.836	377.94
318.065	390.94
318.295	380.94
318.524	386.94
318.753	374.94
318.983	376.94
319.212	398.94
319.441	407.94
319.67	406.94
319.9	397.94
320.129	382.94
320.358	371.94
320.587	402.94
320.816	407.94
321.046	427.94
321.275	396.94
321.504	406.94
321.733	411.94
321.962	424.94
322.191	442.94
322.42	437.94
322.649	462.94
322.878	494.94
323.108	493.94
323.337	497.94
323.566	551.94
323.795	580.94
324.024	632.94
324.253	778.94
324.482	1098.94
324.71	1699.94
324.939	2412.94
325.168	2164.94
325.397	1100.94
325.626	759.94
325.855	622.94
326.084	563.94
326.313	552.94
326.542	544.94
326.77	610.94
326.999	712.94
327.228	1021.94
327.457	1509.94
327.686	1861.94
327.914	1261.94
328.143	866.94
328.372	758.94
328.6	711.94
328.829	664.94
329.058	667.94
329.287	699.94
329.515	655.94
329.744	629.94
329.972	642.94
330.201	720.94
330.43	797.94
330.658	789.94
330.887	727.94
331.115	695.94
331.344	591.94
331.572	537.94
331.801	534.94
332.03	535.94
332.258	516.94
332.486	500.94
332.715	498.94
332.943	477.94
333.172	471.94
333.4	493.94
333.629	507.94
333.857	558.94
334.085	606.94
334.314	678.94
334.542	817.94
334.771	880.94
334.999	675.94
335.227	571.94
335.455	508.94
335.684	479.94
335.912	459.94
336.14	458.94
336.369	450.94
336.597	454.94
336.825	455.94
337.053	450.94
337.281	444.94
337.51	446.94
337.738	424.94
337.966	443.94
338.194	433.94
338.422	435.94
338.65	428.94
338.878	436.94
339.106	406.94
339.334	422.94
339.562	432.94
339.79	417.94
340.018	426.94
340.246	434.94
340.474	435.94
340.702	421.94
340.93	434.94
341.158	414.94
341.386	426.94
341.614	417.94
341.842	426.94
342.07	420.94
342.298	434.94
342.526	398.94
342.754	417.94
342.981	405.94
343.209	391.94
343.437	403.94
343.665	404.94
343.893	418.94
344.12	413.94
344.348	419.94
344.576	438.94
344.804	429.94
345.031	414.94
345.259	451.94
345.487	460.94
345.714	419.94
345.942	401.94
346.17	408.94
346.397	403.94
346.625	396.94
346.853	391.94
347.08	399.94
347.308	423.94
347.535	409.94
347.763	420.94
347.99	414.94
348.218	425.94
348.445	437.94
348.673	423.94
348.9	386.94
349.128	398.94
349.355	367.94
349.583	389.94
349.81	396.94
350.037	401.94
350.265	394.94
350.492	388.94
350.72	393.94
350.947	396.94
351.174	399.94
351.402	402.94
351.629	415.94
351.856	415.94
352.083	414.94
352.311	422.94
352.538	437.94
352.765	439.94
352.992	409.94
353.22	401.94
353.447	413.94
353.674	398.94
353.901	386.94
354.128	385.94
354.355	384.94
354.583	369.94
354.81	381.94
355.037	383.94
355.264	357.94
355.491	345.94
355.718	370.94
355.945	349.94
356.172	365.94
356.399	341.94
356.626	355.94
356.853	360.94
357.08	371.94
357.307	373.94
357.534	375.94
357.761	371.94
357.988	361.94
358.215	365.94
358.441	382.94
358.668	370.94
358.895	386.94
359.122	368.94
359.349	373.94
359.576	413.94
359.802	421.94
360.029	455.94
360.256	462.94
360.483	441.94
360.709	424.94
360.936	384.94
361.163	419.94
361.39	412.94
361.616	401.94
361.843	403.94
362.07	412.94
362.296	401.94
362.523	395.94
362.749	382.94
362.976	399.94
363.203	389.94
363.429	375.94
363.656	362.94
363.882	380.94
364.109	373.94
364.335	360.94
364.562	379.94
364.788	371.94
365.015	383.94
365.241	376.94
365.468	386.94
365.694	398.94
365.92	393.94
366.147	395.94
366.373	374.94
366.599	393.94
366.826	361.94
367.052	350.94
367.278	353.94
367.505	366.94
367.731	401.94
367.957	397.94
368.184	390.94
368.41	354.94
368.636	400.94
368.862	397.94
369.089	390.94
369.315	395.94
369.541	361.94
369.767	387.94
369.993	365.94
370.219	358.94
370.445	371.94
370.672	381.94
370.898	369.94
371.124	354.94
371.35	375.94
371.576	367.94
371.802	368.94
372.028	355.94
372.254	369.94
372.48	365.94
372.706	359.94
372.932	372.94
373.158	371.94
373.384	373.94
373.61	357.94
373.835	367.94
374.061	376.94
374.287	374.94
374.513	364.94
374.739	370.94
374.965	365.94
375.191	350.94
375.416	374.94
375.642	358.94
375.868	377.94
376.094	388.94
376.319	362.94
376.545	358.94
376.771	366.94
376.997	357.94
377.222	364.94
377.448	355.94
377.674	342.94
377.899	369.94
378.125	342.94
378.35	353.94
378.576	356.94
378.802	362.94
379.027	357.94
379.253	366.94
379.478	352.94
379.704	369.94
379.929	356.94
380.155	355.94
380.38	379.94
380.606	368.94
380.831	366.94
381.057	361.94
381.282	357.94
381.507	360.94
381.733	355.94
381.958	375.94
382.184	365.94
382.409	385.94
382.634	380.94
382.86	351.94
383.085	378.94
383.31	368.94
383.535	385.94
383.761	368.94
383.986	381.94
384.211	368.94
384.436	373.94
384.662	392.94
384.887	380.94
385.112	379.94
385.337	385.94
385.562	383.94
385.787	372.94
386.013	387.94
386.238	403.94
386.463	389.94
386.688	399.94
386.913	375.94
387.138	379.94
387.363	380.94
387.588	363.94
387.813	375.94
388.038	377.94
388.263	388.94
388.488	374.94
388.713	378.94
388.938	375.94
389.163	343.94
389.387	395.94
389.612	371.94
389.837	379.94
390.062	379.94
390.287	383.94
390.512	366.94
390.736	369.94
390.961	377.94
391.186	376.94
391.411	370.94
391.636	369.94
391.86	386.94
392.085	385.94
392.31	405.94
392.534	383.94
392.759	400.94
392.984	376.94
393.208	383.94
393.433	366.94
393.658	388.94
393.882	381.94
394.107	408.94
394.331	374.94
394.556	391.94
394.78	395.94
395.005	370.94
395.229	383.94
395.454	384.94
395.678	378.94
395.903	397.94
396.127	428.94
396.352	445.94
396.576	402.94
396.801	371.94
397.025	406.94
397.249	373.94
397.474	401.94
397.698	404.94
397.922	424.94
398.147	417.94
398.371	423.94
398.595	415.94
398.82	432.94
399.044	418.94
399.268	426.94
399.492	459.94
399.717	465.94
399.941	488.94
400.165	502.94
400.389	529.94
400.613	484.94
400.837	453.94
401.062	441.94
401.286	418.94
401.51	405.94
401.734	419.94
401.958	417.94
402.182	440.94
402.406	465.94
402.63	439.94
402.854	426.94
403.078	444.94
403.302	441.94
403.526	479.94
403.75	454.94
403.974	455.94
404.198	441.94
404.422	470.94
404.645	484.94
404.869	466.94
405.093	512.94
405.317	591.94
405.541	619.94
405.765	543.94
405.988	520.94
406.212	521.94
406.436	522.94
406.66	512.94
406.883	521.94
407.107	508.94
407.331	564.94
407.555	585.94
407.778	602.94
408.002	554.94
408.226	522.94
408.449	510.94
408.673	491.94
408.896	511.94
409.12	573.94
409.344	544.94
409.567	467.94
409.791	480.94
410.014	450.94
410.238	452.94
410.461	448.94
410.685	458.94
410.908	458.94
411.132	501.94
411.355	533.94
411.578	520.94
411.802	478.94
412.025	473.94
412.249	490.94
412.472	553.94
412.695	621.94
412.919	551.94
413.142	535.94
413.365	510.94
413.589	460.94
413.812	445.94
414.035	460.94
414.258	473.94
414.482	453.94
414.705	440.94
414.928	440.94
415.151	437.94
415.374	440.94
415.597	430.94
415.821	424.94
416.044	451.94
416.267	438.94
416.49	428.94
416.713	436.94
416.936	433.94
417.159	446.94
417.382	438.94
417.605	455.94
417.828	448.94
418.051	468.94
418.274	454.94
418.497	446.94
418.72	452.94
418.943	425.94
419.166	455.94
419.389	455.94
419.611	463.94
419.834	468.94
420.057	462.94
420.28	476.94
420.503	497.94
420.726	490.94
420.948	489.94
421.171	517.94
421.394	547.94
421.617	499.94
421.839	464.94
422.062	458.94
422.285	470.94
422.507	553.94
422.73	588.94
422.953	575.94
423.175	518.94
423.398	473.94
423.621	477.94
423.843	480.94
424.066	503.94
424.288	474.94
424.511	527.94
424.733	567.94
424.956	636.94
425.178	617.94
425.401	641.94
425.623	634.94
425.846	546.94
426.068	509.94
426.291	497.94
426.513	498.94
426.735	517.94
426.958	540.94
427.18	643.94
427.402	752.94
427.625	806.94
427.847	754.94
428.069	700.94
428.292	587.94
428.514	535.94
428.736	482.94
428.958	478.94
429.181	479.94
429.403	459.94
429.625	499.94
429.847	505.94
430.069	572.94
430.292	565.94
430.514	489.94
430.736	479.94
430.958	452.94
431.18	461.94
431.402	437.94
431.624	410.94
431.846	447.94
432.068	425.94
432.29	434.94
432.512	437.94
432.734	437.94
432.956	442.94
433.178	466.94
433.4	452.94
433.622	432.94
433.844	436.94
434.066	424.94
434.287	435.94
434.509	421.94
434.731	441.94
434.953	436.94
435.175	474.94
435.397	480.94
435.618	505.94
435.84	557.94
436.062	661.94
436.284	712.94
436.505	582.94
436.727	552.94
436.949	482.94
437.17	451.94
437.392	469.94
437.614	473.94
437.835	515.94
438.057	611.94
438.278	697.94
438.5	702.94
438.721	758.94
438.943	736.94
439.165	609.94
439.386	537.94
439.608	523.94
439.829	515.94
440.05	548.94
440.272	597.94
440.493	549.94
440.715	509.94
440.936	490.94
441.158	481.94
441.379	469.94
441.6	475.94
441.822	500.94
442.043	540.94
442.264	606.94
442.486	637.94
442.707	568.94
442.928	525.94
443.149	536.94
443.371	548.94
443.592	583.94
443.813	665.94
444.034	715.94
444.255	578.94
444.476	508.94
444.698	504.94
444.919	485.94
445.14	563.94
445.361	546.94
445.582	536.94
445.803	611.94
446.024	727.94
446.245	719.94
446.466	661.94
446.687	564.94
446.908	506.94
447.129	494.94
447.35	472.94
447.571	458.94
447.792	468.94
448.013	449.94
448.234	498.94
448.455	550.94
448.675	656.94
448.896	758.94
449.117	672.94
449.338	625.94
449.559	718.94
449.779	797.94
450	663.94
450.221	532.94
450.442	489.94
450.662	481.94
450.883	478.94
451.104	488.94
451.324	479.94
451.545	463.94
451.766	419.94
451.986	424.94
452.207	421.94
452.428	413.94
452.648	423.94
452.869	417.94
453.089	435.94
453.31	447.94
453.53	436.94
453.751	412.94
453.971	407.94
454.192	433.94
454.412	440.94
454.633	414.94
454.853	417.94
455.073	410.94
455.294	451.94
455.514	529.94
455.734	517.94
455.955	426.94
456.175	393.94
456.395	387.94
456.616	398.94
456.836	406.94
457.056	368.94
457.276	394.94
457.497	394.94
457.717	412.94
457.937	423.94
458.157	403.94
458.377	412.94
458.598	441.94
458.818	496.94
459.038	565.94
459.258	602.94
459.478	473.94
459.698	446.94
459.918	443.94
460.138	415.94
460.358	426.94
460.578	409.94
460.798	418.94
461.018	410.94
461.238	418.94
461.458	402.94
461.678	421.94
461.898	426.94
462.118	416.94
462.338	433.94
462.558	441.94
462.777	410.94
462.997	413.94
463.217	431.94
463.437	446.94
463.657	422.94
463.876	433.94
464.096	434.94
464.316	441.94
464.536	464.94
464.755	459.94
464.975	466.94
465.195	490.94
465.414	618.94
465.634	536.94
465.854	478.94
466.073	451.94
466.293	433.94
466.512	419.94
466.732	418.94
466.951	435.94
467.171	421.94
467.391	419.94
467.61	429.94
467.829	439.94
468.049	447.94
468.268	494.94
468.488	479.94
468.707	458.94
468.927	421.94
469.146	404.94
469.365	420.94
469.585	416.94
469.804	401.94
470.023	437.94
470.243	422.94
470.462	436.94
470.681	474.94
470.901	444.94
471.12	429.94
471.339	432.94
471.558	426.94
471.777	448.94
471.997	458.94
472.216	488.94
472.435	636.94
472.654	594.94
472.873	513.94
473.092	501.94
473.311	458.94
473.53	470.94
473.749	451.94
473.968	512.94
474.187	616.94
474.406	655.94
474.625	512.94
474.844	458.94
475.063	445.94
475.282	462.94
475.501	468.94
475.72	434.94
475.939	463.94
476.158	455.94
476.377	444.94
476.596	460.94
476.814	456.94
477.033	449.94
477.252	452.94
477.471	464.94
477.69	455.94
477.908	474.94
478.127	471.94
478.346	468.94
478.564	489.94
478.783	486.94
479.002	464.94
479.22	496.94
479.439	510.94
479.658	524.94
479.876	541.94
480.095	546.94
480.313	597.94
480.532	584.94
480.751	553.94
480.969	591.94
481.188	837.94
481.406	1029.94
481.624	745.94
481.843	607.94
482.061	593.94
482.28	578.94
482.498	563.94
482.717	549.94
482.935	538.94
483.153	534.94
483.372	538.94
483.59	528.94
483.808	545.94
484.027	539.94
484.245	522.94
484.463	539.94
484.681	548.94
484.9	546.94
485.118	541.94
485.336	544.94
485.554	546.94
485.772	550.94
485.99	519.94
486.209	535.94
486.427	561.94
486.645	589.94
486.863	576.94
487.081	566.94
487.299	585.94
487.517	570.94
487.735	570.94
487.953	562.94
488.171	587.94
488.389	568.94
488.607	559.94
488.825	555.94
489.043	533.94
489.261	557.94
489.479	592.94
489.696	589.94
489.914	587.94
490.132	596.94
490.35	605.94
490.568	586.94
490.786	606.94
491.003	625.94
491.221	667.94
491.439	652.94
491.657	646.94
491.874	675.94
492.092	677.94
492.31	686.94
492.527	677.94
492.745	699.94
492.963	703.94
493.18	698.94
493.398	709.94
493.615	706.94
493.833	706.94
494.05	670.94
494.268	690.94
494.485	693.94
494.703	672.94
494.92	719.94
495.138	688.94
495.355	690.94
495.573	692.94
495.79	692.94
496.008	719.94
496.225	679.94
496.442	699.94
496.66	679.94
496.877	665.94
497.094	667.94
497.312	673.94
497.529	689.94
497.746	675.94
497.963	694.94
498.181	704.94
498.398	706.94
498.615	745.94
498.832	710.94
499.049	736.94
499.267	721.94
499.484	760.94
499.701	742.94
499.918	755.94
500.135	809.94
500.352	817.94
500.569	834.94
500.786	809.94
501.003	840.94
501.22	836.94
501.437	799.94
501.654	763.94
501.871	810.94
