Data from 1986.PennyLincolnUp.Lamp.En5.5.200Scan.071819.P2_HRD10591_17-09-44-975.txt Node
Date: Thu Jul 18 17:09:44 EDT 2019
User: cochatt
Spectrometer: HR+D1059
Trigger mode: 1
Integration Time (sec): 1.000000E-1
Scans to average: 1
Electric dark correction enabled: true
Nonlinearity correction enabled: false
Boxcar width: 0
XAxis mode: Wavelengths
Number of Pixels in Spectrum: 2048
>>>>>Begin Spectral Data<<<<<
223.165	-15.31
223.4	-15.31
223.635	-15.31
223.869	-8.31
224.104	-26.31
224.338	-17.31
224.573	-22.31
224.808	-14.31
225.042	-11.31
225.277	-0.31
225.511	4.69
225.746	12.69
225.98	12.69
226.215	4.69
226.449	1.69
226.683	14.69
226.918	27.69
227.152	36.69
227.387	34.69
227.621	35.69
227.856	40.69
228.09	27.69
228.324	57.69
228.559	62.69
228.793	59.69
229.027	101.69
229.262	99.69
229.496	95.69
229.73	129.69
229.964	139.69
230.199	135.69
230.433	113.69
230.667	115.69
230.901	91.69
231.136	108.69
231.37	115.69
231.604	94.69
231.838	105.69
232.072	109.69
232.306	108.69
232.541	104.69
232.775	111.69
233.009	110.69
233.243	113.69
233.477	106.69
233.711	106.69
233.945	114.69
234.179	119.69
234.413	111.69
234.647	119.69
234.881	103.69
235.115	115.69
235.349	103.69
235.583	102.69
235.817	105.69
236.051	123.69
236.285	125.69
236.519	104.69
236.753	117.69
236.987	129.69
237.221	162.69
237.455	205.69
237.689	163.69
237.922	140.69
238.156	121.69
238.39	100.69
238.624	119.69
238.858	101.69
239.091	102.69
239.325	114.69
239.559	108.69
239.793	125.69
240.027	137.69
240.26	128.69
240.494	125.69
240.728	148.69
240.961	140.69
241.195	127.69
241.429	117.69
241.662	106.69
241.896	127.69
242.13	120.69
242.363	123.69
242.597	122.69
242.83	126.69
243.064	123.69
243.298	120.69
243.531	132.69
243.765	125.69
243.998	135.69
244.232	119.69
244.465	122.69
244.699	141.69
244.932	132.69
245.166	137.69
245.399	134.69
245.633	134.69
245.866	138.69
246.099	130.69
246.333	135.69
246.566	146.69
246.8	152.69
247.033	151.69
247.266	135.69
247.5	150.69
247.733	160.69
247.966	155.69
248.2	155.69
248.433	160.69
248.666	156.69
248.899	185.69
249.133	182.69
249.366	184.69
249.599	177.69
249.832	190.69
250.066	163.69
250.299	189.69
250.532	173.69
250.765	172.69
250.998	206.69
251.231	203.69
251.465	204.69
251.698	193.69
251.931	180.69
252.164	181.69
252.397	186.69
252.63	189.69
252.863	205.69
253.096	199.69
253.329	215.69
253.562	218.69
253.795	200.69
254.028	200.69
254.261	193.69
254.494	225.69
254.727	225.69
254.96	233.69
255.193	235.69
255.426	224.69
255.659	220.69
255.892	211.69
256.124	202.69
256.357	188.69
256.59	191.69
256.823	180.69
257.056	193.69
257.289	197.69
257.521	203.69
257.754	196.69
257.987	184.69
258.22	198.69
258.452	200.69
258.685	193.69
258.918	186.69
259.151	185.69
259.383	200.69
259.616	199.69
259.849	199.69
260.081	228.69
260.314	213.69
260.547	235.69
260.779	246.69
261.012	192.69
261.244	218.69
261.477	195.69
261.71	194.69
261.942	195.69
262.175	213.69
262.407	200.69
262.64	191.69
262.872	193.69
263.105	205.69
263.337	196.69
263.57	198.69
263.802	185.69
264.035	180.69
264.267	171.69
264.499	191.69
264.732	188.69
264.964	199.69
265.197	194.69
265.429	184.69
265.661	174.69
265.894	187.69
266.126	193.69
266.358	194.69
266.591	190.69
266.823	200.69
267.055	197.69
267.287	172.69
267.52	185.69
267.752	199.69
267.984	204.69
268.216	191.69
268.448	187.69
268.681	206.69
268.913	207.69
269.145	225.69
269.377	252.69
269.609	227.69
269.841	231.69
270.073	240.69
270.306	263.69
270.538	283.69
270.77	270.69
271.002	255.69
271.234	269.69
271.466	262.69
271.698	276.69
271.93	289.69
272.162	289.69
272.394	265.69
272.626	249.69
272.858	272.69
273.09	239.69
273.322	228.69
273.553	225.69
273.785	234.69
274.017	243.69
274.249	237.69
274.481	244.69
274.713	239.69
274.945	239.69
275.176	247.69
275.408	237.69
275.64	232.69
275.872	232.69
276.104	244.69
276.335	226.69
276.567	246.69
276.799	235.69
277.031	262.69
277.262	284.69
277.494	277.69
277.726	273.69
277.957	258.69
278.189	239.69
278.421	242.69
278.652	239.69
278.884	233.69
279.115	213.69
279.347	226.69
279.579	221.69
279.81	235.69
280.042	230.69
280.273	215.69
280.505	224.69
280.736	237.69
280.968	243.69
281.199	223.69
281.431	233.69
281.662	237.69
281.894	227.69
282.125	232.69
282.356	249.69
282.588	270.69
282.819	259.69
283.051	238.69
283.282	218.69
283.513	229.69
283.745	233.69
283.976	236.69
284.207	236.69
284.439	240.69
284.67	230.69
284.901	243.69
285.132	246.69
285.364	242.69
285.595	227.69
285.826	226.69
286.057	232.69
286.288	228.69
286.52	240.69
286.751	229.69
286.982	235.69
287.213	237.69
287.444	243.69
287.675	240.69
287.906	259.69
288.138	250.69
288.369	247.69
288.6	262.69
288.831	243.69
289.062	245.69
289.293	244.69
289.524	249.69
289.755	244.69
289.986	233.69
290.217	246.69
290.448	241.69
290.679	236.69
290.91	242.69
291.141	238.69
291.371	246.69
291.602	253.69
291.833	235.69
292.064	245.69
292.295	220.69
292.526	243.69
292.757	242.69
292.987	227.69
293.218	215.69
293.449	233.69
293.68	235.69
293.91	258.69
294.141	257.69
294.372	235.69
294.603	241.69
294.833	236.69
295.064	235.69
295.295	243.69
295.525	251.69
295.756	234.69
295.987	264.69
296.217	271.69
296.448	282.69
296.679	239.69
296.909	253.69
297.14	239.69
297.37	240.69
297.601	246.69
297.831	238.69
298.062	239.69
298.292	255.69
298.523	237.69
298.753	247.69
298.984	258.69
299.214	240.69
299.445	261.69
299.675	259.69
299.905	255.69
300.136	264.69
300.366	258.69
300.597	239.69
300.827	246.69
301.057	266.69
301.288	278.69
301.518	266.69
301.748	266.69
301.979	268.69
302.209	276.69
302.439	288.69
302.669	269.69
302.9	261.69
303.13	265.69
303.36	273.69
303.59	272.69
303.82	282.69
304.051	290.69
304.281	273.69
304.511	274.69
304.741	256.69
304.971	259.69
305.201	271.69
305.431	254.69
305.661	265.69
305.891	257.69
306.121	252.69
306.352	259.69
306.582	273.69
306.812	261.69
307.042	281.69
307.272	261.69
307.502	287.69
307.731	272.69
307.961	273.69
308.191	260.69
308.421	271.69
308.651	280.69
308.881	280.69
309.111	287.69
309.341	284.69
309.571	305.69
309.8	310.69
310.03	295.69
310.26	311.69
310.49	300.69
310.72	338.69
310.949	328.69
311.179	340.69
311.409	322.69
311.639	333.69
311.868	317.69
312.098	312.69
312.328	327.69
312.557	325.69
312.787	359.69
313.017	344.69
313.246	318.69
313.476	304.69
313.706	305.69
313.935	320.69
314.165	325.69
314.394	324.69
314.624	306.69
314.853	313.69
315.083	319.69
315.312	319.69
315.542	313.69
315.771	298.69
316.001	289.69
316.23	320.69
316.46	304.69
316.689	306.69
316.919	316.69
317.148	336.69
317.377	323.69
317.607	332.69
317.836	311.69
318.065	319.69
318.295	314.69
318.524	284.69
318.753	303.69
318.983	295.69
319.212	293.69
319.441	316.69
319.67	327.69
319.9	311.69
320.129	300.69
320.358	311.69
320.587	316.69
320.816	322.69
321.046	323.69
321.275	316.69
321.504	338.69
321.733	320.69
321.962	318.69
322.191	358.69
322.42	344.69
322.649	369.69
322.878	381.69
323.108	383.69
323.337	400.69
323.566	405.69
323.795	450.69
324.024	477.69
324.253	595.69
324.482	830.69
324.71	1241.69
324.939	1809.69
325.168	1620.69
325.397	852.69
325.626	542.69
325.855	456.69
326.084	428.69
326.313	418.69
326.542	426.69
326.77	451.69
326.999	528.69
327.228	754.69
327.457	1088.69
327.686	1385.69
327.914	914.69
328.143	610.69
328.372	511.69
328.6	469.69
328.829	457.69
329.058	471.69
329.287	479.69
329.515	470.69
329.744	408.69
329.972	410.69
330.201	412.69
330.43	427.69
330.658	445.69
330.887	487.69
331.115	492.69
331.344	421.69
331.572	393.69
331.801	396.69
332.03	400.69
332.258	368.69
332.486	356.69
332.715	371.69
332.943	373.69
333.172	345.69
333.4	358.69
333.629	370.69
333.857	355.69
334.085	359.69
334.314	353.69
334.542	333.69
334.771	352.69
334.999	373.69
335.227	343.69
335.455	343.69
335.684	339.69
335.912	362.69
336.14	347.69
336.369	334.69
336.597	371.69
336.825	350.69
337.053	357.69
337.281	345.69
337.51	330.69
337.738	344.69
337.966	332.69
338.194	352.69
338.422	351.69
338.65	365.69
338.878	340.69
339.106	362.69
339.334	338.69
339.562	336.69
339.79	342.69
340.018	353.69
340.246	337.69
340.474	333.69
340.702	330.69
340.93	332.69
341.158	336.69
341.386	315.69
341.614	341.69
341.842	330.69
342.07	343.69
342.298	346.69
342.526	346.69
342.754	314.69
342.981	338.69
343.209	336.69
343.437	343.69
343.665	330.69
343.893	342.69
344.12	340.69
344.348	345.69
344.576	346.69
344.804	358.69
345.031	344.69
345.259	347.69
345.487	362.69
345.714	343.69
345.942	346.69
346.17	325.69
346.397	327.69
346.625	354.69
346.853	345.69
347.08	319.69
347.308	342.69
347.535	352.69
347.763	328.69
347.99	343.69
348.218	334.69
348.445	343.69
348.673	344.69
348.9	348.69
349.128	325.69
349.355	338.69
349.583	308.69
349.81	331.69
350.037	316.69
350.265	315.69
350.492	309.69
350.72	323.69
350.947	318.69
351.174	336.69
351.402	334.69
351.629	341.69
351.856	324.69
352.083	337.69
352.311	335.69
352.538	344.69
352.765	369.69
352.992	339.69
353.22	329.69
353.447	333.69
353.674	326.69
353.901	323.69
354.128	323.69
354.355	333.69
354.583	321.69
354.81	311.69
355.037	333.69
355.264	293.69
355.491	307.69
355.718	308.69
355.945	282.69
356.172	291.69
356.399	325.69
356.626	290.69
356.853	316.69
357.08	322.69
357.307	305.69
357.534	307.69
357.761	316.69
357.988	297.69
358.215	300.69
358.441	324.69
358.668	311.69
358.895	330.69
359.122	317.69
359.349	327.69
359.576	329.69
359.802	347.69
360.029	365.69
360.256	377.69
360.483	381.69
360.709	346.69
360.936	346.69
361.163	336.69
361.39	347.69
361.616	336.69
361.843	325.69
362.07	339.69
362.296	329.69
362.523	318.69
362.749	312.69
362.976	327.69
363.203	326.69
363.429	306.69
363.656	307.69
363.882	321.69
364.109	327.69
364.335	316.69
364.562	314.69
364.788	305.69
365.015	315.69
365.241	330.69
365.468	338.69
365.694	334.69
365.92	327.69
366.147	325.69
366.373	314.69
366.599	320.69
366.826	305.69
367.052	325.69
367.278	320.69
367.505	327.69
367.731	318.69
367.957	317.69
368.184	321.69
368.41	312.69
368.636	346.69
368.862	332.69
369.089	332.69
369.315	313.69
369.541	314.69
369.767	310.69
369.993	326.69
370.219	325.69
370.445	322.69
370.672	297.69
370.898	316.69
371.124	305.69
371.35	300.69
371.576	294.69
371.802	316.69
372.028	304.69
372.254	303.69
372.48	302.69
372.706	297.69
372.932	304.69
373.158	320.69
373.384	311.69
373.61	310.69
373.835	304.69
374.061	320.69
374.287	326.69
374.513	314.69
374.739	316.69
374.965	336.69
375.191	307.69
375.416	318.69
375.642	293.69
375.868	322.69
376.094	329.69
376.319	291.69
376.545	306.69
376.771	316.69
376.997	312.69
377.222	319.69
377.448	311.69
377.674	310.69
377.899	322.69
378.125	327.69
378.35	327.69
378.576	311.69
378.802	336.69
379.027	327.69
379.253	307.69
379.478	311.69
379.704	303.69
379.929	297.69
380.155	308.69
380.38	323.69
380.606	325.69
380.831	323.69
381.057	317.69
381.282	316.69
381.507	313.69
381.733	341.69
381.958	313.69
382.184	323.69
382.409	317.69
382.634	315.69
382.86	305.69
383.085	315.69
383.31	327.69
383.535	334.69
383.761	323.69
383.986	311.69
384.211	319.69
384.436	325.69
384.662	331.69
384.887	348.69
385.112	309.69
385.337	321.69
385.562	344.69
385.787	316.69
386.013	336.69
386.238	344.69
386.463	344.69
386.688	331.69
386.913	313.69
387.138	341.69
387.363	340.69
387.588	335.69
387.813	329.69
388.038	331.69
388.263	325.69
388.488	324.69
388.713	338.69
388.938	329.69
389.163	342.69
389.387	343.69
389.612	355.69
389.837	351.69
390.062	317.69
390.287	314.69
390.512	333.69
390.736	339.69
390.961	332.69
391.186	333.69
391.411	323.69
391.636	333.69
391.86	339.69
392.085	331.69
392.31	324.69
392.534	328.69
392.759	352.69
392.984	323.69
393.208	333.69
393.433	336.69
393.658	325.69
393.882	324.69
394.107	338.69
394.331	332.69
394.556	333.69
394.78	344.69
395.005	330.69
395.229	333.69
395.454	339.69
395.678	335.69
395.903	363.69
396.127	380.69
396.352	385.69
396.576	352.69
396.801	330.69
397.025	340.69
397.249	348.69
397.474	365.69
397.698	347.69
397.922	345.69
398.147	369.69
398.371	375.69
398.595	359.69
398.82	354.69
399.044	360.69
399.268	361.69
399.492	373.69
399.717	400.69
399.941	419.69
400.165	443.69
400.389	476.69
400.613	412.69
400.837	401.69
401.062	377.69
401.286	375.69
401.51	371.69
401.734	356.69
401.958	364.69
402.182	383.69
402.406	371.69
402.63	377.69
402.854	373.69
403.078	358.69
403.302	356.69
403.526	385.69
403.75	369.69
403.974	373.69
404.198	373.69
404.422	390.69
404.645	382.69
404.869	380.69
405.093	383.69
405.317	421.69
405.541	427.69
405.765	397.69
405.988	402.69
406.212	408.69
406.436	419.69
406.66	430.69
406.883	415.69
407.107	432.69
407.331	460.69
407.555	529.69
407.778	518.69
408.002	462.69
408.226	442.69
408.449	433.69
408.673	419.69
408.896	445.69
409.12	489.69
409.344	473.69
409.567	402.69
409.791	388.69
410.014	390.69
410.238	382.69
410.461	388.69
410.685	379.69
410.908	385.69
411.132	425.69
411.355	462.69
411.578	435.69
411.802	369.69
412.025	373.69
412.249	346.69
412.472	380.69
412.695	379.69
412.919	367.69
413.142	371.69
413.365	375.69
413.589	352.69
413.812	367.69
414.035	342.69
414.258	354.69
414.482	356.69
414.705	356.69
414.928	345.69
415.151	345.69
415.374	374.69
415.597	367.69
415.821	358.69
416.044	367.69
416.267	373.69
416.49	373.69
416.713	354.69
416.936	369.69
417.159	367.69
417.382	369.69
417.605	372.69
417.828	382.69
418.051	395.69
418.274	391.69
418.497	368.69
418.72	363.69
418.943	347.69
419.166	374.69
419.389	382.69
419.611	393.69
419.834	360.69
420.057	364.69
420.28	388.69
420.503	379.69
420.726	375.69
420.948	410.69
421.171	431.69
421.394	449.69
421.617	386.69
421.839	405.69
422.062	380.69
422.285	378.69
422.507	445.69
422.73	487.69
422.953	479.69
423.175	432.69
423.398	409.69
423.621	417.69
423.843	412.69
424.066	411.69
424.288	423.69
424.511	436.69
424.733	509.69
424.956	554.69
425.178	516.69
425.401	516.69
425.623	534.69
425.846	458.69
426.068	455.69
426.291	425.69
426.513	424.69
426.735	434.69
426.958	471.69
427.18	538.69
427.402	628.69
427.625	685.69
427.847	629.69
428.069	503.69
428.292	451.69
428.514	431.69
428.736	410.69
428.958	390.69
429.181	398.69
429.403	410.69
429.625	411.69
429.847	420.69
430.069	487.69
430.292	495.69
430.514	436.69
430.736	405.69
430.958	396.69
431.18	375.69
431.402	357.69
431.624	372.69
431.846	385.69
432.068	367.69
432.29	363.69
432.512	375.69
432.734	363.69
432.956	405.69
433.178	373.69
433.4	407.69
433.622	377.69
433.844	384.69
434.066	371.69
434.287	374.69
434.509	375.69
434.731	372.69
434.953	380.69
435.175	374.69
435.397	429.69
435.618	429.69
435.84	469.69
436.062	538.69
436.284	597.69
436.505	495.69
436.727	450.69
436.949	405.69
437.17	405.69
437.392	425.69
437.614	412.69
437.835	449.69
438.057	525.69
438.278	612.69
438.5	609.69
438.721	647.69
438.943	625.69
439.165	502.69
439.386	456.69
439.608	435.69
439.829	442.69
440.05	469.69
440.272	487.69
440.493	460.69
440.715	409.69
440.936	389.69
441.158	386.69
441.379	394.69
441.6	410.69
441.822	439.69
442.043	458.69
442.264	526.69
442.486	567.69
442.707	477.69
442.928	464.69
443.149	449.69
443.371	474.69
443.592	504.69
443.813	583.69
444.034	613.69
444.255	511.69
444.476	470.69
444.698	436.69
444.919	424.69
445.14	532.69
445.361	499.69
445.582	464.69
445.803	507.69
446.024	586.69
446.245	595.69
446.466	547.69
446.687	460.69
446.908	437.69
447.129	417.69
447.35	415.69
447.571	428.69
447.792	389.69
448.013	397.69
448.234	413.69
448.455	471.69
448.675	571.69
448.896	654.69
449.117	567.69
449.338	528.69
449.559	569.69
449.779	683.69
450	543.69
450.221	459.69
450.442	416.69
450.662	415.69
450.883	389.69
451.104	388.69
451.324	392.69
451.545	392.69
451.766	381.69
451.986	387.69
452.207	368.69
452.428	357.69
452.648	367.69
452.869	362.69
453.089	376.69
453.31	379.69
453.53	360.69
453.751	375.69
453.971	375.69
454.192	376.69
454.412	364.69
454.633	359.69
454.853	370.69
455.073	358.69
455.294	357.69
455.514	442.69
455.734	423.69
455.955	353.69
456.175	340.69
456.395	323.69
456.616	357.69
456.836	323.69
457.056	336.69
457.276	324.69
457.497	335.69
457.717	346.69
457.937	340.69
458.157	333.69
458.377	354.69
458.598	365.69
458.818	431.69
459.038	469.69
459.258	475.69
459.478	427.69
459.698	380.69
459.918	375.69
460.138	360.69
460.358	361.69
460.578	379.69
460.798	375.69
461.018	390.69
461.238	356.69
461.458	366.69
461.678	348.69
461.898	367.69
462.118	375.69
462.338	391.69
462.558	381.69
462.777	384.69
462.997	405.69
463.217	394.69
463.437	389.69
463.657	378.69
463.876	400.69
464.096	380.69
464.316	376.69
464.536	381.69
464.755	381.69
464.975	381.69
465.195	436.69
465.414	498.69
465.634	426.69
465.854	395.69
466.073	399.69
466.293	362.69
466.512	371.69
466.732	358.69
466.951	337.69
467.171	345.69
467.391	362.69
467.61	360.69
467.829	374.69
468.049	364.69
468.268	339.69
468.488	375.69
468.707	361.69
468.927	347.69
469.146	351.69
469.365	343.69
469.585	346.69
469.804	360.69
470.023	356.69
470.243	374.69
470.462	363.69
470.681	387.69
470.901	375.69
471.12	370.69
471.339	360.69
471.558	348.69
471.777	359.69
471.997	346.69
472.216	358.69
472.435	354.69
472.654	379.69
472.873	354.69
473.092	369.69
473.311	345.69
473.53	347.69
473.749	380.69
473.968	397.69
474.187	496.69
474.406	526.69
474.625	418.69
474.844	379.69
475.063	371.69
475.282	361.69
475.501	391.69
475.72	377.69
475.939	378.69
476.158	380.69
476.377	380.69
476.596	388.69
476.814	394.69
477.033	396.69
477.252	387.69
477.471	375.69
477.69	375.69
477.908	390.69
478.127	407.69
478.346	395.69
478.564	403.69
478.783	411.69
479.002	400.69
479.22	394.69
479.439	407.69
479.658	427.69
479.876	433.69
480.095	444.69
480.313	455.69
480.532	455.69
480.751	457.69
480.969	445.69
481.188	448.69
481.406	447.69
481.624	425.69
481.843	434.69
482.061	435.69
482.28	411.69
482.498	416.69
482.717	418.69
482.935	417.69
483.153	436.69
483.372	433.69
483.59	425.69
483.808	414.69
484.027	441.69
484.245	426.69
484.463	435.69
484.681	421.69
484.9	437.69
485.118	443.69
485.336	435.69
485.554	441.69
485.772	435.69
485.99	446.69
486.209	467.69
486.427	455.69
486.645	455.69
486.863	454.69
487.081	464.69
487.299	444.69
487.517	475.69
487.735	461.69
487.953	480.69
488.171	445.69
488.389	469.69
488.607	473.69
488.825	467.69
489.043	460.69
489.261	470.69
489.479	474.69
489.696	462.69
489.914	472.69
490.132	460.69
490.35	490.69
490.568	472.69
490.786	487.69
491.003	499.69
491.221	503.69
491.439	516.69
491.657	502.69
491.874	519.69
492.092	533.69
492.31	521.69
492.527	531.69
492.745	523.69
492.963	540.69
493.18	545.69
493.398	553.69
493.615	531.69
493.833	543.69
494.05	524.69
494.268	570.69
494.485	543.69
494.703	544.69
494.92	531.69
495.138	521.69
495.355	558.69
495.573	541.69
495.79	559.69
496.008	550.69
496.225	566.69
496.442	566.69
496.66	562.69
496.877	552.69
497.094	553.69
497.312	591.69
497.529	565.69
497.746	569.69
497.963	579.69
498.181	603.69
498.398	587.69
498.615	604.69
498.832	617.69
499.049	597.69
499.267	622.69
499.484	627.69
499.701	648.69
499.918	637.69
500.135	669.69
500.352	690.69
500.569	712.69
500.786	687.69
501.003	700.69
501.22	679.69
501.437	665.69
501.654	672.69
501.871	678.69
502.088	636.69
