Data from 1986.PennyLincolnUp.Lamp.En5.5.200Scan.071819.P2_HRD10591_17-11-06-973.txt Node
Date: Thu Jul 18 17:11:06 EDT 2019
User: cochatt
Spectrometer: HR+D1059
Trigger mode: 1
Integration Time (sec): 1.000000E-1
Scans to average: 1
Electric dark correction enabled: true
Nonlinearity correction enabled: false
Boxcar width: 0
XAxis mode: Wavelengths
Number of Pixels in Spectrum: 2048
>>>>>Begin Spectral Data<<<<<
223.165	0.44
223.4	0.44
223.635	0.44
223.869	-13.56
224.104	-14.56
224.338	-3.56
224.573	-8.56
224.808	-18.56
225.042	-15.56
225.277	-6.56
225.511	-7.56
225.746	-5.56
225.98	4.44
226.215	16.44
226.449	21.44
226.683	9.44
226.918	17.44
227.152	24.44
227.387	32.44
227.621	41.44
227.856	44.44
228.09	45.44
228.324	45.44
228.559	58.44
228.793	70.44
229.027	110.44
229.262	127.44
229.496	125.44
229.73	140.44
229.964	157.44
230.199	140.44
230.433	119.44
230.667	121.44
230.901	132.44
231.136	120.44
231.37	120.44
231.604	115.44
231.838	121.44
232.072	111.44
232.306	105.44
232.541	112.44
232.775	122.44
233.009	130.44
233.243	120.44
233.477	135.44
233.711	129.44
233.945	132.44
234.179	114.44
234.413	121.44
234.647	131.44
234.881	114.44
235.115	125.44
235.349	117.44
235.583	120.44
235.817	125.44
236.051	125.44
236.285	132.44
236.519	126.44
236.753	129.44
236.987	146.44
237.221	185.44
237.455	252.44
237.689	211.44
237.922	145.44
238.156	146.44
238.39	129.44
238.624	129.44
238.858	131.44
239.091	139.44
239.325	140.44
239.559	134.44
239.793	126.44
240.027	144.44
240.26	160.44
240.494	160.44
240.728	180.44
240.961	157.44
241.195	159.44
241.429	141.44
241.662	148.44
241.896	134.44
242.13	139.44
242.363	126.44
242.597	131.44
242.83	146.44
243.064	143.44
243.298	141.44
243.531	133.44
243.765	145.44
243.998	151.44
244.232	146.44
244.465	159.44
244.699	151.44
244.932	150.44
245.166	167.44
245.399	156.44
245.633	167.44
245.866	147.44
246.099	146.44
246.333	163.44
246.566	139.44
246.8	161.44
247.033	170.44
247.266	166.44
247.5	172.44
247.733	171.44
247.966	176.44
248.2	175.44
248.433	176.44
248.666	195.44
248.899	204.44
249.133	205.44
249.366	218.44
249.599	218.44
249.832	202.44
250.066	194.44
250.299	204.44
250.532	206.44
250.765	210.44
250.998	243.44
251.231	243.44
251.465	236.44
251.698	229.44
251.931	207.44
252.164	221.44
252.397	209.44
252.63	228.44
252.863	228.44
253.096	242.44
253.329	251.44
253.562	252.44
253.795	229.44
254.028	238.44
254.261	245.44
254.494	259.44
254.727	285.44
254.96	285.44
255.193	299.44
255.426	272.44
255.659	261.44
255.892	276.44
256.124	275.44
256.357	264.44
256.59	254.44
256.823	242.44
257.056	253.44
257.289	223.44
257.521	223.44
257.754	236.44
257.987	245.44
258.22	223.44
258.452	237.44
258.685	215.44
258.918	213.44
259.151	235.44
259.383	238.44
259.616	235.44
259.849	249.44
260.081	251.44
260.314	265.44
260.547	267.44
260.779	265.44
261.012	254.44
261.244	237.44
261.477	248.44
261.71	255.44
261.942	246.44
262.175	242.44
262.407	257.44
262.64	229.44
262.872	226.44
263.105	223.44
263.337	234.44
263.57	221.44
263.802	224.44
264.035	221.44
264.267	235.44
264.499	215.44
264.732	226.44
264.964	221.44
265.197	203.44
265.429	203.44
265.661	207.44
265.894	216.44
266.126	227.44
266.358	217.44
266.591	226.44
266.823	222.44
267.055	239.44
267.287	236.44
267.52	232.44
267.752	252.44
267.984	247.44
268.216	234.44
268.448	238.44
268.681	259.44
268.913	246.44
269.145	266.44
269.377	293.44
269.609	283.44
269.841	289.44
270.073	295.44
270.306	309.44
270.538	317.44
270.77	331.44
271.002	336.44
271.234	306.44
271.466	306.44
271.698	345.44
271.93	328.44
272.162	344.44
272.394	338.44
272.626	302.44
272.858	298.44
273.09	286.44
273.322	278.44
273.553	281.44
273.785	280.44
274.017	294.44
274.249	288.44
274.481	275.44
274.713	268.44
274.945	290.44
275.176	268.44
275.408	273.44
275.64	277.44
275.872	278.44
276.104	290.44
276.335	273.44
276.567	266.44
276.799	287.44
277.031	304.44
277.262	318.44
277.494	347.44
277.726	318.44
277.957	296.44
278.189	278.44
278.421	309.44
278.652	285.44
278.884	281.44
279.115	261.44
279.347	253.44
279.579	242.44
279.81	274.44
280.042	286.44
280.273	264.44
280.505	275.44
280.736	267.44
280.968	260.44
281.199	250.44
281.431	255.44
281.662	270.44
281.894	277.44
282.125	269.44
282.356	288.44
282.588	294.44
282.819	298.44
283.051	275.44
283.282	285.44
283.513	249.44
283.745	282.44
283.976	272.44
284.207	281.44
284.439	274.44
284.67	265.44
284.901	280.44
285.132	261.44
285.364	273.44
285.595	274.44
285.826	278.44
286.057	288.44
286.288	265.44
286.52	275.44
286.751	264.44
286.982	283.44
287.213	282.44
287.444	286.44
287.675	279.44
287.906	290.44
288.138	302.44
288.369	296.44
288.6	296.44
288.831	277.44
289.062	287.44
289.293	297.44
289.524	282.44
289.755	280.44
289.986	292.44
290.217	288.44
290.448	258.44
290.679	279.44
290.91	268.44
291.141	283.44
291.371	283.44
291.602	269.44
291.833	274.44
292.064	272.44
292.295	281.44
292.526	272.44
292.757	283.44
292.987	274.44
293.218	270.44
293.449	280.44
293.68	279.44
293.91	265.44
294.141	265.44
294.372	290.44
294.603	277.44
294.833	281.44
295.064	285.44
295.295	290.44
295.525	279.44
295.756	291.44
295.987	293.44
296.217	309.44
296.448	327.44
296.679	308.44
296.909	307.44
297.14	288.44
297.37	271.44
297.601	274.44
297.831	275.44
298.062	303.44
298.292	294.44
298.523	296.44
298.753	302.44
298.984	287.44
299.214	293.44
299.445	294.44
299.675	299.44
299.905	311.44
300.136	312.44
300.366	272.44
300.597	291.44
300.827	298.44
301.057	297.44
301.288	309.44
301.518	303.44
301.748	308.44
301.979	307.44
302.209	319.44
302.439	310.44
302.669	319.44
302.9	319.44
303.13	311.44
303.36	333.44
303.59	315.44
303.82	324.44
304.051	323.44
304.281	310.44
304.511	293.44
304.741	306.44
304.971	287.44
305.201	302.44
305.431	316.44
305.661	306.44
305.891	321.44
306.121	313.44
306.352	319.44
306.582	322.44
306.812	326.44
307.042	321.44
307.272	327.44
307.502	314.44
307.731	325.44
307.961	312.44
308.191	310.44
308.421	322.44
308.651	345.44
308.881	327.44
309.111	320.44
309.341	326.44
309.571	334.44
309.8	350.44
310.03	362.44
310.26	373.44
310.49	368.44
310.72	381.44
310.949	403.44
311.179	397.44
311.409	381.44
311.639	358.44
311.868	387.44
312.098	389.44
312.328	365.44
312.557	389.44
312.787	418.44
313.017	402.44
313.246	378.44
313.476	379.44
313.706	381.44
313.935	385.44
314.165	375.44
314.394	388.44
314.624	378.44
314.853	384.44
315.083	387.44
315.312	359.44
315.542	352.44
315.771	375.44
316.001	364.44
316.23	358.44
316.46	364.44
316.689	368.44
316.919	373.44
317.148	379.44
317.377	385.44
317.607	371.44
317.836	368.44
318.065	378.44
318.295	356.44
318.524	364.44
318.753	367.44
318.983	368.44
319.212	359.44
319.441	382.44
319.67	379.44
319.9	369.44
320.129	379.44
320.358	363.44
320.587	379.44
320.816	400.44
321.046	403.44
321.275	406.44
321.504	405.44
321.733	417.44
321.962	388.44
322.191	427.44
322.42	440.44
322.649	464.44
322.878	453.44
323.108	473.44
323.337	505.44
323.566	521.44
323.795	572.44
324.024	624.44
324.253	737.44
324.482	1094.44
324.71	1635.44
324.939	2295.44
325.168	2047.44
325.397	1116.44
325.626	731.44
325.855	619.44
326.084	554.44
326.313	538.44
326.542	531.44
326.77	607.44
326.999	699.44
327.228	951.44
327.457	1433.44
327.686	1768.44
327.914	1197.44
328.143	829.44
328.372	729.44
328.6	647.44
328.829	603.44
329.058	619.44
329.287	650.44
329.515	590.44
329.744	543.44
329.972	558.44
330.201	620.44
330.43	676.44
330.658	692.44
330.887	679.44
331.115	663.44
331.344	547.44
331.572	527.44
331.801	511.44
332.03	509.44
332.258	475.44
332.486	471.44
332.715	434.44
332.943	427.44
333.172	431.44
333.4	434.44
333.629	462.44
333.857	473.44
334.085	493.44
334.314	531.44
334.542	611.44
334.771	608.44
334.999	542.44
335.227	476.44
335.455	450.44
335.684	441.44
335.912	465.44
336.14	418.44
336.369	443.44
336.597	462.44
336.825	442.44
337.053	425.44
337.281	394.44
337.51	410.44
337.738	421.44
337.966	401.44
338.194	431.44
338.422	408.44
338.65	403.44
338.878	417.44
339.106	414.44
339.334	409.44
339.562	417.44
339.79	400.44
340.018	415.44
340.246	408.44
340.474	411.44
340.702	400.44
340.93	397.44
341.158	427.44
341.386	401.44
341.614	401.44
341.842	407.44
342.07	409.44
342.298	397.44
342.526	389.44
342.754	384.44
342.981	383.44
343.209	399.44
343.437	394.44
343.665	377.44
343.893	406.44
344.12	394.44
344.348	395.44
344.576	387.44
344.804	407.44
345.031	402.44
345.259	424.44
345.487	423.44
345.714	418.44
345.942	395.44
346.17	396.44
346.397	388.44
346.625	390.44
346.853	401.44
347.08	402.44
347.308	380.44
347.535	418.44
347.763	431.44
347.99	426.44
348.218	404.44
348.445	414.44
348.673	411.44
348.9	414.44
349.128	384.44
349.355	368.44
349.583	370.44
349.81	350.44
350.037	362.44
350.265	393.44
350.492	379.44
350.72	374.44
350.947	414.44
351.174	396.44
351.402	403.44
351.629	402.44
351.856	403.44
352.083	407.44
352.311	409.44
352.538	423.44
352.765	399.44
352.992	425.44
353.22	393.44
353.447	387.44
353.674	399.44
353.901	391.44
354.128	356.44
354.355	383.44
354.583	382.44
354.81	376.44
355.037	356.44
355.264	354.44
355.491	366.44
355.718	349.44
355.945	352.44
356.172	377.44
356.399	360.44
356.626	363.44
356.853	381.44
357.08	373.44
357.307	359.44
357.534	366.44
357.761	374.44
357.988	366.44
358.215	370.44
358.441	353.44
358.668	370.44
358.895	348.44
359.122	380.44
359.349	388.44
359.576	411.44
359.802	441.44
360.029	448.44
360.256	478.44
360.483	427.44
360.709	393.44
360.936	407.44
361.163	399.44
361.39	396.44
361.616	410.44
361.843	401.44
362.07	401.44
362.296	396.44
362.523	389.44
362.749	386.44
362.976	393.44
363.203	377.44
363.429	375.44
363.656	363.44
363.882	357.44
364.109	353.44
364.335	369.44
364.562	389.44
364.788	368.44
365.015	370.44
365.241	351.44
365.468	343.44
365.694	364.44
365.92	380.44
366.147	379.44
366.373	368.44
366.599	357.44
366.826	368.44
367.052	368.44
367.278	369.44
367.505	369.44
367.731	350.44
367.957	364.44
368.184	366.44
368.41	383.44
368.636	377.44
368.862	384.44
369.089	392.44
369.315	363.44
369.541	379.44
369.767	362.44
369.993	339.44
370.219	369.44
370.445	370.44
370.672	376.44
370.898	351.44
371.124	352.44
371.35	345.44
371.576	353.44
371.802	364.44
372.028	363.44
372.254	355.44
372.48	350.44
372.706	367.44
372.932	351.44
373.158	357.44
373.384	366.44
373.61	356.44
373.835	355.44
374.061	345.44
374.287	354.44
374.513	346.44
374.739	382.44
374.965	375.44
375.191	364.44
375.416	373.44
375.642	349.44
375.868	357.44
376.094	368.44
376.319	368.44
376.545	361.44
376.771	348.44
376.997	353.44
377.222	345.44
377.448	359.44
377.674	347.44
377.899	365.44
378.125	347.44
378.35	349.44
378.576	358.44
378.802	338.44
379.027	353.44
379.253	357.44
379.478	337.44
379.704	339.44
379.929	333.44
380.155	361.44
380.38	365.44
380.606	357.44
380.831	352.44
381.057	357.44
381.282	352.44
381.507	336.44
381.733	364.44
381.958	368.44
382.184	361.44
382.409	352.44
382.634	357.44
382.86	350.44
383.085	371.44
383.31	349.44
383.535	365.44
383.761	382.44
383.986	356.44
384.211	357.44
384.436	345.44
384.662	362.44
384.887	353.44
385.112	367.44
385.337	366.44
385.562	372.44
385.787	373.44
386.013	374.44
386.238	392.44
386.463	381.44
386.688	366.44
386.913	362.44
387.138	361.44
387.363	392.44
387.588	381.44
387.813	355.44
388.038	360.44
388.263	379.44
388.488	365.44
388.713	374.44
388.938	374.44
389.163	363.44
389.387	365.44
389.612	384.44
389.837	382.44
390.062	380.44
390.287	387.44
390.512	355.44
390.736	363.44
390.961	381.44
391.186	365.44
391.411	375.44
391.636	363.44
391.86	362.44
392.085	366.44
392.31	366.44
392.534	360.44
392.759	367.44
392.984	390.44
393.208	384.44
393.433	375.44
393.658	352.44
393.882	353.44
394.107	366.44
394.331	347.44
394.556	364.44
394.78	389.44
395.005	391.44
395.229	378.44
395.454	367.44
395.678	378.44
395.903	379.44
396.127	411.44
396.352	402.44
396.576	398.44
396.801	393.44
397.025	385.44
397.249	386.44
397.474	391.44
397.698	398.44
397.922	412.44
398.147	399.44
398.371	411.44
398.595	405.44
398.82	412.44
399.044	404.44
399.268	408.44
399.492	437.44
399.717	428.44
399.941	473.44
400.165	496.44
400.389	490.44
400.613	467.44
400.837	439.44
401.062	434.44
401.286	434.44
401.51	417.44
401.734	424.44
401.958	407.44
402.182	431.44
402.406	461.44
402.63	440.44
402.854	426.44
403.078	436.44
403.302	431.44
403.526	452.44
403.75	441.44
403.974	426.44
404.198	440.44
404.422	442.44
404.645	455.44
404.869	460.44
405.093	488.44
405.317	537.44
405.541	563.44
405.765	504.44
405.988	461.44
406.212	482.44
406.436	494.44
406.66	489.44
406.883	480.44
407.107	511.44
407.331	531.44
407.555	587.44
407.778	599.44
408.002	534.44
408.226	513.44
408.449	499.44
408.673	489.44
408.896	515.44
409.12	551.44
409.344	506.44
409.567	449.44
409.791	449.44
410.014	450.44
410.238	435.44
410.461	450.44
410.685	427.44
410.908	462.44
411.132	485.44
411.355	515.44
411.578	512.44
411.802	451.44
412.025	440.44
412.249	461.44
412.472	482.44
412.695	529.44
412.919	501.44
413.142	469.44
413.365	457.44
413.589	456.44
413.812	441.44
414.035	424.44
414.258	421.44
414.482	420.44
414.705	410.44
414.928	394.44
415.151	408.44
415.374	414.44
415.597	384.44
415.821	406.44
416.044	410.44
416.267	426.44
416.49	422.44
416.713	408.44
416.936	419.44
417.159	425.44
417.382	437.44
417.605	434.44
417.828	422.44
418.051	472.44
418.274	442.44
418.497	423.44
418.72	413.44
418.943	415.44
419.166	394.44
419.389	445.44
419.611	431.44
419.834	429.44
420.057	450.44
420.28	431.44
420.503	461.44
420.726	458.44
420.948	462.44
421.171	499.44
421.394	538.44
421.617	474.44
421.839	457.44
422.062	444.44
422.285	453.44
422.507	506.44
422.73	594.44
422.953	579.44
423.175	483.44
423.398	486.44
423.621	470.44
423.843	498.44
424.066	489.44
424.288	472.44
424.511	507.44
424.733	534.44
424.956	645.44
425.178	610.44
425.401	609.44
425.623	615.44
425.846	541.44
426.068	499.44
426.291	506.44
426.513	485.44
426.735	495.44
426.958	555.44
427.18	630.44
427.402	737.44
427.625	821.44
427.847	767.44
428.069	655.44
428.292	569.44
428.514	491.44
428.736	479.44
428.958	465.44
429.181	453.44
429.403	451.44
429.625	477.44
429.847	498.44
430.069	555.44
430.292	549.44
430.514	493.44
430.736	451.44
430.958	459.44
431.18	448.44
431.402	413.44
431.624	429.44
431.846	424.44
432.068	391.44
432.29	419.44
432.512	429.44
432.734	438.44
432.956	425.44
433.178	431.44
433.4	437.44
433.622	424.44
433.844	422.44
434.066	419.44
434.287	440.44
434.509	428.44
434.731	438.44
434.953	433.44
435.175	449.44
435.397	483.44
435.618	488.44
435.84	537.44
436.062	620.44
436.284	661.44
436.505	575.44
436.727	521.44
436.949	480.44
437.17	453.44
437.392	472.44
437.614	475.44
437.835	520.44
438.057	599.44
438.278	722.44
438.5	699.44
438.721	753.44
438.943	724.44
439.165	588.44
439.386	552.44
439.608	530.44
439.829	510.44
440.05	555.44
440.272	558.44
440.493	570.44
440.715	502.44
440.936	485.44
441.158	461.44
441.379	453.44
441.6	449.44
441.822	494.44
442.043	531.44
442.264	616.44
442.486	660.44
442.707	561.44
442.928	516.44
443.149	513.44
443.371	528.44
443.592	575.44
443.813	646.44
444.034	718.44
444.255	611.44
444.476	523.44
444.698	525.44
444.919	505.44
445.14	587.44
445.361	528.44
445.582	538.44
445.803	601.44
446.024	703.44
446.245	711.44
446.466	630.44
446.687	566.44
446.908	526.44
447.129	459.44
447.35	474.44
447.571	463.44
447.792	462.44
448.013	455.44
448.234	490.44
448.455	537.44
448.675	663.44
448.896	727.44
449.117	630.44
449.338	609.44
449.559	693.44
449.779	781.44
450	629.44
450.221	524.44
450.442	486.44
450.662	465.44
450.883	451.44
451.104	474.44
451.324	481.44
451.545	427.44
451.766	444.44
451.986	407.44
452.207	402.44
452.428	395.44
452.648	419.44
452.869	423.44
453.089	438.44
453.31	463.44
453.53	427.44
453.751	428.44
453.971	408.44
454.192	449.44
454.412	437.44
454.633	418.44
454.853	425.44
455.073	411.44
455.294	421.44
455.514	492.44
455.734	521.44
455.955	408.44
456.175	379.44
456.395	402.44
456.616	395.44
456.836	390.44
457.056	391.44
457.276	391.44
457.497	392.44
457.717	377.44
457.937	375.44
458.157	393.44
458.377	397.44
458.598	415.44
458.818	479.44
459.038	601.44
459.258	579.44
459.478	482.44
459.698	430.44
459.918	441.44
460.138	411.44
460.358	398.44
460.578	424.44
460.798	413.44
461.018	407.44
461.238	416.44
461.458	411.44
461.678	393.44
461.898	405.44
462.118	403.44
462.338	430.44
462.558	407.44
462.777	417.44
462.997	439.44
463.217	422.44
463.437	419.44
463.657	411.44
463.876	434.44
464.096	442.44
464.316	429.44
464.536	434.44
464.755	439.44
464.975	453.44
465.195	506.44
465.414	605.44
465.634	529.44
465.854	477.44
466.073	433.44
466.293	424.44
466.512	412.44
466.732	394.44
466.951	424.44
467.171	379.44
467.391	421.44
467.61	428.44
467.829	443.44
468.049	446.44
468.268	438.44
468.488	424.44
468.707	407.44
468.927	408.44
469.146	391.44
469.365	403.44
469.585	392.44
469.804	411.44
470.023	431.44
470.243	422.44
470.462	412.44
470.681	458.44
470.901	441.44
471.12	420.44
471.339	423.44
471.558	413.44
471.777	421.44
471.997	423.44
472.216	435.44
472.435	512.44
472.654	494.44
472.873	442.44
473.092	432.44
473.311	450.44
473.53	434.44
473.749	432.44
473.968	467.44
474.187	584.44
474.406	596.44
474.625	477.44
474.844	438.44
475.063	430.44
475.282	435.44
475.501	412.44
475.72	425.44
475.939	441.44
476.158	435.44
476.377	444.44
476.596	443.44
476.814	458.44
477.033	433.44
477.252	430.44
477.471	434.44
477.69	446.44
477.908	458.44
478.127	428.44
478.346	467.44
478.564	465.44
478.783	453.44
479.002	458.44
479.22	451.44
479.439	472.44
479.658	504.44
479.876	518.44
480.095	517.44
480.313	549.44
480.532	522.44
480.751	515.44
480.969	535.44
481.188	654.44
481.406	760.44
481.624	630.44
481.843	554.44
482.061	557.44
482.28	527.44
482.498	494.44
482.717	506.44
482.935	497.44
483.153	501.44
483.372	486.44
483.59	521.44
483.808	517.44
484.027	487.44
484.245	507.44
484.463	513.44
484.681	521.44
484.9	524.44
485.118	527.44
485.336	538.44
485.554	528.44
485.772	524.44
485.99	539.44
486.209	539.44
486.427	538.44
486.645	525.44
486.863	533.44
487.081	544.44
487.299	545.44
487.517	539.44
487.735	543.44
487.953	543.44
488.171	544.44
488.389	547.44
488.607	569.44
488.825	545.44
489.043	554.44
489.261	562.44
489.479	561.44
489.696	557.44
489.914	556.44
490.132	584.44
490.35	555.44
490.568	582.44
490.786	583.44
491.003	581.44
491.221	617.44
491.439	627.44
491.657	615.44
491.874	646.44
492.092	616.44
492.31	622.44
492.527	625.44
492.745	657.44
492.963	658.44
493.18	659.44
493.398	668.44
493.615	653.44
493.833	659.44
494.05	664.44
494.268	634.44
494.485	641.44
494.703	646.44
494.92	648.44
495.138	657.44
495.355	667.44
495.573	667.44
495.79	660.44
496.008	649.44
496.225	671.44
496.442	658.44
496.66	655.44
496.877	639.44
497.094	659.44
497.312	649.44
497.529	662.44
497.746	645.44
497.963	688.44
498.181	672.44
498.398	703.44
498.615	695.44
498.832	698.44
499.049	702.44
499.267	685.44
499.484	701.44
499.701	719.44
499.918	734.44
500.135	737.44
500.352	765.44
500.569	787.44
500.786	791.44
501.003	793.44
501.22	764.44
501.437	764.44
501.654	772.44
501.871	780.44
502.088	750.44
