Data from 1986.PennyLincolnUp.Lamp.En5.5.200Scan.071819.P2_HRD10591_17-11-16-973.txt Node
Date: Thu Jul 18 17:11:16 EDT 2019
User: cochatt
Spectrometer: HR+D1059
Trigger mode: 1
Integration Time (sec): 1.000000E-1
Scans to average: 1
Electric dark correction enabled: true
Nonlinearity correction enabled: false
Boxcar width: 0
XAxis mode: Wavelengths
Number of Pixels in Spectrum: 2048
>>>>>Begin Spectral Data<<<<<
223.165	-26.38
223.4	-26.38
223.635	-26.38
223.869	-22.38
224.104	-21.38
224.338	-2.38
224.573	-14.38
224.808	8.62
225.042	-18.38
225.277	-13.38
225.511	1.62
225.746	0.62
225.98	1.62
226.215	6.62
226.449	1.62
226.683	7.62
226.918	42.62
227.152	47.62
227.387	37.62
227.621	29.62
227.856	46.62
228.09	53.62
228.324	52.62
228.559	56.62
228.793	66.62
229.027	95.62
229.262	125.62
229.496	113.62
229.73	130.62
229.964	178.62
230.199	150.62
230.433	109.62
230.667	113.62
230.901	113.62
231.136	100.62
231.37	115.62
231.604	108.62
231.838	135.62
232.072	109.62
232.306	105.62
232.541	126.62
232.775	118.62
233.009	123.62
233.243	116.62
233.477	120.62
233.711	123.62
233.945	113.62
234.179	107.62
234.413	111.62
234.647	105.62
234.881	128.62
235.115	117.62
235.349	116.62
235.583	134.62
235.817	129.62
236.051	125.62
236.285	118.62
236.519	124.62
236.753	134.62
236.987	149.62
237.221	195.62
237.455	242.62
237.689	195.62
237.922	142.62
238.156	151.62
238.39	137.62
238.624	136.62
238.858	121.62
239.091	134.62
239.325	121.62
239.559	135.62
239.793	125.62
240.027	148.62
240.26	152.62
240.494	162.62
240.728	161.62
240.961	152.62
241.195	137.62
241.429	136.62
241.662	138.62
241.896	126.62
242.13	145.62
242.363	132.62
242.597	142.62
242.83	148.62
243.064	137.62
243.298	145.62
243.531	148.62
243.765	127.62
243.998	149.62
244.232	140.62
244.465	153.62
244.699	163.62
244.932	160.62
245.166	152.62
245.399	160.62
245.633	146.62
245.866	151.62
246.099	156.62
246.333	160.62
246.566	156.62
246.8	155.62
247.033	160.62
247.266	158.62
247.5	174.62
247.733	170.62
247.966	178.62
248.2	168.62
248.433	177.62
248.666	195.62
248.899	215.62
249.133	217.62
249.366	234.62
249.599	219.62
249.832	214.62
250.066	189.62
250.299	199.62
250.532	205.62
250.765	211.62
250.998	234.62
251.231	260.62
251.465	244.62
251.698	219.62
251.931	215.62
252.164	220.62
252.397	197.62
252.63	225.62
252.863	218.62
253.096	215.62
253.329	257.62
253.562	248.62
253.795	236.62
254.028	255.62
254.261	216.62
254.494	247.62
254.727	282.62
254.96	305.62
255.193	296.62
255.426	273.62
255.659	268.62
255.892	259.62
256.124	270.62
256.357	276.62
256.59	271.62
256.823	257.62
257.056	243.62
257.289	238.62
257.521	224.62
257.754	213.62
257.987	238.62
258.22	213.62
258.452	206.62
258.685	229.62
258.918	225.62
259.151	241.62
259.383	214.62
259.616	224.62
259.849	237.62
260.081	246.62
260.314	253.62
260.547	247.62
260.779	250.62
261.012	263.62
261.244	227.62
261.477	241.62
261.71	255.62
261.942	242.62
262.175	250.62
262.407	245.62
262.64	227.62
262.872	221.62
263.105	219.62
263.337	226.62
263.57	219.62
263.802	210.62
264.035	228.62
264.267	221.62
264.499	222.62
264.732	225.62
264.964	210.62
265.197	215.62
265.429	216.62
265.661	216.62
265.894	218.62
266.126	225.62
266.358	228.62
266.591	221.62
266.823	239.62
267.055	241.62
267.287	239.62
267.52	233.62
267.752	244.62
267.984	228.62
268.216	229.62
268.448	245.62
268.681	263.62
268.913	228.62
269.145	280.62
269.377	289.62
269.609	295.62
269.841	277.62
270.073	289.62
270.306	286.62
270.538	311.62
270.77	311.62
271.002	316.62
271.234	321.62
271.466	314.62
271.698	341.62
271.93	327.62
272.162	328.62
272.394	339.62
272.626	305.62
272.858	304.62
273.09	310.62
273.322	296.62
273.553	281.62
273.785	266.62
274.017	289.62
274.249	290.62
274.481	255.62
274.713	281.62
274.945	281.62
275.176	290.62
275.408	280.62
275.64	257.62
275.872	286.62
276.104	270.62
276.335	262.62
276.567	279.62
276.799	281.62
277.031	327.62
277.262	335.62
277.494	339.62
277.726	313.62
277.957	310.62
278.189	288.62
278.421	286.62
278.652	295.62
278.884	271.62
279.115	281.62
279.347	257.62
279.579	259.62
279.81	280.62
280.042	286.62
280.273	300.62
280.505	275.62
280.736	261.62
280.968	276.62
281.199	269.62
281.431	270.62
281.662	266.62
281.894	276.62
282.125	270.62
282.356	288.62
282.588	309.62
282.819	327.62
283.051	271.62
283.282	278.62
283.513	261.62
283.745	271.62
283.976	282.62
284.207	281.62
284.439	292.62
284.67	271.62
284.901	286.62
285.132	278.62
285.364	276.62
285.595	272.62
285.826	267.62
286.057	262.62
286.288	274.62
286.52	257.62
286.751	271.62
286.982	286.62
287.213	261.62
287.444	263.62
287.675	278.62
287.906	295.62
288.138	285.62
288.369	297.62
288.6	291.62
288.831	294.62
289.062	288.62
289.293	287.62
289.524	278.62
289.755	274.62
289.986	284.62
290.217	275.62
290.448	276.62
290.679	278.62
290.91	283.62
291.141	271.62
291.371	277.62
291.602	277.62
291.833	265.62
292.064	278.62
292.295	284.62
292.526	278.62
292.757	264.62
292.987	263.62
293.218	273.62
293.449	294.62
293.68	281.62
293.91	285.62
294.141	270.62
294.372	279.62
294.603	303.62
294.833	273.62
295.064	262.62
295.295	277.62
295.525	299.62
295.756	307.62
295.987	292.62
296.217	323.62
296.448	328.62
296.679	272.62
296.909	272.62
297.14	287.62
297.37	286.62
297.601	294.62
297.831	299.62
298.062	307.62
298.292	277.62
298.523	275.62
298.753	284.62
298.984	286.62
299.214	295.62
299.445	287.62
299.675	317.62
299.905	305.62
300.136	289.62
300.366	292.62
300.597	309.62
300.827	278.62
301.057	305.62
301.288	303.62
301.518	322.62
301.748	301.62
301.979	317.62
302.209	325.62
302.439	329.62
302.669	319.62
302.9	323.62
303.13	315.62
303.36	294.62
303.59	310.62
303.82	333.62
304.051	335.62
304.281	329.62
304.511	316.62
304.741	315.62
304.971	321.62
305.201	325.62
305.431	288.62
305.661	299.62
305.891	306.62
306.121	314.62
306.352	334.62
306.582	322.62
306.812	313.62
307.042	315.62
307.272	319.62
307.502	331.62
307.731	327.62
307.961	318.62
308.191	320.62
308.421	317.62
308.651	321.62
308.881	311.62
309.111	315.62
309.341	339.62
309.571	340.62
309.8	363.62
310.03	362.62
310.26	386.62
310.49	346.62
310.72	383.62
310.949	405.62
311.179	404.62
311.409	369.62
311.639	388.62
311.868	383.62
312.098	366.62
312.328	388.62
312.557	406.62
312.787	400.62
313.017	406.62
313.246	392.62
313.476	375.62
313.706	375.62
313.935	382.62
314.165	420.62
314.394	403.62
314.624	391.62
314.853	371.62
315.083	369.62
315.312	360.62
315.542	357.62
315.771	350.62
316.001	357.62
316.23	365.62
316.46	359.62
316.689	374.62
316.919	373.62
317.148	383.62
317.377	368.62
317.607	369.62
317.836	394.62
318.065	379.62
318.295	380.62
318.524	363.62
318.753	371.62
318.983	362.62
319.212	351.62
319.441	365.62
319.67	384.62
319.9	382.62
320.129	373.62
320.358	380.62
320.587	381.62
320.816	390.62
321.046	393.62
321.275	406.62
321.504	419.62
321.733	391.62
321.962	399.62
322.191	441.62
322.42	423.62
322.649	443.62
322.878	469.62
323.108	472.62
323.337	501.62
323.566	520.62
323.795	577.62
324.024	626.62
324.253	778.62
324.482	1075.62
324.71	1657.62
324.939	2373.62
325.168	2136.62
325.397	1134.62
325.626	746.62
325.855	610.62
326.084	533.62
326.313	536.62
326.542	549.62
326.77	590.62
326.999	731.62
327.228	941.62
327.457	1454.62
327.686	1815.62
327.914	1267.62
328.143	833.62
328.372	733.62
328.6	676.62
328.829	625.62
329.058	647.62
329.287	664.62
329.515	613.62
329.744	573.62
329.972	579.62
330.201	621.62
330.43	691.62
330.658	679.62
330.887	670.62
331.115	649.62
331.344	563.62
331.572	509.62
331.801	510.62
332.03	518.62
332.258	489.62
332.486	443.62
332.715	446.62
332.943	454.62
333.172	459.62
333.4	451.62
333.629	450.62
333.857	489.62
334.085	513.62
334.314	548.62
334.542	647.62
334.771	646.62
334.999	590.62
335.227	504.62
335.455	475.62
335.684	445.62
335.912	429.62
336.14	438.62
336.369	431.62
336.597	435.62
336.825	445.62
337.053	428.62
337.281	420.62
337.51	433.62
337.738	397.62
337.966	412.62
338.194	421.62
338.422	410.62
338.65	408.62
338.878	425.62
339.106	421.62
339.334	419.62
339.562	415.62
339.79	406.62
340.018	394.62
340.246	419.62
340.474	405.62
340.702	405.62
340.93	400.62
341.158	409.62
341.386	405.62
341.614	431.62
341.842	421.62
342.07	386.62
342.298	389.62
342.526	385.62
342.754	381.62
342.981	381.62
343.209	398.62
343.437	382.62
343.665	386.62
343.893	415.62
344.12	414.62
344.348	409.62
344.576	407.62
344.804	419.62
345.031	425.62
345.259	424.62
345.487	405.62
345.714	413.62
345.942	399.62
346.17	390.62
346.397	392.62
346.625	375.62
346.853	395.62
347.08	391.62
347.308	404.62
347.535	413.62
347.763	395.62
347.99	393.62
348.218	397.62
348.445	426.62
348.673	407.62
348.9	411.62
349.128	382.62
349.355	377.62
349.583	395.62
349.81	382.62
350.037	378.62
350.265	364.62
350.492	391.62
350.72	381.62
350.947	403.62
351.174	402.62
351.402	399.62
351.629	393.62
351.856	407.62
352.083	399.62
352.311	418.62
352.538	437.62
352.765	431.62
352.992	403.62
353.22	393.62
353.447	393.62
353.674	389.62
353.901	366.62
354.128	369.62
354.355	383.62
354.583	385.62
354.81	377.62
355.037	360.62
355.264	367.62
355.491	354.62
355.718	372.62
355.945	355.62
356.172	354.62
356.399	349.62
356.626	359.62
356.853	367.62
357.08	344.62
357.307	360.62
357.534	345.62
357.761	352.62
357.988	364.62
358.215	375.62
358.441	371.62
358.668	362.62
358.895	364.62
359.122	373.62
359.349	359.62
359.576	408.62
359.802	427.62
360.029	445.62
360.256	462.62
360.483	449.62
360.709	398.62
360.936	393.62
361.163	374.62
361.39	400.62
361.616	397.62
361.843	380.62
362.07	404.62
362.296	404.62
362.523	406.62
362.749	418.62
362.976	397.62
363.203	377.62
363.429	378.62
363.656	386.62
363.882	375.62
364.109	376.62
364.335	375.62
364.562	371.62
364.788	363.62
365.015	371.62
365.241	362.62
365.468	385.62
365.694	378.62
365.92	379.62
366.147	373.62
366.373	366.62
366.599	373.62
366.826	391.62
367.052	361.62
367.278	355.62
367.505	370.62
367.731	376.62
367.957	363.62
368.184	355.62
368.41	380.62
368.636	383.62
368.862	373.62
369.089	362.62
369.315	366.62
369.541	347.62
369.767	357.62
369.993	358.62
370.219	358.62
370.445	357.62
370.672	357.62
370.898	351.62
371.124	366.62
371.35	355.62
371.576	350.62
371.802	363.62
372.028	366.62
372.254	348.62
372.48	365.62
372.706	349.62
372.932	371.62
373.158	345.62
373.384	375.62
373.61	374.62
373.835	356.62
374.061	341.62
374.287	360.62
374.513	355.62
374.739	364.62
374.965	384.62
375.191	357.62
375.416	361.62
375.642	354.62
375.868	372.62
376.094	370.62
376.319	358.62
376.545	360.62
376.771	362.62
376.997	342.62
377.222	361.62
377.448	356.62
377.674	374.62
377.899	342.62
378.125	358.62
378.35	341.62
378.576	346.62
378.802	348.62
379.027	362.62
379.253	332.62
379.478	334.62
379.704	365.62
379.929	359.62
380.155	360.62
380.38	363.62
380.606	354.62
380.831	365.62
381.057	364.62
381.282	363.62
381.507	347.62
381.733	371.62
381.958	361.62
382.184	350.62
382.409	337.62
382.634	342.62
382.86	354.62
383.085	365.62
383.31	368.62
383.535	373.62
383.761	366.62
383.986	373.62
384.211	357.62
384.436	364.62
384.662	360.62
384.887	367.62
385.112	374.62
385.337	381.62
385.562	382.62
385.787	349.62
386.013	381.62
386.238	377.62
386.463	385.62
386.688	370.62
386.913	355.62
387.138	362.62
387.363	365.62
387.588	367.62
387.813	384.62
388.038	352.62
388.263	378.62
388.488	371.62
388.713	382.62
388.938	373.62
389.163	374.62
389.387	380.62
389.612	358.62
389.837	365.62
390.062	380.62
390.287	374.62
390.512	365.62
390.736	374.62
390.961	364.62
391.186	359.62
391.411	389.62
391.636	382.62
391.86	371.62
392.085	383.62
392.31	368.62
392.534	366.62
392.759	379.62
392.984	373.62
393.208	377.62
393.433	372.62
393.658	365.62
393.882	353.62
394.107	373.62
394.331	372.62
394.556	376.62
394.78	368.62
395.005	386.62
395.229	381.62
395.454	362.62
395.678	367.62
395.903	387.62
396.127	426.62
396.352	407.62
396.576	397.62
396.801	389.62
397.025	386.62
397.249	386.62
397.474	386.62
397.698	387.62
397.922	417.62
398.147	423.62
398.371	415.62
398.595	419.62
398.82	399.62
399.044	435.62
399.268	423.62
399.492	432.62
399.717	441.62
399.941	459.62
400.165	500.62
400.389	516.62
400.613	471.62
400.837	436.62
401.062	426.62
401.286	433.62
401.51	410.62
401.734	428.62
401.958	419.62
402.182	425.62
402.406	420.62
402.63	438.62
402.854	422.62
403.078	429.62
403.302	441.62
403.526	446.62
403.75	436.62
403.974	448.62
404.198	427.62
404.422	460.62
404.645	462.62
404.869	461.62
405.093	493.62
405.317	553.62
405.541	572.62
405.765	526.62
405.988	493.62
406.212	487.62
406.436	500.62
406.66	535.62
406.883	508.62
407.107	500.62
407.331	531.62
407.555	580.62
407.778	598.62
408.002	545.62
408.226	516.62
408.449	474.62
408.673	504.62
408.896	531.62
409.12	556.62
409.344	527.62
409.567	472.62
409.791	459.62
410.014	426.62
410.238	447.62
410.461	439.62
410.685	424.62
410.908	461.62
411.132	484.62
411.355	553.62
411.578	519.62
411.802	471.62
412.025	483.62
412.249	489.62
412.472	491.62
412.695	540.62
412.919	511.62
413.142	503.62
413.365	471.62
413.589	438.62
413.812	433.62
414.035	423.62
414.258	430.62
414.482	440.62
414.705	417.62
414.928	415.62
415.151	434.62
415.374	391.62
415.597	427.62
415.821	409.62
416.044	390.62
416.267	422.62
416.49	415.62
416.713	403.62
416.936	428.62
417.159	430.62
417.382	418.62
417.605	429.62
417.828	425.62
418.051	440.62
418.274	462.62
418.497	437.62
418.72	430.62
418.943	412.62
419.166	456.62
419.389	438.62
419.611	445.62
419.834	459.62
420.057	454.62
420.28	473.62
420.503	470.62
420.726	443.62
420.948	476.62
421.171	533.62
421.394	549.62
421.617	491.62
421.839	473.62
422.062	449.62
422.285	465.62
422.507	498.62
422.73	595.62
422.953	577.62
423.175	501.62
423.398	481.62
423.621	484.62
423.843	469.62
424.066	476.62
424.288	466.62
424.511	510.62
424.733	542.62
424.956	621.62
425.178	617.62
425.401	597.62
425.623	622.62
425.846	518.62
426.068	494.62
426.291	483.62
426.513	501.62
426.735	499.62
426.958	555.62
427.18	630.62
427.402	727.62
427.625	824.62
427.847	753.62
428.069	639.62
428.292	573.62
428.514	525.62
428.736	481.62
428.958	468.62
429.181	459.62
429.403	460.62
429.625	460.62
429.847	501.62
430.069	574.62
430.292	574.62
430.514	487.62
430.736	467.62
430.958	449.62
431.18	436.62
431.402	435.62
431.624	402.62
431.846	407.62
432.068	412.62
432.29	417.62
432.512	425.62
432.734	433.62
432.956	417.62
433.178	438.62
433.4	443.62
433.622	428.62
433.844	436.62
434.066	415.62
434.287	423.62
434.509	415.62
434.731	447.62
434.953	443.62
435.175	468.62
435.397	470.62
435.618	486.62
435.84	550.62
436.062	612.62
436.284	697.62
436.505	572.62
436.727	519.62
436.949	462.62
437.17	456.62
437.392	438.62
437.614	498.62
437.835	495.62
438.057	592.62
438.278	701.62
438.5	725.62
438.721	744.62
438.943	726.62
439.165	591.62
439.386	537.62
439.608	526.62
439.829	528.62
440.05	534.62
440.272	585.62
440.493	550.62
440.715	521.62
440.936	471.62
441.158	479.62
441.379	473.62
441.6	466.62
441.822	471.62
442.043	530.62
442.264	606.62
442.486	661.62
442.707	575.62
442.928	538.62
443.149	533.62
443.371	558.62
443.592	587.62
443.813	664.62
444.034	711.62
444.255	593.62
444.476	510.62
444.698	500.62
444.919	478.62
445.14	593.62
445.361	573.62
445.582	544.62
445.803	614.62
446.024	708.62
446.245	711.62
446.466	651.62
446.687	567.62
446.908	527.62
447.129	492.62
447.35	479.62
447.571	474.62
447.792	466.62
448.013	486.62
448.234	498.62
448.455	567.62
448.675	637.62
448.896	717.62
449.117	637.62
449.338	615.62
449.559	699.62
449.779	782.62
450	652.62
450.221	530.62
450.442	490.62
450.662	469.62
450.883	458.62
451.104	502.62
451.324	469.62
451.545	455.62
451.766	452.62
451.986	407.62
452.207	413.62
452.428	429.62
452.648	409.62
452.869	409.62
453.089	451.62
453.31	460.62
453.53	420.62
453.751	415.62
453.971	415.62
454.192	461.62
454.412	428.62
454.633	430.62
454.853	415.62
455.073	420.62
455.294	445.62
455.514	520.62
455.734	498.62
455.955	435.62
456.175	393.62
456.395	392.62
456.616	424.62
456.836	393.62
457.056	376.62
457.276	360.62
457.497	383.62
457.717	391.62
457.937	371.62
458.157	400.62
458.377	395.62
458.598	420.62
458.818	494.62
459.038	569.62
459.258	592.62
459.478	485.62
459.698	442.62
459.918	430.62
460.138	428.62
460.358	420.62
460.578	408.62
460.798	392.62
461.018	413.62
461.238	402.62
461.458	424.62
461.678	403.62
461.898	420.62
462.118	406.62
462.338	405.62
462.558	413.62
462.777	423.62
462.997	451.62
463.217	420.62
463.437	430.62
463.657	440.62
463.876	417.62
464.096	440.62
464.316	434.62
464.536	449.62
464.755	442.62
464.975	468.62
465.195	523.62
465.414	593.62
465.634	518.62
465.854	462.62
466.073	449.62
466.293	427.62
466.512	407.62
466.732	412.62
466.951	391.62
467.171	385.62
467.391	425.62
467.61	421.62
467.829	422.62
468.049	443.62
468.268	431.62
468.488	409.62
468.707	416.62
468.927	406.62
469.146	405.62
469.365	411.62
469.585	407.62
469.804	402.62
470.023	421.62
470.243	437.62
470.462	420.62
470.681	446.62
470.901	452.62
471.12	437.62
471.339	445.62
471.558	439.62
471.777	418.62
471.997	426.62
472.216	462.62
472.435	523.62
472.654	515.62
472.873	437.62
473.092	423.62
473.311	438.62
473.53	427.62
473.749	455.62
473.968	484.62
474.187	594.62
474.406	604.62
474.625	478.62
474.844	458.62
475.063	422.62
475.282	430.62
475.501	437.62
475.72	430.62
475.939	439.62
476.158	447.62
476.377	427.62
476.596	429.62
476.814	460.62
477.033	466.62
477.252	443.62
477.471	438.62
477.69	466.62
477.908	459.62
478.127	443.62
478.346	460.62
478.564	479.62
478.783	460.62
479.002	465.62
479.22	486.62
479.439	490.62
479.658	507.62
479.876	528.62
480.095	506.62
480.313	550.62
480.532	536.62
480.751	530.62
480.969	530.62
481.188	667.62
481.406	796.62
481.624	632.62
481.843	561.62
482.061	547.62
482.28	526.62
482.498	528.62
482.717	519.62
482.935	497.62
483.153	516.62
483.372	502.62
483.59	513.62
483.808	519.62
484.027	522.62
484.245	491.62
484.463	514.62
484.681	553.62
484.9	517.62
485.118	530.62
485.336	506.62
485.554	522.62
485.772	549.62
485.99	536.62
486.209	542.62
486.427	536.62
486.645	537.62
486.863	564.62
487.081	556.62
487.299	537.62
487.517	558.62
487.735	551.62
487.953	541.62
488.171	555.62
488.389	567.62
488.607	547.62
488.825	537.62
489.043	579.62
489.261	594.62
489.479	577.62
489.696	542.62
489.914	579.62
490.132	565.62
490.35	591.62
490.568	562.62
490.786	594.62
491.003	602.62
491.221	638.62
491.439	632.62
491.657	639.62
491.874	622.62
492.092	629.62
492.31	653.62
492.527	642.62
492.745	669.62
492.963	658.62
493.18	677.62
493.398	653.62
493.615	666.62
493.833	671.62
494.05	669.62
494.268	665.62
494.485	659.62
494.703	670.62
494.92	666.62
495.138	677.62
495.355	658.62
495.573	694.62
495.79	666.62
496.008	667.62
496.225	663.62
496.442	667.62
496.66	670.62
496.877	655.62
497.094	661.62
497.312	676.62
497.529	679.62
497.746	672.62
497.963	670.62
498.181	700.62
498.398	714.62
498.615	686.62
498.832	703.62
499.049	726.62
499.267	710.62
499.484	713.62
499.701	726.62
499.918	735.62
500.135	765.62
500.352	787.62
500.569	802.62
500.786	780.62
501.003	819.62
501.22	775.62
501.437	758.62
501.654	786.62
501.871	801.62
