Data from 1986.PennyLincolnUp.Lamp.En5.5.200Scan.071819.P2_HRD10591_17-11-09-973.txt Node
Date: Thu Jul 18 17:11:09 EDT 2019
User: cochatt
Spectrometer: HR+D1059
Trigger mode: 1
Integration Time (sec): 1.000000E-1
Scans to average: 1
Electric dark correction enabled: true
Nonlinearity correction enabled: false
Boxcar width: 0
XAxis mode: Wavelengths
Number of Pixels in Spectrum: 2048
>>>>>Begin Spectral Data<<<<<
223.165	-15.06
223.4	-15.06
223.635	-15.06
223.869	-7.06
224.104	-23.06
224.338	-6.06
224.573	-9.06
224.808	-26.06
225.042	-5.06
225.277	-16.06
225.511	-5.06
225.746	7.94
225.98	6.94
226.215	10.94
226.449	16.94
226.683	12.94
226.918	19.94
227.152	36.94
227.387	29.94
227.621	31.94
227.856	47.94
228.09	54.94
228.324	42.94
228.559	64.94
228.793	67.94
229.027	101.94
229.262	114.94
229.496	124.94
229.73	143.94
229.964	153.94
230.199	128.94
230.433	99.94
230.667	104.94
230.901	110.94
231.136	124.94
231.37	116.94
231.604	114.94
231.838	108.94
232.072	107.94
232.306	117.94
232.541	112.94
232.775	113.94
233.009	125.94
233.243	125.94
233.477	106.94
233.711	112.94
233.945	118.94
234.179	126.94
234.413	130.94
234.647	122.94
234.881	98.94
235.115	124.94
235.349	115.94
235.583	109.94
235.817	130.94
236.051	115.94
236.285	129.94
236.519	132.94
236.753	113.94
236.987	145.94
237.221	190.94
237.455	242.94
237.689	184.94
237.922	140.94
238.156	142.94
238.39	143.94
238.624	135.94
238.858	128.94
239.091	116.94
239.325	125.94
239.559	130.94
239.793	128.94
240.027	124.94
240.26	140.94
240.494	149.94
240.728	138.94
240.961	142.94
241.195	138.94
241.429	138.94
241.662	132.94
241.896	138.94
242.13	142.94
242.363	123.94
242.597	128.94
242.83	127.94
243.064	131.94
243.298	160.94
243.531	140.94
243.765	149.94
243.998	151.94
244.232	140.94
244.465	146.94
244.699	140.94
244.932	153.94
245.166	146.94
245.399	147.94
245.633	137.94
245.866	148.94
246.099	131.94
246.333	151.94
246.566	159.94
246.8	153.94
247.033	156.94
247.266	169.94
247.5	167.94
247.733	176.94
247.966	178.94
248.2	163.94
248.433	171.94
248.666	183.94
248.899	196.94
249.133	203.94
249.366	227.94
249.599	209.94
249.832	209.94
250.066	195.94
250.299	196.94
250.532	220.94
250.765	235.94
250.998	252.94
251.231	260.94
251.465	246.94
251.698	218.94
251.931	215.94
252.164	199.94
252.397	196.94
252.63	217.94
252.863	210.94
253.096	218.94
253.329	252.94
253.562	222.94
253.795	237.94
254.028	242.94
254.261	214.94
254.494	233.94
254.727	279.94
254.96	306.94
255.193	295.94
255.426	268.94
255.659	250.94
255.892	260.94
256.124	270.94
256.357	285.94
256.59	263.94
256.823	256.94
257.056	255.94
257.289	229.94
257.521	220.94
257.754	222.94
257.987	227.94
258.22	207.94
258.452	226.94
258.685	212.94
258.918	215.94
259.151	215.94
259.383	213.94
259.616	233.94
259.849	220.94
260.081	253.94
260.314	249.94
260.547	259.94
260.779	261.94
261.012	249.94
261.244	226.94
261.477	225.94
261.71	244.94
261.942	245.94
262.175	242.94
262.407	237.94
262.64	238.94
262.872	197.94
263.105	220.94
263.337	216.94
263.57	219.94
263.802	224.94
264.035	227.94
264.267	205.94
264.499	200.94
264.732	214.94
264.964	199.94
265.197	225.94
265.429	218.94
265.661	209.94
265.894	211.94
266.126	198.94
266.358	219.94
266.591	192.94
266.823	214.94
267.055	240.94
267.287	225.94
267.52	226.94
267.752	222.94
267.984	218.94
268.216	230.94
268.448	232.94
268.681	242.94
268.913	237.94
269.145	277.94
269.377	268.94
269.609	260.94
269.841	278.94
270.073	266.94
270.306	288.94
270.538	315.94
270.77	320.94
271.002	290.94
271.234	286.94
271.466	303.94
271.698	308.94
271.93	319.94
272.162	308.94
272.394	313.94
272.626	315.94
272.858	312.94
273.09	282.94
273.322	292.94
273.553	292.94
273.785	284.94
274.017	274.94
274.249	235.94
274.481	272.94
274.713	270.94
274.945	257.94
275.176	270.94
275.408	269.94
275.64	259.94
275.872	285.94
276.104	265.94
276.335	276.94
276.567	269.94
276.799	288.94
277.031	308.94
277.262	328.94
277.494	324.94
277.726	307.94
277.957	294.94
278.189	290.94
278.421	261.94
278.652	284.94
278.884	279.94
279.115	284.94
279.347	275.94
279.579	251.94
279.81	254.94
280.042	283.94
280.273	268.94
280.505	265.94
280.736	264.94
280.968	257.94
281.199	258.94
281.431	238.94
281.662	264.94
281.894	268.94
282.125	279.94
282.356	276.94
282.588	312.94
282.819	297.94
283.051	288.94
283.282	257.94
283.513	255.94
283.745	252.94
283.976	283.94
284.207	297.94
284.439	277.94
284.67	259.94
284.901	278.94
285.132	282.94
285.364	262.94
285.595	251.94
285.826	262.94
286.057	273.94
286.288	260.94
286.52	256.94
286.751	264.94
286.982	261.94
287.213	278.94
287.444	277.94
287.675	268.94
287.906	270.94
288.138	289.94
288.369	293.94
288.6	303.94
288.831	287.94
289.062	288.94
289.293	293.94
289.524	260.94
289.755	274.94
289.986	272.94
290.217	284.94
290.448	265.94
290.679	259.94
290.91	279.94
291.141	282.94
291.371	290.94
291.602	256.94
291.833	281.94
292.064	267.94
292.295	264.94
292.526	276.94
292.757	283.94
292.987	266.94
293.218	277.94
293.449	271.94
293.68	276.94
293.91	281.94
294.141	282.94
294.372	286.94
294.603	289.94
294.833	299.94
295.064	292.94
295.295	258.94
295.525	267.94
295.756	281.94
295.987	273.94
296.217	296.94
296.448	313.94
296.679	292.94
296.909	274.94
297.14	273.94
297.37	271.94
297.601	259.94
297.831	296.94
298.062	274.94
298.292	290.94
298.523	294.94
298.753	284.94
298.984	280.94
299.214	271.94
299.445	296.94
299.675	298.94
299.905	312.94
300.136	280.94
300.366	293.94
300.597	289.94
300.827	308.94
301.057	294.94
301.288	314.94
301.518	302.94
301.748	296.94
301.979	294.94
302.209	313.94
302.439	315.94
302.669	314.94
302.9	306.94
303.13	295.94
303.36	308.94
303.59	323.94
303.82	312.94
304.051	324.94
304.281	301.94
304.511	291.94
304.741	304.94
304.971	323.94
305.201	299.94
305.431	297.94
305.661	297.94
305.891	301.94
306.121	300.94
306.352	294.94
306.582	323.94
306.812	296.94
307.042	320.94
307.272	315.94
307.502	322.94
307.731	331.94
307.961	317.94
308.191	298.94
308.421	316.94
308.651	308.94
308.881	317.94
309.111	337.94
309.341	324.94
309.571	328.94
309.8	348.94
310.03	350.94
310.26	354.94
310.49	345.94
310.72	374.94
310.949	398.94
311.179	397.94
311.409	359.94
311.639	349.94
311.868	356.94
312.098	358.94
312.328	380.94
312.557	388.94
312.787	415.94
313.017	409.94
313.246	393.94
313.476	369.94
313.706	360.94
313.935	376.94
314.165	381.94
314.394	389.94
314.624	372.94
314.853	380.94
315.083	369.94
315.312	364.94
315.542	354.94
315.771	363.94
316.001	344.94
316.23	356.94
316.46	365.94
316.689	362.94
316.919	372.94
317.148	358.94
317.377	374.94
317.607	374.94
317.836	360.94
318.065	366.94
318.295	352.94
318.524	349.94
318.753	364.94
318.983	356.94
319.212	366.94
319.441	370.94
319.67	384.94
319.9	365.94
320.129	366.94
320.358	352.94
320.587	368.94
320.816	384.94
321.046	404.94
321.275	385.94
321.504	390.94
321.733	382.94
321.962	377.94
322.191	402.94
322.42	436.94
322.649	455.94
322.878	458.94
323.108	481.94
323.337	488.94
323.566	529.94
323.795	581.94
324.024	611.94
324.253	773.94
324.482	1105.94
324.71	1643.94
324.939	2328.94
325.168	2128.94
325.397	1120.94
325.626	737.94
325.855	625.94
326.084	538.94
326.313	541.94
326.542	542.94
326.77	608.94
326.999	705.94
327.228	974.94
327.457	1500.94
327.686	1833.94
327.914	1244.94
328.143	813.94
328.372	720.94
328.6	656.94
328.829	637.94
329.058	615.94
329.287	646.94
329.515	609.94
329.744	567.94
329.972	563.94
330.201	580.94
330.43	647.94
330.658	682.94
330.887	692.94
331.115	672.94
331.344	549.94
331.572	507.94
331.801	498.94
332.03	519.94
332.258	481.94
332.486	462.94
332.715	460.94
332.943	426.94
333.172	446.94
333.4	447.94
333.629	461.94
333.857	497.94
334.085	498.94
334.314	529.94
334.542	613.94
334.771	650.94
334.999	548.94
335.227	492.94
335.455	461.94
335.684	450.94
335.912	419.94
336.14	436.94
336.369	436.94
336.597	422.94
336.825	448.94
337.053	410.94
337.281	412.94
337.51	395.94
337.738	421.94
337.966	420.94
338.194	430.94
338.422	399.94
338.65	411.94
338.878	406.94
339.106	403.94
339.334	408.94
339.562	427.94
339.79	418.94
340.018	393.94
340.246	402.94
340.474	418.94
340.702	412.94
340.93	426.94
341.158	403.94
341.386	400.94
341.614	407.94
341.842	401.94
342.07	404.94
342.298	392.94
342.526	387.94
342.754	381.94
342.981	388.94
343.209	369.94
343.437	407.94
343.665	380.94
343.893	396.94
344.12	410.94
344.348	386.94
344.576	398.94
344.804	398.94
345.031	397.94
345.259	439.94
345.487	418.94
345.714	387.94
345.942	415.94
346.17	413.94
346.397	371.94
346.625	389.94
346.853	381.94
347.08	369.94
347.308	393.94
347.535	425.94
347.763	397.94
347.99	419.94
348.218	428.94
348.445	429.94
348.673	409.94
348.9	397.94
349.128	408.94
349.355	390.94
349.583	374.94
349.81	379.94
350.037	392.94
350.265	371.94
350.492	377.94
350.72	386.94
350.947	379.94
351.174	390.94
351.402	398.94
351.629	413.94
351.856	400.94
352.083	419.94
352.311	404.94
352.538	427.94
352.765	405.94
352.992	400.94
353.22	406.94
353.447	394.94
353.674	387.94
353.901	386.94
354.128	374.94
354.355	374.94
354.583	364.94
354.81	378.94
355.037	365.94
355.264	340.94
355.491	344.94
355.718	338.94
355.945	363.94
356.172	361.94
356.399	360.94
356.626	373.94
356.853	349.94
357.08	354.94
357.307	361.94
357.534	352.94
357.761	377.94
357.988	344.94
358.215	365.94
358.441	368.94
358.668	348.94
358.895	360.94
359.122	385.94
359.349	376.94
359.576	389.94
359.802	438.94
360.029	440.94
360.256	464.94
360.483	434.94
360.709	411.94
360.936	408.94
361.163	389.94
361.39	413.94
361.616	408.94
361.843	397.94
362.07	395.94
362.296	398.94
362.523	389.94
362.749	391.94
362.976	381.94
363.203	359.94
363.429	379.94
363.656	372.94
363.882	381.94
364.109	360.94
364.335	363.94
364.562	377.94
364.788	364.94
365.015	354.94
365.241	362.94
365.468	361.94
365.694	389.94
365.92	381.94
366.147	350.94
366.373	368.94
366.599	365.94
366.826	372.94
367.052	362.94
367.278	356.94
367.505	369.94
367.731	361.94
367.957	362.94
368.184	357.94
368.41	387.94
368.636	392.94
368.862	381.94
369.089	373.94
369.315	365.94
369.541	340.94
369.767	369.94
369.993	356.94
370.219	354.94
370.445	353.94
370.672	382.94
370.898	362.94
371.124	361.94
371.35	348.94
371.576	352.94
371.802	346.94
372.028	366.94
372.254	347.94
372.48	340.94
372.706	361.94
372.932	348.94
373.158	357.94
373.384	357.94
373.61	353.94
373.835	368.94
374.061	347.94
374.287	323.94
374.513	380.94
374.739	369.94
374.965	378.94
375.191	362.94
375.416	356.94
375.642	357.94
375.868	368.94
376.094	354.94
376.319	357.94
376.545	341.94
376.771	344.94
376.997	340.94
377.222	364.94
377.448	331.94
377.674	330.94
377.899	344.94
378.125	334.94
378.35	359.94
378.576	340.94
378.802	335.94
379.027	346.94
379.253	342.94
379.478	331.94
379.704	344.94
379.929	354.94
380.155	345.94
380.38	350.94
380.606	340.94
380.831	377.94
381.057	360.94
381.282	348.94
381.507	349.94
381.733	354.94
381.958	336.94
382.184	355.94
382.409	356.94
382.634	354.94
382.86	355.94
383.085	348.94
383.31	356.94
383.535	360.94
383.761	358.94
383.986	368.94
384.211	372.94
384.436	361.94
384.662	361.94
384.887	365.94
385.112	341.94
385.337	348.94
385.562	357.94
385.787	382.94
386.013	366.94
386.238	375.94
386.463	354.94
386.688	352.94
386.913	369.94
387.138	367.94
387.363	376.94
387.588	377.94
387.813	369.94
388.038	373.94
388.263	370.94
388.488	364.94
388.713	368.94
388.938	378.94
389.163	361.94
389.387	368.94
389.612	346.94
389.837	363.94
390.062	366.94
390.287	357.94
390.512	359.94
390.736	336.94
390.961	357.94
391.186	378.94
391.411	363.94
391.636	353.94
391.86	361.94
392.085	371.94
392.31	363.94
392.534	373.94
392.759	364.94
392.984	373.94
393.208	370.94
393.433	376.94
393.658	358.94
393.882	362.94
394.107	354.94
394.331	372.94
394.556	365.94
394.78	364.94
395.005	379.94
395.229	384.94
395.454	371.94
395.678	389.94
395.903	390.94
396.127	399.94
396.352	413.94
396.576	376.94
396.801	375.94
397.025	379.94
397.249	384.94
397.474	388.94
397.698	377.94
397.922	395.94
398.147	404.94
398.371	404.94
398.595	387.94
398.82	391.94
399.044	396.94
399.268	405.94
399.492	407.94
399.717	437.94
399.941	473.94
400.165	483.94
400.389	531.94
400.613	471.94
400.837	438.94
401.062	418.94
401.286	410.94
401.51	409.94
401.734	444.94
401.958	393.94
402.182	409.94
402.406	406.94
402.63	430.94
402.854	392.94
403.078	425.94
403.302	453.94
403.526	451.94
403.75	410.94
403.974	416.94
404.198	424.94
404.422	432.94
404.645	467.94
404.869	443.94
405.093	494.94
405.317	550.94
405.541	560.94
405.765	526.94
405.988	489.94
406.212	499.94
406.436	496.94
406.66	527.94
406.883	482.94
407.107	496.94
407.331	532.94
407.555	557.94
407.778	594.94
408.002	544.94
408.226	504.94
408.449	505.94
408.673	483.94
408.896	502.94
409.12	563.94
409.344	520.94
409.567	478.94
409.791	440.94
410.014	436.94
410.238	453.94
410.461	433.94
410.685	446.94
410.908	455.94
411.132	491.94
411.355	532.94
411.578	525.94
411.802	445.94
412.025	457.94
412.249	449.94
412.472	469.94
412.695	525.94
412.919	534.94
413.142	477.94
413.365	442.94
413.589	432.94
413.812	414.94
414.035	428.94
414.258	434.94
414.482	417.94
414.705	422.94
414.928	400.94
415.151	397.94
415.374	398.94
415.597	388.94
415.821	404.94
416.044	424.94
416.267	434.94
416.49	412.94
416.713	396.94
416.936	413.94
417.159	422.94
417.382	424.94
417.605	434.94
417.828	423.94
418.051	440.94
418.274	420.94
418.497	458.94
418.72	408.94
418.943	425.94
419.166	422.94
419.389	440.94
419.611	413.94
419.834	452.94
420.057	452.94
420.28	470.94
420.503	459.94
420.726	451.94
420.948	485.94
421.171	520.94
421.394	542.94
421.617	475.94
421.839	441.94
422.062	450.94
422.285	461.94
422.507	520.94
422.73	555.94
422.953	550.94
423.175	494.94
423.398	454.94
423.621	468.94
423.843	460.94
424.066	503.94
424.288	479.94
424.511	496.94
424.733	540.94
424.956	633.94
425.178	617.94
425.401	605.94
425.623	598.94
425.846	540.94
426.068	504.94
426.291	515.94
426.513	486.94
426.735	506.94
426.958	528.94
427.18	619.94
427.402	717.94
427.625	802.94
427.847	762.94
428.069	657.94
428.292	578.94
428.514	535.94
428.736	501.94
428.958	456.94
429.181	446.94
429.403	445.94
429.625	445.94
429.847	520.94
430.069	568.94
430.292	551.94
430.514	467.94
430.736	453.94
430.958	440.94
431.18	431.94
431.402	429.94
431.624	411.94
431.846	407.94
432.068	403.94
432.29	422.94
432.512	434.94
432.734	433.94
432.956	418.94
433.178	445.94
433.4	438.94
433.622	420.94
433.844	406.94
434.066	438.94
434.287	420.94
434.509	426.94
434.731	410.94
434.953	437.94
435.175	455.94
435.397	468.94
435.618	494.94
435.84	511.94
436.062	620.94
436.284	673.94
436.505	562.94
436.727	503.94
436.949	468.94
437.17	449.94
437.392	461.94
437.614	489.94
437.835	494.94
438.057	617.94
438.278	705.94
438.5	705.94
438.721	748.94
438.943	732.94
439.165	588.94
439.386	552.94
439.608	503.94
439.829	498.94
440.05	537.94
440.272	583.94
440.493	556.94
440.715	530.94
440.936	492.94
441.158	457.94
441.379	452.94
441.6	457.94
441.822	496.94
442.043	524.94
442.264	628.94
442.486	680.94
442.707	561.94
442.928	504.94
443.149	500.94
443.371	540.94
443.592	563.94
443.813	646.94
444.034	688.94
444.255	588.94
444.476	510.94
444.698	496.94
444.919	483.94
445.14	582.94
445.361	541.94
445.582	549.94
445.803	628.94
446.024	700.94
446.245	713.94
446.466	658.94
446.687	553.94
446.908	512.94
447.129	458.94
447.35	458.94
447.571	451.94
447.792	440.94
448.013	464.94
448.234	493.94
448.455	560.94
448.675	634.94
448.896	734.94
449.117	614.94
449.338	605.94
449.559	706.94
449.779	774.94
450	633.94
450.221	536.94
450.442	489.94
450.662	474.94
450.883	472.94
451.104	502.94
451.324	475.94
451.545	436.94
451.766	421.94
451.986	399.94
452.207	398.94
452.428	419.94
452.648	420.94
452.869	419.94
453.089	418.94
453.31	427.94
453.53	411.94
453.751	414.94
453.971	409.94
454.192	433.94
454.412	417.94
454.633	427.94
454.853	415.94
455.073	402.94
455.294	416.94
455.514	486.94
455.734	498.94
455.955	406.94
456.175	393.94
456.395	384.94
456.616	384.94
456.836	379.94
457.056	364.94
457.276	374.94
457.497	386.94
457.717	392.94
457.937	395.94
458.157	391.94
458.377	396.94
458.598	413.94
458.818	473.94
459.038	555.94
459.258	582.94
459.478	489.94
459.698	434.94
459.918	405.94
460.138	397.94
460.358	392.94
460.578	402.94
460.798	419.94
461.018	413.94
461.238	395.94
461.458	421.94
461.678	409.94
461.898	417.94
462.118	401.94
462.338	393.94
462.558	405.94
462.777	418.94
462.997	425.94
463.217	405.94
463.437	414.94
463.657	418.94
463.876	424.94
464.096	439.94
464.316	425.94
464.536	418.94
464.755	448.94
464.975	461.94
465.195	520.94
465.414	622.94
465.634	516.94
465.854	465.94
466.073	437.94
466.293	424.94
466.512	411.94
466.732	419.94
466.951	396.94
467.171	422.94
467.391	416.94
467.61	420.94
467.829	425.94
468.049	416.94
468.268	419.94
468.488	435.94
468.707	412.94
468.927	392.94
469.146	382.94
469.365	405.94
469.585	418.94
469.804	412.94
470.023	417.94
470.243	419.94
470.462	430.94
470.681	427.94
470.901	440.94
471.12	425.94
471.339	429.94
471.558	426.94
471.777	421.94
471.997	417.94
472.216	438.94
472.435	515.94
472.654	481.94
472.873	440.94
473.092	418.94
473.311	439.94
473.53	418.94
473.749	430.94
473.968	471.94
474.187	593.94
474.406	610.94
474.625	506.94
474.844	460.94
475.063	431.94
475.282	410.94
475.501	413.94
475.72	431.94
475.939	428.94
476.158	421.94
476.377	449.94
476.596	436.94
476.814	435.94
477.033	452.94
477.252	438.94
477.471	434.94
477.69	436.94
477.908	425.94
478.127	420.94
478.346	440.94
478.564	470.94
478.783	464.94
479.002	468.94
479.22	487.94
479.439	493.94
479.658	491.94
479.876	509.94
480.095	511.94
480.313	516.94
480.532	535.94
480.751	504.94
480.969	532.94
481.188	667.94
481.406	752.94
481.624	616.94
481.843	558.94
482.061	531.94
482.28	525.94
482.498	508.94
482.717	503.94
482.935	503.94
483.153	499.94
483.372	482.94
483.59	513.94
483.808	498.94
484.027	505.94
484.245	522.94
484.463	504.94
484.681	513.94
484.9	513.94
485.118	521.94
485.336	511.94
485.554	520.94
485.772	493.94
485.99	520.94
486.209	532.94
486.427	532.94
486.645	544.94
486.863	540.94
487.081	557.94
487.299	551.94
487.517	555.94
487.735	520.94
487.953	568.94
488.171	546.94
488.389	546.94
488.607	530.94
488.825	564.94
489.043	544.94
489.261	560.94
489.479	540.94
489.696	564.94
489.914	541.94
490.132	558.94
490.35	569.94
490.568	583.94
490.786	593.94
491.003	597.94
491.221	607.94
491.439	610.94
491.657	625.94
491.874	620.94
492.092	630.94
492.31	648.94
492.527	606.94
492.745	642.94
492.963	637.94
493.18	654.94
493.398	640.94
493.615	646.94
493.833	634.94
494.05	658.94
494.268	655.94
494.485	657.94
494.703	647.94
494.92	650.94
495.138	649.94
495.355	672.94
495.573	674.94
495.79	654.94
496.008	658.94
496.225	660.94
496.442	658.94
496.66	667.94
496.877	660.94
497.094	636.94
497.312	635.94
497.529	661.94
497.746	653.94
497.963	684.94
498.181	680.94
498.398	690.94
498.615	688.94
498.832	667.94
499.049	694.94
499.267	692.94
499.484	692.94
499.701	718.94
499.918	747.94
500.135	734.94
500.352	764.94
500.569	786.94
500.786	782.94
501.003	809.94
501.22	778.94
501.437	763.94
501.654	752.94
501.871	779.94
