Data from 1986.PennyLincolnUp.Lamp.En5.5.200Scan.071819.P2_HRD10591_17-12-52-983.txt Node
Date: Thu Jul 18 17:12:52 EDT 2019
User: cochatt
Spectrometer: HR+D1059
Trigger mode: 1
Integration Time (sec): 1.000000E-1
Scans to average: 1
Electric dark correction enabled: true
Nonlinearity correction enabled: false
Boxcar width: 0
XAxis mode: Wavelengths
Number of Pixels in Spectrum: 2048
>>>>>Begin Spectral Data<<<<<
223.165	-22.19
223.4	-22.19
223.635	-22.19
223.869	-19.19
224.104	-2.19
224.338	-13.19
224.573	-15.19
224.808	-10.19
225.042	2.81
225.277	-1.19
225.511	-21.19
225.746	-2.19
225.98	5.81
226.215	-0.19
226.449	11.81
226.683	8.81
226.918	37.81
227.152	39.81
227.387	32.81
227.621	40.81
227.856	40.81
228.09	50.81
228.324	51.81
228.559	39.81
228.793	68.81
229.027	101.81
229.262	95.81
229.496	119.81
229.73	126.81
229.964	154.81
230.199	130.81
230.433	125.81
230.667	116.81
230.901	123.81
231.136	110.81
231.37	104.81
231.604	114.81
231.838	118.81
232.072	111.81
232.306	112.81
232.541	121.81
232.775	104.81
233.009	96.81
233.243	113.81
233.477	118.81
233.711	124.81
233.945	115.81
234.179	115.81
234.413	110.81
234.647	88.81
234.881	112.81
235.115	106.81
235.349	101.81
235.583	109.81
235.817	124.81
236.051	130.81
236.285	130.81
236.519	123.81
236.753	138.81
236.987	136.81
237.221	183.81
237.455	217.81
237.689	168.81
237.922	131.81
238.156	128.81
238.39	137.81
238.624	118.81
238.858	124.81
239.091	136.81
239.325	135.81
239.559	130.81
239.793	123.81
240.027	120.81
240.26	140.81
240.494	178.81
240.728	154.81
240.961	154.81
241.195	133.81
241.429	130.81
241.662	137.81
241.896	138.81
242.13	114.81
242.363	128.81
242.597	146.81
242.83	131.81
243.064	152.81
243.298	127.81
243.531	136.81
243.765	155.81
243.998	154.81
244.232	161.81
244.465	130.81
244.699	152.81
244.932	158.81
245.166	149.81
245.399	167.81
245.633	156.81
245.866	153.81
246.099	160.81
246.333	161.81
246.566	150.81
246.8	151.81
247.033	170.81
247.266	174.81
247.5	172.81
247.733	170.81
247.966	182.81
248.2	188.81
248.433	177.81
248.666	179.81
248.899	206.81
249.133	208.81
249.366	210.81
249.599	218.81
249.832	208.81
250.066	205.81
250.299	220.81
250.532	219.81
250.765	275.81
250.998	301.81
251.231	292.81
251.465	246.81
251.698	257.81
251.931	236.81
252.164	224.81
252.397	232.81
252.63	213.81
252.863	224.81
253.096	246.81
253.329	247.81
253.562	257.81
253.795	234.81
254.028	244.81
254.261	247.81
254.494	252.81
254.727	291.81
254.96	305.81
255.193	317.81
255.426	291.81
255.659	309.81
255.892	323.81
256.124	358.81
256.357	410.81
256.59	368.81
256.823	324.81
257.056	289.81
257.289	273.81
257.521	270.81
257.754	258.81
257.987	245.81
258.22	256.81
258.452	238.81
258.685	248.81
258.918	238.81
259.151	246.81
259.383	255.81
259.616	258.81
259.849	247.81
260.081	260.81
260.314	267.81
260.547	273.81
260.779	278.81
261.012	262.81
261.244	247.81
261.477	254.81
261.71	222.81
261.942	251.81
262.175	251.81
262.407	234.81
262.64	230.81
262.872	227.81
263.105	225.81
263.337	225.81
263.57	214.81
263.802	220.81
264.035	219.81
264.267	233.81
264.499	215.81
264.732	218.81
264.964	220.81
265.197	226.81
265.429	214.81
265.661	235.81
265.894	220.81
266.126	224.81
266.358	235.81
266.591	227.81
266.823	232.81
267.055	241.81
267.287	248.81
267.52	243.81
267.752	256.81
267.984	256.81
268.216	230.81
268.448	240.81
268.681	229.81
268.913	266.81
269.145	268.81
269.377	285.81
269.609	295.81
269.841	273.81
270.073	270.81
270.306	314.81
270.538	327.81
270.77	332.81
271.002	335.81
271.234	314.81
271.466	310.81
271.698	328.81
271.93	346.81
272.162	341.81
272.394	329.81
272.626	321.81
272.858	311.81
273.09	290.81
273.322	298.81
273.553	273.81
273.785	264.81
274.017	294.81
274.249	271.81
274.481	259.81
274.713	273.81
274.945	290.81
275.176	278.81
275.408	280.81
275.64	271.81
275.872	286.81
276.104	294.81
276.335	294.81
276.567	302.81
276.799	304.81
277.031	324.81
277.262	335.81
277.494	356.81
277.726	334.81
277.957	324.81
278.189	308.81
278.421	298.81
278.652	290.81
278.884	293.81
279.115	279.81
279.347	278.81
279.579	299.81
279.81	286.81
280.042	318.81
280.273	311.81
280.505	312.81
280.736	294.81
280.968	285.81
281.199	282.81
281.431	283.81
281.662	284.81
281.894	280.81
282.125	293.81
282.356	288.81
282.588	322.81
282.819	311.81
283.051	304.81
283.282	289.81
283.513	294.81
283.745	268.81
283.976	286.81
284.207	288.81
284.439	274.81
284.67	294.81
284.901	290.81
285.132	289.81
285.364	293.81
285.595	282.81
285.826	283.81
286.057	287.81
286.288	293.81
286.52	282.81
286.751	291.81
286.982	298.81
287.213	283.81
287.444	302.81
287.675	295.81
287.906	319.81
288.138	311.81
288.369	315.81
288.6	329.81
288.831	308.81
289.062	307.81
289.293	298.81
289.524	308.81
289.755	309.81
289.986	304.81
290.217	293.81
290.448	297.81
290.679	287.81
290.91	306.81
291.141	309.81
291.371	292.81
291.602	286.81
291.833	283.81
292.064	278.81
292.295	314.81
292.526	302.81
292.757	280.81
292.987	299.81
293.218	277.81
293.449	312.81
293.68	288.81
293.91	276.81
294.141	286.81
294.372	290.81
294.603	304.81
294.833	295.81
295.064	313.81
295.295	296.81
295.525	300.81
295.756	285.81
295.987	303.81
296.217	323.81
296.448	344.81
296.679	302.81
296.909	301.81
297.14	311.81
297.37	298.81
297.601	291.81
297.831	302.81
298.062	295.81
298.292	293.81
298.523	305.81
298.753	294.81
298.984	290.81
299.214	309.81
299.445	313.81
299.675	307.81
299.905	317.81
300.136	305.81
300.366	311.81
300.597	319.81
300.827	327.81
301.057	313.81
301.288	351.81
301.518	323.81
301.748	324.81
301.979	331.81
302.209	310.81
302.439	350.81
302.669	327.81
302.9	324.81
303.13	327.81
303.36	332.81
303.59	342.81
303.82	350.81
304.051	340.81
304.281	327.81
304.511	320.81
304.741	332.81
304.971	332.81
305.201	323.81
305.431	324.81
305.661	320.81
305.891	332.81
306.121	319.81
306.352	325.81
306.582	317.81
306.812	332.81
307.042	348.81
307.272	344.81
307.502	345.81
307.731	373.81
307.961	351.81
308.191	339.81
308.421	330.81
308.651	334.81
308.881	360.81
309.111	358.81
309.341	352.81
309.571	343.81
309.8	356.81
310.03	371.81
310.26	374.81
310.49	380.81
310.72	387.81
310.949	400.81
311.179	391.81
311.409	382.81
311.639	387.81
311.868	400.81
312.098	373.81
312.328	405.81
312.557	400.81
312.787	436.81
313.017	426.81
313.246	408.81
313.476	400.81
313.706	378.81
313.935	388.81
314.165	380.81
314.394	432.81
314.624	394.81
314.853	399.81
315.083	377.81
315.312	374.81
315.542	379.81
315.771	372.81
316.001	363.81
316.23	378.81
316.46	361.81
316.689	368.81
316.919	374.81
317.148	379.81
317.377	403.81
317.607	380.81
317.836	391.81
318.065	371.81
318.295	373.81
318.524	383.81
318.753	386.81
318.983	397.81
319.212	398.81
319.441	394.81
319.67	395.81
319.9	399.81
320.129	376.81
320.358	404.81
320.587	402.81
320.816	406.81
321.046	407.81
321.275	408.81
321.504	444.81
321.733	421.81
321.962	433.81
322.191	431.81
322.42	445.81
322.649	472.81
322.878	474.81
323.108	509.81
323.337	509.81
323.566	544.81
323.795	585.81
324.024	634.81
324.253	774.81
324.482	1094.81
324.71	1622.81
324.939	2375.81
325.168	2119.81
325.397	1119.81
325.626	762.81
325.855	622.81
326.084	581.81
326.313	549.81
326.542	562.81
326.77	629.81
326.999	726.81
327.228	974.81
327.457	1491.81
327.686	1842.81
327.914	1315.81
328.143	914.81
328.372	832.81
328.6	796.81
328.829	720.81
329.058	676.81
329.287	696.81
329.515	678.81
329.744	687.81
329.972	740.81
330.201	874.81
330.43	1000.81
330.658	930.81
330.887	817.81
331.115	733.81
331.344	636.81
331.572	606.81
331.801	575.81
332.03	584.81
332.258	553.81
332.486	521.81
332.715	517.81
332.943	524.81
333.172	536.81
333.4	550.81
333.629	589.81
333.857	640.81
334.085	742.81
334.314	865.81
334.542	1052.81
334.771	1100.81
334.999	834.81
335.227	660.81
335.455	570.81
335.684	558.81
335.912	519.81
336.14	497.81
336.369	510.81
336.597	461.81
336.825	481.81
337.053	475.81
337.281	482.81
337.51	468.81
337.738	468.81
337.966	441.81
338.194	460.81
338.422	438.81
338.65	441.81
338.878	433.81
339.106	426.81
339.334	440.81
339.562	426.81
339.79	427.81
340.018	433.81
340.246	445.81
340.474	442.81
340.702	434.81
340.93	433.81
341.158	417.81
341.386	433.81
341.614	438.81
341.842	417.81
342.07	410.81
342.298	416.81
342.526	417.81
342.754	415.81
342.981	400.81
343.209	402.81
343.437	420.81
343.665	414.81
343.893	418.81
344.12	417.81
344.348	408.81
344.576	405.81
344.804	435.81
345.031	443.81
345.259	446.81
345.487	453.81
345.714	439.81
345.942	398.81
346.17	409.81
346.397	417.81
346.625	414.81
346.853	416.81
347.08	393.81
347.308	397.81
347.535	408.81
347.763	417.81
347.99	428.81
348.218	430.81
348.445	425.81
348.673	415.81
348.9	412.81
349.128	386.81
349.355	394.81
349.583	379.81
349.81	389.81
350.037	415.81
350.265	396.81
350.492	403.81
350.72	411.81
350.947	396.81
351.174	432.81
351.402	434.81
351.629	404.81
351.856	400.81
352.083	418.81
352.311	428.81
352.538	432.81
352.765	419.81
352.992	423.81
353.22	411.81
353.447	402.81
353.674	407.81
353.901	397.81
354.128	397.81
354.355	373.81
354.583	395.81
354.81	362.81
355.037	368.81
355.264	353.81
355.491	362.81
355.718	361.81
355.945	371.81
356.172	355.81
356.399	371.81
356.626	376.81
356.853	382.81
357.08	360.81
357.307	373.81
357.534	354.81
357.761	378.81
357.988	370.81
358.215	384.81
358.441	390.81
358.668	389.81
358.895	380.81
359.122	396.81
359.349	405.81
359.576	386.81
359.802	419.81
360.029	450.81
360.256	458.81
360.483	442.81
360.709	407.81
360.936	420.81
361.163	409.81
361.39	400.81
361.616	396.81
361.843	399.81
362.07	385.81
362.296	416.81
362.523	414.81
362.749	394.81
362.976	386.81
363.203	394.81
363.429	395.81
363.656	386.81
363.882	383.81
364.109	391.81
364.335	386.81
364.562	374.81
364.788	362.81
365.015	379.81
365.241	373.81
365.468	371.81
365.694	396.81
365.92	395.81
366.147	382.81
366.373	370.81
366.599	362.81
366.826	386.81
367.052	398.81
367.278	389.81
367.505	373.81
367.731	380.81
367.957	372.81
368.184	394.81
368.41	391.81
368.636	397.81
368.862	380.81
369.089	376.81
369.315	399.81
369.541	370.81
369.767	374.81
369.993	391.81
370.219	395.81
370.445	384.81
370.672	367.81
370.898	378.81
371.124	357.81
371.35	372.81
371.576	376.81
371.802	369.81
372.028	390.81
372.254	370.81
372.48	359.81
372.706	355.81
372.932	366.81
373.158	370.81
373.384	369.81
373.61	364.81
373.835	386.81
374.061	367.81
374.287	388.81
374.513	383.81
374.739	376.81
374.965	371.81
375.191	362.81
375.416	386.81
375.642	379.81
375.868	376.81
376.094	366.81
376.319	379.81
376.545	384.81
376.771	370.81
376.997	358.81
377.222	353.81
377.448	365.81
377.674	376.81
377.899	368.81
378.125	342.81
378.35	370.81
378.576	342.81
378.802	341.81
379.027	370.81
379.253	358.81
379.478	354.81
379.704	371.81
379.929	358.81
380.155	353.81
380.38	355.81
380.606	370.81
380.831	382.81
381.057	343.81
381.282	368.81
381.507	361.81
381.733	366.81
381.958	357.81
382.184	352.81
382.409	368.81
382.634	368.81
382.86	361.81
383.085	374.81
383.31	350.81
383.535	367.81
383.761	363.81
383.986	384.81
384.211	390.81
384.436	373.81
384.662	377.81
384.887	377.81
385.112	385.81
385.337	395.81
385.562	404.81
385.787	374.81
386.013	382.81
386.238	389.81
386.463	380.81
386.688	403.81
386.913	377.81
387.138	389.81
387.363	380.81
387.588	389.81
387.813	385.81
388.038	375.81
388.263	384.81
388.488	384.81
388.713	391.81
388.938	390.81
389.163	380.81
389.387	386.81
389.612	395.81
389.837	390.81
390.062	392.81
390.287	380.81
390.512	385.81
390.736	360.81
390.961	380.81
391.186	371.81
391.411	356.81
391.636	376.81
391.86	382.81
392.085	392.81
392.31	390.81
392.534	380.81
392.759	372.81
392.984	374.81
393.208	342.81
393.433	377.81
393.658	372.81
393.882	378.81
394.107	372.81
394.331	369.81
394.556	378.81
394.78	370.81
395.005	392.81
395.229	387.81
395.454	389.81
395.678	389.81
395.903	413.81
396.127	424.81
396.352	437.81
396.576	410.81
396.801	400.81
397.025	384.81
397.249	394.81
397.474	417.81
397.698	406.81
397.922	409.81
398.147	416.81
398.371	432.81
398.595	411.81
398.82	416.81
399.044	430.81
399.268	459.81
399.492	462.81
399.717	449.81
399.941	474.81
400.165	508.81
400.389	530.81
400.613	468.81
400.837	442.81
401.062	435.81
401.286	438.81
401.51	434.81
401.734	446.81
401.958	450.81
402.182	440.81
402.406	436.81
402.63	453.81
402.854	454.81
403.078	453.81
403.302	445.81
403.526	447.81
403.75	460.81
403.974	465.81
404.198	450.81
404.422	480.81
404.645	478.81
404.869	502.81
405.093	565.81
405.317	598.81
405.541	634.81
405.765	570.81
405.988	524.81
406.212	507.81
406.436	542.81
406.66	553.81
406.883	500.81
407.107	514.81
407.331	541.81
407.555	605.81
407.778	585.81
408.002	558.81
408.226	500.81
408.449	498.81
408.673	514.81
408.896	491.81
409.12	566.81
409.344	554.81
409.567	481.81
409.791	454.81
410.014	450.81
410.238	463.81
410.461	449.81
410.685	446.81
410.908	478.81
411.132	516.81
411.355	522.81
411.578	526.81
411.802	479.81
412.025	478.81
412.249	521.81
412.472	542.81
412.695	637.81
412.919	640.81
413.142	572.81
413.365	538.81
413.589	513.81
413.812	508.81
414.035	486.81
414.258	457.81
414.482	470.81
414.705	468.81
414.928	426.81
415.151	451.81
415.374	456.81
415.597	439.81
415.821	455.81
416.044	452.81
416.267	447.81
416.49	430.81
416.713	416.81
416.936	444.81
417.159	419.81
417.382	438.81
417.605	472.81
417.828	488.81
418.051	484.81
418.274	460.81
418.497	445.81
418.72	443.81
418.943	443.81
419.166	465.81
419.389	463.81
419.611	487.81
419.834	480.81
420.057	492.81
420.28	534.81
420.503	561.81
420.726	532.81
420.948	523.81
421.171	566.81
421.394	562.81
421.617	510.81
421.839	473.81
422.062	474.81
422.285	499.81
422.507	544.81
422.73	606.81
422.953	596.81
423.175	512.81
423.398	465.81
423.621	502.81
423.843	488.81
424.066	485.81
424.288	471.81
424.511	528.81
424.733	564.81
424.956	648.81
425.178	630.81
425.401	609.81
425.623	631.81
425.846	565.81
426.068	521.81
426.291	504.81
426.513	488.81
426.735	517.81
426.958	546.81
427.18	629.81
427.402	772.81
427.625	858.81
427.847	772.81
428.069	729.81
428.292	636.81
428.514	550.81
428.736	524.81
428.958	495.81
429.181	485.81
429.403	483.81
429.625	482.81
429.847	498.81
430.069	589.81
430.292	579.81
430.514	481.81
430.736	468.81
430.958	470.81
431.18	454.81
431.402	449.81
431.624	437.81
431.846	430.81
432.068	419.81
432.29	410.81
432.512	444.81
432.734	455.81
432.956	446.81
433.178	440.81
433.4	453.81
433.622	438.81
433.844	431.81
434.066	430.81
434.287	448.81
434.509	434.81
434.731	421.81
434.953	448.81
435.175	462.81
435.397	485.81
435.618	507.81
435.84	562.81
436.062	639.81
436.284	707.81
436.505	582.81
436.727	543.81
436.949	486.81
437.17	479.81
437.392	458.81
437.614	479.81
437.835	526.81
438.057	614.81
438.278	691.81
438.5	678.81
438.721	720.81
438.943	741.81
439.165	570.81
439.386	529.81
439.608	516.81
439.829	527.81
440.05	549.81
440.272	595.81
440.493	554.81
440.715	518.81
440.936	492.81
441.158	484.81
441.379	467.81
441.6	456.81
441.822	500.81
442.043	539.81
442.264	605.81
442.486	656.81
442.707	554.81
442.928	524.81
443.149	529.81
443.371	539.81
443.592	571.81
443.813	637.81
444.034	733.81
444.255	607.81
444.476	514.81
444.698	507.81
444.919	479.81
445.14	575.81
445.361	540.81
445.582	556.81
445.803	592.81
446.024	717.81
446.245	718.81
446.466	671.81
446.687	562.81
446.908	530.81
447.129	486.81
447.35	464.81
447.571	475.81
447.792	461.81
448.013	481.81
448.234	510.81
448.455	552.81
448.675	640.81
448.896	741.81
449.117	634.81
449.338	595.81
449.559	682.81
449.779	774.81
450	641.81
450.221	528.81
450.442	477.81
450.662	457.81
450.883	484.81
451.104	506.81
451.324	466.81
451.545	455.81
451.766	450.81
451.986	443.81
452.207	437.81
452.428	433.81
452.648	425.81
452.869	428.81
453.089	438.81
453.31	434.81
453.53	423.81
453.751	432.81
453.971	410.81
454.192	462.81
454.412	451.81
454.633	421.81
454.853	417.81
455.073	428.81
455.294	466.81
455.514	498.81
455.734	495.81
455.955	415.81
456.175	422.81
456.395	408.81
456.616	414.81
456.836	409.81
457.056	382.81
457.276	382.81
457.497	390.81
457.717	388.81
457.937	395.81
458.157	415.81
458.377	436.81
458.598	421.81
458.818	488.81
459.038	556.81
459.258	571.81
459.478	496.81
459.698	437.81
459.918	418.81
460.138	432.81
460.358	423.81
460.578	420.81
460.798	431.81
461.018	443.81
461.238	413.81
461.458	416.81
461.678	424.81
461.898	425.81
462.118	424.81
462.338	402.81
462.558	424.81
462.777	432.81
462.997	443.81
463.217	425.81
463.437	455.81
463.657	460.81
463.876	440.81
464.096	426.81
464.316	440.81
464.536	457.81
464.755	456.81
464.975	472.81
465.195	512.81
465.414	558.81
465.634	529.81
465.854	480.81
466.073	442.81
466.293	436.81
466.512	420.81
466.732	423.81
466.951	413.81
467.171	437.81
467.391	425.81
467.61	454.81
467.829	435.81
468.049	469.81
468.268	534.81
468.488	487.81
468.707	455.81
468.927	425.81
469.146	415.81
469.365	436.81
469.585	419.81
469.804	434.81
470.023	450.81
470.243	455.81
470.462	452.81
470.681	470.81
470.901	443.81
471.12	433.81
471.339	428.81
471.558	444.81
471.777	454.81
471.997	471.81
472.216	543.81
472.435	773.81
472.654	734.81
472.873	565.81
473.092	522.81
473.311	510.81
473.53	480.81
473.749	484.81
473.968	517.81
474.187	614.81
474.406	662.81
474.625	515.81
474.844	482.81
475.063	466.81
475.282	474.81
475.501	479.81
475.72	470.81
475.939	472.81
476.158	472.81
476.377	462.81
476.596	440.81
476.814	456.81
477.033	473.81
477.252	479.81
477.471	487.81
477.69	483.81
477.908	483.81
478.127	487.81
478.346	483.81
478.564	495.81
478.783	504.81
479.002	491.81
479.22	487.81
479.439	509.81
479.658	565.81
479.876	555.81
480.095	536.81
480.313	596.81
480.532	594.81
480.751	611.81
480.969	658.81
481.188	1030.81
481.406	1317.81
481.624	894.81
481.843	738.81
482.061	681.81
482.28	652.81
482.498	609.81
482.717	594.81
482.935	584.81
483.153	555.81
483.372	553.81
483.59	560.81
483.808	566.81
484.027	563.81
484.245	552.81
484.463	540.81
484.681	558.81
484.9	571.81
485.118	583.81
485.336	562.81
485.554	568.81
485.772	538.81
485.99	543.81
486.209	572.81
486.427	572.81
486.645	583.81
486.863	618.81
487.081	601.81
487.299	611.81
487.517	583.81
487.735	598.81
487.953	605.81
488.171	597.81
488.389	560.81
488.607	592.81
488.825	592.81
489.043	612.81
489.261	619.81
489.479	616.81
489.696	587.81
489.914	624.81
490.132	630.81
490.35	613.81
490.568	642.81
490.786	669.81
491.003	673.81
491.221	678.81
491.439	680.81
491.657	680.81
491.874	695.81
492.092	703.81
492.31	729.81
492.527	739.81
492.745	730.81
492.963	719.81
493.18	753.81
493.398	734.81
493.615	742.81
493.833	773.81
494.05	737.81
494.268	764.81
494.485	704.81
494.703	708.81
494.92	740.81
495.138	743.81
495.355	730.81
495.573	732.81
495.79	726.81
496.008	717.81
496.225	705.81
496.442	699.81
496.66	707.81
496.877	728.81
497.094	720.81
497.312	692.81
497.529	705.81
497.746	720.81
497.963	705.81
498.181	760.81
498.398	744.81
498.615	737.81
498.832	710.81
499.049	744.81
499.267	776.81
499.484	759.81
499.701	776.81
499.918	779.81
500.135	810.81
500.352	812.81
500.569	811.81
500.786	849.81
501.003	876.81
501.22	829.81
501.437	832.81
501.654	783.81
501.871	809.81
