Data from 1986.PennyLincolnUp.Lamp.En5.5.200Scan.071819.P2_HRD10591_17-09-56-974.txt Node
Date: Thu Jul 18 17:09:56 EDT 2019
User: cochatt
Spectrometer: HR+D1059
Trigger mode: 1
Integration Time (sec): 1.000000E-1
Scans to average: 1
Electric dark correction enabled: true
Nonlinearity correction enabled: false
Boxcar width: 0
XAxis mode: Wavelengths
Number of Pixels in Spectrum: 2048
>>>>>Begin Spectral Data<<<<<
223.165	-9.5
223.4	-9.5
223.635	-9.5
223.869	-25.5
224.104	-7.5
224.338	-13.5
224.573	-28.5
224.808	-32.5
225.042	3.5
225.277	-8.5
225.511	-11.5
225.746	3.5
225.98	12.5
226.215	24.5
226.449	12.5
226.683	18.5
226.918	25.5
227.152	36.5
227.387	30.5
227.621	43.5
227.856	49.5
228.09	48.5
228.324	50.5
228.559	62.5
228.793	72.5
229.027	90.5
229.262	82.5
229.496	112.5
229.73	131.5
229.964	143.5
230.199	126.5
230.433	116.5
230.667	107.5
230.901	114.5
231.136	109.5
231.37	108.5
231.604	110.5
231.838	117.5
232.072	113.5
232.306	99.5
232.541	94.5
232.775	101.5
233.009	97.5
233.243	109.5
233.477	116.5
233.711	112.5
233.945	131.5
234.179	117.5
234.413	116.5
234.647	102.5
234.881	112.5
235.115	97.5
235.349	109.5
235.583	123.5
235.817	106.5
236.051	123.5
236.285	133.5
236.519	125.5
236.753	130.5
236.987	136.5
237.221	180.5
237.455	220.5
237.689	187.5
237.922	142.5
238.156	127.5
238.39	128.5
238.624	124.5
238.858	132.5
239.091	121.5
239.325	104.5
239.559	117.5
239.793	113.5
240.027	128.5
240.26	131.5
240.494	153.5
240.728	147.5
240.961	134.5
241.195	132.5
241.429	128.5
241.662	129.5
241.896	116.5
242.13	121.5
242.363	121.5
242.597	138.5
242.83	143.5
243.064	136.5
243.298	146.5
243.531	123.5
243.765	125.5
243.998	129.5
244.232	138.5
244.465	129.5
244.699	145.5
244.932	134.5
245.166	155.5
245.399	132.5
245.633	130.5
245.866	141.5
246.099	146.5
246.333	134.5
246.566	139.5
246.8	157.5
247.033	150.5
247.266	161.5
247.5	181.5
247.733	166.5
247.966	170.5
248.2	160.5
248.433	183.5
248.666	168.5
248.899	183.5
249.133	188.5
249.366	186.5
249.599	204.5
249.832	168.5
250.066	184.5
250.299	171.5
250.532	181.5
250.765	194.5
250.998	202.5
251.231	206.5
251.465	208.5
251.698	186.5
251.931	184.5
252.164	185.5
252.397	186.5
252.63	187.5
252.863	179.5
253.096	218.5
253.329	217.5
253.562	243.5
253.795	223.5
254.028	202.5
254.261	221.5
254.494	227.5
254.727	260.5
254.96	275.5
255.193	253.5
255.426	251.5
255.659	229.5
255.892	229.5
256.124	218.5
256.357	212.5
256.59	199.5
256.823	192.5
257.056	197.5
257.289	197.5
257.521	199.5
257.754	182.5
257.987	204.5
258.22	197.5
258.452	190.5
258.685	184.5
258.918	209.5
259.151	196.5
259.383	203.5
259.616	212.5
259.849	214.5
260.081	201.5
260.314	243.5
260.547	245.5
260.779	261.5
261.012	228.5
261.244	217.5
261.477	232.5
261.71	233.5
261.942	208.5
262.175	241.5
262.407	226.5
262.64	203.5
262.872	227.5
263.105	207.5
263.337	203.5
263.57	212.5
263.802	199.5
264.035	195.5
264.267	183.5
264.499	197.5
264.732	213.5
264.964	192.5
265.197	199.5
265.429	194.5
265.661	203.5
265.894	186.5
266.126	193.5
266.358	201.5
266.591	210.5
266.823	215.5
267.055	195.5
267.287	202.5
267.52	204.5
267.752	210.5
267.984	213.5
268.216	225.5
268.448	213.5
268.681	219.5
268.913	240.5
269.145	260.5
269.377	266.5
269.609	262.5
269.841	267.5
270.073	275.5
270.306	243.5
270.538	300.5
270.77	306.5
271.002	287.5
271.234	288.5
271.466	279.5
271.698	293.5
271.93	297.5
272.162	302.5
272.394	310.5
272.626	304.5
272.858	300.5
273.09	268.5
273.322	257.5
273.553	247.5
273.785	252.5
274.017	256.5
274.249	257.5
274.481	244.5
274.713	233.5
274.945	248.5
275.176	246.5
275.408	248.5
275.64	224.5
275.872	226.5
276.104	234.5
276.335	242.5
276.567	261.5
276.799	277.5
277.031	285.5
277.262	285.5
277.494	283.5
277.726	277.5
277.957	258.5
278.189	242.5
278.421	239.5
278.652	251.5
278.884	252.5
279.115	245.5
279.347	269.5
279.579	237.5
279.81	232.5
280.042	236.5
280.273	241.5
280.505	233.5
280.736	244.5
280.968	242.5
281.199	248.5
281.431	249.5
281.662	226.5
281.894	256.5
282.125	237.5
282.356	259.5
282.588	279.5
282.819	288.5
283.051	263.5
283.282	245.5
283.513	244.5
283.745	237.5
283.976	257.5
284.207	242.5
284.439	255.5
284.67	253.5
284.901	254.5
285.132	249.5
285.364	244.5
285.595	254.5
285.826	250.5
286.057	257.5
286.288	242.5
286.52	249.5
286.751	234.5
286.982	233.5
287.213	233.5
287.444	273.5
287.675	267.5
287.906	257.5
288.138	272.5
288.369	261.5
288.6	275.5
288.831	265.5
289.062	264.5
289.293	266.5
289.524	253.5
289.755	261.5
289.986	235.5
290.217	252.5
290.448	259.5
290.679	259.5
290.91	257.5
291.141	236.5
291.371	260.5
291.602	251.5
291.833	225.5
292.064	241.5
292.295	267.5
292.526	244.5
292.757	256.5
292.987	245.5
293.218	245.5
293.449	247.5
293.68	258.5
293.91	240.5
294.141	252.5
294.372	246.5
294.603	260.5
294.833	258.5
295.064	257.5
295.295	253.5
295.525	245.5
295.756	256.5
295.987	276.5
296.217	282.5
296.448	291.5
296.679	274.5
296.909	252.5
297.14	258.5
297.37	275.5
297.601	269.5
297.831	276.5
298.062	259.5
298.292	251.5
298.523	269.5
298.753	260.5
298.984	270.5
299.214	270.5
299.445	265.5
299.675	273.5
299.905	280.5
300.136	273.5
300.366	280.5
300.597	274.5
300.827	269.5
301.057	251.5
301.288	290.5
301.518	288.5
301.748	267.5
301.979	278.5
302.209	277.5
302.439	284.5
302.669	300.5
302.9	285.5
303.13	276.5
303.36	296.5
303.59	281.5
303.82	298.5
304.051	294.5
304.281	283.5
304.511	277.5
304.741	283.5
304.971	266.5
305.201	296.5
305.431	289.5
305.661	294.5
305.891	280.5
306.121	286.5
306.352	289.5
306.582	305.5
306.812	292.5
307.042	282.5
307.272	284.5
307.502	273.5
307.731	282.5
307.961	304.5
308.191	305.5
308.421	286.5
308.651	268.5
308.881	298.5
309.111	300.5
309.341	306.5
309.571	300.5
309.8	298.5
310.03	341.5
310.26	341.5
310.49	332.5
310.72	349.5
310.949	372.5
311.179	353.5
311.409	334.5
311.639	324.5
311.868	337.5
312.098	348.5
312.328	336.5
312.557	344.5
312.787	384.5
313.017	378.5
313.246	363.5
313.476	350.5
313.706	320.5
313.935	350.5
314.165	374.5
314.394	368.5
314.624	368.5
314.853	339.5
315.083	328.5
315.312	324.5
315.542	321.5
315.771	310.5
316.001	331.5
316.23	314.5
316.46	320.5
316.689	326.5
316.919	322.5
317.148	356.5
317.377	350.5
317.607	351.5
317.836	347.5
318.065	318.5
318.295	332.5
318.524	332.5
318.753	342.5
318.983	341.5
319.212	333.5
319.441	358.5
319.67	365.5
319.9	348.5
320.129	330.5
320.358	351.5
320.587	343.5
320.816	322.5
321.046	368.5
321.275	352.5
321.504	344.5
321.733	364.5
321.962	380.5
322.191	358.5
322.42	383.5
322.649	411.5
322.878	422.5
323.108	388.5
323.337	439.5
323.566	483.5
323.795	510.5
324.024	544.5
324.253	673.5
324.482	965.5
324.71	1520.5
324.939	2108.5
325.168	1870.5
325.397	962.5
325.626	644.5
325.855	538.5
326.084	480.5
326.313	468.5
326.542	481.5
326.77	525.5
326.999	610.5
327.228	854.5
327.457	1288.5
327.686	1616.5
327.914	1088.5
328.143	712.5
328.372	584.5
328.6	540.5
328.829	523.5
329.058	540.5
329.287	566.5
329.515	514.5
329.744	457.5
329.972	442.5
330.201	454.5
330.43	476.5
330.658	510.5
330.887	572.5
331.115	584.5
331.344	488.5
331.572	441.5
331.801	446.5
332.03	441.5
332.258	403.5
332.486	381.5
332.715	384.5
332.943	406.5
333.172	389.5
333.4	381.5
333.629	380.5
333.857	419.5
334.085	403.5
334.314	399.5
334.542	396.5
334.771	372.5
334.999	372.5
335.227	405.5
335.455	386.5
335.684	376.5
335.912	353.5
336.14	360.5
336.369	377.5
336.597	398.5
336.825	390.5
337.053	377.5
337.281	370.5
337.51	387.5
337.738	380.5
337.966	385.5
338.194	387.5
338.422	386.5
338.65	372.5
338.878	370.5
339.106	366.5
339.334	357.5
339.562	368.5
339.79	366.5
340.018	351.5
340.246	368.5
340.474	366.5
340.702	384.5
340.93	375.5
341.158	380.5
341.386	356.5
341.614	359.5
341.842	354.5
342.07	378.5
342.298	370.5
342.526	356.5
342.754	347.5
342.981	358.5
343.209	350.5
343.437	362.5
343.665	361.5
343.893	358.5
344.12	368.5
344.348	363.5
344.576	362.5
344.804	373.5
345.031	371.5
345.259	380.5
345.487	400.5
345.714	393.5
345.942	348.5
346.17	361.5
346.397	348.5
346.625	359.5
346.853	376.5
347.08	352.5
347.308	363.5
347.535	353.5
347.763	372.5
347.99	365.5
348.218	370.5
348.445	360.5
348.673	370.5
348.9	372.5
349.128	353.5
349.355	338.5
349.583	362.5
349.81	361.5
350.037	353.5
350.265	357.5
350.492	387.5
350.72	355.5
350.947	364.5
351.174	379.5
351.402	380.5
351.629	363.5
351.856	362.5
352.083	388.5
352.311	378.5
352.538	397.5
352.765	370.5
352.992	372.5
353.22	381.5
353.447	371.5
353.674	378.5
353.901	340.5
354.128	354.5
354.355	334.5
354.583	337.5
354.81	344.5
355.037	358.5
355.264	323.5
355.491	338.5
355.718	326.5
355.945	329.5
356.172	344.5
356.399	327.5
356.626	346.5
356.853	330.5
357.08	322.5
357.307	321.5
357.534	333.5
357.761	328.5
357.988	321.5
358.215	332.5
358.441	334.5
358.668	326.5
358.895	342.5
359.122	343.5
359.349	352.5
359.576	361.5
359.802	381.5
360.029	420.5
360.256	410.5
360.483	428.5
360.709	356.5
360.936	366.5
361.163	357.5
361.39	370.5
361.616	381.5
361.843	366.5
362.07	333.5
362.296	364.5
362.523	361.5
362.749	356.5
362.976	347.5
363.203	360.5
363.429	314.5
363.656	347.5
363.882	344.5
364.109	357.5
364.335	340.5
364.562	333.5
364.788	315.5
365.015	341.5
365.241	342.5
365.468	343.5
365.694	334.5
365.92	355.5
366.147	328.5
366.373	329.5
366.599	337.5
366.826	338.5
367.052	329.5
367.278	337.5
367.505	318.5
367.731	342.5
367.957	340.5
368.184	332.5
368.41	359.5
368.636	365.5
368.862	369.5
369.089	341.5
369.315	324.5
369.541	321.5
369.767	334.5
369.993	342.5
370.219	330.5
370.445	324.5
370.672	337.5
370.898	315.5
371.124	327.5
371.35	332.5
371.576	322.5
371.802	334.5
372.028	331.5
372.254	326.5
372.48	350.5
372.706	313.5
372.932	324.5
373.158	336.5
373.384	335.5
373.61	334.5
373.835	309.5
374.061	330.5
374.287	335.5
374.513	333.5
374.739	344.5
374.965	328.5
375.191	341.5
375.416	343.5
375.642	340.5
375.868	331.5
376.094	338.5
376.319	333.5
376.545	337.5
376.771	320.5
376.997	335.5
377.222	340.5
377.448	360.5
377.674	327.5
377.899	330.5
378.125	311.5
378.35	330.5
378.576	319.5
378.802	341.5
379.027	313.5
379.253	302.5
379.478	330.5
379.704	312.5
379.929	328.5
380.155	334.5
380.38	338.5
380.606	355.5
380.831	348.5
381.057	355.5
381.282	336.5
381.507	334.5
381.733	349.5
381.958	338.5
382.184	347.5
382.409	343.5
382.634	328.5
382.86	349.5
383.085	316.5
383.31	359.5
383.535	345.5
383.761	336.5
383.986	342.5
384.211	344.5
384.436	342.5
384.662	320.5
384.887	356.5
385.112	315.5
385.337	344.5
385.562	350.5
385.787	325.5
386.013	347.5
386.238	369.5
386.463	379.5
386.688	348.5
386.913	345.5
387.138	354.5
387.363	365.5
387.588	358.5
387.813	345.5
388.038	344.5
388.263	344.5
388.488	354.5
388.713	366.5
388.938	335.5
389.163	345.5
389.387	338.5
389.612	330.5
389.837	344.5
390.062	340.5
390.287	340.5
390.512	349.5
390.736	336.5
390.961	355.5
391.186	347.5
391.411	342.5
391.636	352.5
391.86	343.5
392.085	345.5
392.31	362.5
392.534	352.5
392.759	354.5
392.984	346.5
393.208	343.5
393.433	349.5
393.658	357.5
393.882	356.5
394.107	341.5
394.331	350.5
394.556	333.5
394.78	327.5
395.005	360.5
395.229	341.5
395.454	352.5
395.678	346.5
395.903	349.5
396.127	359.5
396.352	376.5
396.576	374.5
396.801	369.5
397.025	372.5
397.249	361.5
397.474	368.5
397.698	358.5
397.922	382.5
398.147	400.5
398.371	376.5
398.595	368.5
398.82	383.5
399.044	378.5
399.268	401.5
399.492	395.5
399.717	439.5
399.941	464.5
400.165	474.5
400.389	480.5
400.613	461.5
400.837	405.5
401.062	376.5
401.286	372.5
401.51	363.5
401.734	376.5
401.958	380.5
402.182	397.5
402.406	409.5
402.63	406.5
402.854	398.5
403.078	395.5
403.302	391.5
403.526	393.5
403.75	405.5
403.974	396.5
404.198	384.5
404.422	402.5
404.645	408.5
404.869	396.5
405.093	417.5
405.317	442.5
405.541	451.5
405.765	431.5
405.988	417.5
406.212	427.5
406.436	462.5
406.66	467.5
406.883	474.5
407.107	478.5
407.331	470.5
407.555	530.5
407.778	561.5
408.002	485.5
408.226	467.5
408.449	457.5
408.673	487.5
408.896	465.5
409.12	505.5
409.344	490.5
409.567	424.5
409.791	416.5
410.014	411.5
410.238	405.5
410.461	394.5
410.685	396.5
410.908	422.5
411.132	445.5
411.355	486.5
411.578	444.5
411.802	389.5
412.025	399.5
412.249	404.5
412.472	384.5
412.695	401.5
412.919	398.5
413.142	402.5
413.365	406.5
413.589	390.5
413.812	376.5
414.035	377.5
414.258	381.5
414.482	378.5
414.705	376.5
414.928	372.5
415.151	372.5
415.374	376.5
415.597	377.5
415.821	371.5
416.044	391.5
416.267	387.5
416.49	362.5
416.713	380.5
416.936	397.5
417.159	373.5
417.382	371.5
417.605	375.5
417.828	376.5
418.051	395.5
418.274	401.5
418.497	388.5
418.72	390.5
418.943	372.5
419.166	409.5
419.389	429.5
419.611	408.5
419.834	400.5
420.057	403.5
420.28	384.5
420.503	391.5
420.726	393.5
420.948	396.5
421.171	446.5
421.394	483.5
421.617	445.5
421.839	417.5
422.062	407.5
422.285	425.5
422.507	486.5
422.73	555.5
422.953	539.5
423.175	472.5
423.398	428.5
423.621	426.5
423.843	439.5
424.066	441.5
424.288	445.5
424.511	467.5
424.733	498.5
424.956	603.5
425.178	596.5
425.401	556.5
425.623	573.5
425.846	490.5
426.068	456.5
426.291	435.5
426.513	446.5
426.735	468.5
426.958	502.5
427.18	570.5
427.402	681.5
427.625	754.5
427.847	658.5
428.069	553.5
428.292	502.5
428.514	461.5
428.736	440.5
428.958	444.5
429.181	429.5
429.403	439.5
429.625	414.5
429.847	475.5
430.069	520.5
430.292	530.5
430.514	463.5
430.736	413.5
430.958	416.5
431.18	396.5
431.402	406.5
431.624	395.5
431.846	380.5
432.068	378.5
432.29	387.5
432.512	416.5
432.734	389.5
432.956	396.5
433.178	405.5
433.4	405.5
433.622	408.5
433.844	414.5
434.066	413.5
434.287	380.5
434.509	417.5
434.731	406.5
434.953	414.5
435.175	421.5
435.397	441.5
435.618	437.5
435.84	488.5
436.062	574.5
436.284	649.5
436.505	530.5
436.727	484.5
436.949	444.5
437.17	427.5
437.392	433.5
437.614	426.5
437.835	480.5
438.057	557.5
438.278	655.5
438.5	652.5
438.721	715.5
438.943	665.5
439.165	544.5
439.386	486.5
439.608	463.5
439.829	469.5
440.05	514.5
440.272	521.5
440.493	522.5
440.715	445.5
440.936	442.5
441.158	446.5
441.379	422.5
441.6	424.5
441.822	445.5
442.043	503.5
442.264	567.5
442.486	600.5
442.707	497.5
442.928	479.5
443.149	492.5
443.371	508.5
443.592	538.5
443.813	599.5
444.034	690.5
444.255	546.5
444.476	464.5
444.698	464.5
444.919	465.5
445.14	578.5
445.361	533.5
445.582	488.5
445.803	554.5
446.024	650.5
446.245	635.5
446.466	599.5
446.687	513.5
446.908	457.5
447.129	445.5
447.35	438.5
447.571	442.5
447.792	423.5
448.013	459.5
448.234	433.5
448.455	476.5
448.675	614.5
448.896	697.5
449.117	594.5
449.338	564.5
449.559	659.5
449.779	713.5
450	606.5
450.221	482.5
450.442	448.5
450.662	426.5
450.883	425.5
451.104	447.5
451.324	428.5
451.545	416.5
451.766	392.5
451.986	398.5
452.207	362.5
452.428	388.5
452.648	354.5
452.869	396.5
453.089	392.5
453.31	393.5
453.53	396.5
453.751	404.5
453.971	389.5
454.192	424.5
454.412	386.5
454.633	386.5
454.853	384.5
455.073	374.5
455.294	393.5
455.514	463.5
455.734	482.5
455.955	390.5
456.175	361.5
456.395	354.5
456.616	363.5
456.836	347.5
457.056	344.5
457.276	335.5
457.497	354.5
457.717	339.5
457.937	352.5
458.157	369.5
458.377	352.5
458.598	400.5
458.818	470.5
459.038	565.5
459.258	556.5
459.478	440.5
459.698	411.5
459.918	386.5
460.138	404.5
460.358	383.5
460.578	368.5
460.798	388.5
461.018	392.5
461.238	369.5
461.458	368.5
461.678	384.5
461.898	379.5
462.118	379.5
462.338	411.5
462.558	404.5
462.777	393.5
462.997	411.5
463.217	416.5
463.437	424.5
463.657	399.5
463.876	403.5
464.096	392.5
464.316	400.5
464.536	417.5
464.755	411.5
464.975	426.5
465.195	477.5
465.414	549.5
465.634	469.5
465.854	425.5
466.073	384.5
466.293	405.5
466.512	399.5
466.732	370.5
466.951	394.5
467.171	386.5
467.391	390.5
467.61	406.5
467.829	404.5
468.049	388.5
468.268	370.5
468.488	361.5
468.707	360.5
468.927	377.5
469.146	365.5
469.365	365.5
469.585	363.5
469.804	399.5
470.023	386.5
470.243	389.5
470.462	410.5
470.681	438.5
470.901	430.5
471.12	398.5
471.339	383.5
471.558	408.5
471.777	389.5
471.997	385.5
472.216	392.5
472.435	372.5
472.654	374.5
472.873	370.5
473.092	392.5
473.311	385.5
473.53	377.5
473.749	386.5
473.968	452.5
474.187	540.5
474.406	546.5
474.625	465.5
474.844	426.5
475.063	399.5
475.282	402.5
475.501	386.5
475.72	398.5
475.939	391.5
476.158	387.5
476.377	391.5
476.596	404.5
476.814	393.5
477.033	408.5
477.252	414.5
477.471	419.5
477.69	409.5
477.908	424.5
478.127	422.5
478.346	410.5
478.564	419.5
478.783	415.5
479.002	427.5
479.22	418.5
479.439	445.5
479.658	461.5
479.876	448.5
480.095	476.5
480.313	492.5
480.532	485.5
480.751	440.5
480.969	439.5
481.188	475.5
481.406	470.5
481.624	458.5
481.843	469.5
482.061	468.5
482.28	467.5
482.498	440.5
482.717	451.5
482.935	456.5
483.153	446.5
483.372	432.5
483.59	477.5
483.808	454.5
484.027	452.5
484.245	459.5
484.463	441.5
484.681	470.5
484.9	452.5
485.118	447.5
485.336	470.5
485.554	456.5
485.772	476.5
485.99	462.5
486.209	452.5
486.427	450.5
486.645	488.5
486.863	509.5
487.081	502.5
487.299	486.5
487.517	487.5
487.735	501.5
487.953	483.5
488.171	505.5
488.389	493.5
488.607	518.5
488.825	488.5
489.043	488.5
489.261	494.5
489.479	523.5
489.696	503.5
489.914	505.5
490.132	482.5
490.35	506.5
490.568	515.5
490.786	538.5
491.003	527.5
491.221	536.5
491.439	540.5
491.657	564.5
491.874	551.5
492.092	578.5
492.31	544.5
492.527	575.5
492.745	569.5
492.963	581.5
493.18	583.5
493.398	598.5
493.615	595.5
493.833	595.5
494.05	577.5
494.268	587.5
494.485	600.5
494.703	584.5
494.92	584.5
495.138	580.5
495.355	583.5
495.573	592.5
495.79	608.5
496.008	592.5
496.225	561.5
496.442	567.5
496.66	603.5
496.877	612.5
497.094	601.5
497.312	603.5
497.529	605.5
497.746	616.5
497.963	633.5
498.181	635.5
498.398	639.5
498.615	627.5
498.832	665.5
499.049	650.5
499.267	633.5
499.484	675.5
499.701	676.5
499.918	705.5
500.135	694.5
500.352	695.5
500.569	699.5
500.786	738.5
501.003	738.5
501.22	717.5
501.437	717.5
501.654	693.5
501.871	725.5
502.088	690.5
502.305	652.5
502.522	648.5
502.739	644.5
502.956	629.5
503.172	601.5
503.389	627.5
503.606	633.5
503.823	624.5
504.04	616.5
504.256	583.5
504.473	605.5
504.69	584.5
504.907	591.5
505.123	560.5
505.34	594.5
505.557	584.5
505.773	607.5
505.99	581.5
506.207	568.5
506.423	573.5
506.64	576.5
506.856	556.5
507.073	596.5
507.289	570.5
507.506	572.5
507.722	602.5
507.939	626.5
508.155	586.5
508.372	563.5
508.588	549.5
508.805	548.5
509.021	559.5
509.238	560.5
509.454	586.5
509.67	574.5
509.887	582.5
510.103	567.5
510.319	570.5
510.536	664.5
510.752	1189.5
510.968	957.5
511.184	579.5
511.401	563.5
511.617	541.5
511.833	522.5
512.049	543.5
512.265	517.5
512.481	535.5
512.698	520.5
512.914	531.5
513.13	530.5
513.346	520.5
513.562	518.5
513.778	540.5
513.994	544.5
514.21	563.5
514.426	592.5
514.642	609.5
514.858	644.5
515.074	704.5
515.29	881.5
515.506	1354.5
515.721	1089.5
515.937	690.5
516.153	599.5
516.369	582.5
516.585	581.5
516.801	530.5
517.016	556.5
517.232	542.5
517.448	539.5
517.664	522.5
517.879	550.5
518.095	522.5
518.311	554.5
518.527	499.5
518.742	534.5
518.958	532.5
519.173	529.5
519.389	513.5
519.605	553.5
519.82	534.5
520.036	562.5
