Data from 1986.PennyLincolnUp.Lamp.En5.5.200Scan.071819.P2_HRD10591_17-11-42-973.txt Node
Date: Thu Jul 18 17:11:42 EDT 2019
User: cochatt
Spectrometer: HR+D1059
Trigger mode: 1
Integration Time (sec): 1.000000E-1
Scans to average: 1
Electric dark correction enabled: true
Nonlinearity correction enabled: false
Boxcar width: 0
XAxis mode: Wavelengths
Number of Pixels in Spectrum: 2048
>>>>>Begin Spectral Data<<<<<
223.165	-17.19
223.4	-17.19
223.635	-17.19
223.869	-18.19
224.104	-16.19
224.338	-24.19
224.573	-19.19
224.808	-9.19
225.042	-10.19
225.277	-6.19
225.511	1.81
225.746	6.81
225.98	16.81
226.215	7.81
226.449	12.81
226.683	30.81
226.918	22.81
227.152	20.81
227.387	41.81
227.621	40.81
227.856	53.81
228.09	54.81
228.324	53.81
228.559	66.81
228.793	75.81
229.027	97.81
229.262	110.81
229.496	98.81
229.73	129.81
229.964	156.81
230.199	124.81
230.433	112.81
230.667	122.81
230.901	130.81
231.136	121.81
231.37	116.81
231.604	120.81
231.838	106.81
232.072	119.81
232.306	108.81
232.541	118.81
232.775	126.81
233.009	120.81
233.243	111.81
233.477	116.81
233.711	132.81
233.945	110.81
234.179	121.81
234.413	119.81
234.647	126.81
234.881	123.81
235.115	132.81
235.349	128.81
235.583	116.81
235.817	118.81
236.051	116.81
236.285	136.81
236.519	119.81
236.753	154.81
236.987	160.81
237.221	192.81
237.455	242.81
237.689	201.81
237.922	166.81
238.156	150.81
238.39	141.81
238.624	144.81
238.858	125.81
239.091	140.81
239.325	136.81
239.559	144.81
239.793	139.81
240.027	146.81
240.26	146.81
240.494	158.81
240.728	178.81
240.961	177.81
241.195	156.81
241.429	146.81
241.662	135.81
241.896	142.81
242.13	124.81
242.363	152.81
242.597	150.81
242.83	142.81
243.064	146.81
243.298	137.81
243.531	150.81
243.765	156.81
243.998	126.81
244.232	154.81
244.465	167.81
244.699	146.81
244.932	156.81
245.166	159.81
245.399	153.81
245.633	156.81
245.866	157.81
246.099	147.81
246.333	157.81
246.566	157.81
246.8	163.81
247.033	162.81
247.266	168.81
247.5	156.81
247.733	169.81
247.966	169.81
248.2	184.81
248.433	183.81
248.666	173.81
248.899	215.81
249.133	191.81
249.366	216.81
249.599	209.81
249.832	208.81
250.066	213.81
250.299	203.81
250.532	221.81
250.765	252.81
250.998	267.81
251.231	250.81
251.465	252.81
251.698	233.81
251.931	216.81
252.164	217.81
252.397	216.81
252.63	225.81
252.863	232.81
253.096	249.81
253.329	232.81
253.562	260.81
253.795	227.81
254.028	251.81
254.261	239.81
254.494	235.81
254.727	282.81
254.96	319.81
255.193	308.81
255.426	279.81
255.659	272.81
255.892	281.81
256.124	282.81
256.357	323.81
256.59	292.81
256.823	285.81
257.056	262.81
257.289	252.81
257.521	227.81
257.754	232.81
257.987	238.81
258.22	244.81
258.452	235.81
258.685	222.81
258.918	246.81
259.151	226.81
259.383	246.81
259.616	250.81
259.849	229.81
260.081	260.81
260.314	270.81
260.547	283.81
260.779	275.81
261.012	250.81
261.244	257.81
261.477	239.81
261.71	235.81
261.942	245.81
262.175	254.81
262.407	267.81
262.64	230.81
262.872	227.81
263.105	233.81
263.337	235.81
263.57	221.81
263.802	212.81
264.035	211.81
264.267	219.81
264.499	228.81
264.732	248.81
264.964	222.81
265.197	211.81
265.429	227.81
265.661	215.81
265.894	211.81
266.126	229.81
266.358	242.81
266.591	225.81
266.823	231.81
267.055	215.81
267.287	236.81
267.52	230.81
267.752	240.81
267.984	215.81
268.216	238.81
268.448	247.81
268.681	240.81
268.913	261.81
269.145	280.81
269.377	294.81
269.609	302.81
269.841	281.81
270.073	277.81
270.306	295.81
270.538	333.81
270.77	351.81
271.002	310.81
271.234	304.81
271.466	331.81
271.698	337.81
271.93	339.81
272.162	351.81
272.394	338.81
272.626	330.81
272.858	296.81
273.09	300.81
273.322	278.81
273.553	262.81
273.785	280.81
274.017	290.81
274.249	290.81
274.481	277.81
274.713	270.81
274.945	278.81
275.176	275.81
275.408	268.81
275.64	272.81
275.872	282.81
276.104	278.81
276.335	281.81
276.567	270.81
276.799	298.81
277.031	326.81
277.262	321.81
277.494	332.81
277.726	317.81
277.957	297.81
278.189	304.81
278.421	294.81
278.652	276.81
278.884	283.81
279.115	276.81
279.347	281.81
279.579	271.81
279.81	269.81
280.042	270.81
280.273	275.81
280.505	282.81
280.736	276.81
280.968	278.81
281.199	292.81
281.431	269.81
281.662	276.81
281.894	262.81
282.125	266.81
282.356	279.81
282.588	317.81
282.819	310.81
283.051	281.81
283.282	267.81
283.513	281.81
283.745	284.81
283.976	282.81
284.207	289.81
284.439	269.81
284.67	276.81
284.901	276.81
285.132	273.81
285.364	274.81
285.595	269.81
285.826	272.81
286.057	273.81
286.288	287.81
286.52	287.81
286.751	278.81
286.982	284.81
287.213	290.81
287.444	277.81
287.675	305.81
287.906	287.81
288.138	293.81
288.369	318.81
288.6	292.81
288.831	300.81
289.062	301.81
289.293	286.81
289.524	298.81
289.755	273.81
289.986	284.81
290.217	283.81
290.448	299.81
290.679	271.81
290.91	305.81
291.141	283.81
291.371	299.81
291.602	286.81
291.833	270.81
292.064	269.81
292.295	297.81
292.526	292.81
292.757	281.81
292.987	301.81
293.218	277.81
293.449	287.81
293.68	301.81
293.91	273.81
294.141	271.81
294.372	268.81
294.603	278.81
294.833	264.81
295.064	268.81
295.295	298.81
295.525	292.81
295.756	299.81
295.987	294.81
296.217	316.81
296.448	332.81
296.679	307.81
296.909	298.81
297.14	300.81
297.37	298.81
297.601	293.81
297.831	281.81
298.062	283.81
298.292	306.81
298.523	297.81
298.753	287.81
298.984	293.81
299.214	286.81
299.445	303.81
299.675	300.81
299.905	322.81
300.136	313.81
300.366	296.81
300.597	306.81
300.827	317.81
301.057	304.81
301.288	338.81
301.518	305.81
301.748	296.81
301.979	325.81
302.209	317.81
302.439	322.81
302.669	302.81
302.9	312.81
303.13	296.81
303.36	316.81
303.59	319.81
303.82	336.81
304.051	336.81
304.281	311.81
304.511	321.81
304.741	318.81
304.971	327.81
305.201	328.81
305.431	334.81
305.661	304.81
305.891	312.81
306.121	302.81
306.352	324.81
306.582	327.81
306.812	324.81
307.042	303.81
307.272	324.81
307.502	339.81
307.731	332.81
307.961	328.81
308.191	334.81
308.421	319.81
308.651	322.81
308.881	316.81
309.111	339.81
309.341	333.81
309.571	349.81
309.8	368.81
310.03	361.81
310.26	391.81
310.49	374.81
310.72	397.81
310.949	422.81
311.179	401.81
311.409	382.81
311.639	370.81
311.868	368.81
312.098	384.81
312.328	385.81
312.557	401.81
312.787	427.81
313.017	415.81
313.246	393.81
313.476	374.81
313.706	371.81
313.935	367.81
314.165	398.81
314.394	390.81
314.624	420.81
314.853	385.81
315.083	372.81
315.312	373.81
315.542	375.81
315.771	364.81
316.001	361.81
316.23	361.81
316.46	361.81
316.689	364.81
316.919	388.81
317.148	378.81
317.377	383.81
317.607	389.81
317.836	372.81
318.065	383.81
318.295	386.81
318.524	396.81
318.753	379.81
318.983	358.81
319.212	382.81
319.441	397.81
319.67	413.81
319.9	372.81
320.129	384.81
320.358	367.81
320.587	402.81
320.816	395.81
321.046	408.81
321.275	405.81
321.504	396.81
321.733	395.81
321.962	421.81
322.191	425.81
322.42	446.81
322.649	466.81
322.878	475.81
323.108	456.81
323.337	512.81
323.566	534.81
323.795	572.81
324.024	632.81
324.253	766.81
324.482	1067.81
324.71	1664.81
324.939	2407.81
325.168	2129.81
325.397	1146.81
325.626	747.81
325.855	641.81
326.084	598.81
326.313	528.81
326.542	536.81
326.77	636.81
326.999	720.81
327.228	988.81
327.457	1492.81
327.686	1847.81
327.914	1286.81
328.143	854.81
328.372	761.81
328.6	729.81
328.829	650.81
329.058	681.81
329.287	678.81
329.515	630.81
329.744	588.81
329.972	598.81
330.201	669.81
330.43	745.81
330.658	769.81
330.887	714.81
331.115	673.81
331.344	584.81
331.572	552.81
331.801	544.81
332.03	545.81
332.258	514.81
332.486	472.81
332.715	517.81
332.943	479.81
333.172	460.81
333.4	483.81
333.629	508.81
333.857	545.81
334.085	573.81
334.314	616.81
334.542	748.81
334.771	784.81
334.999	634.81
335.227	531.81
335.455	492.81
335.684	461.81
335.912	478.81
336.14	446.81
336.369	444.81
336.597	443.81
336.825	469.81
337.053	441.81
337.281	440.81
337.51	430.81
337.738	447.81
337.966	432.81
338.194	440.81
338.422	430.81
338.65	428.81
338.878	410.81
339.106	397.81
339.334	412.81
339.562	401.81
339.79	445.81
340.018	417.81
340.246	407.81
340.474	427.81
340.702	408.81
340.93	408.81
341.158	407.81
341.386	411.81
341.614	427.81
341.842	413.81
342.07	412.81
342.298	401.81
342.526	398.81
342.754	422.81
342.981	403.81
343.209	392.81
343.437	394.81
343.665	397.81
343.893	400.81
344.12	409.81
344.348	427.81
344.576	398.81
344.804	428.81
345.031	424.81
345.259	450.81
345.487	439.81
345.714	418.81
345.942	373.81
346.17	393.81
346.397	399.81
346.625	422.81
346.853	395.81
347.08	410.81
347.308	392.81
347.535	417.81
347.763	426.81
347.99	426.81
348.218	434.81
348.445	421.81
348.673	420.81
348.9	411.81
349.128	388.81
349.355	414.81
349.583	383.81
349.81	391.81
350.037	388.81
350.265	376.81
350.492	382.81
350.72	408.81
350.947	416.81
351.174	430.81
351.402	405.81
351.629	401.81
351.856	414.81
352.083	421.81
352.311	428.81
352.538	410.81
352.765	421.81
352.992	423.81
353.22	417.81
353.447	402.81
353.674	378.81
353.901	384.81
354.128	379.81
354.355	363.81
354.583	370.81
354.81	373.81
355.037	375.81
355.264	365.81
355.491	350.81
355.718	349.81
355.945	361.81
356.172	366.81
356.399	358.81
356.626	380.81
356.853	365.81
357.08	358.81
357.307	367.81
357.534	348.81
357.761	384.81
357.988	363.81
358.215	366.81
358.441	377.81
358.668	355.81
358.895	364.81
359.122	380.81
359.349	372.81
359.576	409.81
359.802	425.81
360.029	449.81
360.256	459.81
360.483	448.81
360.709	411.81
360.936	388.81
361.163	406.81
361.39	416.81
361.616	406.81
361.843	422.81
362.07	406.81
362.296	421.81
362.523	396.81
362.749	394.81
362.976	394.81
363.203	380.81
363.429	374.81
363.656	382.81
363.882	369.81
364.109	365.81
364.335	366.81
364.562	394.81
364.788	366.81
365.015	380.81
365.241	403.81
365.468	394.81
365.694	395.81
365.92	398.81
366.147	384.81
366.373	376.81
366.599	381.81
366.826	353.81
367.052	360.81
367.278	365.81
367.505	367.81
367.731	374.81
367.957	392.81
368.184	353.81
368.41	380.81
368.636	394.81
368.862	391.81
369.089	403.81
369.315	390.81
369.541	382.81
369.767	370.81
369.993	380.81
370.219	390.81
370.445	383.81
370.672	354.81
370.898	365.81
371.124	362.81
371.35	357.81
371.576	360.81
371.802	385.81
372.028	369.81
372.254	356.81
372.48	375.81
372.706	362.81
372.932	370.81
373.158	356.81
373.384	377.81
373.61	366.81
373.835	348.81
374.061	381.81
374.287	377.81
374.513	370.81
374.739	361.81
374.965	350.81
375.191	359.81
375.416	359.81
375.642	363.81
375.868	363.81
376.094	358.81
376.319	355.81
376.545	346.81
376.771	342.81
376.997	360.81
377.222	354.81
377.448	358.81
377.674	357.81
377.899	342.81
378.125	363.81
378.35	362.81
378.576	331.81
378.802	349.81
379.027	367.81
379.253	362.81
379.478	369.81
379.704	352.81
379.929	341.81
380.155	358.81
380.38	350.81
380.606	370.81
380.831	367.81
381.057	360.81
381.282	374.81
381.507	342.81
381.733	353.81
381.958	344.81
382.184	350.81
382.409	347.81
382.634	372.81
382.86	375.81
383.085	349.81
383.31	353.81
383.535	369.81
383.761	357.81
383.986	364.81
384.211	374.81
384.436	352.81
384.662	356.81
384.887	349.81
385.112	355.81
385.337	355.81
385.562	389.81
385.787	368.81
386.013	383.81
386.238	382.81
386.463	387.81
386.688	389.81
386.913	373.81
387.138	361.81
387.363	369.81
387.588	370.81
387.813	385.81
388.038	384.81
388.263	369.81
388.488	386.81
388.713	366.81
388.938	400.81
389.163	395.81
389.387	383.81
389.612	369.81
389.837	353.81
390.062	381.81
390.287	348.81
390.512	356.81
390.736	358.81
390.961	374.81
391.186	364.81
391.411	365.81
391.636	376.81
391.86	394.81
392.085	396.81
392.31	380.81
392.534	397.81
392.759	364.81
392.984	378.81
393.208	378.81
393.433	376.81
393.658	364.81
393.882	396.81
394.107	359.81
394.331	384.81
394.556	374.81
394.78	378.81
395.005	397.81
395.229	373.81
395.454	370.81
395.678	377.81
395.903	403.81
396.127	431.81
396.352	425.81
396.576	411.81
396.801	413.81
397.025	377.81
397.249	379.81
397.474	401.81
397.698	395.81
397.922	424.81
398.147	420.81
398.371	437.81
398.595	420.81
398.82	413.81
399.044	422.81
399.268	420.81
399.492	427.81
399.717	465.81
399.941	475.81
400.165	516.81
400.389	526.81
400.613	474.81
400.837	446.81
401.062	460.81
401.286	451.81
401.51	423.81
401.734	404.81
401.958	448.81
402.182	404.81
402.406	442.81
402.63	441.81
402.854	434.81
403.078	466.81
403.302	454.81
403.526	466.81
403.75	451.81
403.974	425.81
404.198	440.81
404.422	453.81
404.645	471.81
404.869	466.81
405.093	528.81
405.317	552.81
405.541	603.81
405.765	550.81
405.988	516.81
406.212	510.81
406.436	530.81
406.66	525.81
406.883	503.81
407.107	517.81
407.331	561.81
407.555	633.81
407.778	566.81
408.002	533.81
408.226	511.81
408.449	511.81
408.673	490.81
408.896	529.81
409.12	561.81
409.344	529.81
409.567	472.81
409.791	461.81
410.014	468.81
410.238	426.81
410.461	430.81
410.685	462.81
410.908	492.81
411.132	504.81
411.355	530.81
411.578	522.81
411.802	480.81
412.025	460.81
412.249	477.81
412.472	521.81
412.695	566.81
412.919	578.81
413.142	535.81
413.365	482.81
413.589	465.81
413.812	466.81
414.035	451.81
414.258	449.81
414.482	449.81
414.705	420.81
414.928	402.81
415.151	424.81
415.374	415.81
415.597	433.81
415.821	421.81
416.044	439.81
416.267	431.81
416.49	424.81
416.713	410.81
416.936	424.81
417.159	424.81
417.382	454.81
417.605	444.81
417.828	469.81
418.051	474.81
418.274	443.81
418.497	451.81
418.72	422.81
418.943	422.81
419.166	443.81
419.389	478.81
419.611	462.81
419.834	461.81
420.057	492.81
420.28	479.81
420.503	486.81
420.726	480.81
420.948	516.81
421.171	518.81
421.394	543.81
421.617	500.81
421.839	483.81
422.062	466.81
422.285	472.81
422.507	507.81
422.73	599.81
422.953	602.81
423.175	520.81
423.398	473.81
423.621	476.81
423.843	496.81
424.066	507.81
424.288	509.81
424.511	508.81
424.733	565.81
424.956	644.81
425.178	637.81
425.401	620.81
425.623	644.81
425.846	547.81
426.068	524.81
426.291	504.81
426.513	498.81
426.735	514.81
426.958	567.81
427.18	622.81
427.402	738.81
427.625	822.81
427.847	769.81
428.069	710.81
428.292	606.81
428.514	537.81
428.736	494.81
428.958	495.81
429.181	456.81
429.403	468.81
429.625	482.81
429.847	521.81
430.069	575.81
430.292	574.81
430.514	492.81
430.736	437.81
430.958	475.81
431.18	450.81
431.402	448.81
431.624	444.81
431.846	420.81
432.068	430.81
432.29	417.81
432.512	430.81
432.734	437.81
432.956	424.81
433.178	454.81
433.4	461.81
433.622	442.81
433.844	424.81
434.066	431.81
434.287	425.81
434.509	442.81
434.731	425.81
434.953	452.81
435.175	453.81
435.397	511.81
435.618	507.81
435.84	536.81
436.062	649.81
436.284	714.81
436.505	604.81
436.727	556.81
436.949	495.81
437.17	468.81
437.392	448.81
437.614	481.81
437.835	544.81
438.057	625.81
438.278	719.81
438.5	700.81
438.721	748.81
438.943	728.81
439.165	604.81
439.386	550.81
439.608	543.81
439.829	522.81
440.05	572.81
440.272	581.81
440.493	553.81
440.715	492.81
440.936	482.81
441.158	478.81
441.379	485.81
441.6	484.81
441.822	496.81
442.043	550.81
442.264	601.81
442.486	672.81
442.707	560.81
442.928	529.81
443.149	537.81
443.371	583.81
443.592	592.81
443.813	703.81
444.034	703.81
444.255	606.81
444.476	520.81
444.698	520.81
444.919	475.81
445.14	577.81
445.361	545.81
445.582	560.81
445.803	609.81
446.024	700.81
446.245	737.81
446.466	681.81
446.687	573.81
446.908	503.81
447.129	484.81
447.35	471.81
447.571	480.81
447.792	442.81
448.013	494.81
448.234	498.81
448.455	532.81
448.675	637.81
448.896	747.81
449.117	636.81
449.338	619.81
449.559	682.81
449.779	820.81
450	647.81
450.221	520.81
450.442	484.81
450.662	490.81
450.883	487.81
451.104	492.81
451.324	497.81
451.545	445.81
451.766	454.81
451.986	411.81
452.207	430.81
452.428	415.81
452.648	430.81
452.869	432.81
453.089	432.81
453.31	452.81
453.53	425.81
453.751	414.81
453.971	410.81
454.192	446.81
454.412	431.81
454.633	410.81
454.853	406.81
455.073	414.81
455.294	440.81
455.514	526.81
455.734	516.81
455.955	428.81
456.175	386.81
456.395	389.81
456.616	396.81
456.836	389.81
457.056	403.81
457.276	367.81
457.497	409.81
457.717	400.81
457.937	381.81
458.157	402.81
458.377	409.81
458.598	420.81
458.818	498.81
459.038	579.81
459.258	602.81
459.478	490.81
459.698	451.81
459.918	433.81
460.138	422.81
460.358	419.81
460.578	427.81
460.798	416.81
461.018	422.81
461.238	419.81
461.458	401.81
461.678	416.81
461.898	410.81
462.118	409.81
462.338	406.81
462.558	421.81
462.777	441.81
462.997	421.81
463.217	452.81
463.437	429.81
463.657	429.81
463.876	447.81
464.096	428.81
464.316	433.81
464.536	433.81
464.755	444.81
464.975	457.81
465.195	491.81
465.414	612.81
465.634	524.81
465.854	489.81
466.073	459.81
466.293	430.81
466.512	437.81
466.732	416.81
466.951	426.81
467.171	423.81
467.391	426.81
467.61	407.81
467.829	447.81
468.049	448.81
468.268	469.81
468.488	436.81
468.707	434.81
468.927	436.81
469.146	410.81
469.365	408.81
469.585	417.81
469.804	442.81
470.023	433.81
470.243	431.81
470.462	433.81
470.681	437.81
470.901	455.81
471.12	439.81
471.339	430.81
471.558	432.81
471.777	441.81
471.997	435.81
472.216	490.81
472.435	595.81
472.654	577.81
472.873	465.81
473.092	460.81
473.311	451.81
473.53	442.81
473.749	455.81
473.968	490.81
474.187	569.81
474.406	619.81
474.625	514.81
474.844	457.81
475.063	447.81
475.282	457.81
475.501	469.81
475.72	450.81
475.939	458.81
476.158	430.81
476.377	448.81
476.596	448.81
476.814	438.81
477.033	449.81
477.252	456.81
477.471	441.81
477.69	454.81
477.908	455.81
478.127	469.81
478.346	466.81
478.564	470.81
478.783	443.81
479.002	471.81
479.22	504.81
479.439	500.81
479.658	506.81
479.876	505.81
480.095	527.81
480.313	549.81
480.532	541.81
480.751	538.81
480.969	600.81
481.188	776.81
481.406	930.81
481.624	689.81
481.843	600.81
482.061	576.81
482.28	553.81
482.498	511.81
482.717	522.81
482.935	531.81
483.153	508.81
483.372	521.81
483.59	517.81
483.808	537.81
484.027	523.81
484.245	545.81
484.463	509.81
484.681	522.81
484.9	528.81
485.118	534.81
485.336	530.81
485.554	524.81
485.772	526.81
485.99	529.81
486.209	537.81
486.427	566.81
486.645	570.81
486.863	578.81
487.081	558.81
487.299	575.81
487.517	561.81
487.735	559.81
487.953	568.81
488.171	588.81
488.389	574.81
488.607	573.81
488.825	576.81
489.043	576.81
489.261	585.81
489.479	568.81
489.696	568.81
489.914	583.81
490.132	584.81
490.35	583.81
490.568	608.81
490.786	616.81
491.003	623.81
491.221	633.81
491.439	662.81
491.657	673.81
491.874	662.81
492.092	680.81
492.31	685.81
492.527	648.81
492.745	661.81
492.963	684.81
493.18	674.81
493.398	696.81
493.615	699.81
493.833	668.81
494.05	676.81
494.268	687.81
494.485	682.81
494.703	674.81
494.92	692.81
495.138	696.81
495.355	700.81
495.573	686.81
495.79	671.81
496.008	689.81
496.225	676.81
496.442	646.81
496.66	672.81
496.877	695.81
497.094	684.81
497.312	664.81
497.529	703.81
497.746	708.81
497.963	674.81
498.181	703.81
498.398	700.81
498.615	687.81
498.832	727.81
499.049	734.81
499.267	713.81
499.484	749.81
499.701	727.81
499.918	763.81
500.135	745.81
500.352	808.81
500.569	810.81
500.786	829.81
501.003	806.81
501.22	795.81
501.437	800.81
501.654	767.81
501.871	796.81
