Data from 1986.PennyLincolnUp.Lamp.En5.5.200Scan.071819.P1_HRD10591_17-08-23-974.txt Node
Date: Thu Jul 18 17:08:23 EDT 2019
User: cochatt
Spectrometer: HR+D1059
Trigger mode: 1
Integration Time (sec): 1.000000E-1
Scans to average: 1
Electric dark correction enabled: true
Nonlinearity correction enabled: false
Boxcar width: 0
XAxis mode: Wavelengths
Number of Pixels in Spectrum: 2048
>>>>>Begin Spectral Data<<<<<
223.165	-13.88
223.4	-13.88
223.635	-13.88
223.869	-14.88
224.104	-24.88
224.338	-11.88
224.573	-8.88
224.808	-16.88
225.042	0.12
225.277	-2.88
225.511	-6.88
225.746	5.12
225.98	5.12
226.215	8.12
226.449	7.12
226.683	13.12
226.918	27.12
227.152	35.12
227.387	24.12
227.621	43.12
227.856	24.12
228.09	43.12
228.324	58.12
228.559	66.12
228.793	65.12
229.027	79.12
229.262	75.12
229.496	88.12
229.73	96.12
229.964	115.12
230.199	116.12
230.433	86.12
230.667	84.12
230.901	94.12
231.136	110.12
231.37	106.12
231.604	107.12
231.838	110.12
232.072	86.12
232.306	111.12
232.541	95.12
232.775	103.12
233.009	101.12
233.243	96.12
233.477	106.12
233.711	104.12
233.945	97.12
234.179	93.12
234.413	110.12
234.647	92.12
234.881	112.12
235.115	113.12
235.349	94.12
235.583	112.12
235.817	104.12
236.051	103.12
236.285	109.12
236.519	117.12
236.753	119.12
236.987	109.12
237.221	112.12
237.455	157.12
237.689	134.12
237.922	129.12
238.156	111.12
238.39	118.12
238.624	118.12
238.858	103.12
239.091	106.12
239.325	94.12
239.559	115.12
239.793	104.12
240.027	109.12
240.26	105.12
240.494	118.12
240.728	106.12
240.961	114.12
241.195	118.12
241.429	119.12
241.662	111.12
241.896	108.12
242.13	111.12
242.363	116.12
242.597	111.12
242.83	102.12
243.064	105.12
243.298	114.12
243.531	126.12
243.765	110.12
243.998	132.12
244.232	122.12
244.465	119.12
244.699	122.12
244.932	109.12
245.166	106.12
245.399	135.12
245.633	128.12
245.866	119.12
246.099	127.12
246.333	130.12
246.566	123.12
246.8	132.12
247.033	127.12
247.266	127.12
247.5	134.12
247.733	134.12
247.966	142.12
248.2	130.12
248.433	125.12
248.666	148.12
248.899	136.12
249.133	153.12
249.366	150.12
249.599	148.12
249.832	142.12
250.066	137.12
250.299	151.12
250.532	134.12
250.765	162.12
250.998	166.12
251.231	168.12
251.465	143.12
251.698	160.12
251.931	161.12
252.164	141.12
252.397	139.12
252.63	141.12
252.863	148.12
253.096	166.12
253.329	178.12
253.562	164.12
253.795	163.12
254.028	159.12
254.261	172.12
254.494	178.12
254.727	183.12
254.96	173.12
255.193	198.12
255.426	191.12
255.659	182.12
255.892	157.12
256.124	160.12
256.357	153.12
256.59	167.12
256.823	163.12
257.056	155.12
257.289	176.12
257.521	168.12
257.754	152.12
257.987	158.12
258.22	167.12
258.452	172.12
258.685	173.12
258.918	145.12
259.151	167.12
259.383	167.12
259.616	171.12
259.849	176.12
260.081	186.12
260.314	182.12
260.547	188.12
260.779	191.12
261.012	190.12
261.244	176.12
261.477	190.12
261.71	175.12
261.942	169.12
262.175	178.12
262.407	170.12
262.64	175.12
262.872	175.12
263.105	168.12
263.337	188.12
263.57	170.12
263.802	166.12
264.035	177.12
264.267	154.12
264.499	156.12
264.732	183.12
264.964	158.12
265.197	158.12
265.429	188.12
265.661	171.12
265.894	162.12
266.126	172.12
266.358	160.12
266.591	162.12
266.823	175.12
267.055	167.12
267.287	175.12
267.52	166.12
267.752	174.12
267.984	192.12
268.216	194.12
268.448	172.12
268.681	189.12
268.913	194.12
269.145	198.12
269.377	211.12
269.609	192.12
269.841	181.12
270.073	204.12
270.306	224.12
270.538	226.12
270.77	228.12
271.002	201.12
271.234	227.12
271.466	213.12
271.698	218.12
271.93	222.12
272.162	220.12
272.394	221.12
272.626	232.12
272.858	202.12
273.09	201.12
273.322	197.12
273.553	194.12
273.785	201.12
274.017	202.12
274.249	202.12
274.481	204.12
274.713	200.12
274.945	203.12
275.176	201.12
275.408	207.12
275.64	197.12
275.872	187.12
276.104	217.12
276.335	208.12
276.567	234.12
276.799	220.12
277.031	228.12
277.262	224.12
277.494	221.12
277.726	217.12
277.957	220.12
278.189	211.12
278.421	208.12
278.652	194.12
278.884	196.12
279.115	207.12
279.347	197.12
279.579	202.12
279.81	210.12
280.042	216.12
280.273	213.12
280.505	235.12
280.736	238.12
280.968	212.12
281.199	210.12
281.431	181.12
281.662	221.12
281.894	216.12
282.125	207.12
282.356	237.12
282.588	200.12
282.819	223.12
283.051	221.12
283.282	194.12
283.513	229.12
283.745	218.12
283.976	221.12
284.207	216.12
284.439	218.12
284.67	218.12
284.901	213.12
285.132	219.12
285.364	214.12
285.595	214.12
285.826	217.12
286.057	230.12
286.288	231.12
286.52	210.12
286.751	239.12
286.982	231.12
287.213	216.12
287.444	217.12
287.675	216.12
287.906	239.12
288.138	235.12
288.369	221.12
288.6	221.12
288.831	235.12
289.062	215.12
289.293	217.12
289.524	226.12
289.755	236.12
289.986	230.12
290.217	237.12
290.448	227.12
290.679	218.12
290.91	231.12
291.141	227.12
291.371	231.12
291.602	223.12
291.833	229.12
292.064	216.12
292.295	217.12
292.526	226.12
292.757	233.12
292.987	212.12
293.218	230.12
293.449	220.12
293.68	228.12
293.91	228.12
294.141	204.12
294.372	223.12
294.603	229.12
294.833	228.12
295.064	199.12
295.295	233.12
295.525	231.12
295.756	244.12
295.987	242.12
296.217	259.12
296.448	250.12
296.679	252.12
296.909	237.12
297.14	242.12
297.37	228.12
297.601	233.12
297.831	246.12
298.062	249.12
298.292	228.12
298.523	256.12
298.753	245.12
298.984	250.12
299.214	247.12
299.445	247.12
299.675	231.12
299.905	238.12
300.136	240.12
300.366	238.12
300.597	238.12
300.827	250.12
301.057	254.12
301.288	263.12
301.518	244.12
301.748	260.12
301.979	263.12
302.209	255.12
302.439	260.12
302.669	271.12
302.9	262.12
303.13	258.12
303.36	261.12
303.59	256.12
303.82	256.12
304.051	259.12
304.281	264.12
304.511	252.12
304.741	260.12
304.971	268.12
305.201	265.12
305.431	256.12
305.661	260.12
305.891	250.12
306.121	256.12
306.352	262.12
306.582	263.12
306.812	256.12
307.042	261.12
307.272	274.12
307.502	264.12
307.731	282.12
307.961	259.12
308.191	268.12
308.421	264.12
308.651	279.12
308.881	250.12
309.111	258.12
309.341	278.12
309.571	268.12
309.8	278.12
310.03	273.12
310.26	285.12
310.49	283.12
310.72	288.12
310.949	295.12
311.179	300.12
311.409	280.12
311.639	265.12
311.868	272.12
312.098	275.12
312.328	280.12
312.557	292.12
312.787	314.12
313.017	294.12
313.246	285.12
313.476	282.12
313.706	298.12
313.935	295.12
314.165	308.12
314.394	280.12
314.624	302.12
314.853	270.12
315.083	288.12
315.312	293.12
315.542	308.12
315.771	288.12
316.001	285.12
316.23	290.12
316.46	294.12
316.689	309.12
316.919	306.12
317.148	300.12
317.377	288.12
317.607	296.12
317.836	288.12
318.065	291.12
318.295	296.12
318.524	269.12
318.753	280.12
318.983	282.12
319.212	300.12
319.441	317.12
319.67	306.12
319.9	292.12
320.129	289.12
320.358	308.12
320.587	280.12
320.816	282.12
321.046	287.12
321.275	317.12
321.504	299.12
321.733	301.12
321.962	292.12
322.191	305.12
322.42	290.12
322.649	308.12
322.878	340.12
323.108	341.12
323.337	338.12
323.566	356.12
323.795	350.12
324.024	378.12
324.253	453.12
324.482	570.12
324.71	854.12
324.939	1139.12
325.168	948.12
325.397	550.12
325.626	413.12
325.855	340.12
326.084	352.12
326.313	352.12
326.542	350.12
326.77	374.12
326.999	432.12
327.228	547.12
327.457	773.12
327.686	860.12
327.914	631.12
328.143	438.12
328.372	426.12
328.6	397.12
328.829	384.12
329.058	394.12
329.287	389.12
329.515	352.12
329.744	367.12
329.972	370.12
330.201	410.12
330.43	433.12
330.658	428.12
330.887	423.12
331.115	402.12
331.344	369.12
331.572	359.12
331.801	351.12
332.03	351.12
332.258	352.12
332.486	345.12
332.715	354.12
332.943	348.12
333.172	341.12
333.4	358.12
333.629	348.12
333.857	362.12
334.085	380.12
334.314	411.12
334.542	438.12
334.771	458.12
334.999	401.12
335.227	368.12
335.455	365.12
335.684	355.12
335.912	344.12
336.14	362.12
336.369	333.12
336.597	342.12
336.825	348.12
337.053	345.12
337.281	322.12
337.51	321.12
337.738	326.12
337.966	331.12
338.194	351.12
338.422	337.12
338.65	331.12
338.878	338.12
339.106	347.12
339.334	330.12
339.562	316.12
339.79	342.12
340.018	324.12
340.246	318.12
340.474	328.12
340.702	328.12
340.93	319.12
341.158	303.12
341.386	319.12
341.614	326.12
341.842	323.12
342.07	310.12
342.298	312.12
342.526	322.12
342.754	335.12
342.981	313.12
343.209	308.12
343.437	327.12
343.665	339.12
343.893	353.12
344.12	326.12
344.348	341.12
344.576	337.12
344.804	338.12
345.031	330.12
345.259	330.12
345.487	335.12
345.714	302.12
345.942	312.12
346.17	308.12
346.397	317.12
346.625	299.12
346.853	309.12
347.08	318.12
347.308	324.12
347.535	310.12
347.763	306.12
347.99	312.12
348.218	304.12
348.445	323.12
348.673	310.12
348.9	312.12
349.128	308.12
349.355	297.12
349.583	303.12
349.81	312.12
350.037	314.12
350.265	303.12
350.492	316.12
350.72	298.12
350.947	317.12
351.174	308.12
351.402	329.12
351.629	310.12
351.856	302.12
352.083	310.12
352.311	316.12
352.538	297.12
352.765	307.12
352.992	322.12
353.22	302.12
353.447	288.12
353.674	313.12
353.901	306.12
354.128	291.12
354.355	279.12
354.583	307.12
354.81	298.12
355.037	302.12
355.264	295.12
355.491	283.12
355.718	288.12
355.945	307.12
356.172	303.12
356.399	299.12
356.626	296.12
356.853	300.12
357.08	307.12
357.307	297.12
357.534	318.12
357.761	308.12
357.988	285.12
358.215	298.12
358.441	291.12
358.668	298.12
358.895	300.12
359.122	305.12
359.349	298.12
359.576	308.12
359.802	326.12
360.029	339.12
360.256	339.12
360.483	332.12
360.709	303.12
360.936	318.12
361.163	308.12
361.39	311.12
361.616	309.12
361.843	297.12
362.07	291.12
362.296	301.12
362.523	319.12
362.749	296.12
362.976	295.12
363.203	290.12
363.429	275.12
363.656	295.12
363.882	303.12
364.109	310.12
364.335	289.12
364.562	294.12
364.788	306.12
365.015	299.12
365.241	271.12
365.468	310.12
365.694	293.12
365.92	293.12
366.147	295.12
366.373	294.12
366.599	292.12
366.826	311.12
367.052	290.12
367.278	296.12
367.505	287.12
367.731	289.12
367.957	308.12
368.184	310.12
368.41	297.12
368.636	299.12
368.862	308.12
369.089	295.12
369.315	301.12
369.541	292.12
369.767	295.12
369.993	295.12
370.219	295.12
370.445	298.12
370.672	282.12
370.898	300.12
371.124	295.12
371.35	301.12
371.576	310.12
371.802	296.12
372.028	295.12
372.254	303.12
372.48	309.12
372.706	314.12
372.932	306.12
373.158	305.12
373.384	311.12
373.61	299.12
373.835	310.12
374.061	333.12
374.287	309.12
374.513	317.12
374.739	322.12
374.965	326.12
375.191	294.12
375.416	292.12
375.642	284.12
375.868	324.12
376.094	300.12
376.319	306.12
376.545	310.12
376.771	307.12
376.997	307.12
377.222	318.12
377.448	298.12
377.674	311.12
377.899	312.12
378.125	308.12
378.35	291.12
378.576	313.12
378.802	282.12
379.027	307.12
379.253	292.12
379.478	292.12
379.704	310.12
379.929	303.12
380.155	299.12
380.38	294.12
380.606	297.12
380.831	312.12
381.057	306.12
381.282	304.12
381.507	282.12
381.733	302.12
381.958	292.12
382.184	301.12
382.409	312.12
382.634	289.12
382.86	303.12
383.085	301.12
383.31	330.12
383.535	323.12
383.761	322.12
383.986	326.12
384.211	321.12
384.436	294.12
384.662	340.12
384.887	325.12
385.112	320.12
385.337	343.12
385.562	335.12
385.787	332.12
386.013	329.12
386.238	335.12
386.463	365.12
386.688	326.12
386.913	334.12
387.138	325.12
387.363	330.12
387.588	334.12
387.813	349.12
388.038	324.12
388.263	332.12
388.488	325.12
388.713	335.12
388.938	336.12
389.163	352.12
389.387	335.12
389.612	335.12
389.837	325.12
390.062	342.12
390.287	329.12
390.512	332.12
390.736	327.12
390.961	331.12
391.186	327.12
391.411	342.12
391.636	318.12
391.86	340.12
392.085	342.12
392.31	356.12
392.534	336.12
392.759	351.12
392.984	336.12
393.208	348.12
393.433	331.12
393.658	362.12
393.882	339.12
394.107	340.12
394.331	330.12
394.556	348.12
394.78	330.12
395.005	330.12
395.229	344.12
395.454	331.12
395.678	339.12
395.903	344.12
396.127	385.12
396.352	373.12
396.576	372.12
396.801	350.12
397.025	350.12
397.249	337.12
397.474	346.12
397.698	369.12
397.922	372.12
398.147	357.12
398.371	382.12
398.595	372.12
398.82	378.12
399.044	399.12
399.268	402.12
399.492	438.12
399.717	455.12
399.941	482.12
400.165	472.12
400.389	462.12
400.613	442.12
400.837	391.12
401.062	380.12
401.286	394.12
401.51	373.12
401.734	400.12
401.958	383.12
402.182	403.12
402.406	388.12
402.63	393.12
402.854	394.12
403.078	387.12
403.302	406.12
403.526	394.12
403.75	422.12
403.974	401.12
404.198	413.12
404.422	412.12
404.645	403.12
404.869	395.12
405.093	412.12
405.317	421.12
405.541	455.12
405.765	423.12
405.988	392.12
406.212	421.12
406.436	430.12
406.66	445.12
406.883	410.12
407.107	434.12
407.331	470.12
407.555	495.12
407.778	498.12
408.002	474.12
408.226	429.12
408.449	413.12
408.673	447.12
408.896	458.12
409.12	449.12
409.344	448.12
409.567	438.12
409.791	419.12
410.014	398.12
410.238	402.12
410.461	390.12
410.685	410.12
410.908	418.12
411.132	435.12
411.355	458.12
411.578	409.12
411.802	407.12
412.025	404.12
412.249	400.12
412.472	428.12
412.695	388.12
412.919	405.12
413.142	410.12
413.365	397.12
413.589	414.12
413.812	381.12
414.035	388.12
414.258	400.12
414.482	378.12
414.705	394.12
414.928	376.12
415.151	393.12
415.374	386.12
415.597	398.12
415.821	397.12
416.044	386.12
416.267	426.12
416.49	400.12
416.713	387.12
416.936	382.12
417.159	378.12
417.382	396.12
417.605	387.12
417.828	401.12
418.051	420.12
418.274	401.12
418.497	380.12
418.72	376.12
418.943	383.12
419.166	399.12
419.389	421.12
419.611	435.12
419.834	419.12
420.057	410.12
420.28	411.12
420.503	384.12
420.726	406.12
420.948	419.12
421.171	428.12
421.394	444.12
421.617	426.12
421.839	394.12
422.062	412.12
422.285	399.12
422.507	435.12
422.73	486.12
422.953	456.12
423.175	435.12
423.398	430.12
423.621	426.12
423.843	416.12
424.066	436.12
424.288	419.12
424.511	434.12
424.733	461.12
424.956	483.12
425.178	461.12
425.401	472.12
425.623	491.12
425.846	455.12
426.068	414.12
426.291	426.12
426.513	420.12
426.735	415.12
426.958	426.12
427.18	484.12
427.402	564.12
427.625	592.12
427.847	518.12
428.069	450.12
428.292	417.12
428.514	407.12
428.736	401.12
428.958	396.12
429.181	394.12
429.403	396.12
429.625	398.12
429.847	427.12
430.069	444.12
430.292	442.12
430.514	412.12
430.736	404.12
430.958	385.12
431.18	380.12
431.402	372.12
431.624	383.12
431.846	367.12
432.068	376.12
432.29	378.12
432.512	392.12
432.734	402.12
432.956	387.12
433.178	390.12
433.4	396.12
433.622	386.12
433.844	385.12
434.066	399.12
434.287	387.12
434.509	401.12
434.731	408.12
434.953	404.12
435.175	408.12
435.397	422.12
435.618	421.12
435.84	440.12
436.062	486.12
436.284	500.12
436.505	450.12
436.727	418.12
436.949	393.12
437.17	384.12
437.392	387.12
437.614	384.12
437.835	406.12
438.057	440.12
438.278	527.12
438.5	514.12
438.721	543.12
438.943	526.12
439.165	440.12
439.386	414.12
439.608	418.12
439.829	422.12
440.05	438.12
440.272	448.12
440.493	451.12
440.715	411.12
440.936	380.12
441.158	398.12
441.379	396.12
441.6	410.12
441.822	428.12
442.043	453.12
442.264	467.12
442.486	487.12
442.707	428.12
442.928	425.12
443.149	443.12
443.371	436.12
443.592	446.12
443.813	490.12
444.034	551.12
444.255	475.12
444.476	420.12
444.698	441.12
444.919	426.12
445.14	539.12
445.361	471.12
445.582	451.12
445.803	486.12
446.024	527.12
446.245	525.12
446.466	487.12
446.687	431.12
446.908	419.12
447.129	389.12
447.35	384.12
447.571	384.12
447.792	377.12
448.013	366.12
448.234	384.12
448.455	421.12
448.675	484.12
448.896	532.12
449.117	465.12
449.338	450.12
449.559	500.12
449.779	537.12
450	471.12
450.221	382.12
450.442	371.12
450.662	370.12
450.883	362.12
451.104	375.12
451.324	385.12
451.545	367.12
451.766	378.12
451.986	339.12
452.207	354.12
452.428	354.12
452.648	357.12
452.869	342.12
453.089	341.12
453.31	371.12
453.53	368.12
453.751	344.12
453.971	343.12
454.192	337.12
454.412	352.12
454.633	343.12
454.853	349.12
455.073	342.12
455.294	356.12
455.514	400.12
455.734	360.12
455.955	355.12
456.175	344.12
456.395	333.12
456.616	341.12
456.836	335.12
457.056	320.12
457.276	345.12
457.497	344.12
457.717	336.12
457.937	326.12
458.157	340.12
458.377	353.12
458.598	341.12
458.818	412.12
459.038	430.12
459.258	414.12
459.478	388.12
459.698	384.12
459.918	372.12
460.138	382.12
460.358	397.12
460.578	364.12
460.798	406.12
461.018	394.12
461.238	397.12
461.458	387.12
461.678	386.12
461.898	407.12
462.118	404.12
462.338	411.12
462.558	401.12
462.777	415.12
462.997	423.12
463.217	438.12
463.437	435.12
463.657	434.12
463.876	431.12
464.096	437.12
464.316	438.12
464.536	419.12
464.755	430.12
464.975	432.12
465.195	447.12
465.414	461.12
465.634	426.12
465.854	414.12
466.073	374.12
466.293	373.12
466.512	389.12
466.732	367.12
466.951	367.12
467.171	387.12
467.391	379.12
467.61	373.12
467.829	374.12
468.049	381.12
468.268	394.12
468.488	371.12
468.707	365.12
468.927	377.12
469.146	361.12
469.365	361.12
469.585	348.12
469.804	370.12
470.023	366.12
470.243	383.12
470.462	376.12
470.681	389.12
470.901	394.12
471.12	374.12
471.339	371.12
471.558	354.12
471.777	382.12
471.997	372.12
472.216	390.12
472.435	458.12
472.654	408.12
472.873	387.12
473.092	385.12
473.311	349.12
473.53	374.12
473.749	376.12
473.968	394.12
474.187	442.12
474.406	440.12
474.625	382.12
474.844	378.12
475.063	375.12
475.282	378.12
475.501	375.12
475.72	374.12
475.939	376.12
476.158	380.12
476.377	376.12
476.596	385.12
476.814	401.12
477.033	388.12
477.252	392.12
477.471	410.12
477.69	400.12
477.908	412.12
478.127	390.12
478.346	397.12
478.564	420.12
478.783	422.12
479.002	416.12
479.22	421.12
479.439	438.12
479.658	423.12
479.876	421.12
480.095	474.12
480.313	466.12
480.532	462.12
480.751	469.12
480.969	477.12
481.188	535.12
481.406	589.12
481.624	474.12
481.843	473.12
482.061	438.12
482.28	437.12
482.498	457.12
482.717	431.12
482.935	436.12
483.153	445.12
483.372	434.12
483.59	419.12
483.808	426.12
484.027	445.12
484.245	414.12
484.463	404.12
484.681	442.12
484.9	432.12
485.118	443.12
485.336	462.12
485.554	447.12
485.772	454.12
485.99	438.12
486.209	449.12
486.427	474.12
486.645	450.12
486.863	462.12
487.081	450.12
487.299	454.12
487.517	466.12
487.735	445.12
487.953	456.12
488.171	437.12
488.389	454.12
488.607	431.12
488.825	456.12
489.043	453.12
489.261	468.12
489.479	472.12
489.696	451.12
489.914	451.12
490.132	461.12
490.35	463.12
490.568	479.12
490.786	462.12
491.003	459.12
491.221	495.12
491.439	518.12
491.657	482.12
491.874	489.12
492.092	507.12
492.31	476.12
492.527	489.12
492.745	499.12
492.963	490.12
493.18	525.12
493.398	514.12
493.615	517.12
493.833	520.12
494.05	505.12
494.268	525.12
494.485	504.12
494.703	506.12
494.92	518.12
495.138	519.12
495.355	504.12
495.573	526.12
495.79	515.12
496.008	516.12
496.225	519.12
496.442	539.12
496.66	506.12
496.877	534.12
497.094	526.12
497.312	531.12
497.529	559.12
497.746	541.12
497.963	565.12
498.181	591.12
498.398	578.12
498.615	585.12
498.832	622.12
499.049	618.12
499.267	649.12
499.484	646.12
499.701	694.12
499.918	732.12
500.135	749.12
500.352	806.12
500.569	809.12
500.786	820.12
501.003	814.12
501.22	756.12
501.437	744.12
501.654	677.12
501.871	685.12
502.088	658.12
502.305	641.12
