Data from 1986.PennyLincolnUp.Lamp.En5.5.200Scan.071819.P1_HRD10591_17-08-32-974.txt Node
Date: Thu Jul 18 17:08:32 EDT 2019
User: cochatt
Spectrometer: HR+D1059
Trigger mode: 1
Integration Time (sec): 1.000000E-1
Scans to average: 1
Electric dark correction enabled: true
Nonlinearity correction enabled: false
Boxcar width: 0
XAxis mode: Wavelengths
Number of Pixels in Spectrum: 2048
>>>>>Begin Spectral Data<<<<<
223.165	-7.12
223.4	-7.12
223.635	-7.12
223.869	-31.12
224.104	-24.12
224.338	-29.12
224.573	-19.12
224.808	-18.12
225.042	-12.12
225.277	-3.12
225.511	3.88
225.746	6.88
225.98	16.88
226.215	24.88
226.449	16.88
226.683	28.88
226.918	20.88
227.152	24.88
227.387	45.88
227.621	41.88
227.856	37.88
228.09	54.88
228.324	59.88
228.559	57.88
228.793	64.88
229.027	81.88
229.262	75.88
229.496	98.88
229.73	88.88
229.964	118.88
230.199	101.88
230.433	105.88
230.667	102.88
230.901	99.88
231.136	92.88
231.37	131.88
231.604	97.88
231.838	106.88
232.072	101.88
232.306	129.88
232.541	103.88
232.775	102.88
233.009	108.88
233.243	113.88
233.477	118.88
233.711	112.88
233.945	102.88
234.179	93.88
234.413	103.88
234.647	111.88
234.881	109.88
235.115	110.88
235.349	105.88
235.583	108.88
235.817	111.88
236.051	111.88
236.285	112.88
236.519	115.88
236.753	119.88
236.987	105.88
237.221	135.88
237.455	161.88
237.689	134.88
237.922	125.88
238.156	117.88
238.39	117.88
238.624	126.88
238.858	112.88
239.091	108.88
239.325	97.88
239.559	116.88
239.793	121.88
240.027	127.88
240.26	116.88
240.494	121.88
240.728	127.88
240.961	144.88
241.195	123.88
241.429	137.88
241.662	115.88
241.896	111.88
242.13	112.88
242.363	126.88
242.597	123.88
242.83	109.88
243.064	118.88
243.298	129.88
243.531	120.88
243.765	109.88
243.998	127.88
244.232	146.88
244.465	111.88
244.699	118.88
244.932	136.88
245.166	133.88
245.399	140.88
245.633	120.88
245.866	130.88
246.099	135.88
246.333	129.88
246.566	120.88
246.8	134.88
247.033	142.88
247.266	147.88
247.5	127.88
247.733	135.88
247.966	148.88
248.2	139.88
248.433	135.88
248.666	130.88
248.899	151.88
249.133	163.88
249.366	167.88
249.599	177.88
249.832	141.88
250.066	147.88
250.299	159.88
250.532	156.88
250.765	164.88
250.998	174.88
251.231	165.88
251.465	159.88
251.698	165.88
251.931	168.88
252.164	174.88
252.397	156.88
252.63	169.88
252.863	170.88
253.096	163.88
253.329	181.88
253.562	179.88
253.795	179.88
254.028	185.88
254.261	169.88
254.494	191.88
254.727	202.88
254.96	210.88
255.193	166.88
255.426	183.88
255.659	176.88
255.892	185.88
256.124	171.88
256.357	170.88
256.59	181.88
256.823	171.88
257.056	167.88
257.289	159.88
257.521	158.88
257.754	171.88
257.987	178.88
258.22	155.88
258.452	190.88
258.685	153.88
258.918	158.88
259.151	181.88
259.383	168.88
259.616	174.88
259.849	165.88
260.081	186.88
260.314	199.88
260.547	210.88
260.779	197.88
261.012	201.88
261.244	179.88
261.477	176.88
261.71	192.88
261.942	192.88
262.175	180.88
262.407	173.88
262.64	173.88
262.872	171.88
263.105	171.88
263.337	171.88
263.57	195.88
263.802	160.88
264.035	192.88
264.267	164.88
264.499	182.88
264.732	175.88
264.964	177.88
265.197	183.88
265.429	183.88
265.661	180.88
265.894	183.88
266.126	183.88
266.358	188.88
266.591	178.88
266.823	175.88
267.055	179.88
267.287	185.88
267.52	203.88
267.752	181.88
267.984	198.88
268.216	189.88
268.448	186.88
268.681	207.88
268.913	208.88
269.145	207.88
269.377	212.88
269.609	217.88
269.841	220.88
270.073	215.88
270.306	216.88
270.538	228.88
270.77	228.88
271.002	253.88
271.234	213.88
271.466	245.88
271.698	219.88
271.93	243.88
272.162	239.88
272.394	243.88
272.626	247.88
272.858	222.88
273.09	193.88
273.322	209.88
273.553	224.88
273.785	214.88
274.017	188.88
274.249	216.88
274.481	209.88
274.713	199.88
274.945	217.88
275.176	213.88
275.408	217.88
275.64	205.88
275.872	215.88
276.104	201.88
276.335	213.88
276.567	225.88
276.799	216.88
277.031	240.88
277.262	253.88
277.494	249.88
277.726	230.88
277.957	239.88
278.189	237.88
278.421	220.88
278.652	214.88
278.884	237.88
279.115	217.88
279.347	215.88
279.579	225.88
279.81	213.88
280.042	208.88
280.273	217.88
280.505	204.88
280.736	220.88
280.968	231.88
281.199	224.88
281.431	225.88
281.662	213.88
281.894	212.88
282.125	221.88
282.356	241.88
282.588	247.88
282.819	269.88
283.051	217.88
283.282	211.88
283.513	240.88
283.745	240.88
283.976	236.88
284.207	221.88
284.439	222.88
284.67	221.88
284.901	228.88
285.132	238.88
285.364	234.88
285.595	238.88
285.826	226.88
286.057	243.88
286.288	241.88
286.52	224.88
286.751	235.88
286.982	234.88
287.213	235.88
287.444	234.88
287.675	231.88
287.906	247.88
288.138	244.88
288.369	238.88
288.6	215.88
288.831	240.88
289.062	232.88
289.293	235.88
289.524	235.88
289.755	252.88
289.986	251.88
290.217	248.88
290.448	236.88
290.679	231.88
290.91	244.88
291.141	227.88
291.371	252.88
291.602	247.88
291.833	225.88
292.064	238.88
292.295	244.88
292.526	231.88
292.757	264.88
292.987	253.88
293.218	248.88
293.449	241.88
293.68	241.88
293.91	247.88
294.141	245.88
294.372	228.88
294.603	225.88
294.833	239.88
295.064	243.88
295.295	253.88
295.525	251.88
295.756	249.88
295.987	233.88
296.217	256.88
296.448	271.88
296.679	250.88
296.909	253.88
297.14	236.88
297.37	238.88
297.601	240.88
297.831	248.88
298.062	252.88
298.292	248.88
298.523	257.88
298.753	235.88
298.984	253.88
299.214	259.88
299.445	236.88
299.675	265.88
299.905	268.88
300.136	270.88
300.366	244.88
300.597	261.88
300.827	262.88
301.057	268.88
301.288	279.88
301.518	277.88
301.748	268.88
301.979	267.88
302.209	270.88
302.439	266.88
302.669	284.88
302.9	284.88
303.13	280.88
303.36	281.88
303.59	266.88
303.82	267.88
304.051	285.88
304.281	261.88
304.511	285.88
304.741	263.88
304.971	269.88
305.201	283.88
305.431	255.88
305.661	282.88
305.891	260.88
306.121	281.88
306.352	274.88
306.582	283.88
306.812	269.88
307.042	286.88
307.272	271.88
307.502	268.88
307.731	267.88
307.961	279.88
308.191	274.88
308.421	270.88
308.651	278.88
308.881	273.88
309.111	277.88
309.341	280.88
309.571	289.88
309.8	290.88
310.03	310.88
310.26	293.88
310.49	301.88
310.72	318.88
310.949	290.88
311.179	317.88
311.409	304.88
311.639	304.88
311.868	310.88
312.098	312.88
312.328	309.88
312.557	306.88
312.787	336.88
313.017	330.88
313.246	303.88
313.476	296.88
313.706	313.88
313.935	317.88
314.165	298.88
314.394	315.88
314.624	314.88
314.853	309.88
315.083	318.88
315.312	316.88
315.542	302.88
315.771	300.88
316.001	309.88
316.23	290.88
316.46	309.88
316.689	310.88
316.919	301.88
317.148	309.88
317.377	317.88
317.607	312.88
317.836	312.88
318.065	312.88
318.295	320.88
318.524	297.88
318.753	313.88
318.983	315.88
319.212	297.88
319.441	301.88
319.67	307.88
319.9	317.88
320.129	309.88
320.358	308.88
320.587	305.88
320.816	309.88
321.046	328.88
321.275	334.88
321.504	313.88
321.733	315.88
321.962	353.88
322.191	332.88
322.42	338.88
322.649	344.88
322.878	352.88
323.108	342.88
323.337	366.88
323.566	380.88
323.795	382.88
324.024	429.88
324.253	499.88
324.482	657.88
324.71	987.88
324.939	1364.88
325.168	1112.88
325.397	636.88
325.626	460.88
325.855	394.88
326.084	364.88
326.313	345.88
326.542	377.88
326.77	425.88
326.999	474.88
327.228	627.88
327.457	883.88
327.686	1036.88
327.914	717.88
328.143	480.88
328.372	475.88
328.6	432.88
328.829	419.88
329.058	413.88
329.287	432.88
329.515	412.88
329.744	395.88
329.972	393.88
330.201	419.88
330.43	452.88
330.658	462.88
330.887	429.88
331.115	449.88
331.344	412.88
331.572	385.88
331.801	373.88
332.03	375.88
332.258	370.88
332.486	368.88
332.715	368.88
332.943	373.88
333.172	383.88
333.4	366.88
333.629	379.88
333.857	382.88
334.085	395.88
334.314	420.88
334.542	438.88
334.771	472.88
334.999	415.88
335.227	389.88
335.455	378.88
335.684	377.88
335.912	357.88
336.14	361.88
336.369	365.88
336.597	361.88
336.825	349.88
337.053	358.88
337.281	349.88
337.51	345.88
337.738	352.88
337.966	352.88
338.194	360.88
338.422	351.88
338.65	341.88
338.878	359.88
339.106	360.88
339.334	346.88
339.562	360.88
339.79	346.88
340.018	361.88
340.246	332.88
340.474	355.88
340.702	361.88
340.93	355.88
341.158	342.88
341.386	347.88
341.614	345.88
341.842	331.88
342.07	327.88
342.298	328.88
342.526	327.88
342.754	314.88
342.981	331.88
343.209	337.88
343.437	331.88
343.665	344.88
343.893	348.88
344.12	358.88
344.348	366.88
344.576	344.88
344.804	348.88
345.031	355.88
345.259	368.88
345.487	326.88
345.714	346.88
345.942	323.88
346.17	336.88
346.397	317.88
346.625	344.88
346.853	341.88
347.08	338.88
347.308	312.88
347.535	346.88
347.763	339.88
347.99	333.88
348.218	317.88
348.445	343.88
348.673	332.88
348.9	318.88
349.128	328.88
349.355	320.88
349.583	321.88
349.81	329.88
350.037	316.88
350.265	322.88
350.492	310.88
350.72	315.88
350.947	322.88
351.174	320.88
351.402	332.88
351.629	324.88
351.856	333.88
352.083	334.88
352.311	348.88
352.538	323.88
352.765	352.88
352.992	313.88
353.22	324.88
353.447	327.88
353.674	319.88
353.901	321.88
354.128	302.88
354.355	303.88
354.583	319.88
354.81	304.88
355.037	313.88
355.264	305.88
355.491	323.88
355.718	314.88
355.945	316.88
356.172	310.88
356.399	313.88
356.626	304.88
356.853	301.88
357.08	320.88
357.307	312.88
357.534	298.88
357.761	312.88
357.988	313.88
358.215	323.88
358.441	318.88
358.668	308.88
358.895	293.88
359.122	318.88
359.349	331.88
359.576	318.88
359.802	317.88
360.029	349.88
360.256	357.88
360.483	340.88
360.709	319.88
360.936	314.88
361.163	341.88
361.39	309.88
361.616	322.88
361.843	326.88
362.07	323.88
362.296	337.88
362.523	328.88
362.749	334.88
362.976	332.88
363.203	331.88
363.429	302.88
363.656	312.88
363.882	311.88
364.109	300.88
364.335	316.88
364.562	323.88
364.788	310.88
365.015	294.88
365.241	312.88
365.468	325.88
365.694	317.88
365.92	308.88
366.147	305.88
366.373	311.88
366.599	311.88
366.826	291.88
367.052	318.88
367.278	311.88
367.505	305.88
367.731	323.88
367.957	315.88
368.184	312.88
368.41	296.88
368.636	338.88
368.862	316.88
369.089	320.88
369.315	326.88
369.541	315.88
369.767	299.88
369.993	327.88
370.219	303.88
370.445	313.88
370.672	312.88
370.898	325.88
371.124	308.88
371.35	310.88
371.576	292.88
371.802	329.88
372.028	338.88
372.254	319.88
372.48	320.88
372.706	307.88
372.932	319.88
373.158	321.88
373.384	325.88
373.61	317.88
373.835	326.88
374.061	330.88
374.287	327.88
374.513	323.88
374.739	333.88
374.965	315.88
375.191	307.88
375.416	319.88
375.642	330.88
375.868	317.88
376.094	341.88
376.319	315.88
376.545	300.88
376.771	315.88
376.997	328.88
377.222	314.88
377.448	326.88
377.674	314.88
377.899	301.88
378.125	320.88
378.35	327.88
378.576	321.88
378.802	319.88
379.027	313.88
379.253	316.88
379.478	315.88
379.704	310.88
379.929	311.88
380.155	331.88
380.38	296.88
380.606	308.88
380.831	342.88
381.057	312.88
381.282	316.88
381.507	305.88
381.733	311.88
381.958	318.88
382.184	318.88
382.409	313.88
382.634	313.88
382.86	320.88
383.085	327.88
383.31	325.88
383.535	318.88
383.761	319.88
383.986	316.88
384.211	308.88
384.436	334.88
384.662	328.88
384.887	335.88
385.112	336.88
385.337	344.88
385.562	349.88
385.787	355.88
386.013	367.88
386.238	344.88
386.463	345.88
386.688	329.88
386.913	344.88
387.138	338.88
387.363	347.88
387.588	353.88
387.813	354.88
388.038	349.88
388.263	344.88
388.488	337.88
388.713	336.88
388.938	351.88
389.163	334.88
389.387	328.88
389.612	342.88
389.837	343.88
390.062	341.88
390.287	337.88
390.512	349.88
390.736	335.88
390.961	345.88
391.186	353.88
391.411	353.88
391.636	346.88
391.86	351.88
392.085	340.88
392.31	343.88
392.534	374.88
392.759	355.88
392.984	340.88
393.208	349.88
393.433	369.88
393.658	343.88
393.882	346.88
394.107	378.88
394.331	347.88
394.556	326.88
394.78	359.88
395.005	340.88
395.229	352.88
395.454	340.88
395.678	362.88
395.903	395.88
396.127	365.88
396.352	368.88
396.576	362.88
396.801	385.88
397.025	367.88
397.249	367.88
397.474	381.88
397.698	362.88
397.922	381.88
398.147	395.88
398.371	390.88
398.595	405.88
398.82	385.88
399.044	389.88
399.268	416.88
399.492	439.88
399.717	479.88
399.941	491.88
400.165	514.88
400.389	488.88
400.613	448.88
400.837	393.88
401.062	412.88
401.286	413.88
401.51	393.88
401.734	406.88
401.958	408.88
402.182	395.88
402.406	413.88
402.63	410.88
402.854	405.88
403.078	439.88
403.302	420.88
403.526	405.88
403.75	411.88
403.974	418.88
404.198	423.88
404.422	424.88
404.645	421.88
404.869	420.88
405.093	430.88
405.317	461.88
405.541	447.88
405.765	453.88
405.988	443.88
406.212	424.88
406.436	450.88
406.66	453.88
406.883	464.88
407.107	466.88
407.331	477.88
407.555	522.88
407.778	525.88
408.002	508.88
408.226	474.88
408.449	445.88
408.673	432.88
408.896	472.88
409.12	488.88
409.344	449.88
409.567	429.88
409.791	428.88
410.014	423.88
410.238	423.88
410.461	428.88
410.685	445.88
410.908	427.88
411.132	435.88
411.355	464.88
411.578	479.88
411.802	419.88
412.025	450.88
412.249	419.88
412.472	417.88
412.695	437.88
412.919	433.88
413.142	414.88
413.365	402.88
413.589	426.88
413.812	394.88
414.035	412.88
414.258	393.88
414.482	419.88
414.705	424.88
414.928	407.88
415.151	401.88
415.374	400.88
415.597	403.88
415.821	395.88
416.044	404.88
416.267	398.88
416.49	417.88
416.713	415.88
416.936	395.88
417.159	398.88
417.382	395.88
417.605	396.88
417.828	414.88
418.051	432.88
418.274	427.88
418.497	401.88
418.72	402.88
418.943	410.88
419.166	416.88
419.389	421.88
419.611	426.88
419.834	421.88
420.057	435.88
420.28	429.88
420.503	402.88
420.726	399.88
420.948	432.88
421.171	439.88
421.394	477.88
421.617	446.88
421.839	436.88
422.062	423.88
422.285	415.88
422.507	482.88
422.73	513.88
422.953	500.88
423.175	448.88
423.398	452.88
423.621	429.88
423.843	452.88
424.066	437.88
424.288	464.88
424.511	436.88
424.733	499.88
424.956	523.88
425.178	503.88
425.401	505.88
425.623	519.88
425.846	462.88
426.068	446.88
426.291	445.88
426.513	428.88
426.735	460.88
426.958	480.88
427.18	517.88
427.402	584.88
427.625	643.88
427.847	579.88
428.069	490.88
428.292	466.88
428.514	423.88
428.736	420.88
428.958	433.88
429.181	399.88
429.403	424.88
429.625	412.88
429.847	439.88
430.069	487.88
430.292	451.88
430.514	425.88
430.736	405.88
430.958	376.88
431.18	383.88
431.402	410.88
431.624	397.88
431.846	379.88
432.068	392.88
432.29	407.88
432.512	383.88
432.734	426.88
432.956	377.88
433.178	408.88
433.4	402.88
433.622	413.88
433.844	387.88
434.066	375.88
434.287	404.88
434.509	401.88
434.731	417.88
434.953	426.88
435.175	425.88
435.397	441.88
435.618	446.88
435.84	468.88
436.062	492.88
436.284	549.88
436.505	459.88
436.727	443.88
436.949	435.88
437.17	432.88
437.392	410.88
437.614	443.88
437.835	416.88
438.057	494.88
438.278	537.88
438.5	527.88
438.721	567.88
438.943	554.88
439.165	468.88
439.386	441.88
439.608	439.88
439.829	428.88
440.05	473.88
440.272	481.88
440.493	468.88
440.715	437.88
440.936	452.88
441.158	402.88
441.379	407.88
441.6	412.88
441.822	444.88
442.043	471.88
442.264	532.88
442.486	543.88
442.707	461.88
442.928	453.88
443.149	438.88
443.371	464.88
443.592	493.88
443.813	529.88
444.034	575.88
444.255	520.88
444.476	467.88
444.698	455.88
444.919	456.88
445.14	556.88
445.361	496.88
445.582	493.88
445.803	519.88
446.024	566.88
446.245	548.88
446.466	524.88
446.687	445.88
446.908	439.88
447.129	417.88
447.35	428.88
447.571	395.88
447.792	404.88
448.013	402.88
448.234	421.88
448.455	455.88
448.675	517.88
448.896	582.88
449.117	489.88
449.338	473.88
449.559	535.88
449.779	588.88
450	488.88
450.221	430.88
450.442	428.88
450.662	393.88
450.883	421.88
451.104	390.88
451.324	380.88
451.545	375.88
451.766	384.88
451.986	349.88
452.207	369.88
452.428	354.88
452.648	376.88
452.869	357.88
453.089	378.88
453.31	378.88
453.53	387.88
453.751	377.88
453.971	384.88
454.192	391.88
454.412	383.88
454.633	363.88
454.853	372.88
455.073	368.88
455.294	360.88
455.514	414.88
455.734	413.88
455.955	370.88
456.175	347.88
456.395	359.88
456.616	357.88
456.836	337.88
457.056	356.88
457.276	348.88
457.497	347.88
457.717	374.88
457.937	355.88
458.157	352.88
458.377	374.88
458.598	380.88
458.818	432.88
459.038	465.88
459.258	472.88
459.478	404.88
459.698	388.88
459.918	386.88
460.138	387.88
460.358	390.88
460.578	407.88
460.798	407.88
461.018	411.88
461.238	418.88
461.458	401.88
461.678	390.88
461.898	404.88
462.118	401.88
462.338	435.88
462.558	435.88
462.777	437.88
462.997	452.88
463.217	461.88
463.437	450.88
463.657	423.88
463.876	422.88
464.096	442.88
464.316	427.88
464.536	409.88
464.755	445.88
464.975	462.88
465.195	439.88
465.414	511.88
465.634	433.88
465.854	411.88
466.073	389.88
466.293	400.88
466.512	381.88
466.732	381.88
466.951	392.88
467.171	389.88
467.391	389.88
467.61	390.88
467.829	389.88
468.049	397.88
468.268	404.88
468.488	379.88
468.707	387.88
468.927	374.88
469.146	367.88
469.365	382.88
469.585	373.88
469.804	384.88
470.023	392.88
470.243	400.88
470.462	408.88
470.681	399.88
470.901	423.88
471.12	400.88
471.339	371.88
471.558	387.88
471.777	388.88
471.997	396.88
472.216	403.88
472.435	474.88
472.654	432.88
472.873	391.88
473.092	389.88
473.311	380.88
473.53	403.88
473.749	406.88
473.968	412.88
474.187	477.88
474.406	461.88
474.625	425.88
474.844	397.88
475.063	381.88
475.282	394.88
475.501	401.88
475.72	399.88
475.939	391.88
476.158	378.88
476.377	397.88
476.596	398.88
476.814	386.88
477.033	382.88
477.252	412.88
477.471	405.88
477.69	410.88
477.908	425.88
478.127	423.88
478.346	418.88
478.564	437.88
478.783	439.88
479.002	434.88
479.22	425.88
479.439	441.88
479.658	468.88
479.876	463.88
480.095	483.88
480.313	480.88
480.532	466.88
480.751	476.88
480.969	486.88
481.188	594.88
481.406	621.88
481.624	495.88
481.843	492.88
482.061	460.88
482.28	457.88
482.498	435.88
482.717	460.88
482.935	448.88
483.153	450.88
483.372	456.88
483.59	456.88
483.808	435.88
484.027	435.88
484.245	464.88
484.463	469.88
484.681	480.88
484.9	470.88
485.118	444.88
485.336	468.88
485.554	467.88
485.772	475.88
485.99	442.88
486.209	454.88
486.427	450.88
486.645	473.88
486.863	484.88
487.081	485.88
487.299	491.88
487.517	484.88
487.735	484.88
487.953	488.88
488.171	490.88
488.389	476.88
488.607	479.88
488.825	483.88
489.043	466.88
489.261	492.88
489.479	487.88
489.696	462.88
489.914	498.88
490.132	492.88
490.35	513.88
490.568	492.88
490.786	492.88
491.003	501.88
491.221	523.88
491.439	516.88
491.657	527.88
491.874	548.88
492.092	539.88
492.31	548.88
492.527	536.88
492.745	533.88
492.963	556.88
493.18	547.88
493.398	546.88
493.615	545.88
493.833	547.88
494.05	542.88
494.268	565.88
494.485	566.88
494.703	530.88
494.92	569.88
495.138	551.88
495.355	563.88
495.573	539.88
495.79	541.88
496.008	557.88
496.225	541.88
496.442	550.88
496.66	538.88
496.877	545.88
497.094	560.88
497.312	545.88
497.529	557.88
497.746	569.88
497.963	582.88
498.181	583.88
498.398	612.88
498.615	613.88
498.832	630.88
499.049	643.88
499.267	683.88
499.484	676.88
499.701	707.88
499.918	724.88
500.135	786.88
500.352	812.88
500.569	844.88
500.786	851.88
501.003	816.88
501.22	798.88
501.437	783.88
501.654	721.88
501.871	733.88
502.088	668.88
