Data from 1986.PennyLincolnUp.Lamp.En5.5.200Scan.071819.P2_HRD10591_17-11-57-973.txt Node
Date: Thu Jul 18 17:11:57 EDT 2019
User: cochatt
Spectrometer: HR+D1059
Trigger mode: 1
Integration Time (sec): 1.000000E-1
Scans to average: 1
Electric dark correction enabled: true
Nonlinearity correction enabled: false
Boxcar width: 0
XAxis mode: Wavelengths
Number of Pixels in Spectrum: 2048
>>>>>Begin Spectral Data<<<<<
223.165	-12.69
223.4	-12.69
223.635	-12.69
223.869	-21.69
224.104	-10.69
224.338	0.31
224.573	-13.69
224.808	-7.69
225.042	1.31
225.277	-15.69
225.511	-9.69
225.746	-5.69
225.98	-1.69
226.215	-1.69
226.449	27.31
226.683	11.31
226.918	28.31
227.152	32.31
227.387	21.31
227.621	36.31
227.856	42.31
228.09	41.31
228.324	51.31
228.559	51.31
228.793	72.31
229.027	98.31
229.262	115.31
229.496	122.31
229.73	124.31
229.964	142.31
230.199	138.31
230.433	119.31
230.667	112.31
230.901	111.31
231.136	112.31
231.37	111.31
231.604	121.31
231.838	114.31
232.072	117.31
232.306	114.31
232.541	126.31
232.775	115.31
233.009	132.31
233.243	122.31
233.477	124.31
233.711	114.31
233.945	116.31
234.179	119.31
234.413	125.31
234.647	104.31
234.881	122.31
235.115	115.31
235.349	120.31
235.583	126.31
235.817	133.31
236.051	128.31
236.285	120.31
236.519	128.31
236.753	144.31
236.987	155.31
237.221	188.31
237.455	232.31
237.689	189.31
237.922	159.31
238.156	128.31
238.39	146.31
238.624	134.31
238.858	140.31
239.091	134.31
239.325	123.31
239.559	134.31
239.793	144.31
240.027	131.31
240.26	154.31
240.494	168.31
240.728	155.31
240.961	154.31
241.195	140.31
241.429	145.31
241.662	135.31
241.896	133.31
242.13	130.31
242.363	149.31
242.597	162.31
242.83	165.31
243.064	143.31
243.298	147.31
243.531	152.31
243.765	130.31
243.998	134.31
244.232	156.31
244.465	147.31
244.699	152.31
244.932	149.31
245.166	148.31
245.399	139.31
245.633	151.31
245.866	143.31
246.099	152.31
246.333	158.31
246.566	153.31
246.8	156.31
247.033	160.31
247.266	155.31
247.5	156.31
247.733	168.31
247.966	190.31
248.2	188.31
248.433	193.31
248.666	174.31
248.899	214.31
249.133	215.31
249.366	223.31
249.599	201.31
249.832	212.31
250.066	199.31
250.299	203.31
250.532	234.31
250.765	247.31
250.998	264.31
251.231	259.31
251.465	259.31
251.698	237.31
251.931	210.31
252.164	204.31
252.397	201.31
252.63	231.31
252.863	214.31
253.096	241.31
253.329	248.31
253.562	229.31
253.795	250.31
254.028	238.31
254.261	226.31
254.494	262.31
254.727	255.31
254.96	300.31
255.193	294.31
255.426	290.31
255.659	277.31
255.892	304.31
256.124	318.31
256.357	340.31
256.59	312.31
256.823	275.31
257.056	278.31
257.289	253.31
257.521	251.31
257.754	224.31
257.987	244.31
258.22	244.31
258.452	240.31
258.685	226.31
258.918	214.31
259.151	226.31
259.383	238.31
259.616	237.31
259.849	253.31
260.081	259.31
260.314	261.31
260.547	271.31
260.779	258.31
261.012	255.31
261.244	252.31
261.477	229.31
261.71	232.31
261.942	243.31
262.175	258.31
262.407	259.31
262.64	223.31
262.872	226.31
263.105	238.31
263.337	229.31
263.57	200.31
263.802	242.31
264.035	217.31
264.267	229.31
264.499	211.31
264.732	222.31
264.964	223.31
265.197	213.31
265.429	239.31
265.661	210.31
265.894	226.31
266.126	226.31
266.358	223.31
266.591	222.31
266.823	232.31
267.055	232.31
267.287	220.31
267.52	227.31
267.752	222.31
267.984	222.31
268.216	236.31
268.448	234.31
268.681	242.31
268.913	254.31
269.145	265.31
269.377	290.31
269.609	288.31
269.841	294.31
270.073	287.31
270.306	308.31
270.538	317.31
270.77	326.31
271.002	299.31
271.234	308.31
271.466	324.31
271.698	341.31
271.93	310.31
272.162	315.31
272.394	330.31
272.626	324.31
272.858	298.31
273.09	287.31
273.322	296.31
273.553	277.31
273.785	271.31
274.017	271.31
274.249	279.31
274.481	275.31
274.713	263.31
274.945	273.31
275.176	288.31
275.408	268.31
275.64	273.31
275.872	279.31
276.104	265.31
276.335	268.31
276.567	293.31
276.799	312.31
277.031	315.31
277.262	350.31
277.494	328.31
277.726	310.31
277.957	310.31
278.189	303.31
278.421	286.31
278.652	276.31
278.884	269.31
279.115	269.31
279.347	295.31
279.579	268.31
279.81	266.31
280.042	276.31
280.273	282.31
280.505	266.31
280.736	262.31
280.968	267.31
281.199	285.31
281.431	266.31
281.662	267.31
281.894	270.31
282.125	278.31
282.356	308.31
282.588	318.31
282.819	309.31
283.051	297.31
283.282	266.31
283.513	302.31
283.745	267.31
283.976	268.31
284.207	288.31
284.439	272.31
284.67	281.31
284.901	266.31
285.132	279.31
285.364	280.31
285.595	274.31
285.826	284.31
286.057	284.31
286.288	283.31
286.52	279.31
286.751	261.31
286.982	290.31
287.213	267.31
287.444	278.31
287.675	294.31
287.906	302.31
288.138	302.31
288.369	306.31
288.6	297.31
288.831	315.31
289.062	304.31
289.293	272.31
289.524	286.31
289.755	295.31
289.986	303.31
290.217	288.31
290.448	291.31
290.679	296.31
290.91	279.31
291.141	273.31
291.371	291.31
291.602	295.31
291.833	304.31
292.064	286.31
292.295	278.31
292.526	280.31
292.757	286.31
292.987	306.31
293.218	277.31
293.449	271.31
293.68	282.31
293.91	296.31
294.141	293.31
294.372	300.31
294.603	272.31
294.833	294.31
295.064	289.31
295.295	287.31
295.525	279.31
295.756	303.31
295.987	284.31
296.217	328.31
296.448	335.31
296.679	313.31
296.909	285.31
297.14	287.31
297.37	293.31
297.601	300.31
297.831	293.31
298.062	290.31
298.292	292.31
298.523	301.31
298.753	297.31
298.984	309.31
299.214	284.31
299.445	301.31
299.675	300.31
299.905	322.31
300.136	300.31
300.366	313.31
300.597	306.31
300.827	326.31
301.057	314.31
301.288	334.31
301.518	301.31
301.748	322.31
301.979	318.31
302.209	318.31
302.439	327.31
302.669	329.31
302.9	317.31
303.13	309.31
303.36	323.31
303.59	324.31
303.82	341.31
304.051	328.31
304.281	302.31
304.511	295.31
304.741	317.31
304.971	312.31
305.201	308.31
305.431	335.31
305.661	318.31
305.891	314.31
306.121	331.31
306.352	310.31
306.582	334.31
306.812	344.31
307.042	341.31
307.272	329.31
307.502	336.31
307.731	333.31
307.961	334.31
308.191	322.31
308.421	341.31
308.651	321.31
308.881	319.31
309.111	338.31
309.341	344.31
309.571	351.31
309.8	365.31
310.03	372.31
310.26	371.31
310.49	394.31
310.72	396.31
310.949	406.31
311.179	400.31
311.409	382.31
311.639	379.31
311.868	393.31
312.098	364.31
312.328	364.31
312.557	408.31
312.787	435.31
313.017	423.31
313.246	402.31
313.476	377.31
313.706	374.31
313.935	396.31
314.165	412.31
314.394	422.31
314.624	401.31
314.853	394.31
315.083	400.31
315.312	373.31
315.542	373.31
315.771	366.31
316.001	378.31
316.23	370.31
316.46	372.31
316.689	387.31
316.919	382.31
317.148	404.31
317.377	390.31
317.607	390.31
317.836	382.31
318.065	376.31
318.295	377.31
318.524	376.31
318.753	386.31
318.983	382.31
319.212	389.31
319.441	378.31
319.67	365.31
319.9	393.31
320.129	378.31
320.358	375.31
320.587	382.31
320.816	406.31
321.046	405.31
321.275	388.31
321.504	406.31
321.733	408.31
321.962	422.31
322.191	432.31
322.42	423.31
322.649	456.31
322.878	460.31
323.108	491.31
323.337	544.31
323.566	534.31
323.795	559.31
324.024	626.31
324.253	774.31
324.482	1112.31
324.71	1654.31
324.939	2361.31
325.168	2088.31
325.397	1088.31
325.626	742.31
325.855	614.31
326.084	564.31
326.313	529.31
326.542	533.31
326.77	603.31
326.999	701.31
327.228	980.31
327.457	1481.31
327.686	1812.31
327.914	1262.31
328.143	894.31
328.372	782.31
328.6	702.31
328.829	658.31
329.058	662.31
329.287	667.31
329.515	640.31
329.744	626.31
329.972	637.31
330.201	700.31
330.43	810.31
330.658	754.31
330.887	701.31
331.115	695.31
331.344	596.31
331.572	564.31
331.801	535.31
332.03	526.31
332.258	513.31
332.486	489.31
332.715	483.31
332.943	466.31
333.172	488.31
333.4	521.31
333.629	506.31
333.857	546.31
334.085	611.31
334.314	662.31
334.542	792.31
334.771	827.31
334.999	673.31
335.227	568.31
335.455	492.31
335.684	473.31
335.912	467.31
336.14	450.31
336.369	463.31
336.597	478.31
336.825	479.31
337.053	450.31
337.281	453.31
337.51	432.31
337.738	429.31
337.966	434.31
338.194	450.31
338.422	424.31
338.65	434.31
338.878	437.31
339.106	411.31
339.334	423.31
339.562	419.31
339.79	434.31
340.018	397.31
340.246	425.31
340.474	439.31
340.702	418.31
340.93	444.31
341.158	415.31
341.386	420.31
341.614	414.31
341.842	430.31
342.07	428.31
342.298	418.31
342.526	399.31
342.754	400.31
342.981	391.31
343.209	417.31
343.437	389.31
343.665	387.31
343.893	406.31
344.12	428.31
344.348	418.31
344.576	412.31
344.804	422.31
345.031	421.31
345.259	455.31
345.487	417.31
345.714	420.31
345.942	418.31
346.17	412.31
346.397	372.31
346.625	414.31
346.853	404.31
347.08	417.31
347.308	421.31
347.535	419.31
347.763	414.31
347.99	416.31
348.218	419.31
348.445	415.31
348.673	412.31
348.9	391.31
349.128	393.31
349.355	388.31
349.583	394.31
349.81	373.31
350.037	403.31
350.265	396.31
350.492	376.31
350.72	414.31
350.947	405.31
351.174	426.31
351.402	414.31
351.629	414.31
351.856	430.31
352.083	435.31
352.311	428.31
352.538	420.31
352.765	430.31
352.992	419.31
353.22	397.31
353.447	408.31
353.674	391.31
353.901	390.31
354.128	381.31
354.355	382.31
354.583	369.31
354.81	375.31
355.037	379.31
355.264	352.31
355.491	371.31
355.718	376.31
355.945	373.31
356.172	381.31
356.399	384.31
356.626	371.31
356.853	359.31
357.08	370.31
357.307	388.31
357.534	377.31
357.761	376.31
357.988	358.31
358.215	359.31
358.441	361.31
358.668	389.31
358.895	386.31
359.122	362.31
359.349	399.31
359.576	412.31
359.802	414.31
360.029	448.31
360.256	456.31
360.483	453.31
360.709	410.31
360.936	390.31
361.163	391.31
361.39	430.31
361.616	419.31
361.843	408.31
362.07	407.31
362.296	411.31
362.523	382.31
362.749	412.31
362.976	395.31
363.203	412.31
363.429	384.31
363.656	394.31
363.882	393.31
364.109	378.31
364.335	364.31
364.562	379.31
364.788	361.31
365.015	396.31
365.241	387.31
365.468	380.31
365.694	383.31
365.92	379.31
366.147	374.31
366.373	382.31
366.599	376.31
366.826	373.31
367.052	361.31
367.278	363.31
367.505	374.31
367.731	382.31
367.957	382.31
368.184	380.31
368.41	376.31
368.636	382.31
368.862	384.31
369.089	364.31
369.315	378.31
369.541	374.31
369.767	361.31
369.993	361.31
370.219	374.31
370.445	372.31
370.672	374.31
370.898	380.31
371.124	365.31
371.35	340.31
371.576	368.31
371.802	342.31
372.028	368.31
372.254	364.31
372.48	371.31
372.706	380.31
372.932	361.31
373.158	372.31
373.384	363.31
373.61	363.31
373.835	383.31
374.061	340.31
374.287	372.31
374.513	361.31
374.739	355.31
374.965	363.31
375.191	366.31
375.416	367.31
375.642	380.31
375.868	373.31
376.094	347.31
376.319	360.31
376.545	374.31
376.771	372.31
376.997	357.31
377.222	344.31
377.448	360.31
377.674	370.31
377.899	367.31
378.125	374.31
378.35	354.31
378.576	346.31
378.802	365.31
379.027	357.31
379.253	363.31
379.478	378.31
379.704	378.31
379.929	364.31
380.155	358.31
380.38	357.31
380.606	380.31
380.831	342.31
381.057	363.31
381.282	375.31
381.507	354.31
381.733	362.31
381.958	351.31
382.184	359.31
382.409	367.31
382.634	362.31
382.86	372.31
383.085	374.31
383.31	371.31
383.535	371.31
383.761	365.31
383.986	365.31
384.211	344.31
384.436	367.31
384.662	381.31
384.887	368.31
385.112	363.31
385.337	385.31
385.562	360.31
385.787	388.31
386.013	392.31
386.238	386.31
386.463	388.31
386.688	364.31
386.913	386.31
387.138	376.31
387.363	389.31
387.588	403.31
387.813	376.31
388.038	400.31
388.263	373.31
388.488	401.31
388.713	384.31
388.938	371.31
389.163	379.31
389.387	382.31
389.612	377.31
389.837	390.31
390.062	381.31
390.287	388.31
390.512	385.31
390.736	391.31
390.961	395.31
391.186	370.31
391.411	376.31
391.636	388.31
391.86	386.31
392.085	386.31
392.31	395.31
392.534	366.31
392.759	378.31
392.984	374.31
393.208	386.31
393.433	390.31
393.658	376.31
393.882	371.31
394.107	378.31
394.331	377.31
394.556	367.31
394.78	382.31
395.005	390.31
395.229	392.31
395.454	402.31
395.678	396.31
395.903	408.31
396.127	419.31
396.352	420.31
396.576	391.31
396.801	405.31
397.025	406.31
397.249	394.31
397.474	414.31
397.698	412.31
397.922	431.31
398.147	420.31
398.371	425.31
398.595	404.31
398.82	422.31
399.044	420.31
399.268	438.31
399.492	437.31
399.717	470.31
399.941	486.31
400.165	515.31
400.389	524.31
400.613	471.31
400.837	441.31
401.062	446.31
401.286	411.31
401.51	429.31
401.734	436.31
401.958	444.31
402.182	441.31
402.406	466.31
402.63	453.31
402.854	431.31
403.078	434.31
403.302	442.31
403.526	438.31
403.75	456.31
403.974	435.31
404.198	454.31
404.422	456.31
404.645	467.31
404.869	483.31
405.093	530.31
405.317	600.31
405.541	639.31
405.765	558.31
405.988	512.31
406.212	517.31
406.436	518.31
406.66	536.31
406.883	498.31
407.107	503.31
407.331	552.31
407.555	585.31
407.778	578.31
408.002	549.31
408.226	499.31
408.449	480.31
408.673	491.31
408.896	504.31
409.12	556.31
409.344	510.31
409.567	476.31
409.791	459.31
410.014	474.31
410.238	424.31
410.461	427.31
410.685	451.31
410.908	470.31
411.132	510.31
411.355	552.31
411.578	518.31
411.802	472.31
412.025	461.31
412.249	478.31
412.472	564.31
412.695	603.31
412.919	573.31
413.142	553.31
413.365	517.31
413.589	483.31
413.812	471.31
414.035	435.31
414.258	437.31
414.482	442.31
414.705	416.31
414.928	435.31
415.151	442.31
415.374	442.31
415.597	434.31
415.821	423.31
416.044	428.31
416.267	430.31
416.49	434.31
416.713	415.31
416.936	420.31
417.159	416.31
417.382	462.31
417.605	451.31
417.828	451.31
418.051	500.31
418.274	452.31
418.497	436.31
418.72	438.31
418.943	455.31
419.166	454.31
419.389	474.31
419.611	465.31
419.834	445.31
420.057	487.31
420.28	496.31
420.503	495.31
420.726	502.31
420.948	514.31
421.171	541.31
421.394	568.31
421.617	479.31
421.839	467.31
422.062	464.31
422.285	482.31
422.507	510.31
422.73	596.31
422.953	550.31
423.175	504.31
423.398	489.31
423.621	476.31
423.843	500.31
424.066	506.31
424.288	496.31
424.511	506.31
424.733	552.31
424.956	643.31
425.178	620.31
425.401	614.31
425.623	625.31
425.846	543.31
426.068	521.31
426.291	494.31
426.513	503.31
426.735	507.31
426.958	559.31
427.18	620.31
427.402	754.31
427.625	856.31
427.847	751.31
428.069	689.31
428.292	622.31
428.514	524.31
428.736	510.31
428.958	482.31
429.181	471.31
429.403	483.31
429.625	479.31
429.847	524.31
430.069	578.31
430.292	566.31
430.514	501.31
430.736	460.31
430.958	478.31
431.18	447.31
431.402	439.31
431.624	423.31
431.846	422.31
432.068	417.31
432.29	452.31
432.512	406.31
432.734	442.31
432.956	441.31
433.178	450.31
433.4	448.31
433.622	438.31
433.844	421.31
434.066	422.31
434.287	445.31
434.509	428.31
434.731	436.31
434.953	453.31
435.175	448.31
435.397	485.31
435.618	521.31
435.84	549.31
436.062	639.31
436.284	680.31
436.505	584.31
436.727	537.31
436.949	502.31
437.17	455.31
437.392	475.31
437.614	492.31
437.835	509.31
438.057	632.31
438.278	694.31
438.5	712.31
438.721	761.31
438.943	714.31
439.165	605.31
439.386	534.31
439.608	525.31
439.829	537.31
440.05	580.31
440.272	602.31
440.493	566.31
440.715	514.31
440.936	473.31
441.158	479.31
441.379	462.31
441.6	494.31
441.822	515.31
442.043	544.31
442.264	625.31
442.486	648.31
442.707	556.31
442.928	537.31
443.149	529.31
443.371	568.31
443.592	605.31
443.813	679.31
444.034	758.31
444.255	598.31
444.476	518.31
444.698	526.31
444.919	519.31
445.14	586.31
445.361	550.31
445.582	538.31
445.803	626.31
446.024	686.31
446.245	743.31
446.466	647.31
446.687	568.31
446.908	530.31
447.129	467.31
447.35	476.31
447.571	475.31
447.792	450.31
448.013	498.31
448.234	498.31
448.455	546.31
448.675	667.31
448.896	747.31
449.117	642.31
449.338	611.31
449.559	684.31
449.779	780.31
450	655.31
450.221	519.31
450.442	480.31
450.662	469.31
450.883	471.31
451.104	495.31
451.324	490.31
451.545	451.31
451.766	452.31
451.986	430.31
452.207	420.31
452.428	406.31
452.648	418.31
452.869	423.31
453.089	432.31
453.31	443.31
453.53	419.31
453.751	430.31
453.971	434.31
454.192	454.31
454.412	433.31
454.633	414.31
454.853	425.31
455.073	416.31
455.294	448.31
455.514	499.31
455.734	509.31
455.955	420.31
456.175	420.31
456.395	410.31
456.616	393.31
456.836	388.31
457.056	395.31
457.276	389.31
457.497	388.31
457.717	403.31
457.937	407.31
458.157	396.31
458.377	409.31
458.598	392.31
458.818	510.31
459.038	570.31
459.258	582.31
459.478	478.31
459.698	452.31
459.918	420.31
460.138	415.31
460.358	410.31
460.578	415.31
460.798	416.31
461.018	430.31
461.238	412.31
461.458	408.31
461.678	410.31
461.898	414.31
462.118	435.31
462.338	436.31
462.558	439.31
462.777	454.31
462.997	418.31
463.217	442.31
463.437	459.31
463.657	424.31
463.876	444.31
464.096	446.31
464.316	428.31
464.536	461.31
464.755	440.31
464.975	453.31
465.195	494.31
465.414	584.31
465.634	519.31
465.854	476.31
466.073	440.31
466.293	438.31
466.512	423.31
466.732	431.31
466.951	423.31
467.171	434.31
467.391	429.31
467.61	438.31
467.829	454.31
468.049	452.31
468.268	506.31
468.488	476.31
468.707	432.31
468.927	420.31
469.146	417.31
469.365	415.31
469.585	430.31
469.804	408.31
470.023	446.31
470.243	430.31
470.462	449.31
470.681	465.31
470.901	456.31
471.12	425.31
471.339	436.31
471.558	452.31
471.777	447.31
471.997	472.31
472.216	502.31
472.435	630.31
472.654	580.31
472.873	518.31
473.092	459.31
473.311	465.31
473.53	451.31
473.749	443.31
473.968	506.31
474.187	610.31
474.406	636.31
474.625	514.31
474.844	473.31
475.063	444.31
475.282	447.31
475.501	464.31
475.72	446.31
475.939	440.31
476.158	460.31
476.377	458.31
476.596	445.31
476.814	468.31
477.033	492.31
477.252	482.31
477.471	464.31
477.69	469.31
477.908	455.31
478.127	481.31
478.346	469.31
478.564	458.31
478.783	470.31
479.002	472.31
479.22	475.31
479.439	496.31
479.658	552.31
479.876	539.31
480.095	535.31
480.313	551.31
480.532	543.31
480.751	543.31
480.969	591.31
481.188	822.31
481.406	998.31
481.624	738.31
481.843	651.31
482.061	606.31
482.28	587.31
482.498	554.31
482.717	564.31
482.935	534.31
483.153	553.31
483.372	530.31
483.59	546.31
483.808	533.31
484.027	539.31
484.245	543.31
484.463	526.31
484.681	535.31
484.9	536.31
485.118	524.31
485.336	546.31
485.554	564.31
485.772	562.31
485.99	547.31
486.209	543.31
486.427	532.31
486.645	552.31
486.863	580.31
487.081	564.31
487.299	554.31
487.517	551.31
487.735	580.31
487.953	579.31
488.171	574.31
488.389	584.31
488.607	578.31
488.825	584.31
489.043	568.31
489.261	571.31
489.479	576.31
489.696	572.31
489.914	592.31
490.132	606.31
490.35	589.31
490.568	623.31
490.786	628.31
491.003	614.31
491.221	650.31
491.439	663.31
491.657	655.31
491.874	667.31
492.092	671.31
492.31	667.31
492.527	678.31
492.745	710.31
492.963	687.31
493.18	710.31
493.398	716.31
493.615	704.31
493.833	703.31
494.05	716.31
494.268	679.31
494.485	680.31
494.703	701.31
494.92	699.31
495.138	682.31
495.355	681.31
495.573	707.31
495.79	712.31
496.008	717.31
496.225	700.31
496.442	684.31
496.66	694.31
496.877	680.31
497.094	670.31
497.312	666.31
497.529	687.31
497.746	694.31
497.963	732.31
498.181	730.31
498.398	725.31
498.615	730.31
498.832	714.31
499.049	735.31
499.267	741.31
499.484	762.31
499.701	762.31
499.918	758.31
500.135	791.31
500.352	804.31
500.569	760.31
500.786	813.31
501.003	814.31
501.22	830.31
501.437	782.31
501.654	787.31
501.871	807.31
