Data from 1986.PennyLincolnUp.Lamp.En5.5.200Scan.071819.P2_HRD10591_17-11-55-973.txt Node
Date: Thu Jul 18 17:11:55 EDT 2019
User: cochatt
Spectrometer: HR+D1059
Trigger mode: 1
Integration Time (sec): 1.000000E-1
Scans to average: 1
Electric dark correction enabled: true
Nonlinearity correction enabled: false
Boxcar width: 0
XAxis mode: Wavelengths
Number of Pixels in Spectrum: 2048
>>>>>Begin Spectral Data<<<<<
223.165	-28.69
223.4	-28.69
223.635	-28.69
223.869	-15.69
224.104	-25.69
224.338	-18.69
224.573	-13.69
224.808	-12.69
225.042	-18.69
225.277	-9.69
225.511	4.31
225.746	16.31
225.98	7.31
226.215	11.31
226.449	18.31
226.683	24.31
226.918	27.31
227.152	34.31
227.387	31.31
227.621	32.31
227.856	33.31
228.09	56.31
228.324	43.31
228.559	53.31
228.793	80.31
229.027	96.31
229.262	119.31
229.496	116.31
229.73	128.31
229.964	150.31
230.199	124.31
230.433	107.31
230.667	112.31
230.901	128.31
231.136	126.31
231.37	130.31
231.604	107.31
231.838	104.31
232.072	118.31
232.306	124.31
232.541	120.31
232.775	116.31
233.009	113.31
233.243	104.31
233.477	117.31
233.711	103.31
233.945	116.31
234.179	124.31
234.413	123.31
234.647	126.31
234.881	117.31
235.115	126.31
235.349	125.31
235.583	113.31
235.817	120.31
236.051	123.31
236.285	132.31
236.519	129.31
236.753	136.31
236.987	135.31
237.221	165.31
237.455	251.31
237.689	202.31
237.922	150.31
238.156	136.31
238.39	126.31
238.624	124.31
238.858	123.31
239.091	125.31
239.325	132.31
239.559	124.31
239.793	124.31
240.027	133.31
240.26	149.31
240.494	160.31
240.728	157.31
240.961	158.31
241.195	142.31
241.429	138.31
241.662	146.31
241.896	132.31
242.13	155.31
242.363	136.31
242.597	137.31
242.83	141.31
243.064	153.31
243.298	161.31
243.531	143.31
243.765	126.31
243.998	143.31
244.232	153.31
244.465	142.31
244.699	162.31
244.932	141.31
245.166	153.31
245.399	159.31
245.633	162.31
245.866	158.31
246.099	149.31
246.333	162.31
246.566	158.31
246.8	155.31
247.033	157.31
247.266	158.31
247.5	166.31
247.733	157.31
247.966	178.31
248.2	178.31
248.433	176.31
248.666	205.31
248.899	202.31
249.133	218.31
249.366	225.31
249.599	230.31
249.832	202.31
250.066	202.31
250.299	230.31
250.532	244.31
250.765	260.31
250.998	268.31
251.231	266.31
251.465	236.31
251.698	252.31
251.931	229.31
252.164	212.31
252.397	231.31
252.63	213.31
252.863	225.31
253.096	220.31
253.329	227.31
253.562	249.31
253.795	234.31
254.028	237.31
254.261	226.31
254.494	244.31
254.727	267.31
254.96	312.31
255.193	297.31
255.426	283.31
255.659	240.31
255.892	283.31
256.124	320.31
256.357	337.31
256.59	300.31
256.823	276.31
257.056	253.31
257.289	246.31
257.521	245.31
257.754	243.31
257.987	237.31
258.22	258.31
258.452	240.31
258.685	212.31
258.918	216.31
259.151	241.31
259.383	244.31
259.616	244.31
259.849	242.31
260.081	246.31
260.314	281.31
260.547	279.31
260.779	270.31
261.012	272.31
261.244	230.31
261.477	231.31
261.71	252.31
261.942	232.31
262.175	247.31
262.407	260.31
262.64	234.31
262.872	239.31
263.105	225.31
263.337	226.31
263.57	243.31
263.802	231.31
264.035	210.31
264.267	229.31
264.499	216.31
264.732	208.31
264.964	232.31
265.197	227.31
265.429	228.31
265.661	224.31
265.894	207.31
266.126	223.31
266.358	215.31
266.591	192.31
266.823	234.31
267.055	229.31
267.287	232.31
267.52	222.31
267.752	225.31
267.984	246.31
268.216	221.31
268.448	242.31
268.681	239.31
268.913	250.31
269.145	273.31
269.377	299.31
269.609	294.31
269.841	291.31
270.073	288.31
270.306	305.31
270.538	327.31
270.77	326.31
271.002	329.31
271.234	321.31
271.466	312.31
271.698	320.31
271.93	328.31
272.162	335.31
272.394	332.31
272.626	331.31
272.858	304.31
273.09	296.31
273.322	291.31
273.553	289.31
273.785	287.31
274.017	290.31
274.249	287.31
274.481	289.31
274.713	278.31
274.945	285.31
275.176	267.31
275.408	266.31
275.64	278.31
275.872	274.31
276.104	276.31
276.335	280.31
276.567	285.31
276.799	290.31
277.031	321.31
277.262	340.31
277.494	347.31
277.726	304.31
277.957	310.31
278.189	279.31
278.421	277.31
278.652	264.31
278.884	280.31
279.115	278.31
279.347	294.31
279.579	260.31
279.81	270.31
280.042	272.31
280.273	256.31
280.505	285.31
280.736	283.31
280.968	275.31
281.199	273.31
281.431	290.31
281.662	271.31
281.894	265.31
282.125	280.31
282.356	296.31
282.588	305.31
282.819	320.31
283.051	288.31
283.282	269.31
283.513	291.31
283.745	282.31
283.976	285.31
284.207	286.31
284.439	285.31
284.67	290.31
284.901	270.31
285.132	265.31
285.364	281.31
285.595	290.31
285.826	277.31
286.057	282.31
286.288	285.31
286.52	272.31
286.751	260.31
286.982	287.31
287.213	266.31
287.444	288.31
287.675	280.31
287.906	269.31
288.138	294.31
288.369	291.31
288.6	314.31
288.831	306.31
289.062	300.31
289.293	301.31
289.524	291.31
289.755	277.31
289.986	299.31
290.217	289.31
290.448	276.31
290.679	280.31
290.91	281.31
291.141	279.31
291.371	286.31
291.602	282.31
291.833	277.31
292.064	278.31
292.295	288.31
292.526	293.31
292.757	270.31
292.987	300.31
293.218	276.31
293.449	301.31
293.68	285.31
293.91	291.31
294.141	289.31
294.372	272.31
294.603	274.31
294.833	282.31
295.064	279.31
295.295	280.31
295.525	267.31
295.756	282.31
295.987	299.31
296.217	301.31
296.448	330.31
296.679	314.31
296.909	285.31
297.14	292.31
297.37	294.31
297.601	294.31
297.831	301.31
298.062	296.31
298.292	299.31
298.523	305.31
298.753	314.31
298.984	296.31
299.214	299.31
299.445	301.31
299.675	300.31
299.905	318.31
300.136	294.31
300.366	299.31
300.597	300.31
300.827	306.31
301.057	316.31
301.288	329.31
301.518	310.31
301.748	323.31
301.979	316.31
302.209	312.31
302.439	307.31
302.669	338.31
302.9	297.31
303.13	313.31
303.36	321.31
303.59	333.31
303.82	325.31
304.051	306.31
304.281	313.31
304.511	329.31
304.741	325.31
304.971	314.31
305.201	320.31
305.431	326.31
305.661	328.31
305.891	332.31
306.121	323.31
306.352	333.31
306.582	328.31
306.812	324.31
307.042	328.31
307.272	330.31
307.502	323.31
307.731	331.31
307.961	317.31
308.191	315.31
308.421	329.31
308.651	344.31
308.881	352.31
309.111	335.31
309.341	354.31
309.571	349.31
309.8	354.31
310.03	371.31
310.26	381.31
310.49	366.31
310.72	390.31
310.949	408.31
311.179	402.31
311.409	393.31
311.639	375.31
311.868	387.31
312.098	374.31
312.328	376.31
312.557	415.31
312.787	414.31
313.017	426.31
313.246	394.31
313.476	363.31
313.706	387.31
313.935	402.31
314.165	390.31
314.394	408.31
314.624	400.31
314.853	405.31
315.083	373.31
315.312	362.31
315.542	380.31
315.771	379.31
316.001	374.31
316.23	346.31
316.46	366.31
316.689	378.31
316.919	401.31
317.148	382.31
317.377	387.31
317.607	388.31
317.836	384.31
318.065	408.31
318.295	388.31
318.524	380.31
318.753	386.31
318.983	382.31
319.212	362.31
319.441	394.31
319.67	388.31
319.9	383.31
320.129	374.31
320.358	386.31
320.587	383.31
320.816	383.31
321.046	402.31
321.275	409.31
321.504	403.31
321.733	396.31
321.962	423.31
322.191	419.31
322.42	456.31
322.649	455.31
322.878	489.31
323.108	476.31
323.337	518.31
323.566	527.31
323.795	568.31
324.024	636.31
324.253	739.31
324.482	1084.31
324.71	1700.31
324.939	2402.31
325.168	2083.31
325.397	1112.31
325.626	736.31
325.855	608.31
326.084	580.31
326.313	540.31
326.542	555.31
326.77	615.31
326.999	720.31
327.228	987.31
327.457	1473.31
327.686	1814.31
327.914	1246.31
328.143	860.31
328.372	764.31
328.6	727.31
328.829	667.31
329.058	673.31
329.287	660.31
329.515	643.31
329.744	609.31
329.972	633.31
330.201	704.31
330.43	773.31
330.658	779.31
330.887	755.31
331.115	682.31
331.344	581.31
331.572	537.31
331.801	540.31
332.03	540.31
332.258	510.31
332.486	473.31
332.715	480.31
332.943	497.31
333.172	474.31
333.4	481.31
333.629	515.31
333.857	536.31
334.085	575.31
334.314	674.31
334.542	808.31
334.771	847.31
334.999	684.31
335.227	546.31
335.455	495.31
335.684	485.31
335.912	468.31
336.14	458.31
336.369	448.31
336.597	466.31
336.825	464.31
337.053	449.31
337.281	436.31
337.51	420.31
337.738	439.31
337.966	424.31
338.194	443.31
338.422	433.31
338.65	433.31
338.878	426.31
339.106	432.31
339.334	424.31
339.562	418.31
339.79	440.31
340.018	407.31
340.246	415.31
340.474	429.31
340.702	421.31
340.93	426.31
341.158	425.31
341.386	404.31
341.614	441.31
341.842	412.31
342.07	406.31
342.298	393.31
342.526	412.31
342.754	385.31
342.981	408.31
343.209	389.31
343.437	404.31
343.665	396.31
343.893	407.31
344.12	390.31
344.348	411.31
344.576	416.31
344.804	429.31
345.031	445.31
345.259	432.31
345.487	424.31
345.714	420.31
345.942	411.31
346.17	406.31
346.397	402.31
346.625	388.31
346.853	412.31
347.08	396.31
347.308	425.31
347.535	402.31
347.763	440.31
347.99	404.31
348.218	413.31
348.445	427.31
348.673	414.31
348.9	397.31
349.128	393.31
349.355	392.31
349.583	401.31
349.81	404.31
350.037	389.31
350.265	384.31
350.492	373.31
350.72	384.31
350.947	391.31
351.174	397.31
351.402	406.31
351.629	414.31
351.856	413.31
352.083	436.31
352.311	416.31
352.538	419.31
352.765	441.31
352.992	414.31
353.22	400.31
353.447	422.31
353.674	400.31
353.901	393.31
354.128	384.31
354.355	374.31
354.583	378.31
354.81	374.31
355.037	379.31
355.264	368.31
355.491	358.31
355.718	370.31
355.945	358.31
356.172	360.31
356.399	364.31
356.626	374.31
356.853	379.31
357.08	336.31
357.307	350.31
357.534	368.31
357.761	361.31
357.988	371.31
358.215	370.31
358.441	362.31
358.668	366.31
358.895	382.31
359.122	384.31
359.349	405.31
359.576	406.31
359.802	426.31
360.029	456.31
360.256	479.31
360.483	454.31
360.709	411.31
360.936	399.31
361.163	387.31
361.39	402.31
361.616	396.31
361.843	407.31
362.07	414.31
362.296	394.31
362.523	388.31
362.749	398.31
362.976	401.31
363.203	396.31
363.429	379.31
363.656	377.31
363.882	390.31
364.109	379.31
364.335	387.31
364.562	382.31
364.788	391.31
365.015	370.31
365.241	382.31
365.468	379.31
365.694	376.31
365.92	401.31
366.147	387.31
366.373	351.31
366.599	370.31
366.826	356.31
367.052	368.31
367.278	365.31
367.505	366.31
367.731	379.31
367.957	364.31
368.184	371.31
368.41	372.31
368.636	382.31
368.862	390.31
369.089	395.31
369.315	371.31
369.541	378.31
369.767	348.31
369.993	360.31
370.219	376.31
370.445	361.31
370.672	355.31
370.898	374.31
371.124	372.31
371.35	374.31
371.576	358.31
371.802	374.31
372.028	346.31
372.254	364.31
372.48	374.31
372.706	354.31
372.932	361.31
373.158	365.31
373.384	349.31
373.61	365.31
373.835	391.31
374.061	380.31
374.287	380.31
374.513	363.31
374.739	346.31
374.965	365.31
375.191	358.31
375.416	370.31
375.642	369.31
375.868	374.31
376.094	368.31
376.319	361.31
376.545	362.31
376.771	347.31
376.997	357.31
377.222	345.31
377.448	350.31
377.674	352.31
377.899	356.31
378.125	351.31
378.35	357.31
378.576	350.31
378.802	352.31
379.027	355.31
379.253	364.31
379.478	364.31
379.704	361.31
379.929	335.31
380.155	358.31
380.38	363.31
380.606	351.31
380.831	365.31
381.057	343.31
381.282	360.31
381.507	365.31
381.733	379.31
381.958	361.31
382.184	356.31
382.409	353.31
382.634	374.31
382.86	373.31
383.085	355.31
383.31	373.31
383.535	363.31
383.761	361.31
383.986	380.31
384.211	367.31
384.436	358.31
384.662	369.31
384.887	378.31
385.112	380.31
385.337	371.31
385.562	359.31
385.787	367.31
386.013	380.31
386.238	393.31
386.463	370.31
386.688	372.31
386.913	369.31
387.138	380.31
387.363	377.31
387.588	375.31
387.813	363.31
388.038	351.31
388.263	381.31
388.488	377.31
388.713	378.31
388.938	357.31
389.163	376.31
389.387	378.31
389.612	382.31
389.837	378.31
390.062	359.31
390.287	372.31
390.512	363.31
390.736	380.31
390.961	386.31
391.186	378.31
391.411	389.31
391.636	386.31
391.86	363.31
392.085	380.31
392.31	380.31
392.534	370.31
392.759	402.31
392.984	407.31
393.208	362.31
393.433	370.31
393.658	371.31
393.882	374.31
394.107	385.31
394.331	390.31
394.556	380.31
394.78	375.31
395.005	369.31
395.229	386.31
395.454	388.31
395.678	381.31
395.903	376.31
396.127	393.31
396.352	410.31
396.576	399.31
396.801	348.31
397.025	363.31
397.249	395.31
397.474	394.31
397.698	394.31
397.922	397.31
398.147	434.31
398.371	421.31
398.595	403.31
398.82	420.31
399.044	402.31
399.268	409.31
399.492	453.31
399.717	443.31
399.941	466.31
400.165	480.31
400.389	513.31
400.613	460.31
400.837	454.31
401.062	430.31
401.286	416.31
401.51	412.31
401.734	426.31
401.958	425.31
402.182	418.31
402.406	449.31
402.63	438.31
402.854	422.31
403.078	428.31
403.302	433.31
403.526	449.31
403.75	432.31
403.974	436.31
404.198	438.31
404.422	446.31
404.645	443.31
404.869	483.31
405.093	512.31
405.317	582.31
405.541	597.31
405.765	545.31
405.988	496.31
406.212	489.31
406.436	496.31
406.66	519.31
406.883	490.31
407.107	490.31
407.331	551.31
407.555	586.31
407.778	587.31
408.002	523.31
408.226	530.31
408.449	478.31
408.673	493.31
408.896	517.31
409.12	566.31
409.344	538.31
409.567	482.31
409.791	463.31
410.014	457.31
410.238	455.31
410.461	444.31
410.685	452.31
410.908	458.31
411.132	490.31
411.355	534.31
411.578	508.31
411.802	478.31
412.025	470.31
412.249	500.31
412.472	530.31
412.695	600.31
412.919	566.31
413.142	544.31
413.365	480.31
413.589	477.31
413.812	457.31
414.035	460.31
414.258	422.31
414.482	419.31
414.705	410.31
414.928	440.31
415.151	420.31
415.374	423.31
415.597	415.31
415.821	426.31
416.044	442.31
416.267	428.31
416.49	414.31
416.713	426.31
416.936	435.31
417.159	434.31
417.382	449.31
417.605	448.31
417.828	462.31
418.051	468.31
418.274	449.31
418.497	442.31
418.72	438.31
418.943	429.31
419.166	445.31
419.389	462.31
419.611	472.31
419.834	461.31
420.057	473.31
420.28	500.31
420.503	478.31
420.726	488.31
420.948	522.31
421.171	528.31
421.394	558.31
421.617	490.31
421.839	475.31
422.062	470.31
422.285	473.31
422.507	520.31
422.73	613.31
422.953	584.31
423.175	510.31
423.398	477.31
423.621	472.31
423.843	488.31
424.066	500.31
424.288	481.31
424.511	524.31
424.733	570.31
424.956	630.31
425.178	640.31
425.401	590.31
425.623	643.31
425.846	547.31
426.068	502.31
426.291	500.31
426.513	499.31
426.735	506.31
426.958	548.31
427.18	638.31
427.402	754.31
427.625	838.31
427.847	767.31
428.069	695.31
428.292	598.31
428.514	538.31
428.736	488.31
428.958	493.31
429.181	480.31
429.403	494.31
429.625	487.31
429.847	504.31
430.069	576.31
430.292	556.31
430.514	473.31
430.736	475.31
430.958	461.31
431.18	437.31
431.402	441.31
431.624	434.31
431.846	426.31
432.068	421.31
432.29	413.31
432.512	430.31
432.734	444.31
432.956	449.31
433.178	450.31
433.4	465.31
433.622	438.31
433.844	429.31
434.066	414.31
434.287	401.31
434.509	435.31
434.731	439.31
434.953	445.31
435.175	452.31
435.397	493.31
435.618	489.31
435.84	537.31
436.062	625.31
436.284	687.31
436.505	586.31
436.727	520.31
436.949	493.31
437.17	472.31
437.392	473.31
437.614	469.31
437.835	525.31
438.057	598.31
438.278	716.31
438.5	716.31
438.721	761.31
438.943	708.31
439.165	577.31
439.386	534.31
439.608	525.31
439.829	520.31
440.05	539.31
440.272	602.31
440.493	550.31
440.715	493.31
440.936	479.31
441.158	467.31
441.379	470.31
441.6	474.31
441.822	476.31
442.043	534.31
442.264	607.31
442.486	644.31
442.707	561.31
442.928	521.31
443.149	534.31
443.371	556.31
443.592	580.31
443.813	654.31
444.034	737.31
444.255	573.31
444.476	496.31
444.698	489.31
444.919	481.31
445.14	567.31
445.361	546.31
445.582	538.31
445.803	630.31
446.024	694.31
446.245	731.31
446.466	669.31
446.687	557.31
446.908	510.31
447.129	482.31
447.35	483.31
447.571	476.31
447.792	473.31
448.013	463.31
448.234	479.31
448.455	528.31
448.675	635.31
448.896	726.31
449.117	624.31
449.338	616.31
449.559	699.31
449.779	794.31
450	648.31
450.221	513.31
450.442	488.31
450.662	477.31
450.883	486.31
451.104	480.31
451.324	469.31
451.545	454.31
451.766	441.31
451.986	433.31
452.207	420.31
452.428	418.31
452.648	420.31
452.869	411.31
453.089	430.31
453.31	449.31
453.53	410.31
453.751	416.31
453.971	422.31
454.192	421.31
454.412	433.31
454.633	402.31
454.853	392.31
455.073	393.31
455.294	451.31
455.514	516.31
455.734	494.31
455.955	444.31
456.175	410.31
456.395	388.31
456.616	386.31
456.836	396.31
457.056	381.31
457.276	370.31
457.497	384.31
457.717	387.31
457.937	389.31
458.157	411.31
458.377	417.31
458.598	428.31
458.818	491.31
459.038	557.31
459.258	577.31
459.478	496.31
459.698	442.31
459.918	432.31
460.138	416.31
460.358	422.31
460.578	410.31
460.798	408.31
461.018	418.31
461.238	398.31
461.458	400.31
461.678	417.31
461.898	422.31
462.118	407.31
462.338	398.31
462.558	427.31
462.777	432.31
462.997	426.31
463.217	460.31
463.437	442.31
463.657	418.31
463.876	427.31
464.096	447.31
464.316	416.31
464.536	460.31
464.755	446.31
464.975	452.31
465.195	493.31
465.414	594.31
465.634	521.31
465.854	472.31
466.073	448.31
466.293	423.31
466.512	423.31
466.732	413.31
466.951	414.31
467.171	428.31
467.391	420.31
467.61	435.31
467.829	450.31
468.049	439.31
468.268	474.31
468.488	436.31
468.707	422.31
468.927	422.31
469.146	411.31
469.365	404.31
469.585	422.31
469.804	427.31
470.023	436.31
470.243	427.31
470.462	416.31
470.681	461.31
470.901	464.31
471.12	436.31
471.339	428.31
471.558	442.31
471.777	438.31
471.997	453.31
472.216	511.31
472.435	630.31
472.654	581.31
472.873	498.31
473.092	455.31
473.311	462.31
473.53	453.31
473.749	442.31
473.968	496.31
474.187	573.31
474.406	595.31
474.625	510.31
474.844	462.31
475.063	437.31
475.282	424.31
475.501	448.31
475.72	434.31
475.939	446.31
476.158	417.31
476.377	440.31
476.596	457.31
476.814	444.31
477.033	462.31
477.252	451.31
477.471	462.31
477.69	444.31
477.908	487.31
478.127	482.31
478.346	489.31
478.564	472.31
478.783	468.31
479.002	484.31
479.22	494.31
479.439	526.31
479.658	514.31
479.876	519.31
480.095	530.31
480.313	582.31
480.532	574.31
480.751	578.31
480.969	615.31
481.188	804.31
481.406	974.31
481.624	728.31
481.843	623.31
482.061	599.31
482.28	566.31
482.498	568.31
482.717	532.31
482.935	540.31
483.153	525.31
483.372	537.31
483.59	538.31
483.808	529.31
484.027	505.31
484.245	510.31
484.463	518.31
484.681	508.31
484.9	531.31
485.118	530.31
485.336	531.31
485.554	576.31
485.772	524.31
485.99	553.31
486.209	530.31
486.427	523.31
486.645	561.31
486.863	574.31
487.081	581.31
487.299	570.31
487.517	543.31
487.735	566.31
487.953	567.31
488.171	571.31
488.389	557.31
488.607	573.31
488.825	583.31
489.043	569.31
489.261	582.31
489.479	589.31
489.696	568.31
489.914	577.31
490.132	601.31
490.35	617.31
490.568	616.31
490.786	652.31
491.003	636.31
491.221	649.31
491.439	654.31
491.657	675.31
491.874	661.31
492.092	672.31
492.31	690.31
492.527	688.31
492.745	682.31
492.963	687.31
493.18	685.31
493.398	697.31
493.615	699.31
493.833	706.31
494.05	704.31
494.268	677.31
494.485	657.31
494.703	669.31
494.92	712.31
495.138	690.31
495.355	702.31
495.573	714.31
495.79	714.31
496.008	664.31
496.225	670.31
496.442	686.31
496.66	683.31
496.877	673.31
497.094	727.31
497.312	680.31
497.529	702.31
497.746	666.31
497.963	695.31
498.181	699.31
498.398	742.31
498.615	696.31
498.832	720.31
499.049	733.31
499.267	726.31
499.484	730.31
499.701	754.31
499.918	721.31
500.135	769.31
500.352	783.31
500.569	800.31
500.786	817.31
501.003	793.31
501.22	787.31
501.437	817.31
501.654	792.31
501.871	799.31
