Data from 1986.PennyLincolnUp.Lamp.En5.5.200Scan.071819.P1_HRD10591_17-08-14-973.txt Node
Date: Thu Jul 18 17:08:14 EDT 2019
User: cochatt
Spectrometer: HR+D1059
Trigger mode: 1
Integration Time (sec): 1.000000E-1
Scans to average: 1
Electric dark correction enabled: true
Nonlinearity correction enabled: false
Boxcar width: 0
XAxis mode: Wavelengths
Number of Pixels in Spectrum: 2048
>>>>>Begin Spectral Data<<<<<
223.165	-10.88
223.4	-10.88
223.635	-10.88
223.869	-24.88
224.104	-20.88
224.338	-25.88
224.573	-34.88
224.808	-14.88
225.042	-18.88
225.277	-3.88
225.511	8.12
225.746	19.12
225.98	21.12
226.215	11.12
226.449	15.12
226.683	21.12
226.918	30.12
227.152	29.12
227.387	20.12
227.621	53.12
227.856	44.12
228.09	43.12
228.324	54.12
228.559	49.12
228.793	55.12
229.027	64.12
229.262	92.12
229.496	93.12
229.73	100.12
229.964	101.12
230.199	100.12
230.433	88.12
230.667	120.12
230.901	102.12
231.136	90.12
231.37	96.12
231.604	94.12
231.838	102.12
232.072	97.12
232.306	93.12
232.541	95.12
232.775	85.12
233.009	88.12
233.243	107.12
233.477	95.12
233.711	95.12
233.945	101.12
234.179	95.12
234.413	109.12
234.647	111.12
234.881	121.12
235.115	110.12
235.349	95.12
235.583	85.12
235.817	95.12
236.051	95.12
236.285	103.12
236.519	97.12
236.753	118.12
236.987	107.12
237.221	129.12
237.455	150.12
237.689	134.12
237.922	116.12
238.156	91.12
238.39	98.12
238.624	103.12
238.858	100.12
239.091	119.12
239.325	95.12
239.559	95.12
239.793	97.12
240.027	98.12
240.26	117.12
240.494	121.12
240.728	123.12
240.961	129.12
241.195	116.12
241.429	112.12
241.662	116.12
241.896	113.12
242.13	109.12
242.363	103.12
242.597	103.12
242.83	116.12
243.064	115.12
243.298	117.12
243.531	114.12
243.765	107.12
243.998	105.12
244.232	131.12
244.465	109.12
244.699	122.12
244.932	119.12
245.166	96.12
245.399	99.12
245.633	104.12
245.866	122.12
246.099	117.12
246.333	127.12
246.566	111.12
246.8	126.12
247.033	113.12
247.266	119.12
247.5	124.12
247.733	127.12
247.966	121.12
248.2	137.12
248.433	138.12
248.666	146.12
248.899	141.12
249.133	133.12
249.366	128.12
249.599	133.12
249.832	140.12
250.066	129.12
250.299	140.12
250.532	139.12
250.765	154.12
250.998	160.12
251.231	167.12
251.465	151.12
251.698	146.12
251.931	132.12
252.164	147.12
252.397	147.12
252.63	152.12
252.863	137.12
253.096	168.12
253.329	151.12
253.562	168.12
253.795	164.12
254.028	165.12
254.261	155.12
254.494	160.12
254.727	168.12
254.96	180.12
255.193	188.12
255.426	176.12
255.659	161.12
255.892	172.12
256.124	156.12
256.357	153.12
256.59	164.12
256.823	163.12
257.056	156.12
257.289	159.12
257.521	166.12
257.754	156.12
257.987	157.12
258.22	160.12
258.452	160.12
258.685	149.12
258.918	173.12
259.151	152.12
259.383	170.12
259.616	153.12
259.849	144.12
260.081	170.12
260.314	187.12
260.547	175.12
260.779	167.12
261.012	164.12
261.244	147.12
261.477	156.12
261.71	154.12
261.942	177.12
262.175	159.12
262.407	160.12
262.64	160.12
262.872	165.12
263.105	178.12
263.337	159.12
263.57	155.12
263.802	180.12
264.035	149.12
264.267	157.12
264.499	161.12
264.732	165.12
264.964	167.12
265.197	159.12
265.429	161.12
265.661	162.12
265.894	144.12
266.126	169.12
266.358	163.12
266.591	172.12
266.823	163.12
267.055	164.12
267.287	170.12
267.52	160.12
267.752	165.12
267.984	185.12
268.216	170.12
268.448	164.12
268.681	177.12
268.913	176.12
269.145	192.12
269.377	195.12
269.609	187.12
269.841	181.12
270.073	198.12
270.306	199.12
270.538	213.12
270.77	214.12
271.002	223.12
271.234	188.12
271.466	195.12
271.698	213.12
271.93	200.12
272.162	213.12
272.394	220.12
272.626	206.12
272.858	188.12
273.09	210.12
273.322	206.12
273.553	200.12
273.785	200.12
274.017	194.12
274.249	191.12
274.481	184.12
274.713	192.12
274.945	196.12
275.176	200.12
275.408	203.12
275.64	214.12
275.872	181.12
276.104	185.12
276.335	202.12
276.567	199.12
276.799	210.12
277.031	212.12
277.262	209.12
277.494	224.12
277.726	210.12
277.957	211.12
278.189	207.12
278.421	206.12
278.652	191.12
278.884	186.12
279.115	204.12
279.347	202.12
279.579	196.12
279.81	203.12
280.042	194.12
280.273	196.12
280.505	206.12
280.736	213.12
280.968	212.12
281.199	197.12
281.431	204.12
281.662	214.12
281.894	201.12
282.125	205.12
282.356	203.12
282.588	218.12
282.819	209.12
283.051	213.12
283.282	202.12
283.513	223.12
283.745	211.12
283.976	193.12
284.207	199.12
284.439	190.12
284.67	199.12
284.901	193.12
285.132	202.12
285.364	217.12
285.595	223.12
285.826	208.12
286.057	210.12
286.288	207.12
286.52	204.12
286.751	210.12
286.982	209.12
287.213	207.12
287.444	209.12
287.675	210.12
287.906	211.12
288.138	213.12
288.369	211.12
288.6	220.12
288.831	215.12
289.062	213.12
289.293	211.12
289.524	213.12
289.755	185.12
289.986	195.12
290.217	221.12
290.448	220.12
290.679	229.12
290.91	227.12
291.141	219.12
291.371	216.12
291.602	205.12
291.833	212.12
292.064	234.12
292.295	212.12
292.526	225.12
292.757	229.12
292.987	205.12
293.218	224.12
293.449	235.12
293.68	221.12
293.91	212.12
294.141	215.12
294.372	214.12
294.603	207.12
294.833	215.12
295.064	209.12
295.295	225.12
295.525	214.12
295.756	222.12
295.987	216.12
296.217	258.12
296.448	231.12
296.679	236.12
296.909	212.12
297.14	233.12
297.37	239.12
297.601	235.12
297.831	232.12
298.062	223.12
298.292	230.12
298.523	239.12
298.753	241.12
298.984	215.12
299.214	233.12
299.445	227.12
299.675	245.12
299.905	221.12
300.136	242.12
300.366	233.12
300.597	251.12
300.827	261.12
301.057	257.12
301.288	256.12
301.518	242.12
301.748	234.12
301.979	240.12
302.209	255.12
302.439	232.12
302.669	256.12
302.9	223.12
303.13	251.12
303.36	250.12
303.59	266.12
303.82	254.12
304.051	267.12
304.281	225.12
304.511	245.12
304.741	222.12
304.971	236.12
305.201	243.12
305.431	242.12
305.661	254.12
305.891	253.12
306.121	245.12
306.352	243.12
306.582	243.12
306.812	235.12
307.042	250.12
307.272	241.12
307.502	251.12
307.731	250.12
307.961	235.12
308.191	253.12
308.421	261.12
308.651	250.12
308.881	242.12
309.111	281.12
309.341	257.12
309.571	259.12
309.8	270.12
310.03	272.12
310.26	268.12
310.49	276.12
310.72	275.12
310.949	263.12
311.179	274.12
311.409	267.12
311.639	272.12
311.868	264.12
312.098	289.12
312.328	274.12
312.557	282.12
312.787	277.12
313.017	279.12
313.246	277.12
313.476	276.12
313.706	281.12
313.935	291.12
314.165	280.12
314.394	276.12
314.624	296.12
314.853	287.12
315.083	276.12
315.312	264.12
315.542	260.12
315.771	276.12
316.001	259.12
316.23	274.12
316.46	282.12
316.689	269.12
316.919	270.12
317.148	275.12
317.377	281.12
317.607	290.12
317.836	273.12
318.065	268.12
318.295	263.12
318.524	282.12
318.753	287.12
318.983	266.12
319.212	280.12
319.441	298.12
319.67	270.12
319.9	289.12
320.129	281.12
320.358	274.12
320.587	270.12
320.816	279.12
321.046	281.12
321.275	268.12
321.504	267.12
321.733	287.12
321.962	299.12
322.191	296.12
322.42	312.12
322.649	314.12
322.878	300.12
323.108	303.12
323.337	316.12
323.566	317.12
323.795	350.12
324.024	377.12
324.253	433.12
324.482	566.12
324.71	817.12
324.939	1129.12
325.168	916.12
325.397	500.12
325.626	375.12
325.855	349.12
326.084	323.12
326.313	323.12
326.542	317.12
326.77	346.12
326.999	385.12
327.228	563.12
327.457	772.12
327.686	833.12
327.914	597.12
328.143	429.12
328.372	427.12
328.6	393.12
328.829	349.12
329.058	370.12
329.287	371.12
329.515	360.12
329.744	369.12
329.972	373.12
330.201	412.12
330.43	454.12
330.658	424.12
330.887	419.12
331.115	384.12
331.344	363.12
331.572	361.12
331.801	363.12
332.03	331.12
332.258	324.12
332.486	333.12
332.715	331.12
332.943	332.12
333.172	339.12
333.4	357.12
333.629	358.12
333.857	373.12
334.085	373.12
334.314	415.12
334.542	466.12
334.771	502.12
334.999	425.12
335.227	376.12
335.455	351.12
335.684	351.12
335.912	333.12
336.14	331.12
336.369	333.12
336.597	326.12
336.825	333.12
337.053	312.12
337.281	330.12
337.51	327.12
337.738	315.12
337.966	316.12
338.194	321.12
338.422	330.12
338.65	292.12
338.878	328.12
339.106	308.12
339.334	310.12
339.562	317.12
339.79	306.12
340.018	313.12
340.246	323.12
340.474	297.12
340.702	310.12
340.93	317.12
341.158	316.12
341.386	315.12
341.614	304.12
341.842	322.12
342.07	320.12
342.298	306.12
342.526	297.12
342.754	295.12
342.981	292.12
343.209	305.12
343.437	310.12
343.665	319.12
343.893	329.12
344.12	315.12
344.348	318.12
344.576	315.12
344.804	323.12
345.031	324.12
345.259	318.12
345.487	319.12
345.714	320.12
345.942	289.12
346.17	301.12
346.397	300.12
346.625	307.12
346.853	289.12
347.08	293.12
347.308	300.12
347.535	307.12
347.763	284.12
347.99	292.12
348.218	295.12
348.445	287.12
348.673	305.12
348.9	307.12
349.128	305.12
349.355	290.12
349.583	311.12
349.81	288.12
350.037	273.12
350.265	284.12
350.492	291.12
350.72	298.12
350.947	316.12
351.174	294.12
351.402	287.12
351.629	300.12
351.856	293.12
352.083	315.12
352.311	298.12
352.538	305.12
352.765	299.12
352.992	288.12
353.22	287.12
353.447	291.12
353.674	279.12
353.901	287.12
354.128	280.12
354.355	269.12
354.583	287.12
354.81	290.12
355.037	272.12
355.264	285.12
355.491	291.12
355.718	297.12
355.945	274.12
356.172	285.12
356.399	284.12
356.626	275.12
356.853	277.12
357.08	295.12
357.307	287.12
357.534	283.12
357.761	271.12
357.988	266.12
358.215	289.12
358.441	296.12
358.668	290.12
358.895	303.12
359.122	265.12
359.349	284.12
359.576	281.12
359.802	312.12
360.029	317.12
360.256	325.12
360.483	306.12
360.709	285.12
360.936	305.12
361.163	299.12
361.39	319.12
361.616	282.12
361.843	307.12
362.07	296.12
362.296	312.12
362.523	299.12
362.749	307.12
362.976	279.12
363.203	299.12
363.429	277.12
363.656	300.12
363.882	296.12
364.109	292.12
364.335	287.12
364.562	275.12
364.788	298.12
365.015	311.12
365.241	287.12
365.468	273.12
365.694	285.12
365.92	279.12
366.147	287.12
366.373	278.12
366.599	289.12
366.826	255.12
367.052	261.12
367.278	275.12
367.505	277.12
367.731	289.12
367.957	279.12
368.184	270.12
368.41	274.12
368.636	295.12
368.862	297.12
369.089	291.12
369.315	288.12
369.541	281.12
369.767	281.12
369.993	266.12
370.219	287.12
370.445	285.12
370.672	297.12
370.898	278.12
371.124	293.12
371.35	293.12
371.576	280.12
371.802	280.12
372.028	281.12
372.254	306.12
372.48	285.12
372.706	290.12
372.932	285.12
373.158	301.12
373.384	284.12
373.61	304.12
373.835	276.12
374.061	305.12
374.287	284.12
374.513	278.12
374.739	290.12
374.965	294.12
375.191	308.12
375.416	303.12
375.642	297.12
375.868	299.12
376.094	297.12
376.319	277.12
376.545	291.12
376.771	301.12
376.997	300.12
377.222	305.12
377.448	305.12
377.674	279.12
377.899	291.12
378.125	287.12
378.35	295.12
378.576	283.12
378.802	288.12
379.027	275.12
379.253	288.12
379.478	287.12
379.704	295.12
379.929	288.12
380.155	296.12
380.38	284.12
380.606	298.12
380.831	295.12
381.057	305.12
381.282	298.12
381.507	294.12
381.733	298.12
381.958	293.12
382.184	283.12
382.409	286.12
382.634	303.12
382.86	284.12
383.085	309.12
383.31	299.12
383.535	295.12
383.761	303.12
383.986	315.12
384.211	306.12
384.436	299.12
384.662	295.12
384.887	333.12
385.112	310.12
385.337	319.12
385.562	328.12
385.787	337.12
386.013	335.12
386.238	325.12
386.463	330.12
386.688	324.12
386.913	321.12
387.138	333.12
387.363	333.12
387.588	319.12
387.813	323.12
388.038	320.12
388.263	330.12
388.488	327.12
388.713	334.12
388.938	313.12
389.163	312.12
389.387	330.12
389.612	328.12
389.837	305.12
390.062	309.12
390.287	316.12
390.512	306.12
390.736	315.12
390.961	319.12
391.186	315.12
391.411	316.12
391.636	312.12
391.86	335.12
392.085	332.12
392.31	331.12
392.534	312.12
392.759	324.12
392.984	307.12
393.208	327.12
393.433	337.12
393.658	350.12
393.882	341.12
394.107	317.12
394.331	311.12
394.556	330.12
394.78	318.12
395.005	337.12
395.229	323.12
395.454	335.12
395.678	332.12
395.903	344.12
396.127	369.12
396.352	363.12
396.576	353.12
396.801	331.12
397.025	360.12
397.249	337.12
397.474	340.12
397.698	336.12
397.922	353.12
398.147	357.12
398.371	363.12
398.595	355.12
398.82	363.12
399.044	378.12
399.268	407.12
399.492	400.12
399.717	435.12
399.941	428.12
400.165	433.12
400.389	439.12
400.613	431.12
400.837	392.12
401.062	396.12
401.286	400.12
401.51	358.12
401.734	379.12
401.958	371.12
402.182	384.12
402.406	395.12
402.63	384.12
402.854	368.12
403.078	363.12
403.302	387.12
403.526	385.12
403.75	386.12
403.974	381.12
404.198	387.12
404.422	397.12
404.645	392.12
404.869	403.12
405.093	417.12
405.317	405.12
405.541	414.12
405.765	410.12
405.988	396.12
406.212	405.12
406.436	431.12
406.66	430.12
406.883	424.12
407.107	450.12
407.331	451.12
407.555	496.12
407.778	477.12
408.002	444.12
408.226	413.12
408.449	423.12
408.673	417.12
408.896	448.12
409.12	454.12
409.344	435.12
409.567	404.12
409.791	397.12
410.014	383.12
410.238	380.12
410.461	375.12
410.685	379.12
410.908	405.12
411.132	428.12
411.355	428.12
411.578	417.12
411.802	397.12
412.025	386.12
412.249	396.12
412.472	382.12
412.695	430.12
412.919	383.12
413.142	379.12
413.365	391.12
413.589	371.12
413.812	361.12
414.035	385.12
414.258	388.12
414.482	372.12
414.705	380.12
414.928	378.12
415.151	379.12
415.374	380.12
415.597	381.12
415.821	357.12
416.044	368.12
416.267	384.12
416.49	376.12
416.713	370.12
416.936	373.12
417.159	354.12
417.382	360.12
417.605	367.12
417.828	391.12
418.051	403.12
418.274	402.12
418.497	369.12
418.72	359.12
418.943	368.12
419.166	379.12
419.389	417.12
419.611	406.12
419.834	407.12
420.057	396.12
420.28	422.12
420.503	405.12
420.726	379.12
420.948	396.12
421.171	416.12
421.394	432.12
421.617	385.12
421.839	405.12
422.062	400.12
422.285	389.12
422.507	432.12
422.73	451.12
422.953	444.12
423.175	389.12
423.398	398.12
423.621	403.12
423.843	424.12
424.066	426.12
424.288	407.12
424.511	423.12
424.733	438.12
424.956	505.12
425.178	477.12
425.401	473.12
425.623	489.12
425.846	411.12
426.068	396.12
426.291	396.12
426.513	393.12
426.735	421.12
426.958	419.12
427.18	468.12
427.402	517.12
427.625	583.12
427.847	505.12
428.069	427.12
428.292	408.12
428.514	402.12
428.736	369.12
428.958	374.12
429.181	378.12
429.403	376.12
429.625	357.12
429.847	401.12
430.069	426.12
430.292	411.12
430.514	386.12
430.736	378.12
430.958	379.12
431.18	359.12
431.402	383.12
431.624	388.12
431.846	343.12
432.068	369.12
432.29	378.12
432.512	374.12
432.734	360.12
432.956	369.12
433.178	383.12
433.4	371.12
433.622	365.12
433.844	377.12
434.066	359.12
434.287	371.12
434.509	372.12
434.731	380.12
434.953	367.12
435.175	390.12
435.397	421.12
435.618	395.12
435.84	413.12
436.062	458.12
436.284	479.12
436.505	432.12
436.727	394.12
436.949	385.12
437.17	383.12
437.392	393.12
437.614	381.12
437.835	404.12
438.057	424.12
438.278	483.12
438.5	498.12
438.721	515.12
438.943	504.12
439.165	425.12
439.386	397.12
439.608	400.12
439.829	412.12
440.05	401.12
440.272	436.12
440.493	424.12
440.715	385.12
440.936	362.12
441.158	371.12
441.379	383.12
441.6	394.12
441.822	393.12
442.043	425.12
442.264	448.12
442.486	482.12
442.707	433.12
442.928	397.12
443.149	445.12
443.371	416.12
443.592	436.12
443.813	498.12
444.034	529.12
444.255	437.12
444.476	431.12
444.698	420.12
444.919	407.12
445.14	557.12
445.361	468.12
445.582	425.12
445.803	447.12
446.024	511.12
446.245	489.12
446.466	463.12
446.687	448.12
446.908	401.12
447.129	383.12
447.35	393.12
447.571	369.12
447.792	369.12
448.013	373.12
448.234	397.12
448.455	394.12
448.675	450.12
448.896	498.12
449.117	444.12
449.338	435.12
449.559	474.12
449.779	544.12
450	441.12
450.221	389.12
450.442	367.12
450.662	355.12
450.883	364.12
451.104	374.12
451.324	373.12
451.545	351.12
451.766	337.12
451.986	345.12
452.207	323.12
452.428	329.12
452.648	331.12
452.869	343.12
453.089	342.12
453.31	340.12
453.53	337.12
453.751	343.12
453.971	332.12
454.192	360.12
454.412	336.12
454.633	315.12
454.853	313.12
455.073	331.12
455.294	336.12
455.514	367.12
455.734	363.12
455.955	339.12
456.175	309.12
456.395	314.12
456.616	311.12
456.836	314.12
457.056	338.12
457.276	318.12
457.497	334.12
457.717	330.12
457.937	310.12
458.157	325.12
458.377	321.12
458.598	344.12
458.818	367.12
459.038	410.12
459.258	417.12
459.478	376.12
459.698	361.12
459.918	385.12
460.138	348.12
460.358	367.12
460.578	369.12
460.798	385.12
461.018	384.12
461.238	368.12
461.458	388.12
461.678	375.12
461.898	389.12
462.118	390.12
462.338	377.12
462.558	388.12
462.777	403.12
462.997	423.12
463.217	431.12
463.437	447.12
463.657	427.12
463.876	411.12
464.096	410.12
464.316	406.12
464.536	411.12
464.755	410.12
464.975	411.12
465.195	417.12
465.414	454.12
465.634	409.12
465.854	386.12
466.073	360.12
466.293	359.12
466.512	339.12
466.732	343.12
466.951	340.12
467.171	348.12
467.391	348.12
467.61	370.12
467.829	369.12
468.049	386.12
468.268	394.12
468.488	363.12
468.707	338.12
468.927	339.12
469.146	354.12
469.365	351.12
469.585	338.12
469.804	346.12
470.023	368.12
470.243	355.12
470.462	358.12
470.681	386.12
470.901	355.12
471.12	351.12
471.339	367.12
471.558	352.12
471.777	365.12
471.997	371.12
472.216	417.12
472.435	501.12
472.654	455.12
472.873	360.12
473.092	368.12
473.311	348.12
473.53	366.12
473.749	359.12
473.968	381.12
474.187	425.12
474.406	427.12
474.625	391.12
474.844	364.12
475.063	345.12
475.282	371.12
475.501	360.12
475.72	359.12
475.939	357.12
476.158	371.12
476.377	374.12
476.596	354.12
476.814	365.12
477.033	385.12
477.252	375.12
477.471	387.12
477.69	388.12
477.908	386.12
478.127	386.12
478.346	410.12
478.564	404.12
478.783	395.12
479.002	394.12
479.22	411.12
479.439	425.12
479.658	436.12
479.876	425.12
480.095	426.12
480.313	435.12
480.532	445.12
480.751	468.12
480.969	477.12
481.188	642.12
481.406	701.12
481.624	501.12
481.843	457.12
482.061	442.12
482.28	428.12
482.498	418.12
482.717	420.12
482.935	428.12
483.153	419.12
483.372	412.12
483.59	418.12
483.808	435.12
484.027	407.12
484.245	440.12
484.463	414.12
484.681	410.12
484.9	451.12
485.118	431.12
485.336	440.12
485.554	405.12
485.772	432.12
485.99	423.12
486.209	411.12
486.427	425.12
486.645	449.12
486.863	442.12
487.081	435.12
487.299	446.12
487.517	447.12
487.735	435.12
487.953	442.12
488.171	444.12
488.389	432.12
488.607	439.12
488.825	444.12
489.043	446.12
489.261	445.12
489.479	426.12
489.696	431.12
489.914	439.12
490.132	476.12
490.35	456.12
490.568	457.12
490.786	482.12
491.003	477.12
491.221	476.12
491.439	482.12
491.657	481.12
491.874	488.12
492.092	485.12
492.31	481.12
492.527	484.12
492.745	488.12
492.963	498.12
493.18	487.12
493.398	473.12
493.615	470.12
493.833	495.12
494.05	495.12
494.268	486.12
494.485	510.12
494.703	488.12
494.92	505.12
495.138	503.12
495.355	483.12
495.573	533.12
495.79	501.12
496.008	507.12
496.225	502.12
496.442	508.12
496.66	520.12
496.877	510.12
497.094	514.12
497.312	506.12
497.529	512.12
497.746	498.12
497.963	527.12
498.181	553.12
498.398	540.12
498.615	571.12
498.832	579.12
499.049	575.12
499.267	615.12
499.484	614.12
499.701	639.12
499.918	673.12
500.135	744.12
500.352	780.12
500.569	804.12
500.786	800.12
501.003	747.12
501.22	723.12
501.437	702.12
501.654	670.12
501.871	645.12
502.088	613.12
502.305	611.12
