Data from 1986.PennyLincolnUp.Lamp.En5.5.200Scan.071819.P2_HRD10591_17-12-40-972.txt Node
Date: Thu Jul 18 17:12:40 EDT 2019
User: cochatt
Spectrometer: HR+D1059
Trigger mode: 1
Integration Time (sec): 1.000000E-1
Scans to average: 1
Electric dark correction enabled: true
Nonlinearity correction enabled: false
Boxcar width: 0
XAxis mode: Wavelengths
Number of Pixels in Spectrum: 2048
>>>>>Begin Spectral Data<<<<<
223.165	-12.56
223.4	-12.56
223.635	-12.56
223.869	-8.56
224.104	-15.56
224.338	-10.56
224.573	-11.56
224.808	-14.56
225.042	-1.56
225.277	-15.56
225.511	-6.56
225.746	-2.56
225.98	8.44
226.215	12.44
226.449	10.44
226.683	17.44
226.918	32.44
227.152	18.44
227.387	36.44
227.621	36.44
227.856	56.44
228.09	58.44
228.324	70.44
228.559	53.44
228.793	70.44
229.027	108.44
229.262	116.44
229.496	124.44
229.73	134.44
229.964	150.44
230.199	147.44
230.433	106.44
230.667	113.44
230.901	103.44
231.136	132.44
231.37	118.44
231.604	126.44
231.838	110.44
232.072	139.44
232.306	116.44
232.541	112.44
232.775	122.44
233.009	122.44
233.243	116.44
233.477	105.44
233.711	112.44
233.945	125.44
234.179	124.44
234.413	117.44
234.647	125.44
234.881	108.44
235.115	112.44
235.349	131.44
235.583	128.44
235.817	130.44
236.051	131.44
236.285	135.44
236.519	134.44
236.753	134.44
236.987	152.44
237.221	190.44
237.455	250.44
237.689	208.44
237.922	171.44
238.156	143.44
238.39	110.44
238.624	132.44
238.858	143.44
239.091	131.44
239.325	140.44
239.559	148.44
239.793	123.44
240.027	143.44
240.26	138.44
240.494	170.44
240.728	156.44
240.961	158.44
241.195	153.44
241.429	152.44
241.662	138.44
241.896	158.44
242.13	136.44
242.363	124.44
242.597	143.44
242.83	174.44
243.064	149.44
243.298	148.44
243.531	162.44
243.765	131.44
243.998	146.44
244.232	135.44
244.465	151.44
244.699	160.44
244.932	168.44
245.166	165.44
245.399	170.44
245.633	175.44
245.866	157.44
246.099	157.44
246.333	155.44
246.566	162.44
246.8	157.44
247.033	175.44
247.266	179.44
247.5	169.44
247.733	182.44
247.966	186.44
248.2	182.44
248.433	195.44
248.666	178.44
248.899	200.44
249.133	228.44
249.366	214.44
249.599	235.44
249.832	223.44
250.066	222.44
250.299	230.44
250.532	244.44
250.765	294.44
250.998	277.44
251.231	293.44
251.465	260.44
251.698	240.44
251.931	236.44
252.164	242.44
252.397	223.44
252.63	241.44
252.863	234.44
253.096	242.44
253.329	260.44
253.562	263.44
253.795	259.44
254.028	258.44
254.261	241.44
254.494	264.44
254.727	290.44
254.96	331.44
255.193	328.44
255.426	290.44
255.659	290.44
255.892	324.44
256.124	386.44
256.357	390.44
256.59	372.44
256.823	344.44
257.056	301.44
257.289	274.44
257.521	275.44
257.754	275.44
257.987	242.44
258.22	250.44
258.452	248.44
258.685	254.44
258.918	247.44
259.151	255.44
259.383	255.44
259.616	256.44
259.849	271.44
260.081	290.44
260.314	270.44
260.547	290.44
260.779	289.44
261.012	267.44
261.244	237.44
261.477	258.44
261.71	243.44
261.942	251.44
262.175	262.44
262.407	250.44
262.64	246.44
262.872	234.44
263.105	237.44
263.337	237.44
263.57	232.44
263.802	251.44
264.035	231.44
264.267	243.44
264.499	231.44
264.732	243.44
264.964	242.44
265.197	238.44
265.429	253.44
265.661	240.44
265.894	232.44
266.126	237.44
266.358	238.44
266.591	218.44
266.823	252.44
267.055	247.44
267.287	256.44
267.52	239.44
267.752	251.44
267.984	248.44
268.216	236.44
268.448	258.44
268.681	243.44
268.913	266.44
269.145	286.44
269.377	310.44
269.609	298.44
269.841	302.44
270.073	295.44
270.306	324.44
270.538	339.44
270.77	350.44
271.002	346.44
271.234	318.44
271.466	324.44
271.698	340.44
271.93	343.44
272.162	333.44
272.394	349.44
272.626	321.44
272.858	301.44
273.09	300.44
273.322	300.44
273.553	288.44
273.785	284.44
274.017	271.44
274.249	298.44
274.481	293.44
274.713	287.44
274.945	302.44
275.176	291.44
275.408	300.44
275.64	295.44
275.872	291.44
276.104	295.44
276.335	286.44
276.567	280.44
276.799	302.44
277.031	326.44
277.262	347.44
277.494	335.44
277.726	351.44
277.957	324.44
278.189	328.44
278.421	303.44
278.652	306.44
278.884	303.44
279.115	303.44
279.347	299.44
279.579	312.44
279.81	287.44
280.042	317.44
280.273	320.44
280.505	327.44
280.736	313.44
280.968	284.44
281.199	310.44
281.431	281.44
281.662	302.44
281.894	304.44
282.125	301.44
282.356	317.44
282.588	333.44
282.819	343.44
283.051	304.44
283.282	306.44
283.513	294.44
283.745	272.44
283.976	284.44
284.207	314.44
284.439	299.44
284.67	301.44
284.901	293.44
285.132	283.44
285.364	302.44
285.595	292.44
285.826	282.44
286.057	301.44
286.288	312.44
286.52	293.44
286.751	301.44
286.982	302.44
287.213	303.44
287.444	288.44
287.675	306.44
287.906	330.44
288.138	319.44
288.369	328.44
288.6	310.44
288.831	312.44
289.062	327.44
289.293	306.44
289.524	320.44
289.755	300.44
289.986	302.44
290.217	294.44
290.448	307.44
290.679	312.44
290.91	320.44
291.141	299.44
291.371	300.44
291.602	286.44
291.833	289.44
292.064	287.44
292.295	286.44
292.526	299.44
292.757	302.44
292.987	326.44
293.218	295.44
293.449	295.44
293.68	303.44
293.91	296.44
294.141	318.44
294.372	293.44
294.603	317.44
294.833	302.44
295.064	320.44
295.295	309.44
295.525	308.44
295.756	317.44
295.987	308.44
296.217	327.44
296.448	339.44
296.679	311.44
296.909	314.44
297.14	284.44
297.37	310.44
297.601	300.44
297.831	303.44
298.062	307.44
298.292	322.44
298.523	324.44
298.753	302.44
298.984	322.44
299.214	325.44
299.445	329.44
299.675	327.44
299.905	330.44
300.136	329.44
300.366	326.44
300.597	322.44
300.827	326.44
301.057	311.44
301.288	345.44
301.518	329.44
301.748	322.44
301.979	327.44
302.209	334.44
302.439	359.44
302.669	338.44
302.9	336.44
303.13	323.44
303.36	344.44
303.59	343.44
303.82	360.44
304.051	337.44
304.281	341.44
304.511	333.44
304.741	323.44
304.971	331.44
305.201	333.44
305.431	333.44
305.661	343.44
305.891	342.44
306.121	339.44
306.352	340.44
306.582	363.44
306.812	370.44
307.042	340.44
307.272	336.44
307.502	367.44
307.731	351.44
307.961	350.44
308.191	338.44
308.421	358.44
308.651	344.44
308.881	341.44
309.111	359.44
309.341	377.44
309.571	380.44
309.8	373.44
310.03	394.44
310.26	398.44
310.49	392.44
310.72	406.44
310.949	414.44
311.179	428.44
311.409	398.44
311.639	412.44
311.868	382.44
312.098	408.44
312.328	393.44
312.557	432.44
312.787	451.44
313.017	430.44
313.246	403.44
313.476	400.44
313.706	384.44
313.935	400.44
314.165	417.44
314.394	399.44
314.624	425.44
314.853	388.44
315.083	411.44
315.312	395.44
315.542	381.44
315.771	384.44
316.001	408.44
316.23	395.44
316.46	382.44
316.689	381.44
316.919	403.44
317.148	408.44
317.377	418.44
317.607	393.44
317.836	396.44
318.065	405.44
318.295	404.44
318.524	407.44
318.753	385.44
318.983	397.44
319.212	412.44
319.441	393.44
319.67	411.44
319.9	436.44
320.129	407.44
320.358	418.44
320.587	401.44
320.816	415.44
321.046	431.44
321.275	432.44
321.504	422.44
321.733	421.44
321.962	445.44
322.191	437.44
322.42	460.44
322.649	483.44
322.878	496.44
323.108	513.44
323.337	530.44
323.566	564.44
323.795	606.44
324.024	634.44
324.253	798.44
324.482	1128.44
324.71	1748.44
324.939	2460.44
325.168	2182.44
325.397	1135.44
325.626	768.44
325.855	636.44
326.084	576.44
326.313	582.44
326.542	579.44
326.77	640.44
326.999	756.44
327.228	1024.44
327.457	1518.44
327.686	1892.44
327.914	1340.44
328.143	921.44
328.372	887.44
328.6	780.44
328.829	742.44
329.058	706.44
329.287	725.44
329.515	693.44
329.744	707.44
329.972	750.44
330.201	852.44
330.43	980.44
330.658	934.44
330.887	838.44
331.115	780.44
331.344	607.44
331.572	601.44
331.801	580.44
332.03	592.44
332.258	567.44
332.486	529.44
332.715	543.44
332.943	564.44
333.172	569.44
333.4	559.44
333.629	576.44
333.857	643.44
334.085	744.44
334.314	858.44
334.542	1044.44
334.771	1115.44
334.999	850.44
335.227	650.44
335.455	583.44
335.684	549.44
335.912	525.44
336.14	515.44
336.369	484.44
336.597	520.44
336.825	522.44
337.053	485.44
337.281	490.44
337.51	465.44
337.738	474.44
337.966	442.44
338.194	472.44
338.422	482.44
338.65	447.44
338.878	467.44
339.106	457.44
339.334	440.44
339.562	446.44
339.79	418.44
340.018	430.44
340.246	448.44
340.474	454.44
340.702	440.44
340.93	459.44
341.158	448.44
341.386	444.44
341.614	451.44
341.842	427.44
342.07	421.44
342.298	430.44
342.526	439.44
342.754	427.44
342.981	428.44
343.209	406.44
343.437	413.44
343.665	418.44
343.893	415.44
344.12	460.44
344.348	424.44
344.576	435.44
344.804	436.44
345.031	437.44
345.259	453.44
345.487	444.44
345.714	438.44
345.942	435.44
346.17	435.44
346.397	420.44
346.625	442.44
346.853	435.44
347.08	434.44
347.308	434.44
347.535	430.44
347.763	440.44
347.99	426.44
348.218	426.44
348.445	423.44
348.673	459.44
348.9	437.44
349.128	421.44
349.355	409.44
349.583	407.44
349.81	415.44
350.037	418.44
350.265	410.44
350.492	398.44
350.72	392.44
350.947	407.44
351.174	409.44
351.402	420.44
351.629	447.44
351.856	431.44
352.083	427.44
352.311	458.44
352.538	438.44
352.765	444.44
352.992	437.44
353.22	416.44
353.447	416.44
353.674	411.44
353.901	394.44
354.128	383.44
354.355	386.44
354.583	413.44
354.81	370.44
355.037	390.44
355.264	380.44
355.491	407.44
355.718	391.44
355.945	391.44
356.172	378.44
356.399	389.44
356.626	408.44
356.853	385.44
357.08	392.44
357.307	395.44
357.534	388.44
357.761	414.44
357.988	384.44
358.215	386.44
358.441	370.44
358.668	413.44
358.895	384.44
359.122	402.44
359.349	426.44
359.576	410.44
359.802	437.44
360.029	460.44
360.256	458.44
360.483	460.44
360.709	429.44
360.936	426.44
361.163	420.44
361.39	421.44
361.616	436.44
361.843	416.44
362.07	407.44
362.296	428.44
362.523	408.44
362.749	410.44
362.976	398.44
363.203	392.44
363.429	406.44
363.656	393.44
363.882	389.44
364.109	393.44
364.335	393.44
364.562	386.44
364.788	379.44
365.015	386.44
365.241	396.44
365.468	404.44
365.694	404.44
365.92	411.44
366.147	410.44
366.373	381.44
366.599	371.44
366.826	393.44
367.052	390.44
367.278	390.44
367.505	386.44
367.731	404.44
367.957	399.44
368.184	400.44
368.41	393.44
368.636	401.44
368.862	411.44
369.089	386.44
369.315	398.44
369.541	380.44
369.767	392.44
369.993	410.44
370.219	397.44
370.445	408.44
370.672	384.44
370.898	357.44
371.124	394.44
371.35	395.44
371.576	391.44
371.802	370.44
372.028	386.44
372.254	383.44
372.48	370.44
372.706	357.44
372.932	375.44
373.158	395.44
373.384	396.44
373.61	384.44
373.835	383.44
374.061	406.44
374.287	385.44
374.513	406.44
374.739	397.44
374.965	411.44
375.191	380.44
375.416	379.44
375.642	364.44
375.868	372.44
376.094	384.44
376.319	399.44
376.545	394.44
376.771	367.44
376.997	363.44
377.222	372.44
377.448	359.44
377.674	376.44
377.899	366.44
378.125	377.44
378.35	359.44
378.576	370.44
378.802	378.44
379.027	394.44
379.253	377.44
379.478	363.44
379.704	376.44
379.929	378.44
380.155	375.44
380.38	386.44
380.606	382.44
380.831	383.44
381.057	366.44
381.282	379.44
381.507	373.44
381.733	371.44
381.958	379.44
382.184	375.44
382.409	375.44
382.634	381.44
382.86	395.44
383.085	376.44
383.31	360.44
383.535	371.44
383.761	382.44
383.986	378.44
384.211	391.44
384.436	378.44
384.662	387.44
384.887	381.44
385.112	384.44
385.337	400.44
385.562	395.44
385.787	393.44
386.013	381.44
386.238	411.44
386.463	379.44
386.688	401.44
386.913	388.44
387.138	388.44
387.363	384.44
387.588	394.44
387.813	403.44
388.038	384.44
388.263	391.44
388.488	382.44
388.713	373.44
388.938	384.44
389.163	394.44
389.387	392.44
389.612	410.44
389.837	394.44
390.062	390.44
390.287	388.44
390.512	378.44
390.736	408.44
390.961	394.44
391.186	397.44
391.411	404.44
391.636	410.44
391.86	385.44
392.085	398.44
392.31	394.44
392.534	384.44
392.759	392.44
392.984	412.44
393.208	401.44
393.433	408.44
393.658	389.44
393.882	411.44
394.107	392.44
394.331	394.44
394.556	380.44
394.78	381.44
395.005	396.44
395.229	408.44
395.454	379.44
395.678	410.44
395.903	426.44
396.127	410.44
396.352	443.44
396.576	411.44
396.801	431.44
397.025	415.44
397.249	416.44
397.474	401.44
397.698	410.44
397.922	430.44
398.147	461.44
398.371	440.44
398.595	443.44
398.82	456.44
399.044	436.44
399.268	455.44
399.492	444.44
399.717	472.44
399.941	518.44
400.165	521.44
400.389	546.44
400.613	494.44
400.837	472.44
401.062	456.44
401.286	463.44
401.51	454.44
401.734	464.44
401.958	447.44
402.182	459.44
402.406	464.44
402.63	467.44
402.854	457.44
403.078	461.44
403.302	465.44
403.526	470.44
403.75	463.44
403.974	444.44
404.198	473.44
404.422	489.44
404.645	492.44
404.869	506.44
405.093	576.44
405.317	614.44
405.541	627.44
405.765	567.44
405.988	527.44
406.212	531.44
406.436	528.44
406.66	562.44
406.883	520.44
407.107	534.44
407.331	576.44
407.555	609.44
407.778	631.44
408.002	556.44
408.226	555.44
408.449	519.44
408.673	516.44
408.896	527.44
409.12	572.44
409.344	555.44
409.567	504.44
409.791	490.44
410.014	500.44
410.238	467.44
410.461	468.44
410.685	460.44
410.908	486.44
411.132	542.44
411.355	555.44
411.578	537.44
411.802	513.44
412.025	534.44
412.249	532.44
412.472	580.44
412.695	663.44
412.919	623.44
413.142	604.44
413.365	546.44
413.589	507.44
413.812	493.44
414.035	486.44
414.258	463.44
414.482	469.44
414.705	468.44
414.928	475.44
415.151	459.44
415.374	458.44
415.597	438.44
415.821	430.44
416.044	432.44
416.267	451.44
416.49	456.44
416.713	454.44
416.936	471.44
417.159	461.44
417.382	475.44
417.605	473.44
417.828	476.44
418.051	496.44
418.274	463.44
418.497	469.44
418.72	466.44
418.943	434.44
419.166	473.44
419.389	467.44
419.611	487.44
419.834	514.44
420.057	514.44
420.28	524.44
420.503	547.44
420.726	539.44
420.948	549.44
421.171	576.44
421.394	565.44
421.617	514.44
421.839	495.44
422.062	499.44
422.285	500.44
422.507	571.44
422.73	628.44
422.953	593.44
423.175	528.44
423.398	504.44
423.621	503.44
423.843	492.44
424.066	530.44
424.288	530.44
424.511	521.44
424.733	593.44
424.956	670.44
425.178	646.44
425.401	635.44
425.623	674.44
425.846	570.44
426.068	516.44
426.291	518.44
426.513	507.44
426.735	566.44
426.958	590.44
427.18	663.44
427.402	744.44
427.625	861.44
427.847	790.44
428.069	754.44
428.292	660.44
428.514	578.44
428.736	518.44
428.958	537.44
429.181	508.44
429.403	496.44
429.625	488.44
429.847	521.44
430.069	600.44
430.292	589.44
430.514	515.44
430.736	489.44
430.958	447.44
431.18	468.44
431.402	458.44
431.624	429.44
431.846	438.44
432.068	438.44
432.29	416.44
432.512	450.44
432.734	461.44
432.956	465.44
433.178	464.44
433.4	477.44
433.622	454.44
433.844	469.44
434.066	447.44
434.287	450.44
434.509	455.44
434.731	440.44
434.953	447.44
435.175	472.44
435.397	522.44
435.618	530.44
435.84	569.44
436.062	642.44
436.284	706.44
436.505	609.44
436.727	537.44
436.949	512.44
437.17	478.44
437.392	480.44
437.614	517.44
437.835	510.44
438.057	650.44
438.278	726.44
438.5	714.44
438.721	807.44
438.943	736.44
439.165	611.44
439.386	562.44
439.608	555.44
439.829	522.44
440.05	596.44
440.272	618.44
440.493	572.44
440.715	522.44
440.936	471.44
441.158	488.44
441.379	465.44
441.6	507.44
441.822	534.44
442.043	544.44
442.264	643.44
442.486	674.44
442.707	574.44
442.928	549.44
443.149	556.44
443.371	532.44
443.592	629.44
443.813	666.44
444.034	748.44
444.255	612.44
444.476	533.44
444.698	533.44
444.919	547.44
445.14	631.44
445.361	577.44
445.582	571.44
445.803	618.44
446.024	708.44
446.245	718.44
446.466	667.44
446.687	569.44
446.908	530.44
447.129	527.44
447.35	500.44
447.571	483.44
447.792	482.44
448.013	510.44
448.234	511.44
448.455	570.44
448.675	696.44
448.896	784.44
449.117	688.44
449.338	640.44
449.559	740.44
449.779	823.44
450	678.44
450.221	562.44
450.442	526.44
450.662	484.44
450.883	489.44
451.104	501.44
451.324	485.44
451.545	460.44
451.766	444.44
451.986	434.44
452.207	435.44
452.428	429.44
452.648	422.44
452.869	436.44
453.089	448.44
453.31	458.44
453.53	431.44
453.751	431.44
453.971	438.44
454.192	454.44
454.412	447.44
454.633	446.44
454.853	440.44
455.073	424.44
455.294	443.44
455.514	518.44
455.734	506.44
455.955	443.44
456.175	432.44
456.395	396.44
456.616	409.44
456.836	407.44
457.056	410.44
457.276	392.44
457.497	413.44
457.717	415.44
457.937	398.44
458.157	436.44
458.377	439.44
458.598	450.44
458.818	487.44
459.038	592.44
459.258	615.44
459.478	505.44
459.698	456.44
459.918	446.44
460.138	439.44
460.358	426.44
460.578	442.44
460.798	458.44
461.018	439.44
461.238	417.44
461.458	434.44
461.678	440.44
461.898	411.44
462.118	434.44
462.338	444.44
462.558	428.44
462.777	424.44
462.997	454.44
463.217	459.44
463.437	459.44
463.657	460.44
463.876	446.44
464.096	487.44
464.316	476.44
464.536	485.44
464.755	488.44
464.975	467.44
465.195	528.44
465.414	595.44
465.634	520.44
465.854	477.44
466.073	463.44
466.293	442.44
466.512	437.44
466.732	451.44
466.951	462.44
467.171	428.44
467.391	429.44
467.61	450.44
467.829	482.44
468.049	459.44
468.268	546.44
468.488	516.44
468.707	464.44
468.927	465.44
469.146	433.44
469.365	458.44
469.585	425.44
469.804	440.44
470.023	466.44
470.243	452.44
470.462	440.44
470.681	481.44
470.901	487.44
471.12	455.44
471.339	439.44
471.558	477.44
471.777	471.44
471.997	485.44
472.216	566.44
472.435	804.44
472.654	713.44
472.873	579.44
473.092	532.44
473.311	518.44
473.53	498.44
473.749	494.44
473.968	548.44
474.187	634.44
474.406	678.44
474.625	547.44
474.844	505.44
475.063	483.44
475.282	464.44
475.501	477.44
475.72	476.44
475.939	460.44
476.158	480.44
476.377	476.44
476.596	474.44
476.814	478.44
477.033	476.44
477.252	488.44
477.471	500.44
477.69	490.44
477.908	477.44
478.127	500.44
478.346	498.44
478.564	507.44
478.783	500.44
479.002	511.44
479.22	506.44
479.439	556.44
479.658	562.44
479.876	550.44
480.095	587.44
480.313	607.44
480.532	591.44
480.751	600.44
480.969	690.44
481.188	985.44
481.406	1282.44
481.624	894.44
481.843	744.44
482.061	674.44
482.28	640.44
482.498	621.44
482.717	603.44
482.935	601.44
483.153	563.44
483.372	575.44
483.59	589.44
483.808	572.44
484.027	560.44
484.245	571.44
484.463	567.44
484.681	549.44
484.9	552.44
485.118	560.44
485.336	590.44
485.554	576.44
485.772	568.44
485.99	574.44
486.209	580.44
486.427	579.44
486.645	599.44
486.863	603.44
487.081	614.44
487.299	614.44
487.517	595.44
487.735	605.44
487.953	593.44
488.171	615.44
488.389	598.44
488.607	619.44
488.825	619.44
489.043	620.44
489.261	600.44
489.479	620.44
489.696	614.44
489.914	618.44
490.132	635.44
490.35	652.44
490.568	663.44
490.786	667.44
491.003	675.44
491.221	704.44
491.439	703.44
491.657	739.44
491.874	720.44
492.092	754.44
492.31	757.44
492.527	759.44
492.745	756.44
492.963	775.44
493.18	761.44
493.398	775.44
493.615	762.44
493.833	757.44
494.05	754.44
494.268	773.44
494.485	745.44
494.703	733.44
494.92	755.44
495.138	747.44
495.355	743.44
495.573	768.44
495.79	743.44
496.008	748.44
496.225	732.44
496.442	735.44
496.66	748.44
496.877	726.44
497.094	732.44
497.312	737.44
497.529	692.44
497.746	724.44
497.963	726.44
498.181	750.44
498.398	760.44
498.615	758.44
498.832	807.44
499.049	768.44
499.267	752.44
499.484	785.44
499.701	790.44
499.918	802.44
500.135	836.44
500.352	850.44
500.569	863.44
500.786	891.44
501.003	868.44
501.22	850.44
501.437	832.44
501.654	839.44
501.871	840.44
