Data from 1986.PennyLincolnUp.Lamp.En5.5.200Scan.071819.P2_HRD10591_17-10-32-975.txt Node
Date: Thu Jul 18 17:10:32 EDT 2019
User: cochatt
Spectrometer: HR+D1059
Trigger mode: 1
Integration Time (sec): 1.000000E-1
Scans to average: 1
Electric dark correction enabled: true
Nonlinearity correction enabled: false
Boxcar width: 0
XAxis mode: Wavelengths
Number of Pixels in Spectrum: 2048
>>>>>Begin Spectral Data<<<<<
223.165	-11.38
223.4	-11.38
223.635	-11.38
223.869	-7.38
224.104	-18.38
224.338	-14.38
224.573	-20.38
224.808	-6.38
225.042	-4.38
225.277	-25.38
225.511	-0.38
225.746	3.62
225.98	5.62
226.215	9.62
226.449	16.62
226.683	25.62
226.918	25.62
227.152	21.62
227.387	26.62
227.621	34.62
227.856	42.62
228.09	46.62
228.324	61.62
228.559	57.62
228.793	78.62
229.027	96.62
229.262	94.62
229.496	122.62
229.73	120.62
229.964	153.62
230.199	134.62
230.433	120.62
230.667	109.62
230.901	106.62
231.136	90.62
231.37	109.62
231.604	115.62
231.838	102.62
232.072	102.62
232.306	110.62
232.541	118.62
232.775	116.62
233.009	92.62
233.243	109.62
233.477	121.62
233.711	108.62
233.945	110.62
234.179	110.62
234.413	119.62
234.647	99.62
234.881	105.62
235.115	118.62
235.349	116.62
235.583	121.62
235.817	119.62
236.051	119.62
236.285	126.62
236.519	121.62
236.753	132.62
236.987	153.62
237.221	196.62
237.455	238.62
237.689	220.62
237.922	144.62
238.156	139.62
238.39	126.62
238.624	123.62
238.858	137.62
239.091	124.62
239.325	101.62
239.559	126.62
239.793	125.62
240.027	125.62
240.26	132.62
240.494	163.62
240.728	140.62
240.961	162.62
241.195	156.62
241.429	131.62
241.662	135.62
241.896	128.62
242.13	133.62
242.363	122.62
242.597	98.62
242.83	128.62
243.064	145.62
243.298	131.62
243.531	141.62
243.765	154.62
243.998	147.62
244.232	140.62
244.465	137.62
244.699	151.62
244.932	148.62
245.166	139.62
245.399	145.62
245.633	140.62
245.866	129.62
246.099	145.62
246.333	158.62
246.566	158.62
246.8	161.62
247.033	142.62
247.266	161.62
247.5	145.62
247.733	166.62
247.966	167.62
248.2	168.62
248.433	161.62
248.666	162.62
248.899	189.62
249.133	203.62
249.366	192.62
249.599	205.62
249.832	176.62
250.066	185.62
250.299	182.62
250.532	195.62
250.765	207.62
250.998	214.62
251.231	237.62
251.465	228.62
251.698	207.62
251.931	213.62
252.164	210.62
252.397	200.62
252.63	201.62
252.863	196.62
253.096	230.62
253.329	234.62
253.562	234.62
253.795	211.62
254.028	234.62
254.261	225.62
254.494	256.62
254.727	247.62
254.96	281.62
255.193	282.62
255.426	252.62
255.659	256.62
255.892	258.62
256.124	233.62
256.357	237.62
256.59	218.62
256.823	210.62
257.056	215.62
257.289	204.62
257.521	213.62
257.754	220.62
257.987	211.62
258.22	194.62
258.452	201.62
258.685	213.62
258.918	206.62
259.151	206.62
259.383	220.62
259.616	235.62
259.849	227.62
260.081	224.62
260.314	245.62
260.547	253.62
260.779	245.62
261.012	244.62
261.244	232.62
261.477	220.62
261.71	225.62
261.942	235.62
262.175	226.62
262.407	225.62
262.64	202.62
262.872	230.62
263.105	210.62
263.337	211.62
263.57	214.62
263.802	206.62
264.035	205.62
264.267	190.62
264.499	210.62
264.732	198.62
264.964	199.62
265.197	205.62
265.429	193.62
265.661	199.62
265.894	208.62
266.126	213.62
266.358	210.62
266.591	207.62
266.823	209.62
267.055	221.62
267.287	228.62
267.52	217.62
267.752	207.62
267.984	223.62
268.216	214.62
268.448	234.62
268.681	231.62
268.913	226.62
269.145	250.62
269.377	268.62
269.609	260.62
269.841	265.62
270.073	248.62
270.306	282.62
270.538	300.62
270.77	310.62
271.002	305.62
271.234	284.62
271.466	311.62
271.698	300.62
271.93	309.62
272.162	306.62
272.394	325.62
272.626	305.62
272.858	306.62
273.09	295.62
273.322	271.62
273.553	236.62
273.785	267.62
274.017	252.62
274.249	260.62
274.481	263.62
274.713	246.62
274.945	269.62
275.176	252.62
275.408	263.62
275.64	247.62
275.872	259.62
276.104	257.62
276.335	262.62
276.567	268.62
276.799	281.62
277.031	301.62
277.262	324.62
277.494	313.62
277.726	296.62
277.957	287.62
278.189	272.62
278.421	247.62
278.652	258.62
278.884	252.62
279.115	268.62
279.347	249.62
279.579	276.62
279.81	254.62
280.042	250.62
280.273	244.62
280.505	250.62
280.736	257.62
280.968	239.62
281.199	254.62
281.431	234.62
281.662	257.62
281.894	243.62
282.125	261.62
282.356	275.62
282.588	278.62
282.819	302.62
283.051	264.62
283.282	259.62
283.513	246.62
283.745	257.62
283.976	262.62
284.207	270.62
284.439	259.62
284.67	263.62
284.901	275.62
285.132	279.62
285.364	267.62
285.595	261.62
285.826	241.62
286.057	250.62
286.288	259.62
286.52	254.62
286.751	248.62
286.982	262.62
287.213	261.62
287.444	255.62
287.675	238.62
287.906	283.62
288.138	271.62
288.369	255.62
288.6	283.62
288.831	281.62
289.062	285.62
289.293	241.62
289.524	267.62
289.755	257.62
289.986	257.62
290.217	266.62
290.448	255.62
290.679	275.62
290.91	257.62
291.141	262.62
291.371	260.62
291.602	263.62
291.833	261.62
292.064	234.62
292.295	261.62
292.526	258.62
292.757	279.62
292.987	259.62
293.218	263.62
293.449	266.62
293.68	270.62
293.91	253.62
294.141	266.62
294.372	251.62
294.603	266.62
294.833	261.62
295.064	241.62
295.295	275.62
295.525	281.62
295.756	268.62
295.987	270.62
296.217	305.62
296.448	297.62
296.679	270.62
296.909	271.62
297.14	268.62
297.37	255.62
297.601	262.62
297.831	265.62
298.062	281.62
298.292	271.62
298.523	282.62
298.753	263.62
298.984	265.62
299.214	266.62
299.445	285.62
299.675	265.62
299.905	286.62
300.136	275.62
300.366	272.62
300.597	267.62
300.827	265.62
301.057	304.62
301.288	305.62
301.518	301.62
301.748	279.62
301.979	292.62
302.209	302.62
302.439	321.62
302.669	282.62
302.9	300.62
303.13	281.62
303.36	290.62
303.59	291.62
303.82	307.62
304.051	299.62
304.281	311.62
304.511	305.62
304.741	286.62
304.971	299.62
305.201	283.62
305.431	261.62
305.661	290.62
305.891	278.62
306.121	299.62
306.352	298.62
306.582	297.62
306.812	306.62
307.042	284.62
307.272	293.62
307.502	291.62
307.731	280.62
307.961	282.62
308.191	283.62
308.421	314.62
308.651	307.62
308.881	314.62
309.111	315.62
309.341	295.62
309.571	321.62
309.8	329.62
310.03	344.62
310.26	354.62
310.49	344.62
310.72	377.62
310.949	383.62
311.179	382.62
311.409	339.62
311.639	342.62
311.868	351.62
312.098	342.62
312.328	355.62
312.557	375.62
312.787	385.62
313.017	393.62
313.246	349.62
313.476	355.62
313.706	355.62
313.935	352.62
314.165	359.62
314.394	377.62
314.624	371.62
314.853	360.62
315.083	344.62
315.312	346.62
315.542	339.62
315.771	327.62
316.001	312.62
316.23	325.62
316.46	340.62
316.689	340.62
316.919	356.62
317.148	365.62
317.377	372.62
317.607	355.62
317.836	343.62
318.065	346.62
318.295	351.62
318.524	341.62
318.753	332.62
318.983	336.62
319.212	338.62
319.441	353.62
319.67	356.62
319.9	340.62
320.129	344.62
320.358	349.62
320.587	351.62
320.816	364.62
321.046	367.62
321.275	381.62
321.504	359.62
321.733	364.62
321.962	379.62
322.191	409.62
322.42	384.62
322.649	404.62
322.878	444.62
323.108	441.62
323.337	466.62
323.566	511.62
323.795	513.62
324.024	594.62
324.253	714.62
324.482	1010.62
324.71	1505.62
324.939	2152.62
325.168	1969.62
325.397	1047.62
325.626	688.62
325.855	560.62
326.084	521.62
326.313	507.62
326.542	505.62
326.77	531.62
326.999	639.62
327.228	907.62
327.457	1327.62
327.686	1661.62
327.914	1149.62
328.143	758.62
328.372	641.62
328.6	601.62
328.829	561.62
329.058	570.62
329.287	599.62
329.515	553.62
329.744	486.62
329.972	503.62
330.201	494.62
330.43	540.62
330.658	597.62
330.887	609.62
331.115	615.62
331.344	488.62
331.572	473.62
331.801	483.62
332.03	457.62
332.258	451.62
332.486	399.62
332.715	404.62
332.943	413.62
333.172	396.62
333.4	397.62
333.629	424.62
333.857	420.62
334.085	435.62
334.314	457.62
334.542	455.62
334.771	500.62
334.999	446.62
335.227	420.62
335.455	400.62
335.684	405.62
335.912	407.62
336.14	392.62
336.369	399.62
336.597	420.62
336.825	392.62
337.053	390.62
337.281	407.62
337.51	376.62
337.738	387.62
337.966	407.62
338.194	398.62
338.422	395.62
338.65	386.62
338.878	388.62
339.106	387.62
339.334	365.62
339.562	366.62
339.79	375.62
340.018	389.62
340.246	378.62
340.474	389.62
340.702	403.62
340.93	375.62
341.158	392.62
341.386	396.62
341.614	371.62
341.842	394.62
342.07	380.62
342.298	373.62
342.526	381.62
342.754	349.62
342.981	364.62
343.209	351.62
343.437	355.62
343.665	369.62
343.893	362.62
344.12	369.62
344.348	393.62
344.576	387.62
344.804	378.62
345.031	382.62
345.259	404.62
345.487	387.62
345.714	407.62
345.942	372.62
346.17	351.62
346.397	369.62
346.625	369.62
346.853	376.62
347.08	378.62
347.308	385.62
347.535	373.62
347.763	383.62
347.99	394.62
348.218	389.62
348.445	388.62
348.673	391.62
348.9	370.62
349.128	365.62
349.355	373.62
349.583	362.62
349.81	351.62
350.037	368.62
350.265	366.62
350.492	357.62
350.72	354.62
350.947	375.62
351.174	361.62
351.402	381.62
351.629	376.62
351.856	398.62
352.083	397.62
352.311	385.62
352.538	389.62
352.765	382.62
352.992	389.62
353.22	381.62
353.447	386.62
353.674	391.62
353.901	374.62
354.128	341.62
354.355	337.62
354.583	335.62
354.81	348.62
355.037	341.62
355.264	314.62
355.491	342.62
355.718	318.62
355.945	340.62
356.172	343.62
356.399	328.62
356.626	328.62
356.853	340.62
357.08	331.62
357.307	339.62
357.534	324.62
357.761	353.62
357.988	322.62
358.215	327.62
358.441	332.62
358.668	340.62
358.895	334.62
359.122	372.62
359.349	353.62
359.576	377.62
359.802	397.62
360.029	409.62
360.256	455.62
360.483	404.62
360.709	382.62
360.936	380.62
361.163	396.62
361.39	388.62
361.616	376.62
361.843	386.62
362.07	365.62
362.296	373.62
362.523	389.62
362.749	364.62
362.976	359.62
363.203	358.62
363.429	352.62
363.656	358.62
363.882	334.62
364.109	340.62
364.335	339.62
364.562	342.62
364.788	354.62
365.015	360.62
365.241	378.62
365.468	340.62
365.694	362.62
365.92	349.62
366.147	341.62
366.373	357.62
366.599	355.62
366.826	339.62
367.052	350.62
367.278	341.62
367.505	369.62
367.731	367.62
367.957	369.62
368.184	331.62
368.41	351.62
368.636	372.62
368.862	354.62
369.089	354.62
369.315	362.62
369.541	356.62
369.767	334.62
369.993	341.62
370.219	335.62
370.445	335.62
370.672	333.62
370.898	319.62
371.124	329.62
371.35	340.62
371.576	327.62
371.802	343.62
372.028	345.62
372.254	315.62
372.48	329.62
372.706	330.62
372.932	342.62
373.158	341.62
373.384	330.62
373.61	334.62
373.835	332.62
374.061	341.62
374.287	343.62
374.513	339.62
374.739	339.62
374.965	357.62
375.191	343.62
375.416	358.62
375.642	328.62
375.868	347.62
376.094	350.62
376.319	346.62
376.545	341.62
376.771	326.62
376.997	333.62
377.222	351.62
377.448	330.62
377.674	330.62
377.899	329.62
378.125	337.62
378.35	342.62
378.576	339.62
378.802	339.62
379.027	332.62
379.253	351.62
379.478	322.62
379.704	318.62
379.929	358.62
380.155	339.62
380.38	345.62
380.606	337.62
380.831	326.62
381.057	350.62
381.282	340.62
381.507	348.62
381.733	343.62
381.958	322.62
382.184	339.62
382.409	343.62
382.634	323.62
382.86	351.62
383.085	343.62
383.31	348.62
383.535	342.62
383.761	350.62
383.986	352.62
384.211	357.62
384.436	351.62
384.662	340.62
384.887	349.62
385.112	347.62
385.337	342.62
385.562	329.62
385.787	355.62
386.013	360.62
386.238	363.62
386.463	364.62
386.688	357.62
386.913	351.62
387.138	353.62
387.363	341.62
387.588	343.62
387.813	353.62
388.038	334.62
388.263	333.62
388.488	356.62
388.713	359.62
388.938	342.62
389.163	347.62
389.387	355.62
389.612	364.62
389.837	349.62
390.062	339.62
390.287	366.62
390.512	340.62
390.736	336.62
390.961	337.62
391.186	338.62
391.411	351.62
391.636	362.62
391.86	328.62
392.085	347.62
392.31	352.62
392.534	373.62
392.759	351.62
392.984	352.62
393.208	371.62
393.433	336.62
393.658	355.62
393.882	360.62
394.107	350.62
394.331	374.62
394.556	339.62
394.78	371.62
395.005	340.62
395.229	346.62
395.454	340.62
395.678	354.62
395.903	361.62
396.127	366.62
396.352	400.62
396.576	371.62
396.801	352.62
397.025	363.62
397.249	384.62
397.474	367.62
397.698	364.62
397.922	388.62
398.147	380.62
398.371	384.62
398.595	386.62
398.82	380.62
399.044	404.62
399.268	366.62
399.492	396.62
399.717	405.62
399.941	433.62
400.165	481.62
400.389	486.62
400.613	446.62
400.837	424.62
401.062	421.62
401.286	415.62
401.51	397.62
401.734	417.62
401.958	402.62
402.182	382.62
402.406	393.62
402.63	413.62
402.854	406.62
403.078	380.62
403.302	396.62
403.526	412.62
403.75	417.62
403.974	410.62
404.198	395.62
404.422	393.62
404.645	396.62
404.869	426.62
405.093	446.62
405.317	469.62
405.541	489.62
405.765	461.62
405.988	446.62
406.212	449.62
406.436	454.62
406.66	493.62
406.883	446.62
407.107	468.62
407.331	493.62
407.555	562.62
407.778	565.62
408.002	491.62
408.226	461.62
408.449	465.62
408.673	459.62
408.896	463.62
409.12	527.62
409.344	507.62
409.567	436.62
409.791	425.62
410.014	406.62
410.238	381.62
410.461	423.62
410.685	420.62
410.908	434.62
411.132	461.62
411.355	503.62
411.578	470.62
411.802	435.62
412.025	417.62
412.249	399.62
412.472	421.62
412.695	461.62
412.919	462.62
413.142	443.62
413.365	403.62
413.589	394.62
413.812	377.62
414.035	405.62
414.258	387.62
414.482	387.62
414.705	399.62
414.928	390.62
415.151	381.62
415.374	392.62
415.597	374.62
415.821	376.62
416.044	387.62
416.267	396.62
416.49	378.62
416.713	395.62
416.936	392.62
417.159	413.62
417.382	394.62
417.605	398.62
417.828	418.62
418.051	420.62
418.274	422.62
418.497	406.62
418.72	396.62
418.943	402.62
419.166	400.62
419.389	399.62
419.611	410.62
419.834	415.62
420.057	430.62
420.28	419.62
420.503	415.62
420.726	420.62
420.948	455.62
421.171	476.62
421.394	483.62
421.617	456.62
421.839	440.62
422.062	422.62
422.285	441.62
422.507	507.62
422.73	541.62
422.953	519.62
423.175	451.62
423.398	454.62
423.621	426.62
423.843	447.62
424.066	459.62
424.288	467.62
424.511	463.62
424.733	527.62
424.956	581.62
425.178	587.62
425.401	580.62
425.623	568.62
425.846	515.62
426.068	461.62
426.291	476.62
426.513	473.62
426.735	471.62
426.958	516.62
427.18	571.62
427.402	696.62
427.625	770.62
427.847	712.62
428.069	589.62
428.292	521.62
428.514	476.62
428.736	418.62
428.958	432.62
429.181	445.62
429.403	445.62
429.625	434.62
429.847	464.62
430.069	533.62
430.292	556.62
430.514	457.62
430.736	421.62
430.958	433.62
431.18	425.62
431.402	404.62
431.624	399.62
431.846	391.62
432.068	394.62
432.29	417.62
432.512	404.62
432.734	406.62
432.956	421.62
433.178	412.62
433.4	435.62
433.622	395.62
433.844	423.62
434.066	412.62
434.287	395.62
434.509	412.62
434.731	403.62
434.953	416.62
435.175	422.62
435.397	457.62
435.618	478.62
435.84	506.62
436.062	596.62
436.284	671.62
436.505	541.62
436.727	473.62
436.949	455.62
437.17	437.62
437.392	447.62
437.614	443.62
437.835	483.62
438.057	584.62
438.278	679.62
438.5	673.62
438.721	710.62
438.943	676.62
439.165	556.62
439.386	508.62
439.608	488.62
439.829	482.62
440.05	533.62
440.272	551.62
440.493	529.62
440.715	474.62
440.936	454.62
441.158	427.62
441.379	421.62
441.6	440.62
441.822	483.62
442.043	505.62
442.264	598.62
442.486	610.62
442.707	519.62
442.928	494.62
443.149	512.62
443.371	545.62
443.592	556.62
443.813	654.62
444.034	649.62
444.255	548.62
444.476	485.62
444.698	470.62
444.919	469.62
445.14	548.62
445.361	505.62
445.582	513.62
445.803	567.62
446.024	666.62
446.245	671.62
446.466	593.62
446.687	545.62
446.908	501.62
447.129	457.62
447.35	460.62
447.571	441.62
447.792	440.62
448.013	465.62
448.234	444.62
448.455	516.62
448.675	613.62
448.896	689.62
449.117	605.62
449.338	572.62
449.559	661.62
449.779	739.62
450	612.62
450.221	485.62
450.442	450.62
450.662	460.62
450.883	464.62
451.104	482.62
451.324	459.62
451.545	426.62
451.766	422.62
451.986	398.62
452.207	382.62
452.428	393.62
452.648	391.62
452.869	386.62
453.089	408.62
453.31	410.62
453.53	394.62
453.751	398.62
453.971	387.62
454.192	417.62
454.412	415.62
454.633	377.62
454.853	366.62
455.073	363.62
455.294	411.62
455.514	474.62
455.734	468.62
455.955	388.62
456.175	387.62
456.395	363.62
456.616	350.62
456.836	353.62
457.056	379.62
457.276	335.62
457.497	342.62
457.717	358.62
457.937	357.62
458.157	376.62
458.377	379.62
458.598	392.62
458.818	480.62
459.038	536.62
459.258	555.62
459.478	478.62
459.698	411.62
459.918	407.62
460.138	395.62
460.358	388.62
460.578	390.62
460.798	384.62
461.018	404.62
461.238	389.62
461.458	363.62
461.678	381.62
461.898	399.62
462.118	380.62
462.338	385.62
462.558	395.62
462.777	405.62
462.997	398.62
463.217	417.62
463.437	404.62
463.657	393.62
463.876	381.62
464.096	401.62
464.316	406.62
464.536	407.62
464.755	402.62
464.975	412.62
465.195	482.62
465.414	577.62
465.634	490.62
465.854	442.62
466.073	410.62
466.293	395.62
466.512	389.62
466.732	387.62
466.951	396.62
467.171	399.62
467.391	379.62
467.61	392.62
467.829	413.62
468.049	389.62
468.268	403.62
468.488	381.62
468.707	377.62
468.927	381.62
469.146	364.62
469.365	385.62
469.585	386.62
469.804	388.62
470.023	396.62
470.243	403.62
470.462	407.62
470.681	420.62
470.901	431.62
471.12	394.62
471.339	397.62
471.558	386.62
471.777	400.62
471.997	387.62
472.216	405.62
472.435	425.62
472.654	424.62
472.873	405.62
473.092	404.62
473.311	395.62
473.53	400.62
473.749	422.62
473.968	451.62
474.187	559.62
474.406	566.62
474.625	491.62
474.844	445.62
475.063	414.62
475.282	407.62
475.501	410.62
475.72	396.62
475.939	411.62
476.158	415.62
476.377	391.62
476.596	405.62
476.814	408.62
477.033	425.62
477.252	435.62
477.471	427.62
477.69	420.62
477.908	429.62
478.127	422.62
478.346	429.62
478.564	425.62
478.783	440.62
479.002	444.62
479.22	434.62
479.439	441.62
479.658	492.62
479.876	485.62
480.095	483.62
480.313	509.62
480.532	497.62
480.751	463.62
480.969	499.62
481.188	565.62
481.406	595.62
481.624	514.62
481.843	483.62
482.061	484.62
482.28	475.62
482.498	476.62
482.717	463.62
482.935	469.62
483.153	449.62
483.372	450.62
483.59	490.62
483.808	461.62
484.027	485.62
484.245	491.62
484.463	463.62
484.681	474.62
484.9	472.62
485.118	464.62
485.336	471.62
485.554	476.62
485.772	492.62
485.99	465.62
486.209	492.62
486.427	496.62
486.645	507.62
486.863	513.62
487.081	533.62
487.299	519.62
487.517	518.62
487.735	516.62
487.953	511.62
488.171	509.62
488.389	482.62
488.607	492.62
488.825	514.62
489.043	527.62
489.261	511.62
489.479	508.62
489.696	521.62
489.914	514.62
490.132	545.62
490.35	543.62
490.568	525.62
490.786	546.62
491.003	558.62
491.221	563.62
491.439	564.62
491.657	580.62
491.874	591.62
492.092	597.62
492.31	583.62
492.527	585.62
492.745	591.62
492.963	595.62
493.18	608.62
493.398	609.62
493.615	632.62
493.833	603.62
494.05	601.62
494.268	620.62
494.485	623.62
494.703	595.62
494.92	630.62
495.138	629.62
495.355	635.62
495.573	634.62
495.79	628.62
496.008	627.62
496.225	603.62
496.442	609.62
496.66	617.62
496.877	627.62
497.094	628.62
497.312	617.62
497.529	621.62
497.746	625.62
497.963	628.62
498.181	643.62
498.398	650.62
498.615	648.62
498.832	650.62
499.049	676.62
499.267	655.62
499.484	654.62
499.701	690.62
499.918	723.62
500.135	753.62
500.352	717.62
500.569	708.62
500.786	717.62
501.003	698.62
501.22	739.62
501.437	716.62
501.654	714.62
501.871	737.62
502.088	710.62
