Data from 1986.PennyLincolnUp.Lamp.En5.5.200Scan.071819.P2_HRD10591_17-12-07-973.txt Node
Date: Thu Jul 18 17:12:07 EDT 2019
User: cochatt
Spectrometer: HR+D1059
Trigger mode: 1
Integration Time (sec): 1.000000E-1
Scans to average: 1
Electric dark correction enabled: true
Nonlinearity correction enabled: false
Boxcar width: 0
XAxis mode: Wavelengths
Number of Pixels in Spectrum: 2048
>>>>>Begin Spectral Data<<<<<
223.165	-12.75
223.4	-12.75
223.635	-12.75
223.869	-7.75
224.104	-17.75
224.338	-19.75
224.573	-8.75
224.808	-1.75
225.042	-8.75
225.277	4.25
225.511	-14.75
225.746	6.25
225.98	11.25
226.215	7.25
226.449	15.25
226.683	4.25
226.918	16.25
227.152	27.25
227.387	35.25
227.621	39.25
227.856	45.25
228.09	35.25
228.324	59.25
228.559	61.25
228.793	78.25
229.027	107.25
229.262	112.25
229.496	124.25
229.73	130.25
229.964	181.25
230.199	139.25
230.433	114.25
230.667	116.25
230.901	129.25
231.136	123.25
231.37	106.25
231.604	114.25
231.838	113.25
232.072	118.25
232.306	114.25
232.541	122.25
232.775	119.25
233.009	124.25
233.243	121.25
233.477	118.25
233.711	122.25
233.945	134.25
234.179	130.25
234.413	131.25
234.647	125.25
234.881	102.25
235.115	134.25
235.349	124.25
235.583	134.25
235.817	141.25
236.051	133.25
236.285	128.25
236.519	138.25
236.753	139.25
236.987	154.25
237.221	201.25
237.455	254.25
237.689	207.25
237.922	147.25
238.156	150.25
238.39	130.25
238.624	137.25
238.858	145.25
239.091	132.25
239.325	115.25
239.559	128.25
239.793	145.25
240.027	127.25
240.26	137.25
240.494	162.25
240.728	169.25
240.961	170.25
241.195	150.25
241.429	149.25
241.662	134.25
241.896	132.25
242.13	143.25
242.363	152.25
242.597	148.25
242.83	156.25
243.064	134.25
243.298	152.25
243.531	137.25
243.765	138.25
243.998	151.25
244.232	135.25
244.465	144.25
244.699	158.25
244.932	153.25
245.166	162.25
245.399	163.25
245.633	153.25
245.866	166.25
246.099	160.25
246.333	163.25
246.566	146.25
246.8	151.25
247.033	167.25
247.266	158.25
247.5	178.25
247.733	180.25
247.966	189.25
248.2	176.25
248.433	191.25
248.666	191.25
248.899	212.25
249.133	205.25
249.366	234.25
249.599	225.25
249.832	223.25
250.066	212.25
250.299	207.25
250.532	230.25
250.765	276.25
250.998	264.25
251.231	281.25
251.465	255.25
251.698	261.25
251.931	229.25
252.164	211.25
252.397	214.25
252.63	234.25
252.863	227.25
253.096	237.25
253.329	252.25
253.562	229.25
253.795	245.25
254.028	251.25
254.261	247.25
254.494	260.25
254.727	285.25
254.96	292.25
255.193	307.25
255.426	300.25
255.659	282.25
255.892	302.25
256.124	326.25
256.357	364.25
256.59	329.25
256.823	306.25
257.056	306.25
257.289	257.25
257.521	260.25
257.754	244.25
257.987	254.25
258.22	253.25
258.452	249.25
258.685	247.25
258.918	252.25
259.151	252.25
259.383	248.25
259.616	248.25
259.849	248.25
260.081	258.25
260.314	270.25
260.547	283.25
260.779	287.25
261.012	264.25
261.244	257.25
261.477	231.25
261.71	240.25
261.942	256.25
262.175	259.25
262.407	258.25
262.64	246.25
262.872	232.25
263.105	244.25
263.337	239.25
263.57	225.25
263.802	229.25
264.035	238.25
264.267	237.25
264.499	225.25
264.732	239.25
264.964	228.25
265.197	230.25
265.429	227.25
265.661	227.25
265.894	228.25
266.126	230.25
266.358	242.25
266.591	219.25
266.823	237.25
267.055	223.25
267.287	261.25
267.52	242.25
267.752	236.25
267.984	233.25
268.216	250.25
268.448	250.25
268.681	248.25
268.913	263.25
269.145	276.25
269.377	321.25
269.609	301.25
269.841	298.25
270.073	304.25
270.306	316.25
270.538	330.25
270.77	355.25
271.002	338.25
271.234	322.25
271.466	325.25
271.698	319.25
271.93	327.25
272.162	348.25
272.394	346.25
272.626	320.25
272.858	309.25
273.09	302.25
273.322	297.25
273.553	280.25
273.785	284.25
274.017	298.25
274.249	288.25
274.481	290.25
274.713	279.25
274.945	282.25
275.176	293.25
275.408	280.25
275.64	269.25
275.872	276.25
276.104	276.25
276.335	291.25
276.567	292.25
276.799	309.25
277.031	336.25
277.262	350.25
277.494	353.25
277.726	303.25
277.957	308.25
278.189	319.25
278.421	291.25
278.652	295.25
278.884	284.25
279.115	279.25
279.347	290.25
279.579	293.25
279.81	296.25
280.042	286.25
280.273	306.25
280.505	300.25
280.736	296.25
280.968	302.25
281.199	276.25
281.431	277.25
281.662	288.25
281.894	284.25
282.125	286.25
282.356	300.25
282.588	344.25
282.819	327.25
283.051	278.25
283.282	277.25
283.513	284.25
283.745	292.25
283.976	293.25
284.207	303.25
284.439	305.25
284.67	292.25
284.901	274.25
285.132	280.25
285.364	297.25
285.595	280.25
285.826	280.25
286.057	299.25
286.288	284.25
286.52	290.25
286.751	294.25
286.982	292.25
287.213	292.25
287.444	291.25
287.675	298.25
287.906	319.25
288.138	318.25
288.369	332.25
288.6	322.25
288.831	328.25
289.062	316.25
289.293	310.25
289.524	292.25
289.755	298.25
289.986	308.25
290.217	292.25
290.448	299.25
290.679	301.25
290.91	308.25
291.141	303.25
291.371	294.25
291.602	292.25
291.833	300.25
292.064	272.25
292.295	284.25
292.526	279.25
292.757	288.25
292.987	285.25
293.218	283.25
293.449	301.25
293.68	293.25
293.91	282.25
294.141	283.25
294.372	310.25
294.603	304.25
294.833	292.25
295.064	283.25
295.295	311.25
295.525	302.25
295.756	312.25
295.987	325.25
296.217	343.25
296.448	342.25
296.679	301.25
296.909	296.25
297.14	285.25
297.37	284.25
297.601	299.25
297.831	315.25
298.062	325.25
298.292	318.25
298.523	313.25
298.753	311.25
298.984	315.25
299.214	301.25
299.445	301.25
299.675	309.25
299.905	304.25
300.136	330.25
300.366	320.25
300.597	334.25
300.827	303.25
301.057	311.25
301.288	326.25
301.518	326.25
301.748	328.25
301.979	325.25
302.209	337.25
302.439	323.25
302.669	336.25
302.9	321.25
303.13	342.25
303.36	335.25
303.59	327.25
303.82	331.25
304.051	325.25
304.281	306.25
304.511	331.25
304.741	323.25
304.971	316.25
305.201	319.25
305.431	327.25
305.661	318.25
305.891	343.25
306.121	326.25
306.352	312.25
306.582	328.25
306.812	334.25
307.042	331.25
307.272	333.25
307.502	343.25
307.731	340.25
307.961	325.25
308.191	316.25
308.421	331.25
308.651	333.25
308.881	328.25
309.111	349.25
309.341	331.25
309.571	375.25
309.8	375.25
310.03	381.25
310.26	384.25
310.49	375.25
310.72	393.25
310.949	406.25
311.179	414.25
311.409	393.25
311.639	387.25
311.868	397.25
312.098	388.25
312.328	416.25
312.557	419.25
312.787	415.25
313.017	424.25
313.246	408.25
313.476	394.25
313.706	370.25
313.935	386.25
314.165	428.25
314.394	411.25
314.624	418.25
314.853	396.25
315.083	396.25
315.312	371.25
315.542	367.25
315.771	382.25
316.001	377.25
316.23	394.25
316.46	376.25
316.689	390.25
316.919	382.25
317.148	406.25
317.377	413.25
317.607	411.25
317.836	395.25
318.065	391.25
318.295	402.25
318.524	384.25
318.753	384.25
318.983	406.25
319.212	391.25
319.441	381.25
319.67	403.25
319.9	426.25
320.129	390.25
320.358	398.25
320.587	399.25
320.816	410.25
321.046	428.25
321.275	419.25
321.504	428.25
321.733	413.25
321.962	431.25
322.191	453.25
322.42	458.25
322.649	475.25
322.878	502.25
323.108	482.25
323.337	522.25
323.566	557.25
323.795	583.25
324.024	649.25
324.253	791.25
324.482	1146.25
324.71	1753.25
324.939	2512.25
325.168	2224.25
325.397	1154.25
325.626	781.25
325.855	676.25
326.084	595.25
326.313	572.25
326.542	579.25
326.77	635.25
326.999	739.25
327.228	1003.25
327.457	1539.25
327.686	1919.25
327.914	1300.25
328.143	902.25
328.372	808.25
328.6	735.25
328.829	686.25
329.058	692.25
329.287	680.25
329.515	677.25
329.744	651.25
329.972	696.25
330.201	788.25
330.43	871.25
330.658	870.25
330.887	773.25
331.115	724.25
331.344	633.25
331.572	577.25
331.801	574.25
332.03	560.25
332.258	554.25
332.486	519.25
332.715	504.25
332.943	512.25
333.172	507.25
333.4	521.25
333.629	551.25
333.857	581.25
334.085	629.25
334.314	742.25
334.542	903.25
334.771	942.25
334.999	714.25
335.227	582.25
335.455	532.25
335.684	509.25
335.912	501.25
336.14	478.25
336.369	469.25
336.597	478.25
336.825	490.25
337.053	476.25
337.281	453.25
337.51	461.25
337.738	469.25
337.966	458.25
338.194	454.25
338.422	469.25
338.65	447.25
338.878	435.25
339.106	434.25
339.334	442.25
339.562	442.25
339.79	424.25
340.018	430.25
340.246	434.25
340.474	446.25
340.702	442.25
340.93	455.25
341.158	432.25
341.386	446.25
341.614	470.25
341.842	439.25
342.07	422.25
342.298	426.25
342.526	427.25
342.754	421.25
342.981	401.25
343.209	403.25
343.437	426.25
343.665	413.25
343.893	420.25
344.12	434.25
344.348	408.25
344.576	438.25
344.804	427.25
345.031	434.25
345.259	457.25
345.487	444.25
345.714	450.25
345.942	435.25
346.17	422.25
346.397	397.25
346.625	411.25
346.853	426.25
347.08	434.25
347.308	410.25
347.535	441.25
347.763	421.25
347.99	418.25
348.218	429.25
348.445	448.25
348.673	436.25
348.9	416.25
349.128	400.25
349.355	391.25
349.583	410.25
349.81	399.25
350.037	388.25
350.265	397.25
350.492	405.25
350.72	401.25
350.947	392.25
351.174	423.25
351.402	432.25
351.629	415.25
351.856	417.25
352.083	415.25
352.311	437.25
352.538	432.25
352.765	445.25
352.992	397.25
353.22	423.25
353.447	394.25
353.674	413.25
353.901	412.25
354.128	378.25
354.355	389.25
354.583	404.25
354.81	378.25
355.037	390.25
355.264	385.25
355.491	370.25
355.718	399.25
355.945	378.25
356.172	355.25
356.399	368.25
356.626	380.25
356.853	399.25
357.08	402.25
357.307	374.25
357.534	352.25
357.761	379.25
357.988	394.25
358.215	388.25
358.441	376.25
358.668	369.25
358.895	381.25
359.122	393.25
359.349	389.25
359.576	402.25
359.802	424.25
360.029	471.25
360.256	479.25
360.483	488.25
360.709	422.25
360.936	420.25
361.163	419.25
361.39	414.25
361.616	424.25
361.843	424.25
362.07	414.25
362.296	413.25
362.523	396.25
362.749	408.25
362.976	416.25
363.203	403.25
363.429	379.25
363.656	405.25
363.882	391.25
364.109	382.25
364.335	403.25
364.562	390.25
364.788	392.25
365.015	396.25
365.241	387.25
365.468	381.25
365.694	395.25
365.92	409.25
366.147	399.25
366.373	387.25
366.599	378.25
366.826	390.25
367.052	378.25
367.278	388.25
367.505	401.25
367.731	403.25
367.957	390.25
368.184	383.25
368.41	388.25
368.636	391.25
368.862	421.25
369.089	388.25
369.315	370.25
369.541	372.25
369.767	377.25
369.993	380.25
370.219	389.25
370.445	385.25
370.672	375.25
370.898	387.25
371.124	367.25
371.35	367.25
371.576	383.25
371.802	365.25
372.028	380.25
372.254	383.25
372.48	363.25
372.706	359.25
372.932	388.25
373.158	350.25
373.384	374.25
373.61	390.25
373.835	371.25
374.061	383.25
374.287	390.25
374.513	374.25
374.739	358.25
374.965	376.25
375.191	382.25
375.416	378.25
375.642	378.25
375.868	374.25
376.094	389.25
376.319	357.25
376.545	375.25
376.771	391.25
376.997	372.25
377.222	384.25
377.448	373.25
377.674	376.25
377.899	354.25
378.125	363.25
378.35	344.25
378.576	358.25
378.802	367.25
379.027	373.25
379.253	361.25
379.478	348.25
379.704	372.25
379.929	363.25
380.155	345.25
380.38	378.25
380.606	390.25
380.831	402.25
381.057	382.25
381.282	376.25
381.507	356.25
381.733	362.25
381.958	379.25
382.184	364.25
382.409	373.25
382.634	370.25
382.86	361.25
383.085	373.25
383.31	375.25
383.535	386.25
383.761	357.25
383.986	370.25
384.211	370.25
384.436	377.25
384.662	378.25
384.887	374.25
385.112	363.25
385.337	378.25
385.562	390.25
385.787	364.25
386.013	401.25
386.238	408.25
386.463	406.25
386.688	401.25
386.913	408.25
387.138	383.25
387.363	394.25
387.588	381.25
387.813	392.25
388.038	389.25
388.263	396.25
388.488	381.25
388.713	395.25
388.938	401.25
389.163	400.25
389.387	395.25
389.612	395.25
389.837	374.25
390.062	379.25
390.287	400.25
390.512	394.25
390.736	387.25
390.961	375.25
391.186	394.25
391.411	395.25
391.636	389.25
391.86	392.25
392.085	408.25
392.31	395.25
392.534	390.25
392.759	404.25
392.984	386.25
393.208	404.25
393.433	379.25
393.658	392.25
393.882	396.25
394.107	394.25
394.331	375.25
394.556	376.25
394.78	390.25
395.005	399.25
395.229	396.25
395.454	408.25
395.678	418.25
395.903	425.25
396.127	416.25
396.352	423.25
396.576	391.25
396.801	379.25
397.025	380.25
397.249	398.25
397.474	411.25
397.698	406.25
397.922	424.25
398.147	444.25
398.371	453.25
398.595	441.25
398.82	432.25
399.044	445.25
399.268	461.25
399.492	460.25
399.717	466.25
399.941	492.25
400.165	544.25
400.389	546.25
400.613	504.25
400.837	478.25
401.062	466.25
401.286	441.25
401.51	447.25
401.734	426.25
401.958	441.25
402.182	424.25
402.406	452.25
402.63	448.25
402.854	450.25
403.078	453.25
403.302	476.25
403.526	467.25
403.75	486.25
403.974	463.25
404.198	441.25
404.422	454.25
404.645	488.25
404.869	484.25
405.093	552.25
405.317	605.25
405.541	629.25
405.765	586.25
405.988	532.25
406.212	510.25
406.436	523.25
406.66	539.25
406.883	522.25
407.107	511.25
407.331	580.25
407.555	626.25
407.778	629.25
408.002	572.25
408.226	538.25
408.449	505.25
408.673	520.25
408.896	559.25
409.12	581.25
409.344	562.25
409.567	496.25
409.791	467.25
410.014	464.25
410.238	470.25
410.461	467.25
410.685	482.25
410.908	494.25
411.132	504.25
411.355	555.25
411.578	555.25
411.802	483.25
412.025	486.25
412.249	502.25
412.472	541.25
412.695	626.25
412.919	588.25
413.142	577.25
413.365	516.25
413.589	487.25
413.812	478.25
414.035	468.25
414.258	461.25
414.482	463.25
414.705	464.25
414.928	443.25
415.151	439.25
415.374	438.25
415.597	441.25
415.821	433.25
416.044	446.25
416.267	466.25
416.49	438.25
416.713	442.25
416.936	447.25
417.159	449.25
417.382	450.25
417.605	475.25
417.828	476.25
418.051	471.25
418.274	478.25
418.497	447.25
418.72	457.25
418.943	425.25
419.166	478.25
419.389	474.25
419.611	464.25
419.834	471.25
420.057	503.25
420.28	506.25
420.503	531.25
420.726	494.25
420.948	534.25
421.171	549.25
421.394	574.25
421.617	500.25
421.839	454.25
422.062	473.25
422.285	494.25
422.507	546.25
422.73	618.25
422.953	607.25
423.175	525.25
423.398	493.25
423.621	488.25
423.843	501.25
424.066	525.25
424.288	517.25
424.511	508.25
424.733	597.25
424.956	659.25
425.178	634.25
425.401	656.25
425.623	650.25
425.846	559.25
426.068	533.25
426.291	525.25
426.513	511.25
426.735	527.25
426.958	535.25
427.18	674.25
427.402	799.25
427.625	851.25
427.847	807.25
428.069	706.25
428.292	648.25
428.514	544.25
428.736	523.25
428.958	520.25
429.181	489.25
429.403	476.25
429.625	477.25
429.847	501.25
430.069	600.25
430.292	573.25
430.514	493.25
430.736	467.25
430.958	470.25
431.18	453.25
431.402	443.25
431.624	424.25
431.846	455.25
432.068	429.25
432.29	430.25
432.512	451.25
432.734	452.25
432.956	458.25
433.178	440.25
433.4	452.25
433.622	443.25
433.844	429.25
434.066	438.25
434.287	436.25
434.509	447.25
434.731	449.25
434.953	446.25
435.175	475.25
435.397	482.25
435.618	524.25
435.84	560.25
436.062	655.25
436.284	718.25
436.505	602.25
436.727	541.25
436.949	520.25
437.17	469.25
437.392	477.25
437.614	500.25
437.835	532.25
438.057	634.25
438.278	711.25
438.5	717.25
438.721	798.25
438.943	744.25
439.165	608.25
439.386	563.25
439.608	543.25
439.829	546.25
440.05	566.25
440.272	594.25
440.493	581.25
440.715	529.25
440.936	498.25
441.158	485.25
441.379	495.25
441.6	472.25
441.822	507.25
442.043	542.25
442.264	622.25
442.486	670.25
442.707	590.25
442.928	518.25
443.149	556.25
443.371	538.25
443.592	575.25
443.813	692.25
444.034	726.25
444.255	596.25
444.476	524.25
444.698	519.25
444.919	496.25
445.14	605.25
445.361	573.25
445.582	527.25
445.803	631.25
446.024	756.25
446.245	731.25
446.466	660.25
446.687	571.25
446.908	528.25
447.129	495.25
447.35	500.25
447.571	474.25
447.792	493.25
448.013	488.25
448.234	492.25
448.455	550.25
448.675	668.25
448.896	778.25
449.117	658.25
449.338	614.25
449.559	719.25
449.779	804.25
450	646.25
450.221	555.25
450.442	509.25
450.662	480.25
450.883	495.25
451.104	518.25
451.324	493.25
451.545	468.25
451.766	440.25
451.986	411.25
452.207	421.25
452.428	420.25
452.648	407.25
452.869	427.25
453.089	447.25
453.31	444.25
453.53	447.25
453.751	460.25
453.971	447.25
454.192	451.25
454.412	455.25
454.633	413.25
454.853	424.25
455.073	414.25
455.294	442.25
455.514	520.25
455.734	527.25
455.955	442.25
456.175	394.25
456.395	387.25
456.616	420.25
456.836	400.25
457.056	403.25
457.276	378.25
457.497	396.25
457.717	389.25
457.937	420.25
458.157	417.25
458.377	422.25
458.598	446.25
458.818	522.25
459.038	594.25
459.258	588.25
459.478	490.25
459.698	461.25
459.918	440.25
460.138	437.25
460.358	437.25
460.578	423.25
460.798	438.25
461.018	439.25
461.238	429.25
461.458	412.25
461.678	416.25
461.898	407.25
462.118	435.25
462.338	434.25
462.558	451.25
462.777	424.25
462.997	437.25
463.217	455.25
463.437	473.25
463.657	428.25
463.876	453.25
464.096	455.25
464.316	431.25
464.536	459.25
464.755	445.25
464.975	485.25
465.195	517.25
465.414	608.25
465.634	558.25
465.854	465.25
466.073	444.25
466.293	417.25
466.512	429.25
466.732	429.25
466.951	430.25
467.171	426.25
467.391	430.25
467.61	460.25
467.829	476.25
468.049	467.25
468.268	516.25
468.488	460.25
468.707	446.25
468.927	439.25
469.146	440.25
469.365	441.25
469.585	405.25
469.804	412.25
470.023	458.25
470.243	471.25
470.462	448.25
470.681	489.25
470.901	472.25
471.12	442.25
471.339	460.25
471.558	473.25
471.777	470.25
471.997	482.25
472.216	524.25
472.435	712.25
472.654	650.25
472.873	525.25
473.092	488.25
473.311	495.25
473.53	465.25
473.749	503.25
473.968	523.25
474.187	615.25
474.406	667.25
474.625	526.25
474.844	474.25
475.063	460.25
475.282	439.25
475.501	468.25
475.72	473.25
475.939	457.25
476.158	463.25
476.377	465.25
476.596	446.25
476.814	470.25
477.033	480.25
477.252	473.25
477.471	479.25
477.69	478.25
477.908	455.25
478.127	502.25
478.346	502.25
478.564	500.25
478.783	504.25
479.002	524.25
479.22	532.25
479.439	538.25
479.658	519.25
479.876	538.25
480.095	573.25
480.313	585.25
480.532	556.25
480.751	580.25
480.969	609.25
481.188	894.25
481.406	1074.25
481.624	778.25
481.843	690.25
482.061	612.25
482.28	618.25
482.498	605.25
482.717	584.25
482.935	560.25
483.153	554.25
483.372	542.25
483.59	557.25
483.808	556.25
484.027	553.25
484.245	553.25
484.463	534.25
484.681	557.25
484.9	560.25
485.118	557.25
485.336	558.25
485.554	568.25
485.772	528.25
485.99	555.25
486.209	559.25
486.427	571.25
486.645	587.25
486.863	595.25
487.081	613.25
487.299	595.25
487.517	586.25
487.735	577.25
487.953	586.25
488.171	575.25
488.389	571.25
488.607	574.25
488.825	580.25
489.043	575.25
489.261	623.25
489.479	596.25
489.696	575.25
489.914	592.25
490.132	607.25
490.35	631.25
490.568	631.25
490.786	644.25
491.003	668.25
491.221	699.25
491.439	683.25
491.657	683.25
491.874	680.25
492.092	715.25
492.31	728.25
492.527	720.25
492.745	709.25
492.963	721.25
493.18	730.25
493.398	742.25
493.615	703.25
493.833	727.25
494.05	744.25
494.268	720.25
494.485	740.25
494.703	711.25
494.92	706.25
495.138	720.25
495.355	723.25
495.573	724.25
495.79	712.25
496.008	704.25
496.225	695.25
496.442	686.25
496.66	732.25
496.877	709.25
497.094	683.25
497.312	696.25
497.529	711.25
497.746	699.25
497.963	731.25
498.181	735.25
498.398	743.25
498.615	739.25
498.832	746.25
499.049	733.25
499.267	713.25
499.484	771.25
499.701	764.25
499.918	785.25
500.135	792.25
500.352	834.25
500.569	851.25
500.786	834.25
501.003	834.25
501.22	804.25
501.437	843.25
501.654	823.25
501.871	821.25
