Data from 1986.PennyLincolnUp.Lamp.En5.5.200Scan.071819.P2_HRD10591_17-12-04-975.txt Node
Date: Thu Jul 18 17:12:04 EDT 2019
User: cochatt
Spectrometer: HR+D1059
Trigger mode: 1
Integration Time (sec): 1.000000E-1
Scans to average: 1
Electric dark correction enabled: true
Nonlinearity correction enabled: false
Boxcar width: 0
XAxis mode: Wavelengths
Number of Pixels in Spectrum: 2048
>>>>>Begin Spectral Data<<<<<
223.165	-10.38
223.4	-10.38
223.635	-10.38
223.869	-21.38
224.104	0.62
224.338	-14.38
224.573	-17.38
224.808	-11.38
225.042	-29.38
225.277	-2.38
225.511	-13.38
225.746	23.62
225.98	1.62
226.215	15.62
226.449	14.62
226.683	14.62
226.918	16.62
227.152	32.62
227.387	33.62
227.621	36.62
227.856	42.62
228.09	47.62
228.324	48.62
228.559	40.62
228.793	61.62
229.027	119.62
229.262	109.62
229.496	128.62
229.73	140.62
229.964	164.62
230.199	131.62
230.433	126.62
230.667	111.62
230.901	125.62
231.136	116.62
231.37	119.62
231.604	122.62
231.838	120.62
232.072	110.62
232.306	121.62
232.541	116.62
232.775	120.62
233.009	109.62
233.243	114.62
233.477	132.62
233.711	112.62
233.945	97.62
234.179	117.62
234.413	114.62
234.647	126.62
234.881	123.62
235.115	125.62
235.349	115.62
235.583	120.62
235.817	121.62
236.051	130.62
236.285	133.62
236.519	132.62
236.753	128.62
236.987	144.62
237.221	201.62
237.455	238.62
237.689	210.62
237.922	153.62
238.156	155.62
238.39	127.62
238.624	125.62
238.858	135.62
239.091	123.62
239.325	129.62
239.559	128.62
239.793	120.62
240.027	120.62
240.26	161.62
240.494	163.62
240.728	154.62
240.961	139.62
241.195	164.62
241.429	145.62
241.662	140.62
241.896	148.62
242.13	139.62
242.363	142.62
242.597	149.62
242.83	149.62
243.064	135.62
243.298	146.62
243.531	138.62
243.765	148.62
243.998	138.62
244.232	154.62
244.465	161.62
244.699	150.62
244.932	158.62
245.166	142.62
245.399	166.62
245.633	149.62
245.866	154.62
246.099	146.62
246.333	167.62
246.566	161.62
246.8	164.62
247.033	161.62
247.266	167.62
247.5	176.62
247.733	181.62
247.966	193.62
248.2	184.62
248.433	196.62
248.666	186.62
248.899	201.62
249.133	221.62
249.366	231.62
249.599	214.62
249.832	200.62
250.066	194.62
250.299	217.62
250.532	242.62
250.765	256.62
250.998	280.62
251.231	262.62
251.465	252.62
251.698	230.62
251.931	225.62
252.164	201.62
252.397	218.62
252.63	216.62
252.863	219.62
253.096	235.62
253.329	255.62
253.562	259.62
253.795	251.62
254.028	252.62
254.261	246.62
254.494	269.62
254.727	268.62
254.96	315.62
255.193	293.62
255.426	284.62
255.659	297.62
255.892	297.62
256.124	326.62
256.357	351.62
256.59	319.62
256.823	284.62
257.056	262.62
257.289	253.62
257.521	276.62
257.754	245.62
257.987	245.62
258.22	258.62
258.452	240.62
258.685	234.62
258.918	235.62
259.151	233.62
259.383	236.62
259.616	226.62
259.849	247.62
260.081	255.62
260.314	280.62
260.547	283.62
260.779	259.62
261.012	250.62
261.244	236.62
261.477	234.62
261.71	235.62
261.942	265.62
262.175	252.62
262.407	260.62
262.64	236.62
262.872	227.62
263.105	240.62
263.337	219.62
263.57	246.62
263.802	224.62
264.035	231.62
264.267	219.62
264.499	215.62
264.732	223.62
264.964	223.62
265.197	219.62
265.429	217.62
265.661	221.62
265.894	239.62
266.126	225.62
266.358	238.62
266.591	224.62
266.823	229.62
267.055	230.62
267.287	228.62
267.52	218.62
267.752	230.62
267.984	254.62
268.216	237.62
268.448	235.62
268.681	265.62
268.913	267.62
269.145	283.62
269.377	289.62
269.609	288.62
269.841	268.62
270.073	280.62
270.306	316.62
270.538	329.62
270.77	343.62
271.002	346.62
271.234	309.62
271.466	313.62
271.698	333.62
271.93	341.62
272.162	344.62
272.394	337.62
272.626	320.62
272.858	310.62
273.09	301.62
273.322	290.62
273.553	264.62
273.785	275.62
274.017	283.62
274.249	279.62
274.481	284.62
274.713	275.62
274.945	290.62
275.176	284.62
275.408	274.62
275.64	290.62
275.872	277.62
276.104	297.62
276.335	292.62
276.567	285.62
276.799	304.62
277.031	312.62
277.262	331.62
277.494	331.62
277.726	343.62
277.957	301.62
278.189	292.62
278.421	298.62
278.652	270.62
278.884	284.62
279.115	309.62
279.347	277.62
279.579	273.62
279.81	285.62
280.042	300.62
280.273	291.62
280.505	277.62
280.736	286.62
280.968	296.62
281.199	236.62
281.431	283.62
281.662	272.62
281.894	289.62
282.125	284.62
282.356	292.62
282.588	320.62
282.819	329.62
283.051	293.62
283.282	288.62
283.513	276.62
283.745	277.62
283.976	294.62
284.207	289.62
284.439	284.62
284.67	277.62
284.901	296.62
285.132	292.62
285.364	288.62
285.595	277.62
285.826	276.62
286.057	296.62
286.288	292.62
286.52	298.62
286.751	272.62
286.982	272.62
287.213	279.62
287.444	290.62
287.675	283.62
287.906	304.62
288.138	306.62
288.369	315.62
288.6	312.62
288.831	325.62
289.062	296.62
289.293	294.62
289.524	294.62
289.755	305.62
289.986	294.62
290.217	275.62
290.448	291.62
290.679	284.62
290.91	289.62
291.141	290.62
291.371	270.62
291.602	288.62
291.833	288.62
292.064	279.62
292.295	291.62
292.526	295.62
292.757	294.62
292.987	304.62
293.218	301.62
293.449	301.62
293.68	282.62
293.91	278.62
294.141	294.62
294.372	281.62
294.603	291.62
294.833	294.62
295.064	312.62
295.295	289.62
295.525	289.62
295.756	300.62
295.987	307.62
296.217	325.62
296.448	342.62
296.679	291.62
296.909	275.62
297.14	279.62
297.37	296.62
297.601	297.62
297.831	296.62
298.062	295.62
298.292	301.62
298.523	302.62
298.753	307.62
298.984	328.62
299.214	297.62
299.445	305.62
299.675	317.62
299.905	314.62
300.136	313.62
300.366	291.62
300.597	320.62
300.827	305.62
301.057	330.62
301.288	347.62
301.518	328.62
301.748	328.62
301.979	316.62
302.209	334.62
302.439	313.62
302.669	323.62
302.9	311.62
303.13	322.62
303.36	329.62
303.59	337.62
303.82	334.62
304.051	334.62
304.281	331.62
304.511	314.62
304.741	333.62
304.971	311.62
305.201	316.62
305.431	323.62
305.661	320.62
305.891	296.62
306.121	337.62
306.352	346.62
306.582	357.62
306.812	324.62
307.042	345.62
307.272	338.62
307.502	331.62
307.731	331.62
307.961	338.62
308.191	320.62
308.421	320.62
308.651	344.62
308.881	341.62
309.111	347.62
309.341	357.62
309.571	371.62
309.8	356.62
310.03	372.62
310.26	379.62
310.49	388.62
310.72	389.62
310.949	412.62
311.179	420.62
311.409	390.62
311.639	376.62
311.868	388.62
312.098	381.62
312.328	394.62
312.557	402.62
312.787	423.62
313.017	427.62
313.246	402.62
313.476	379.62
313.706	384.62
313.935	380.62
314.165	407.62
314.394	410.62
314.624	422.62
314.853	380.62
315.083	386.62
315.312	388.62
315.542	374.62
315.771	385.62
316.001	370.62
316.23	383.62
316.46	362.62
316.689	388.62
316.919	371.62
317.148	401.62
317.377	406.62
317.607	399.62
317.836	386.62
318.065	387.62
318.295	366.62
318.524	386.62
318.753	366.62
318.983	384.62
319.212	402.62
319.441	371.62
319.67	416.62
319.9	425.62
320.129	383.62
320.358	397.62
320.587	396.62
320.816	413.62
321.046	404.62
321.275	419.62
321.504	413.62
321.733	418.62
321.962	416.62
322.191	443.62
322.42	444.62
322.649	470.62
322.878	486.62
323.108	497.62
323.337	525.62
323.566	533.62
323.795	595.62
324.024	647.62
324.253	804.62
324.482	1151.62
324.71	1773.62
324.939	2474.62
325.168	2208.62
325.397	1157.62
325.626	747.62
325.855	637.62
326.084	576.62
326.313	580.62
326.542	561.62
326.77	634.62
326.999	732.62
327.228	1005.62
327.457	1549.62
327.686	1874.62
327.914	1300.62
328.143	878.62
328.372	809.62
328.6	770.62
328.829	676.62
329.058	695.62
329.287	714.62
329.515	673.62
329.744	634.62
329.972	658.62
330.201	758.62
330.43	880.62
330.658	856.62
330.887	787.62
331.115	721.62
331.344	626.62
331.572	580.62
331.801	560.62
332.03	539.62
332.258	534.62
332.486	498.62
332.715	516.62
332.943	515.62
333.172	502.62
333.4	496.62
333.629	538.62
333.857	591.62
334.085	601.62
334.314	713.62
334.542	834.62
334.771	903.62
334.999	717.62
335.227	556.62
335.455	512.62
335.684	497.62
335.912	482.62
336.14	472.62
336.369	468.62
336.597	482.62
336.825	464.62
337.053	470.62
337.281	439.62
337.51	444.62
337.738	438.62
337.966	458.62
338.194	433.62
338.422	439.62
338.65	448.62
338.878	440.62
339.106	421.62
339.334	442.62
339.562	417.62
339.79	412.62
340.018	430.62
340.246	434.62
340.474	442.62
340.702	436.62
340.93	432.62
341.158	435.62
341.386	434.62
341.614	422.62
341.842	408.62
342.07	421.62
342.298	422.62
342.526	430.62
342.754	409.62
342.981	401.62
343.209	402.62
343.437	405.62
343.665	386.62
343.893	428.62
344.12	433.62
344.348	416.62
344.576	416.62
344.804	436.62
345.031	445.62
345.259	453.62
345.487	440.62
345.714	414.62
345.942	416.62
346.17	417.62
346.397	409.62
346.625	418.62
346.853	408.62
347.08	434.62
347.308	419.62
347.535	423.62
347.763	425.62
347.99	444.62
348.218	418.62
348.445	438.62
348.673	436.62
348.9	444.62
349.128	419.62
349.355	398.62
349.583	398.62
349.81	401.62
350.037	390.62
350.265	404.62
350.492	394.62
350.72	400.62
350.947	408.62
351.174	409.62
351.402	425.62
351.629	433.62
351.856	404.62
352.083	412.62
352.311	420.62
352.538	450.62
352.765	444.62
352.992	422.62
353.22	399.62
353.447	400.62
353.674	404.62
353.901	399.62
354.128	377.62
354.355	385.62
354.583	386.62
354.81	388.62
355.037	376.62
355.264	376.62
355.491	377.62
355.718	383.62
355.945	365.62
356.172	362.62
356.399	371.62
356.626	366.62
356.853	353.62
357.08	348.62
357.307	368.62
357.534	359.62
357.761	358.62
357.988	388.62
358.215	376.62
358.441	378.62
358.668	371.62
358.895	370.62
359.122	375.62
359.349	392.62
359.576	405.62
359.802	422.62
360.029	463.62
360.256	475.62
360.483	450.62
360.709	417.62
360.936	421.62
361.163	414.62
361.39	412.62
361.616	418.62
361.843	416.62
362.07	424.62
362.296	405.62
362.523	399.62
362.749	422.62
362.976	406.62
363.203	418.62
363.429	395.62
363.656	379.62
363.882	408.62
364.109	380.62
364.335	402.62
364.562	389.62
364.788	381.62
365.015	374.62
365.241	385.62
365.468	393.62
365.694	395.62
365.92	381.62
366.147	397.62
366.373	387.62
366.599	386.62
366.826	386.62
367.052	381.62
367.278	375.62
367.505	369.62
367.731	388.62
367.957	373.62
368.184	368.62
368.41	370.62
368.636	383.62
368.862	395.62
369.089	377.62
369.315	378.62
369.541	379.62
369.767	377.62
369.993	374.62
370.219	363.62
370.445	372.62
370.672	372.62
370.898	361.62
371.124	382.62
371.35	368.62
371.576	344.62
371.802	381.62
372.028	368.62
372.254	370.62
372.48	389.62
372.706	364.62
372.932	365.62
373.158	369.62
373.384	377.62
373.61	352.62
373.835	344.62
374.061	382.62
374.287	378.62
374.513	368.62
374.739	372.62
374.965	384.62
375.191	368.62
375.416	371.62
375.642	390.62
375.868	374.62
376.094	379.62
376.319	378.62
376.545	364.62
376.771	357.62
376.997	367.62
377.222	342.62
377.448	369.62
377.674	364.62
377.899	348.62
378.125	372.62
378.35	360.62
378.576	356.62
378.802	374.62
379.027	362.62
379.253	360.62
379.478	361.62
379.704	369.62
379.929	363.62
380.155	369.62
380.38	364.62
380.606	372.62
380.831	349.62
381.057	387.62
381.282	362.62
381.507	366.62
381.733	364.62
381.958	376.62
382.184	358.62
382.409	371.62
382.634	374.62
382.86	372.62
383.085	372.62
383.31	382.62
383.535	381.62
383.761	388.62
383.986	361.62
384.211	388.62
384.436	368.62
384.662	373.62
384.887	375.62
385.112	396.62
385.337	390.62
385.562	370.62
385.787	374.62
386.013	401.62
386.238	386.62
386.463	400.62
386.688	377.62
386.913	388.62
387.138	386.62
387.363	380.62
387.588	370.62
387.813	400.62
388.038	398.62
388.263	373.62
388.488	373.62
388.713	383.62
388.938	399.62
389.163	374.62
389.387	384.62
389.612	374.62
389.837	386.62
390.062	358.62
390.287	384.62
390.512	378.62
390.736	378.62
390.961	371.62
391.186	398.62
391.411	382.62
391.636	413.62
391.86	380.62
392.085	390.62
392.31	379.62
392.534	392.62
392.759	376.62
392.984	386.62
393.208	380.62
393.433	377.62
393.658	388.62
393.882	393.62
394.107	384.62
394.331	378.62
394.556	376.62
394.78	383.62
395.005	372.62
395.229	388.62
395.454	386.62
395.678	417.62
395.903	411.62
396.127	422.62
396.352	440.62
396.576	404.62
396.801	384.62
397.025	384.62
397.249	390.62
397.474	411.62
397.698	404.62
397.922	418.62
398.147	425.62
398.371	426.62
398.595	418.62
398.82	409.62
399.044	416.62
399.268	437.62
399.492	450.62
399.717	489.62
399.941	498.62
400.165	522.62
400.389	539.62
400.613	481.62
400.837	458.62
401.062	444.62
401.286	450.62
401.51	442.62
401.734	416.62
401.958	416.62
402.182	445.62
402.406	434.62
402.63	452.62
402.854	449.62
403.078	452.62
403.302	449.62
403.526	456.62
403.75	458.62
403.974	476.62
404.198	458.62
404.422	448.62
404.645	485.62
404.869	477.62
405.093	550.62
405.317	591.62
405.541	621.62
405.765	573.62
405.988	522.62
406.212	520.62
406.436	531.62
406.66	540.62
406.883	529.62
407.107	505.62
407.331	569.62
407.555	598.62
407.778	600.62
408.002	573.62
408.226	524.62
408.449	499.62
408.673	522.62
408.896	545.62
409.12	578.62
409.344	542.62
409.567	489.62
409.791	457.62
410.014	461.62
410.238	447.62
410.461	460.62
410.685	469.62
410.908	472.62
411.132	520.62
411.355	560.62
411.578	536.62
411.802	484.62
412.025	477.62
412.249	493.62
412.472	525.62
412.695	618.62
412.919	605.62
413.142	495.62
413.365	506.62
413.589	491.62
413.812	489.62
414.035	480.62
414.258	464.62
414.482	448.62
414.705	438.62
414.928	444.62
415.151	431.62
415.374	447.62
415.597	445.62
415.821	454.62
416.044	437.62
416.267	458.62
416.49	436.62
416.713	453.62
416.936	424.62
417.159	411.62
417.382	454.62
417.605	451.62
417.828	470.62
418.051	461.62
418.274	455.62
418.497	452.62
418.72	442.62
418.943	435.62
419.166	452.62
419.389	489.62
419.611	481.62
419.834	462.62
420.057	471.62
420.28	494.62
420.503	494.62
420.726	492.62
420.948	514.62
421.171	562.62
421.394	552.62
421.617	485.62
421.839	480.62
422.062	464.62
422.285	483.62
422.507	534.62
422.73	602.62
422.953	568.62
423.175	529.62
423.398	494.62
423.621	476.62
423.843	514.62
424.066	514.62
424.288	492.62
424.511	508.62
424.733	577.62
424.956	653.62
425.178	622.62
425.401	604.62
425.623	646.62
425.846	551.62
426.068	532.62
426.291	524.62
426.513	515.62
426.735	529.62
426.958	556.62
427.18	640.62
427.402	758.62
427.625	844.62
427.847	804.62
428.069	691.62
428.292	640.62
428.514	550.62
428.736	516.62
428.958	482.62
429.181	492.62
429.403	466.62
429.625	488.62
429.847	518.62
430.069	575.62
430.292	608.62
430.514	475.62
430.736	477.62
430.958	470.62
431.18	449.62
431.402	434.62
431.624	461.62
431.846	445.62
432.068	434.62
432.29	433.62
432.512	418.62
432.734	442.62
432.956	446.62
433.178	473.62
433.4	465.62
433.622	438.62
433.844	427.62
434.066	425.62
434.287	440.62
434.509	435.62
434.731	448.62
434.953	458.62
435.175	465.62
435.397	507.62
435.618	502.62
435.84	544.62
436.062	623.62
436.284	707.62
436.505	587.62
436.727	542.62
436.949	494.62
437.17	476.62
437.392	468.62
437.614	489.62
437.835	518.62
438.057	639.62
438.278	704.62
438.5	709.62
438.721	804.62
438.943	753.62
439.165	605.62
439.386	532.62
439.608	535.62
439.829	550.62
440.05	571.62
440.272	621.62
440.493	579.62
440.715	509.62
440.936	501.62
441.158	472.62
441.379	480.62
441.6	485.62
441.822	534.62
442.043	555.62
442.264	618.62
442.486	684.62
442.707	573.62
442.928	521.62
443.149	526.62
443.371	544.62
443.592	604.62
443.813	684.62
444.034	725.62
444.255	590.62
444.476	544.62
444.698	522.62
444.919	510.62
445.14	615.62
445.361	567.62
445.582	585.62
445.803	644.62
446.024	701.62
446.245	738.62
446.466	683.62
446.687	590.62
446.908	527.62
447.129	491.62
447.35	473.62
447.571	486.62
447.792	469.62
448.013	493.62
448.234	506.62
448.455	549.62
448.675	660.62
448.896	770.62
449.117	662.62
449.338	631.62
449.559	738.62
449.779	820.62
450	651.62
450.221	549.62
450.442	512.62
450.662	463.62
450.883	473.62
451.104	508.62
451.324	459.62
451.545	458.62
451.766	466.62
451.986	454.62
452.207	416.62
452.428	440.62
452.648	436.62
452.869	432.62
453.089	419.62
453.31	451.62
453.53	450.62
453.751	452.62
453.971	439.62
454.192	460.62
454.412	454.62
454.633	430.62
454.853	414.62
455.073	432.62
455.294	453.62
455.514	527.62
455.734	543.62
455.955	442.62
456.175	417.62
456.395	405.62
456.616	398.62
456.836	381.62
457.056	408.62
457.276	389.62
457.497	412.62
457.717	392.62
457.937	391.62
458.157	397.62
458.377	395.62
458.598	417.62
458.818	513.62
459.038	586.62
459.258	595.62
459.478	500.62
459.698	436.62
459.918	428.62
460.138	434.62
460.358	439.62
460.578	422.62
460.798	440.62
461.018	420.62
461.238	418.62
461.458	425.62
461.678	424.62
461.898	409.62
462.118	406.62
462.338	416.62
462.558	445.62
462.777	437.62
462.997	434.62
463.217	429.62
463.437	458.62
463.657	441.62
463.876	452.62
464.096	466.62
464.316	429.62
464.536	465.62
464.755	462.62
464.975	472.62
465.195	539.62
465.414	618.62
465.634	512.62
465.854	463.62
466.073	466.62
466.293	454.62
466.512	426.62
466.732	421.62
466.951	439.62
467.171	419.62
467.391	418.62
467.61	434.62
467.829	432.62
468.049	459.62
468.268	504.62
468.488	484.62
468.707	438.62
468.927	420.62
469.146	410.62
469.365	429.62
469.585	427.62
469.804	421.62
470.023	450.62
470.243	440.62
470.462	436.62
470.681	463.62
470.901	473.62
471.12	435.62
471.339	467.62
471.558	462.62
471.777	470.62
471.997	453.62
472.216	518.62
472.435	670.62
472.654	605.62
472.873	541.62
473.092	485.62
473.311	474.62
473.53	467.62
473.749	472.62
473.968	533.62
474.187	617.62
474.406	627.62
474.625	523.62
474.844	478.62
475.063	453.62
475.282	442.62
475.501	454.62
475.72	437.62
475.939	454.62
476.158	456.62
476.377	453.62
476.596	451.62
476.814	463.62
477.033	467.62
477.252	479.62
477.471	472.62
477.69	457.62
477.908	480.62
478.127	469.62
478.346	489.62
478.564	493.62
478.783	481.62
479.002	517.62
479.22	509.62
479.439	505.62
479.658	515.62
479.876	554.62
480.095	538.62
480.313	583.62
480.532	559.62
480.751	584.62
480.969	624.62
481.188	856.62
481.406	1068.62
481.624	757.62
481.843	653.62
482.061	633.62
482.28	582.62
482.498	572.62
482.717	555.62
482.935	553.62
483.153	549.62
483.372	539.62
483.59	555.62
483.808	563.62
484.027	560.62
484.245	519.62
484.463	528.62
484.681	556.62
484.9	542.62
485.118	557.62
485.336	537.62
485.554	541.62
485.772	549.62
485.99	559.62
486.209	552.62
486.427	556.62
486.645	582.62
486.863	589.62
487.081	584.62
487.299	582.62
487.517	576.62
487.735	582.62
487.953	565.62
488.171	560.62
488.389	549.62
488.607	580.62
488.825	590.62
489.043	572.62
489.261	580.62
489.479	609.62
489.696	608.62
489.914	595.62
490.132	590.62
490.35	630.62
490.568	602.62
490.786	621.62
491.003	635.62
491.221	656.62
491.439	688.62
491.657	672.62
491.874	688.62
492.092	701.62
492.31	699.62
492.527	700.62
492.745	707.62
492.963	710.62
493.18	705.62
493.398	706.62
493.615	724.62
493.833	722.62
494.05	707.62
494.268	724.62
494.485	702.62
494.703	724.62
494.92	712.62
495.138	704.62
495.355	700.62
495.573	712.62
495.79	706.62
496.008	708.62
496.225	677.62
496.442	697.62
496.66	712.62
496.877	714.62
497.094	702.62
497.312	705.62
497.529	684.62
497.746	738.62
497.963	725.62
498.181	752.62
498.398	731.62
498.615	737.62
498.832	740.62
499.049	710.62
499.267	713.62
499.484	752.62
499.701	777.62
499.918	781.62
500.135	807.62
500.352	802.62
500.569	802.62
500.786	846.62
501.003	851.62
501.22	802.62
501.437	794.62
501.654	819.62
501.871	812.62
