Data from 1986.PennyLincolnUp.Lamp.En5.5.200Scan.071819.P2_HRD10591_17-12-36-977.txt Node
Date: Thu Jul 18 17:12:36 EDT 2019
User: cochatt
Spectrometer: HR+D1059
Trigger mode: 1
Integration Time (sec): 1.000000E-1
Scans to average: 1
Electric dark correction enabled: true
Nonlinearity correction enabled: false
Boxcar width: 0
XAxis mode: Wavelengths
Number of Pixels in Spectrum: 2048
>>>>>Begin Spectral Data<<<<<
223.165	-12.88
223.4	-12.88
223.635	-12.88
223.869	-14.88
224.104	-9.88
224.338	-10.88
224.573	-5.88
224.808	-7.88
225.042	-17.88
225.277	-1.88
225.511	0.12
225.746	-4.88
225.98	12.12
226.215	-3.88
226.449	3.12
226.683	21.12
226.918	18.12
227.152	36.12
227.387	35.12
227.621	42.12
227.856	40.12
228.09	42.12
228.324	41.12
228.559	54.12
228.793	65.12
229.027	82.12
229.262	115.12
229.496	111.12
229.73	121.12
229.964	150.12
230.199	126.12
230.433	122.12
230.667	114.12
230.901	119.12
231.136	124.12
231.37	106.12
231.604	105.12
231.838	115.12
232.072	122.12
232.306	113.12
232.541	117.12
232.775	121.12
233.009	100.12
233.243	107.12
233.477	115.12
233.711	120.12
233.945	118.12
234.179	125.12
234.413	116.12
234.647	123.12
234.881	118.12
235.115	119.12
235.349	129.12
235.583	109.12
235.817	123.12
236.051	122.12
236.285	128.12
236.519	122.12
236.753	122.12
236.987	133.12
237.221	176.12
237.455	233.12
237.689	185.12
237.922	155.12
238.156	126.12
238.39	143.12
238.624	136.12
238.858	132.12
239.091	127.12
239.325	122.12
239.559	124.12
239.793	129.12
240.027	123.12
240.26	138.12
240.494	182.12
240.728	164.12
240.961	146.12
241.195	147.12
241.429	139.12
241.662	134.12
241.896	137.12
242.13	153.12
242.363	124.12
242.597	128.12
242.83	148.12
243.064	140.12
243.298	142.12
243.531	139.12
243.765	139.12
243.998	143.12
244.232	144.12
244.465	152.12
244.699	142.12
244.932	138.12
245.166	158.12
245.399	165.12
245.633	148.12
245.866	164.12
246.099	155.12
246.333	162.12
246.566	163.12
246.8	149.12
247.033	151.12
247.266	160.12
247.5	168.12
247.733	179.12
247.966	172.12
248.2	181.12
248.433	185.12
248.666	187.12
248.899	195.12
249.133	218.12
249.366	231.12
249.599	224.12
249.832	210.12
250.066	198.12
250.299	213.12
250.532	245.12
250.765	279.12
250.998	271.12
251.231	268.12
251.465	264.12
251.698	241.12
251.931	237.12
252.164	233.12
252.397	216.12
252.63	224.12
252.863	224.12
253.096	244.12
253.329	243.12
253.562	246.12
253.795	247.12
254.028	256.12
254.261	247.12
254.494	263.12
254.727	269.12
254.96	313.12
255.193	307.12
255.426	288.12
255.659	287.12
255.892	305.12
256.124	352.12
256.357	377.12
256.59	366.12
256.823	313.12
257.056	292.12
257.289	278.12
257.521	262.12
257.754	255.12
257.987	249.12
258.22	252.12
258.452	258.12
258.685	240.12
258.918	240.12
259.151	230.12
259.383	248.12
259.616	234.12
259.849	240.12
260.081	256.12
260.314	257.12
260.547	286.12
260.779	259.12
261.012	252.12
261.244	252.12
261.477	244.12
261.71	240.12
261.942	251.12
262.175	251.12
262.407	253.12
262.64	227.12
262.872	232.12
263.105	226.12
263.337	234.12
263.57	225.12
263.802	235.12
264.035	237.12
264.267	223.12
264.499	229.12
264.732	211.12
264.964	234.12
265.197	210.12
265.429	215.12
265.661	229.12
265.894	220.12
266.126	217.12
266.358	214.12
266.591	216.12
266.823	233.12
267.055	235.12
267.287	257.12
267.52	230.12
267.752	229.12
267.984	240.12
268.216	236.12
268.448	237.12
268.681	242.12
268.913	256.12
269.145	252.12
269.377	270.12
269.609	297.12
269.841	289.12
270.073	281.12
270.306	292.12
270.538	338.12
270.77	336.12
271.002	308.12
271.234	326.12
271.466	313.12
271.698	326.12
271.93	327.12
272.162	321.12
272.394	329.12
272.626	344.12
272.858	306.12
273.09	287.12
273.322	284.12
273.553	279.12
273.785	267.12
274.017	277.12
274.249	277.12
274.481	269.12
274.713	274.12
274.945	272.12
275.176	273.12
275.408	278.12
275.64	259.12
275.872	282.12
276.104	266.12
276.335	287.12
276.567	285.12
276.799	306.12
277.031	331.12
277.262	349.12
277.494	354.12
277.726	325.12
277.957	311.12
278.189	309.12
278.421	280.12
278.652	282.12
278.884	279.12
279.115	284.12
279.347	291.12
279.579	274.12
279.81	291.12
280.042	286.12
280.273	296.12
280.505	287.12
280.736	275.12
280.968	281.12
281.199	283.12
281.431	288.12
281.662	284.12
281.894	291.12
282.125	281.12
282.356	322.12
282.588	315.12
282.819	316.12
283.051	307.12
283.282	276.12
283.513	288.12
283.745	277.12
283.976	288.12
284.207	282.12
284.439	293.12
284.67	274.12
284.901	294.12
285.132	281.12
285.364	293.12
285.595	281.12
285.826	274.12
286.057	296.12
286.288	260.12
286.52	262.12
286.751	262.12
286.982	267.12
287.213	309.12
287.444	294.12
287.675	277.12
287.906	285.12
288.138	305.12
288.369	313.12
288.6	300.12
288.831	295.12
289.062	297.12
289.293	310.12
289.524	273.12
289.755	284.12
289.986	296.12
290.217	298.12
290.448	289.12
290.679	281.12
290.91	282.12
291.141	283.12
291.371	269.12
291.602	296.12
291.833	282.12
292.064	299.12
292.295	283.12
292.526	282.12
292.757	294.12
292.987	289.12
293.218	274.12
293.449	289.12
293.68	280.12
293.91	286.12
294.141	302.12
294.372	277.12
294.603	279.12
294.833	297.12
295.064	286.12
295.295	288.12
295.525	278.12
295.756	289.12
295.987	314.12
296.217	352.12
296.448	323.12
296.679	297.12
296.909	285.12
297.14	300.12
297.37	314.12
297.601	284.12
297.831	300.12
298.062	291.12
298.292	276.12
298.523	308.12
298.753	307.12
298.984	290.12
299.214	290.12
299.445	307.12
299.675	312.12
299.905	328.12
300.136	307.12
300.366	314.12
300.597	299.12
300.827	310.12
301.057	300.12
301.288	325.12
301.518	314.12
301.748	308.12
301.979	340.12
302.209	330.12
302.439	310.12
302.669	322.12
302.9	320.12
303.13	308.12
303.36	324.12
303.59	331.12
303.82	333.12
304.051	327.12
304.281	310.12
304.511	309.12
304.741	320.12
304.971	314.12
305.201	310.12
305.431	311.12
305.661	294.12
305.891	317.12
306.121	332.12
306.352	327.12
306.582	335.12
306.812	328.12
307.042	317.12
307.272	339.12
307.502	335.12
307.731	348.12
307.961	324.12
308.191	331.12
308.421	344.12
308.651	349.12
308.881	344.12
309.111	332.12
309.341	346.12
309.571	363.12
309.8	370.12
310.03	374.12
310.26	376.12
310.49	371.12
310.72	382.12
310.949	394.12
311.179	411.12
311.409	380.12
311.639	395.12
311.868	381.12
312.098	384.12
312.328	384.12
312.557	407.12
312.787	408.12
313.017	402.12
313.246	421.12
313.476	401.12
313.706	372.12
313.935	378.12
314.165	414.12
314.394	405.12
314.624	390.12
314.853	408.12
315.083	387.12
315.312	384.12
315.542	375.12
315.771	390.12
316.001	376.12
316.23	378.12
316.46	391.12
316.689	388.12
316.919	383.12
317.148	395.12
317.377	395.12
317.607	387.12
317.836	377.12
318.065	382.12
318.295	387.12
318.524	364.12
318.753	372.12
318.983	394.12
319.212	385.12
319.441	391.12
319.67	401.12
319.9	397.12
320.129	386.12
320.358	379.12
320.587	395.12
320.816	403.12
321.046	411.12
321.275	416.12
321.504	418.12
321.733	419.12
321.962	422.12
322.191	426.12
322.42	451.12
322.649	470.12
322.878	472.12
323.108	499.12
323.337	520.12
323.566	527.12
323.795	570.12
324.024	631.12
324.253	750.12
324.482	1066.12
324.71	1638.12
324.939	2317.12
325.168	2080.12
325.397	1128.12
325.626	736.12
325.855	634.12
326.084	560.12
326.313	564.12
326.542	552.12
326.77	620.12
326.999	730.12
327.228	998.12
327.457	1440.12
327.686	1820.12
327.914	1271.12
328.143	889.12
328.372	819.12
328.6	770.12
328.829	708.12
329.058	688.12
329.287	682.12
329.515	669.12
329.744	655.12
329.972	717.12
330.201	816.12
330.43	953.12
330.658	901.12
330.887	803.12
331.115	722.12
331.344	604.12
331.572	584.12
331.801	550.12
332.03	550.12
332.258	544.12
332.486	512.12
332.715	471.12
332.943	501.12
333.172	531.12
333.4	530.12
333.629	565.12
333.857	590.12
334.085	680.12
334.314	813.12
334.542	983.12
334.771	1077.12
334.999	803.12
335.227	617.12
335.455	565.12
335.684	505.12
335.912	482.12
336.14	497.12
336.369	477.12
336.597	478.12
336.825	491.12
337.053	472.12
337.281	443.12
337.51	434.12
337.738	436.12
337.966	428.12
338.194	437.12
338.422	451.12
338.65	437.12
338.878	451.12
339.106	423.12
339.334	419.12
339.562	411.12
339.79	408.12
340.018	419.12
340.246	432.12
340.474	432.12
340.702	417.12
340.93	414.12
341.158	404.12
341.386	402.12
341.614	422.12
341.842	400.12
342.07	425.12
342.298	410.12
342.526	411.12
342.754	406.12
342.981	408.12
343.209	404.12
343.437	404.12
343.665	404.12
343.893	392.12
344.12	422.12
344.348	393.12
344.576	421.12
344.804	427.12
345.031	440.12
345.259	449.12
345.487	436.12
345.714	409.12
345.942	397.12
346.17	408.12
346.397	389.12
346.625	403.12
346.853	420.12
347.08	406.12
347.308	422.12
347.535	414.12
347.763	399.12
347.99	418.12
348.218	402.12
348.445	425.12
348.673	421.12
348.9	418.12
349.128	393.12
349.355	408.12
349.583	390.12
349.81	384.12
350.037	402.12
350.265	389.12
350.492	403.12
350.72	384.12
350.947	410.12
351.174	408.12
351.402	426.12
351.629	409.12
351.856	403.12
352.083	402.12
352.311	413.12
352.538	418.12
352.765	417.12
352.992	411.12
353.22	404.12
353.447	413.12
353.674	386.12
353.901	402.12
354.128	392.12
354.355	389.12
354.583	390.12
354.81	360.12
355.037	366.12
355.264	371.12
355.491	377.12
355.718	372.12
355.945	372.12
356.172	375.12
356.399	370.12
356.626	366.12
356.853	371.12
357.08	370.12
357.307	376.12
357.534	382.12
357.761	367.12
357.988	359.12
358.215	355.12
358.441	383.12
358.668	370.12
358.895	373.12
359.122	373.12
359.349	377.12
359.576	402.12
359.802	422.12
360.029	449.12
360.256	470.12
360.483	460.12
360.709	408.12
360.936	419.12
361.163	403.12
361.39	385.12
361.616	401.12
361.843	412.12
362.07	403.12
362.296	414.12
362.523	386.12
362.749	394.12
362.976	396.12
363.203	404.12
363.429	382.12
363.656	398.12
363.882	384.12
364.109	370.12
364.335	378.12
364.562	376.12
364.788	380.12
365.015	398.12
365.241	374.12
365.468	395.12
365.694	384.12
365.92	394.12
366.147	388.12
366.373	381.12
366.599	382.12
366.826	371.12
367.052	379.12
367.278	362.12
367.505	361.12
367.731	380.12
367.957	365.12
368.184	377.12
368.41	376.12
368.636	395.12
368.862	404.12
369.089	375.12
369.315	382.12
369.541	378.12
369.767	393.12
369.993	373.12
370.219	382.12
370.445	361.12
370.672	362.12
370.898	357.12
371.124	356.12
371.35	361.12
371.576	352.12
371.802	359.12
372.028	353.12
372.254	361.12
372.48	364.12
372.706	380.12
372.932	372.12
373.158	341.12
373.384	371.12
373.61	370.12
373.835	350.12
374.061	376.12
374.287	347.12
374.513	369.12
374.739	365.12
374.965	371.12
375.191	396.12
375.416	383.12
375.642	364.12
375.868	371.12
376.094	349.12
376.319	373.12
376.545	338.12
376.771	377.12
376.997	347.12
377.222	365.12
377.448	386.12
377.674	355.12
377.899	340.12
378.125	355.12
378.35	359.12
378.576	371.12
378.802	358.12
379.027	363.12
379.253	352.12
379.478	336.12
379.704	373.12
379.929	346.12
380.155	349.12
380.38	357.12
380.606	353.12
380.831	349.12
381.057	365.12
381.282	357.12
381.507	361.12
381.733	344.12
381.958	386.12
382.184	363.12
382.409	362.12
382.634	372.12
382.86	360.12
383.085	363.12
383.31	366.12
383.535	369.12
383.761	352.12
383.986	383.12
384.211	364.12
384.436	366.12
384.662	354.12
384.887	355.12
385.112	365.12
385.337	389.12
385.562	358.12
385.787	361.12
386.013	391.12
386.238	387.12
386.463	387.12
386.688	385.12
386.913	361.12
387.138	374.12
387.363	359.12
387.588	382.12
387.813	382.12
388.038	380.12
388.263	382.12
388.488	376.12
388.713	361.12
388.938	372.12
389.163	368.12
389.387	373.12
389.612	379.12
389.837	387.12
390.062	374.12
390.287	382.12
390.512	371.12
390.736	351.12
390.961	359.12
391.186	358.12
391.411	390.12
391.636	382.12
391.86	370.12
392.085	367.12
392.31	383.12
392.534	376.12
392.759	382.12
392.984	394.12
393.208	397.12
393.433	363.12
393.658	376.12
393.882	390.12
394.107	373.12
394.331	356.12
394.556	379.12
394.78	381.12
395.005	376.12
395.229	398.12
395.454	379.12
395.678	368.12
395.903	395.12
396.127	409.12
396.352	406.12
396.576	379.12
396.801	399.12
397.025	387.12
397.249	407.12
397.474	404.12
397.698	394.12
397.922	422.12
398.147	413.12
398.371	418.12
398.595	403.12
398.82	422.12
399.044	428.12
399.268	426.12
399.492	450.12
399.717	452.12
399.941	486.12
400.165	502.12
400.389	524.12
400.613	498.12
400.837	452.12
401.062	442.12
401.286	421.12
401.51	415.12
401.734	420.12
401.958	433.12
402.182	426.12
402.406	445.12
402.63	444.12
402.854	421.12
403.078	444.12
403.302	427.12
403.526	460.12
403.75	453.12
403.974	439.12
404.198	434.12
404.422	458.12
404.645	461.12
404.869	492.12
405.093	526.12
405.317	572.12
405.541	605.12
405.765	569.12
405.988	520.12
406.212	505.12
406.436	507.12
406.66	527.12
406.883	517.12
407.107	520.12
407.331	570.12
407.555	598.12
407.778	600.12
408.002	524.12
408.226	490.12
408.449	498.12
408.673	493.12
408.896	525.12
409.12	567.12
409.344	518.12
409.567	479.12
409.791	483.12
410.014	460.12
410.238	458.12
410.461	450.12
410.685	469.12
410.908	491.12
411.132	525.12
411.355	525.12
411.578	512.12
411.802	464.12
412.025	468.12
412.249	532.12
412.472	559.12
412.695	634.12
412.919	605.12
413.142	558.12
413.365	503.12
413.589	483.12
413.812	469.12
414.035	465.12
414.258	438.12
414.482	426.12
414.705	426.12
414.928	440.12
415.151	421.12
415.374	427.12
415.597	442.12
415.821	436.12
416.044	431.12
416.267	431.12
416.49	426.12
416.713	441.12
416.936	405.12
417.159	442.12
417.382	434.12
417.605	462.12
417.828	482.12
418.051	459.12
418.274	443.12
418.497	436.12
418.72	424.12
418.943	429.12
419.166	436.12
419.389	442.12
419.611	452.12
419.834	486.12
420.057	484.12
420.28	520.12
420.503	522.12
420.726	517.12
420.948	516.12
421.171	526.12
421.394	565.12
421.617	494.12
421.839	460.12
422.062	478.12
422.285	483.12
422.507	542.12
422.73	601.12
422.953	578.12
423.175	503.12
423.398	473.12
423.621	479.12
423.843	506.12
424.066	492.12
424.288	473.12
424.511	508.12
424.733	571.12
424.956	625.12
425.178	619.12
425.401	614.12
425.623	629.12
425.846	539.12
426.068	508.12
426.291	484.12
426.513	489.12
426.735	534.12
426.958	555.12
427.18	624.12
427.402	727.12
427.625	838.12
427.847	752.12
428.069	726.12
428.292	625.12
428.514	557.12
428.736	528.12
428.958	489.12
429.181	477.12
429.403	451.12
429.625	470.12
429.847	505.12
430.069	567.12
430.292	551.12
430.514	487.12
430.736	476.12
430.958	464.12
431.18	440.12
431.402	428.12
431.624	457.12
431.846	413.12
432.068	422.12
432.29	442.12
432.512	427.12
432.734	421.12
432.956	428.12
433.178	450.12
433.4	458.12
433.622	432.12
433.844	409.12
434.066	408.12
434.287	434.12
434.509	420.12
434.731	434.12
434.953	422.12
435.175	457.12
435.397	479.12
435.618	500.12
435.84	534.12
436.062	624.12
436.284	689.12
436.505	579.12
436.727	526.12
436.949	466.12
437.17	449.12
437.392	431.12
437.614	475.12
437.835	523.12
438.057	604.12
438.278	705.12
438.5	692.12
438.721	748.12
438.943	713.12
439.165	570.12
439.386	535.12
439.608	511.12
439.829	511.12
440.05	545.12
440.272	587.12
440.493	546.12
440.715	508.12
440.936	478.12
441.158	467.12
441.379	466.12
441.6	491.12
441.822	483.12
442.043	519.12
442.264	608.12
442.486	659.12
442.707	566.12
442.928	507.12
443.149	523.12
443.371	527.12
443.592	588.12
443.813	682.12
444.034	730.12
444.255	589.12
444.476	516.12
444.698	513.12
444.919	492.12
445.14	584.12
445.361	548.12
445.582	534.12
445.803	611.12
446.024	688.12
446.245	692.12
446.466	660.12
446.687	568.12
446.908	536.12
447.129	495.12
447.35	485.12
447.571	481.12
447.792	460.12
448.013	496.12
448.234	461.12
448.455	538.12
448.675	638.12
448.896	730.12
449.117	629.12
449.338	616.12
449.559	706.12
449.779	784.12
450	638.12
450.221	534.12
450.442	478.12
450.662	460.12
450.883	466.12
451.104	474.12
451.324	471.12
451.545	426.12
451.766	433.12
451.986	428.12
452.207	418.12
452.428	412.12
452.648	417.12
452.869	427.12
453.089	412.12
453.31	425.12
453.53	428.12
453.751	425.12
453.971	417.12
454.192	430.12
454.412	446.12
454.633	410.12
454.853	409.12
455.073	409.12
455.294	444.12
455.514	497.12
455.734	503.12
455.955	426.12
456.175	397.12
456.395	362.12
456.616	404.12
456.836	396.12
457.056	391.12
457.276	383.12
457.497	392.12
457.717	364.12
457.937	391.12
458.157	408.12
458.377	395.12
458.598	415.12
458.818	485.12
459.038	569.12
459.258	559.12
459.478	478.12
459.698	456.12
459.918	428.12
460.138	427.12
460.358	396.12
460.578	394.12
460.798	422.12
461.018	406.12
461.238	407.12
461.458	411.12
461.678	395.12
461.898	414.12
462.118	407.12
462.338	417.12
462.558	408.12
462.777	406.12
462.997	428.12
463.217	443.12
463.437	457.12
463.657	424.12
463.876	429.12
464.096	427.12
464.316	449.12
464.536	464.12
464.755	446.12
464.975	464.12
465.195	491.12
465.414	597.12
465.634	508.12
465.854	452.12
466.073	449.12
466.293	436.12
466.512	418.12
466.732	422.12
466.951	417.12
467.171	427.12
467.391	429.12
467.61	425.12
467.829	460.12
468.049	475.12
468.268	523.12
468.488	480.12
468.707	452.12
468.927	448.12
469.146	418.12
469.365	454.12
469.585	451.12
469.804	433.12
470.023	434.12
470.243	434.12
470.462	416.12
470.681	448.12
470.901	424.12
471.12	428.12
471.339	462.12
471.558	459.12
471.777	443.12
471.997	466.12
472.216	513.12
472.435	718.12
472.654	666.12
472.873	534.12
473.092	469.12
473.311	459.12
473.53	480.12
473.749	473.12
473.968	525.12
474.187	615.12
474.406	635.12
474.625	539.12
474.844	478.12
475.063	450.12
475.282	437.12
475.501	441.12
475.72	457.12
475.939	441.12
476.158	441.12
476.377	467.12
476.596	438.12
476.814	454.12
477.033	467.12
477.252	486.12
477.471	471.12
477.69	462.12
477.908	462.12
478.127	445.12
478.346	459.12
478.564	459.12
478.783	485.12
479.002	497.12
479.22	498.12
479.439	484.12
479.658	520.12
479.876	526.12
480.095	541.12
480.313	576.12
480.532	555.12
480.751	583.12
480.969	653.12
481.188	965.12
481.406	1227.12
481.624	849.12
481.843	678.12
482.061	645.12
482.28	619.12
482.498	599.12
482.717	574.12
482.935	546.12
483.153	538.12
483.372	555.12
483.59	548.12
483.808	536.12
484.027	542.12
484.245	537.12
484.463	541.12
484.681	556.12
484.9	552.12
485.118	551.12
485.336	541.12
485.554	549.12
485.772	553.12
485.99	571.12
486.209	572.12
486.427	571.12
486.645	564.12
486.863	589.12
487.081	585.12
487.299	576.12
487.517	594.12
487.735	557.12
487.953	578.12
488.171	587.12
488.389	589.12
488.607	570.12
488.825	604.12
489.043	587.12
489.261	596.12
489.479	617.12
489.696	598.12
489.914	605.12
490.132	617.12
490.35	609.12
490.568	603.12
490.786	634.12
491.003	666.12
491.221	678.12
491.439	685.12
491.657	679.12
491.874	678.12
492.092	714.12
492.31	716.12
492.527	717.12
492.745	728.12
492.963	739.12
493.18	748.12
493.398	735.12
493.615	742.12
493.833	737.12
494.05	716.12
494.268	746.12
494.485	717.12
494.703	714.12
494.92	702.12
495.138	720.12
495.355	688.12
495.573	705.12
495.79	674.12
496.008	712.12
496.225	712.12
496.442	691.12
496.66	708.12
496.877	702.12
497.094	688.12
497.312	696.12
497.529	688.12
497.746	673.12
497.963	701.12
498.181	727.12
498.398	718.12
498.615	697.12
498.832	716.12
499.049	706.12
499.267	721.12
499.484	760.12
499.701	756.12
499.918	778.12
500.135	790.12
500.352	796.12
500.569	805.12
500.786	793.12
501.003	822.12
501.22	819.12
501.437	808.12
501.654	788.12
501.871	776.12
