Data from 1986.PennyLincolnUp.Lamp.En5.5.200Scan.071819.P2_HRD10591_17-11-25-972.txt Node
Date: Thu Jul 18 17:11:25 EDT 2019
User: cochatt
Spectrometer: HR+D1059
Trigger mode: 1
Integration Time (sec): 1.000000E-1
Scans to average: 1
Electric dark correction enabled: true
Nonlinearity correction enabled: false
Boxcar width: 0
XAxis mode: Wavelengths
Number of Pixels in Spectrum: 2048
>>>>>Begin Spectral Data<<<<<
223.165	-1.19
223.4	-1.19
223.635	-1.19
223.869	-21.19
224.104	-22.19
224.338	-15.19
224.573	-13.19
224.808	-15.19
225.042	-3.19
225.277	-11.19
225.511	-1.19
225.746	4.81
225.98	9.81
226.215	17.81
226.449	16.81
226.683	13.81
226.918	15.81
227.152	24.81
227.387	30.81
227.621	37.81
227.856	47.81
228.09	48.81
228.324	44.81
228.559	44.81
228.793	71.81
229.027	98.81
229.262	102.81
229.496	113.81
229.73	128.81
229.964	153.81
230.199	119.81
230.433	98.81
230.667	106.81
230.901	114.81
231.136	110.81
231.37	108.81
231.604	111.81
231.838	107.81
232.072	101.81
232.306	115.81
232.541	111.81
232.775	115.81
233.009	113.81
233.243	100.81
233.477	105.81
233.711	113.81
233.945	111.81
234.179	105.81
234.413	122.81
234.647	115.81
234.881	110.81
235.115	118.81
235.349	122.81
235.583	119.81
235.817	144.81
236.051	121.81
236.285	123.81
236.519	126.81
236.753	138.81
236.987	143.81
237.221	184.81
237.455	241.81
237.689	212.81
237.922	138.81
238.156	132.81
238.39	122.81
238.624	117.81
238.858	119.81
239.091	107.81
239.325	134.81
239.559	114.81
239.793	138.81
240.027	130.81
240.26	156.81
240.494	144.81
240.728	167.81
240.961	141.81
241.195	156.81
241.429	142.81
241.662	138.81
241.896	131.81
242.13	145.81
242.363	139.81
242.597	168.81
242.83	146.81
243.064	146.81
243.298	138.81
243.531	127.81
243.765	132.81
243.998	127.81
244.232	141.81
244.465	146.81
244.699	147.81
244.932	135.81
245.166	148.81
245.399	150.81
245.633	140.81
245.866	140.81
246.099	158.81
246.333	146.81
246.566	159.81
246.8	149.81
247.033	162.81
247.266	167.81
247.5	161.81
247.733	175.81
247.966	184.81
248.2	191.81
248.433	198.81
248.666	184.81
248.899	198.81
249.133	237.81
249.366	217.81
249.599	212.81
249.832	193.81
250.066	186.81
250.299	201.81
250.532	226.81
250.765	244.81
250.998	249.81
251.231	241.81
251.465	232.81
251.698	224.81
251.931	219.81
252.164	215.81
252.397	224.81
252.63	211.81
252.863	223.81
253.096	229.81
253.329	234.81
253.562	230.81
253.795	224.81
254.028	238.81
254.261	248.81
254.494	276.81
254.727	275.81
254.96	287.81
255.193	295.81
255.426	262.81
255.659	249.81
255.892	277.81
256.124	282.81
256.357	295.81
256.59	283.81
256.823	245.81
257.056	252.81
257.289	239.81
257.521	217.81
257.754	234.81
257.987	224.81
258.22	220.81
258.452	233.81
258.685	229.81
258.918	219.81
259.151	243.81
259.383	246.81
259.616	242.81
259.849	238.81
260.081	240.81
260.314	250.81
260.547	256.81
260.779	260.81
261.012	247.81
261.244	257.81
261.477	246.81
261.71	236.81
261.942	239.81
262.175	261.81
262.407	256.81
262.64	225.81
262.872	226.81
263.105	212.81
263.337	218.81
263.57	217.81
263.802	211.81
264.035	216.81
264.267	211.81
264.499	229.81
264.732	226.81
264.964	224.81
265.197	221.81
265.429	217.81
265.661	229.81
265.894	222.81
266.126	214.81
266.358	221.81
266.591	223.81
266.823	238.81
267.055	238.81
267.287	239.81
267.52	234.81
267.752	243.81
267.984	232.81
268.216	229.81
268.448	231.81
268.681	240.81
268.913	256.81
269.145	262.81
269.377	284.81
269.609	268.81
269.841	279.81
270.073	276.81
270.306	323.81
270.538	310.81
270.77	320.81
271.002	326.81
271.234	314.81
271.466	319.81
271.698	321.81
271.93	335.81
272.162	340.81
272.394	345.81
272.626	318.81
272.858	305.81
273.09	304.81
273.322	288.81
273.553	279.81
273.785	271.81
274.017	272.81
274.249	276.81
274.481	274.81
274.713	282.81
274.945	273.81
275.176	276.81
275.408	265.81
275.64	277.81
275.872	277.81
276.104	277.81
276.335	265.81
276.567	268.81
276.799	302.81
277.031	336.81
277.262	325.81
277.494	339.81
277.726	315.81
277.957	304.81
278.189	293.81
278.421	275.81
278.652	279.81
278.884	269.81
279.115	272.81
279.347	277.81
279.579	275.81
279.81	281.81
280.042	271.81
280.273	288.81
280.505	266.81
280.736	274.81
280.968	270.81
281.199	268.81
281.431	280.81
281.662	241.81
281.894	266.81
282.125	272.81
282.356	292.81
282.588	322.81
282.819	295.81
283.051	279.81
283.282	271.81
283.513	264.81
283.745	282.81
283.976	284.81
284.207	288.81
284.439	279.81
284.67	298.81
284.901	274.81
285.132	277.81
285.364	272.81
285.595	275.81
285.826	286.81
286.057	278.81
286.288	267.81
286.52	289.81
286.751	274.81
286.982	267.81
287.213	288.81
287.444	268.81
287.675	280.81
287.906	283.81
288.138	310.81
288.369	303.81
288.6	298.81
288.831	295.81
289.062	292.81
289.293	282.81
289.524	292.81
289.755	297.81
289.986	297.81
290.217	297.81
290.448	285.81
290.679	284.81
290.91	281.81
291.141	289.81
291.371	274.81
291.602	289.81
291.833	275.81
292.064	280.81
292.295	281.81
292.526	282.81
292.757	287.81
292.987	294.81
293.218	281.81
293.449	298.81
293.68	297.81
293.91	282.81
294.141	276.81
294.372	275.81
294.603	272.81
294.833	290.81
295.064	299.81
295.295	283.81
295.525	295.81
295.756	284.81
295.987	288.81
296.217	331.81
296.448	326.81
296.679	303.81
296.909	292.81
297.14	264.81
297.37	298.81
297.601	290.81
297.831	293.81
298.062	294.81
298.292	288.81
298.523	303.81
298.753	295.81
298.984	286.81
299.214	304.81
299.445	321.81
299.675	287.81
299.905	291.81
300.136	286.81
300.366	294.81
300.597	321.81
300.827	309.81
301.057	318.81
301.288	309.81
301.518	324.81
301.748	310.81
301.979	316.81
302.209	314.81
302.439	309.81
302.669	318.81
302.9	314.81
303.13	315.81
303.36	317.81
303.59	332.81
303.82	336.81
304.051	326.81
304.281	312.81
304.511	308.81
304.741	308.81
304.971	305.81
305.201	306.81
305.431	303.81
305.661	311.81
305.891	307.81
306.121	309.81
306.352	312.81
306.582	314.81
306.812	330.81
307.042	318.81
307.272	319.81
307.502	324.81
307.731	317.81
307.961	323.81
308.191	310.81
308.421	312.81
308.651	324.81
308.881	326.81
309.111	340.81
309.341	352.81
309.571	342.81
309.8	346.81
310.03	360.81
310.26	381.81
310.49	362.81
310.72	378.81
310.949	379.81
311.179	410.81
311.409	384.81
311.639	386.81
311.868	374.81
312.098	375.81
312.328	380.81
312.557	395.81
312.787	432.81
313.017	410.81
313.246	378.81
313.476	375.81
313.706	368.81
313.935	368.81
314.165	403.81
314.394	404.81
314.624	396.81
314.853	388.81
315.083	377.81
315.312	372.81
315.542	371.81
315.771	372.81
316.001	358.81
316.23	374.81
316.46	371.81
316.689	368.81
316.919	386.81
317.148	392.81
317.377	382.81
317.607	370.81
317.836	378.81
318.065	376.81
318.295	369.81
318.524	361.81
318.753	345.81
318.983	352.81
319.212	376.81
319.441	386.81
319.67	388.81
319.9	393.81
320.129	388.81
320.358	384.81
320.587	394.81
320.816	396.81
321.046	415.81
321.275	375.81
321.504	398.81
321.733	417.81
321.962	417.81
322.191	451.81
322.42	458.81
322.649	458.81
322.878	494.81
323.108	474.81
323.337	519.81
323.566	540.81
323.795	571.81
324.024	628.81
324.253	788.81
324.482	1105.81
324.71	1679.81
324.939	2448.81
325.168	2165.81
325.397	1136.81
325.626	767.81
325.855	650.81
326.084	550.81
326.313	535.81
326.542	547.81
326.77	611.81
326.999	718.81
327.228	954.81
327.457	1488.81
327.686	1848.81
327.914	1262.81
328.143	849.81
328.372	759.81
328.6	700.81
328.829	623.81
329.058	632.81
329.287	647.81
329.515	622.81
329.744	579.81
329.972	594.81
330.201	629.81
330.43	690.81
330.658	715.81
330.887	724.81
331.115	665.81
331.344	572.81
331.572	530.81
331.801	509.81
332.03	544.81
332.258	479.81
332.486	480.81
332.715	471.81
332.943	480.81
333.172	437.81
333.4	490.81
333.629	502.81
333.857	523.81
334.085	550.81
334.314	595.81
334.542	690.81
334.771	694.81
334.999	586.81
335.227	514.81
335.455	479.81
335.684	449.81
335.912	462.81
336.14	448.81
336.369	450.81
336.597	443.81
336.825	440.81
337.053	443.81
337.281	441.81
337.51	418.81
337.738	430.81
337.966	440.81
338.194	437.81
338.422	435.81
338.65	430.81
338.878	435.81
339.106	391.81
339.334	423.81
339.562	427.81
339.79	410.81
340.018	427.81
340.246	414.81
340.474	436.81
340.702	425.81
340.93	407.81
341.158	402.81
341.386	423.81
341.614	427.81
341.842	436.81
342.07	418.81
342.298	417.81
342.526	407.81
342.754	410.81
342.981	401.81
343.209	418.81
343.437	402.81
343.665	380.81
343.893	405.81
344.12	410.81
344.348	401.81
344.576	409.81
344.804	425.81
345.031	426.81
345.259	442.81
345.487	411.81
345.714	420.81
345.942	406.81
346.17	403.81
346.397	408.81
346.625	398.81
346.853	412.81
347.08	410.81
347.308	402.81
347.535	424.81
347.763	432.81
347.99	421.81
348.218	432.81
348.445	418.81
348.673	415.81
348.9	428.81
349.128	401.81
349.355	378.81
349.583	396.81
349.81	388.81
350.037	375.81
350.265	394.81
350.492	408.81
350.72	386.81
350.947	395.81
351.174	400.81
351.402	417.81
351.629	411.81
351.856	421.81
352.083	400.81
352.311	423.81
352.538	434.81
352.765	440.81
352.992	399.81
353.22	403.81
353.447	393.81
353.674	400.81
353.901	377.81
354.128	378.81
354.355	353.81
354.583	386.81
354.81	386.81
355.037	373.81
355.264	369.81
355.491	370.81
355.718	362.81
355.945	373.81
356.172	375.81
356.399	354.81
356.626	378.81
356.853	370.81
357.08	360.81
357.307	368.81
357.534	355.81
357.761	358.81
357.988	356.81
358.215	359.81
358.441	378.81
358.668	370.81
358.895	384.81
359.122	386.81
359.349	370.81
359.576	410.81
359.802	419.81
360.029	460.81
360.256	477.81
360.483	460.81
360.709	394.81
360.936	417.81
361.163	395.81
361.39	409.81
361.616	419.81
361.843	392.81
362.07	403.81
362.296	402.81
362.523	415.81
362.749	395.81
362.976	354.81
363.203	396.81
363.429	400.81
363.656	376.81
363.882	387.81
364.109	370.81
364.335	383.81
364.562	374.81
364.788	372.81
365.015	371.81
365.241	375.81
365.468	379.81
365.694	399.81
365.92	377.81
366.147	381.81
366.373	379.81
366.599	359.81
366.826	375.81
367.052	380.81
367.278	379.81
367.505	383.81
367.731	361.81
367.957	358.81
368.184	370.81
368.41	368.81
368.636	396.81
368.862	411.81
369.089	378.81
369.315	364.81
369.541	351.81
369.767	361.81
369.993	361.81
370.219	366.81
370.445	369.81
370.672	369.81
370.898	381.81
371.124	366.81
371.35	354.81
371.576	366.81
371.802	366.81
372.028	351.81
372.254	364.81
372.48	352.81
372.706	369.81
372.932	334.81
373.158	378.81
373.384	370.81
373.61	352.81
373.835	372.81
374.061	362.81
374.287	355.81
374.513	355.81
374.739	360.81
374.965	382.81
375.191	372.81
375.416	375.81
375.642	360.81
375.868	368.81
376.094	359.81
376.319	372.81
376.545	360.81
376.771	348.81
376.997	368.81
377.222	354.81
377.448	367.81
377.674	363.81
377.899	358.81
378.125	330.81
378.35	372.81
378.576	370.81
378.802	356.81
379.027	376.81
379.253	359.81
379.478	360.81
379.704	366.81
379.929	366.81
380.155	344.81
380.38	370.81
380.606	354.81
380.831	360.81
381.057	373.81
381.282	363.81
381.507	354.81
381.733	356.81
381.958	352.81
382.184	368.81
382.409	368.81
382.634	368.81
382.86	341.81
383.085	362.81
383.31	353.81
383.535	360.81
383.761	358.81
383.986	346.81
384.211	369.81
384.436	382.81
384.662	373.81
384.887	363.81
385.112	387.81
385.337	366.81
385.562	393.81
385.787	362.81
386.013	380.81
386.238	400.81
386.463	382.81
386.688	386.81
386.913	375.81
387.138	368.81
387.363	359.81
387.588	384.81
387.813	387.81
388.038	364.81
388.263	370.81
388.488	376.81
388.713	362.81
388.938	382.81
389.163	407.81
389.387	395.81
389.612	379.81
389.837	377.81
390.062	369.81
390.287	363.81
390.512	366.81
390.736	382.81
390.961	378.81
391.186	384.81
391.411	364.81
391.636	374.81
391.86	370.81
392.085	390.81
392.31	376.81
392.534	384.81
392.759	379.81
392.984	382.81
393.208	378.81
393.433	361.81
393.658	390.81
393.882	369.81
394.107	376.81
394.331	367.81
394.556	371.81
394.78	379.81
395.005	368.81
395.229	396.81
395.454	382.81
395.678	419.81
395.903	424.81
396.127	426.81
396.352	433.81
396.576	413.81
396.801	397.81
397.025	378.81
397.249	395.81
397.474	376.81
397.698	396.81
397.922	410.81
398.147	419.81
398.371	417.81
398.595	405.81
398.82	400.81
399.044	413.81
399.268	423.81
399.492	440.81
399.717	464.81
399.941	491.81
400.165	515.81
400.389	528.81
400.613	470.81
400.837	451.81
401.062	442.81
401.286	428.81
401.51	416.81
401.734	434.81
401.958	418.81
402.182	427.81
402.406	418.81
402.63	435.81
402.854	448.81
403.078	425.81
403.302	450.81
403.526	434.81
403.75	443.81
403.974	425.81
404.198	448.81
404.422	456.81
404.645	468.81
404.869	478.81
405.093	522.81
405.317	554.81
405.541	608.81
405.765	539.81
405.988	505.81
406.212	497.81
406.436	515.81
406.66	514.81
406.883	499.81
407.107	519.81
407.331	555.81
407.555	608.81
407.778	596.81
408.002	552.81
408.226	507.81
408.449	518.81
408.673	495.81
408.896	514.81
409.12	566.81
409.344	542.81
409.567	479.81
409.791	454.81
410.014	444.81
410.238	457.81
410.461	449.81
410.685	465.81
410.908	460.81
411.132	507.81
411.355	552.81
411.578	497.81
411.802	481.81
412.025	471.81
412.249	489.81
412.472	508.81
412.695	560.81
412.919	574.81
413.142	512.81
413.365	462.81
413.589	471.81
413.812	449.81
414.035	472.81
414.258	426.81
414.482	430.81
414.705	423.81
414.928	419.81
415.151	425.81
415.374	410.81
415.597	434.81
415.821	424.81
416.044	414.81
416.267	441.81
416.49	426.81
416.713	425.81
416.936	415.81
417.159	432.81
417.382	431.81
417.605	437.81
417.828	449.81
418.051	485.81
418.274	441.81
418.497	445.81
418.72	424.81
418.943	434.81
419.166	432.81
419.389	455.81
419.611	487.81
419.834	467.81
420.057	484.81
420.28	486.81
420.503	472.81
420.726	479.81
420.948	474.81
421.171	524.81
421.394	553.81
421.617	495.81
421.839	471.81
422.062	458.81
422.285	463.81
422.507	526.81
422.73	598.81
422.953	585.81
423.175	510.81
423.398	483.81
423.621	472.81
423.843	500.81
424.066	483.81
424.288	490.81
424.511	493.81
424.733	556.81
424.956	631.81
425.178	608.81
425.401	622.81
425.623	654.81
425.846	542.81
426.068	504.81
426.291	495.81
426.513	484.81
426.735	526.81
426.958	560.81
427.18	622.81
427.402	774.81
427.625	827.81
427.847	780.81
428.069	675.81
428.292	601.81
428.514	531.81
428.736	492.81
428.958	499.81
429.181	472.81
429.403	494.81
429.625	488.81
429.847	511.81
430.069	571.81
430.292	539.81
430.514	503.81
430.736	444.81
430.958	451.81
431.18	441.81
431.402	435.81
431.624	428.81
431.846	425.81
432.068	422.81
432.29	413.81
432.512	437.81
432.734	436.81
432.956	445.81
433.178	440.81
433.4	480.81
433.622	441.81
433.844	444.81
434.066	430.81
434.287	433.81
434.509	430.81
434.731	446.81
434.953	441.81
435.175	463.81
435.397	491.81
435.618	516.81
435.84	556.81
436.062	639.81
436.284	717.81
436.505	612.81
436.727	526.81
436.949	463.81
437.17	475.81
437.392	480.81
437.614	470.81
437.835	532.81
438.057	613.81
438.278	726.81
438.5	736.81
438.721	784.81
438.943	747.81
439.165	601.81
439.386	532.81
439.608	529.81
439.829	499.81
440.05	586.81
440.272	593.81
440.493	565.81
440.715	524.81
440.936	467.81
441.158	460.81
441.379	459.81
441.6	486.81
441.822	499.81
442.043	538.81
442.264	617.81
442.486	668.81
442.707	569.81
442.928	524.81
443.149	545.81
443.371	557.81
443.592	586.81
443.813	676.81
444.034	734.81
444.255	627.81
444.476	522.81
444.698	490.81
444.919	507.81
445.14	576.81
445.361	554.81
445.582	544.81
445.803	624.81
446.024	731.81
446.245	729.81
446.466	667.81
446.687	559.81
446.908	515.81
447.129	471.81
447.35	468.81
447.571	474.81
447.792	451.81
448.013	490.81
448.234	515.81
448.455	544.81
448.675	673.81
448.896	742.81
449.117	668.81
449.338	632.81
449.559	722.81
449.779	807.81
450	650.81
450.221	547.81
450.442	496.81
450.662	497.81
450.883	502.81
451.104	512.81
451.324	488.81
451.545	473.81
451.766	453.81
451.986	440.81
452.207	435.81
452.428	391.81
452.648	412.81
452.869	413.81
453.089	436.81
453.31	436.81
453.53	417.81
453.751	444.81
453.971	445.81
454.192	438.81
454.412	448.81
454.633	447.81
454.853	409.81
455.073	414.81
455.294	452.81
455.514	497.81
455.734	490.81
455.955	446.81
456.175	424.81
456.395	392.81
456.616	390.81
456.836	383.81
457.056	382.81
457.276	394.81
457.497	408.81
457.717	417.81
457.937	401.81
458.157	401.81
458.377	411.81
458.598	414.81
458.818	503.81
459.038	582.81
459.258	575.81
459.478	484.81
459.698	441.81
459.918	424.81
460.138	426.81
460.358	417.81
460.578	414.81
460.798	410.81
461.018	436.81
461.238	420.81
461.458	411.81
461.678	401.81
461.898	434.81
462.118	428.81
462.338	426.81
462.558	435.81
462.777	427.81
462.997	434.81
463.217	450.81
463.437	454.81
463.657	419.81
463.876	444.81
464.096	454.81
464.316	447.81
464.536	437.81
464.755	458.81
464.975	464.81
465.195	531.81
465.414	610.81
465.634	537.81
465.854	482.81
466.073	464.81
466.293	452.81
466.512	414.81
466.732	421.81
466.951	424.81
467.171	434.81
467.391	419.81
467.61	436.81
467.829	450.81
468.049	432.81
468.268	458.81
468.488	448.81
468.707	430.81
468.927	432.81
469.146	434.81
469.365	414.81
469.585	406.81
469.804	427.81
470.023	426.81
470.243	453.81
470.462	444.81
470.681	444.81
470.901	467.81
471.12	433.81
471.339	441.81
471.558	444.81
471.777	441.81
471.997	438.81
472.216	464.81
472.435	562.81
472.654	551.81
472.873	479.81
473.092	480.81
473.311	447.81
473.53	453.81
473.749	448.81
473.968	512.81
474.187	610.81
474.406	614.81
474.625	502.81
474.844	480.81
475.063	434.81
475.282	422.81
475.501	433.81
475.72	436.81
475.939	451.81
476.158	435.81
476.377	461.81
476.596	439.81
476.814	458.81
477.033	455.81
477.252	454.81
477.471	447.81
477.69	458.81
477.908	476.81
478.127	465.81
478.346	476.81
478.564	471.81
478.783	467.81
479.002	493.81
479.22	488.81
479.439	502.81
479.658	524.81
479.876	545.81
480.095	540.81
480.313	546.81
480.532	552.81
480.751	555.81
480.969	576.81
481.188	722.81
481.406	869.81
481.624	670.81
481.843	590.81
482.061	562.81
482.28	548.81
482.498	540.81
482.717	539.81
482.935	534.81
483.153	532.81
483.372	534.81
483.59	529.81
483.808	520.81
484.027	539.81
484.245	523.81
484.463	535.81
484.681	521.81
484.9	519.81
485.118	536.81
485.336	525.81
485.554	553.81
485.772	534.81
485.99	533.81
486.209	538.81
486.427	553.81
486.645	553.81
486.863	592.81
487.081	569.81
487.299	583.81
487.517	573.81
487.735	567.81
487.953	565.81
488.171	558.81
488.389	583.81
488.607	570.81
488.825	552.81
489.043	569.81
489.261	562.81
489.479	584.81
489.696	612.81
489.914	564.81
490.132	588.81
490.35	586.81
490.568	632.81
490.786	604.81
491.003	610.81
491.221	634.81
491.439	652.81
491.657	664.81
491.874	655.81
492.092	667.81
492.31	670.81
492.527	658.81
492.745	688.81
492.963	666.81
493.18	699.81
493.398	652.81
493.615	694.81
493.833	675.81
494.05	693.81
494.268	689.81
494.485	657.81
494.703	675.81
494.92	666.81
495.138	682.81
495.355	691.81
495.573	704.81
495.79	705.81
496.008	710.81
496.225	696.81
496.442	684.81
496.66	692.81
496.877	682.81
497.094	687.81
497.312	664.81
497.529	679.81
497.746	684.81
497.963	689.81
498.181	705.81
498.398	698.81
498.615	733.81
498.832	732.81
499.049	738.81
499.267	724.81
499.484	732.81
499.701	747.81
499.918	774.81
500.135	818.81
500.352	801.81
500.569	807.81
500.786	795.81
501.003	814.81
501.22	826.81
501.437	812.81
501.654	814.81
501.871	786.81
