Data from 1986.PennyLincolnUp.Lamp.En5.5.200Scan.071819.P2_HRD10591_17-09-53-976.txt Node
Date: Thu Jul 18 17:09:53 EDT 2019
User: cochatt
Spectrometer: HR+D1059
Trigger mode: 1
Integration Time (sec): 1.000000E-1
Scans to average: 1
Electric dark correction enabled: true
Nonlinearity correction enabled: false
Boxcar width: 0
XAxis mode: Wavelengths
Number of Pixels in Spectrum: 2048
>>>>>Begin Spectral Data<<<<<
223.165	-10.19
223.4	-10.19
223.635	-10.19
223.869	-18.19
224.104	-30.19
224.338	-9.19
224.573	-20.19
224.808	1.81
225.042	-6.19
225.277	-8.19
225.511	-8.19
225.746	1.81
225.98	13.81
226.215	13.81
226.449	10.81
226.683	8.81
226.918	27.81
227.152	31.81
227.387	30.81
227.621	37.81
227.856	58.81
228.09	48.81
228.324	53.81
228.559	48.81
228.793	57.81
229.027	96.81
229.262	117.81
229.496	109.81
229.73	117.81
229.964	172.81
230.199	149.81
230.433	121.81
230.667	107.81
230.901	117.81
231.136	101.81
231.37	108.81
231.604	120.81
231.838	104.81
232.072	122.81
232.306	115.81
232.541	107.81
232.775	105.81
233.009	99.81
233.243	107.81
233.477	104.81
233.711	104.81
233.945	108.81
234.179	118.81
234.413	115.81
234.647	115.81
234.881	104.81
235.115	136.81
235.349	112.81
235.583	105.81
235.817	120.81
236.051	124.81
236.285	119.81
236.519	133.81
236.753	143.81
236.987	146.81
237.221	187.81
237.455	237.81
237.689	182.81
237.922	143.81
238.156	131.81
238.39	126.81
238.624	115.81
238.858	126.81
239.091	127.81
239.325	126.81
239.559	128.81
239.793	131.81
240.027	134.81
240.26	123.81
240.494	140.81
240.728	138.81
240.961	149.81
241.195	141.81
241.429	146.81
241.662	128.81
241.896	129.81
242.13	137.81
242.363	142.81
242.597	143.81
242.83	142.81
243.064	125.81
243.298	135.81
243.531	119.81
243.765	137.81
243.998	132.81
244.232	138.81
244.465	140.81
244.699	148.81
244.932	154.81
245.166	136.81
245.399	139.81
245.633	143.81
245.866	159.81
246.099	153.81
246.333	140.81
246.566	139.81
246.8	148.81
247.033	154.81
247.266	158.81
247.5	161.81
247.733	177.81
247.966	173.81
248.2	192.81
248.433	160.81
248.666	179.81
248.899	187.81
249.133	190.81
249.366	224.81
249.599	201.81
249.832	189.81
250.066	176.81
250.299	185.81
250.532	188.81
250.765	186.81
250.998	209.81
251.231	232.81
251.465	215.81
251.698	191.81
251.931	214.81
252.164	196.81
252.397	195.81
252.63	196.81
252.863	187.81
253.096	215.81
253.329	243.81
253.562	225.81
253.795	223.81
254.028	222.81
254.261	212.81
254.494	247.81
254.727	245.81
254.96	270.81
255.193	263.81
255.426	255.81
255.659	219.81
255.892	241.81
256.124	206.81
256.357	185.81
256.59	223.81
256.823	214.81
257.056	209.81
257.289	213.81
257.521	213.81
257.754	220.81
257.987	200.81
258.22	200.81
258.452	199.81
258.685	208.81
258.918	209.81
259.151	221.81
259.383	215.81
259.616	219.81
259.849	209.81
260.081	254.81
260.314	243.81
260.547	257.81
260.779	254.81
261.012	234.81
261.244	222.81
261.477	221.81
261.71	220.81
261.942	224.81
262.175	223.81
262.407	240.81
262.64	218.81
262.872	222.81
263.105	197.81
263.337	209.81
263.57	195.81
263.802	213.81
264.035	208.81
264.267	206.81
264.499	198.81
264.732	196.81
264.964	190.81
265.197	208.81
265.429	203.81
265.661	184.81
265.894	203.81
266.126	206.81
266.358	219.81
266.591	209.81
266.823	223.81
267.055	211.81
267.287	225.81
267.52	214.81
267.752	221.81
267.984	218.81
268.216	207.81
268.448	235.81
268.681	208.81
268.913	228.81
269.145	269.81
269.377	275.81
269.609	262.81
269.841	262.81
270.073	262.81
270.306	284.81
270.538	331.81
270.77	323.81
271.002	296.81
271.234	268.81
271.466	284.81
271.698	296.81
271.93	301.81
272.162	315.81
272.394	288.81
272.626	283.81
272.858	284.81
273.09	278.81
273.322	279.81
273.553	249.81
273.785	263.81
274.017	256.81
274.249	249.81
274.481	244.81
274.713	259.81
274.945	272.81
275.176	245.81
275.408	245.81
275.64	248.81
275.872	263.81
276.104	245.81
276.335	252.81
276.567	259.81
276.799	265.81
277.031	281.81
277.262	309.81
277.494	315.81
277.726	283.81
277.957	292.81
278.189	281.81
278.421	262.81
278.652	262.81
278.884	268.81
279.115	248.81
279.347	222.81
279.579	246.81
279.81	265.81
280.042	251.81
280.273	254.81
280.505	259.81
280.736	243.81
280.968	238.81
281.199	251.81
281.431	247.81
281.662	240.81
281.894	231.81
282.125	235.81
282.356	272.81
282.588	288.81
282.819	285.81
283.051	251.81
283.282	258.81
283.513	243.81
283.745	251.81
283.976	260.81
284.207	248.81
284.439	253.81
284.67	257.81
284.901	254.81
285.132	248.81
285.364	241.81
285.595	235.81
285.826	245.81
286.057	259.81
286.288	236.81
286.52	237.81
286.751	242.81
286.982	223.81
287.213	251.81
287.444	259.81
287.675	252.81
287.906	270.81
288.138	276.81
288.369	279.81
288.6	267.81
288.831	283.81
289.062	277.81
289.293	251.81
289.524	266.81
289.755	262.81
289.986	245.81
290.217	268.81
290.448	268.81
290.679	267.81
290.91	240.81
291.141	245.81
291.371	254.81
291.602	252.81
291.833	263.81
292.064	269.81
292.295	255.81
292.526	282.81
292.757	244.81
292.987	271.81
293.218	261.81
293.449	271.81
293.68	263.81
293.91	265.81
294.141	251.81
294.372	246.81
294.603	254.81
294.833	250.81
295.064	254.81
295.295	270.81
295.525	249.81
295.756	257.81
295.987	279.81
296.217	307.81
296.448	289.81
296.679	274.81
296.909	264.81
297.14	259.81
297.37	263.81
297.601	268.81
297.831	257.81
298.062	272.81
298.292	253.81
298.523	281.81
298.753	255.81
298.984	268.81
299.214	283.81
299.445	286.81
299.675	294.81
299.905	294.81
300.136	288.81
300.366	270.81
300.597	291.81
300.827	281.81
301.057	270.81
301.288	292.81
301.518	289.81
301.748	271.81
301.979	274.81
302.209	293.81
302.439	288.81
302.669	303.81
302.9	288.81
303.13	301.81
303.36	294.81
303.59	299.81
303.82	292.81
304.051	311.81
304.281	274.81
304.511	286.81
304.741	297.81
304.971	266.81
305.201	286.81
305.431	301.81
305.661	282.81
305.891	286.81
306.121	276.81
306.352	308.81
306.582	294.81
306.812	271.81
307.042	280.81
307.272	302.81
307.502	289.81
307.731	293.81
307.961	288.81
308.191	299.81
308.421	294.81
308.651	293.81
308.881	297.81
309.111	303.81
309.341	317.81
309.571	323.81
309.8	334.81
310.03	343.81
310.26	347.81
310.49	334.81
310.72	331.81
310.949	368.81
311.179	368.81
311.409	365.81
311.639	353.81
311.868	345.81
312.098	352.81
312.328	356.81
312.557	350.81
312.787	381.81
313.017	368.81
313.246	354.81
313.476	335.81
313.706	348.81
313.935	325.81
314.165	345.81
314.394	374.81
314.624	367.81
314.853	351.81
315.083	343.81
315.312	328.81
315.542	335.81
315.771	341.81
316.001	323.81
316.23	328.81
316.46	324.81
316.689	329.81
316.919	341.81
317.148	347.81
317.377	321.81
317.607	352.81
317.836	348.81
318.065	337.81
318.295	348.81
318.524	309.81
318.753	341.81
318.983	344.81
319.212	343.81
319.441	333.81
319.67	353.81
319.9	344.81
320.129	355.81
320.358	358.81
320.587	346.81
320.816	344.81
321.046	357.81
321.275	363.81
321.504	361.81
321.733	350.81
321.962	374.81
322.191	372.81
322.42	408.81
322.649	409.81
322.878	413.81
323.108	433.81
323.337	461.81
323.566	487.81
323.795	512.81
324.024	551.81
324.253	671.81
324.482	955.81
324.71	1449.81
324.939	2088.81
325.168	1879.81
325.397	965.81
325.626	649.81
325.855	529.81
326.084	501.81
326.313	479.81
326.542	478.81
326.77	538.81
326.999	629.81
327.228	849.81
327.457	1297.81
327.686	1610.81
327.914	1095.81
328.143	686.81
328.372	608.81
328.6	563.81
328.829	534.81
329.058	552.81
329.287	568.81
329.515	529.81
329.744	465.81
329.972	461.81
330.201	452.81
330.43	468.81
330.658	502.81
330.887	571.81
331.115	575.81
331.344	438.81
331.572	463.81
331.801	440.81
332.03	453.81
332.258	445.81
332.486	403.81
332.715	379.81
332.943	394.81
333.172	406.81
333.4	392.81
333.629	383.81
333.857	399.81
334.085	394.81
334.314	385.81
334.542	406.81
334.771	401.81
334.999	371.81
335.227	397.81
335.455	402.81
335.684	387.81
335.912	368.81
336.14	381.81
336.369	391.81
336.597	382.81
336.825	376.81
337.053	393.81
337.281	349.81
337.51	395.81
337.738	400.81
337.966	376.81
338.194	383.81
338.422	384.81
338.65	390.81
338.878	377.81
339.106	359.81
339.334	367.81
339.562	374.81
339.79	361.81
340.018	366.81
340.246	406.81
340.474	381.81
340.702	373.81
340.93	371.81
341.158	347.81
341.386	369.81
341.614	382.81
341.842	393.81
342.07	387.81
342.298	346.81
342.526	361.81
342.754	363.81
342.981	353.81
343.209	359.81
343.437	350.81
343.665	363.81
343.893	371.81
344.12	372.81
344.348	379.81
344.576	367.81
344.804	374.81
345.031	395.81
345.259	402.81
345.487	379.81
345.714	389.81
345.942	364.81
346.17	365.81
346.397	365.81
346.625	379.81
346.853	386.81
347.08	381.81
347.308	371.81
347.535	359.81
347.763	392.81
347.99	380.81
348.218	356.81
348.445	374.81
348.673	371.81
348.9	369.81
349.128	374.81
349.355	362.81
349.583	356.81
349.81	350.81
350.037	364.81
350.265	350.81
350.492	347.81
350.72	349.81
350.947	345.81
351.174	369.81
351.402	371.81
351.629	361.81
351.856	378.81
352.083	381.81
352.311	385.81
352.538	399.81
352.765	384.81
352.992	399.81
353.22	365.81
353.447	360.81
353.674	365.81
353.901	354.81
354.128	343.81
354.355	355.81
354.583	350.81
354.81	347.81
355.037	349.81
355.264	341.81
355.491	357.81
355.718	339.81
355.945	342.81
356.172	337.81
356.399	336.81
356.626	325.81
356.853	344.81
357.08	336.81
357.307	319.81
357.534	339.81
357.761	326.81
357.988	341.81
358.215	329.81
358.441	332.81
358.668	337.81
358.895	331.81
359.122	352.81
359.349	341.81
359.576	375.81
359.802	388.81
360.029	402.81
360.256	452.81
360.483	409.81
360.709	388.81
360.936	350.81
361.163	358.81
361.39	373.81
361.616	360.81
361.843	359.81
362.07	365.81
362.296	361.81
362.523	349.81
362.749	370.81
362.976	350.81
363.203	326.81
363.429	339.81
363.656	371.81
363.882	354.81
364.109	352.81
364.335	349.81
364.562	355.81
364.788	357.81
365.015	342.81
365.241	356.81
365.468	355.81
365.694	359.81
365.92	348.81
366.147	326.81
366.373	343.81
366.599	350.81
366.826	345.81
367.052	342.81
367.278	331.81
367.505	329.81
367.731	358.81
367.957	336.81
368.184	347.81
368.41	344.81
368.636	364.81
368.862	375.81
369.089	370.81
369.315	342.81
369.541	350.81
369.767	339.81
369.993	357.81
370.219	363.81
370.445	356.81
370.672	341.81
370.898	348.81
371.124	327.81
371.35	330.81
371.576	319.81
371.802	343.81
372.028	326.81
372.254	330.81
372.48	323.81
372.706	337.81
372.932	325.81
373.158	331.81
373.384	350.81
373.61	336.81
373.835	332.81
374.061	341.81
374.287	366.81
374.513	349.81
374.739	346.81
374.965	351.81
375.191	340.81
375.416	348.81
375.642	312.81
375.868	344.81
376.094	337.81
376.319	332.81
376.545	352.81
376.771	322.81
376.997	344.81
377.222	322.81
377.448	328.81
377.674	339.81
377.899	346.81
378.125	341.81
378.35	346.81
378.576	340.81
378.802	327.81
379.027	348.81
379.253	335.81
379.478	334.81
379.704	343.81
379.929	350.81
380.155	319.81
380.38	337.81
380.606	354.81
380.831	327.81
381.057	350.81
381.282	358.81
381.507	351.81
381.733	332.81
381.958	331.81
382.184	349.81
382.409	335.81
382.634	327.81
382.86	350.81
383.085	351.81
383.31	336.81
383.535	343.81
383.761	359.81
383.986	333.81
384.211	361.81
384.436	357.81
384.662	351.81
384.887	371.81
385.112	337.81
385.337	325.81
385.562	340.81
385.787	351.81
386.013	377.81
386.238	351.81
386.463	364.81
386.688	351.81
386.913	353.81
387.138	368.81
387.363	363.81
387.588	357.81
387.813	353.81
388.038	350.81
388.263	351.81
388.488	364.81
388.713	340.81
388.938	345.81
389.163	346.81
389.387	336.81
389.612	336.81
389.837	343.81
390.062	338.81
390.287	359.81
390.512	353.81
390.736	343.81
390.961	349.81
391.186	351.81
391.411	350.81
391.636	355.81
391.86	349.81
392.085	355.81
392.31	347.81
392.534	344.81
392.759	336.81
392.984	353.81
393.208	336.81
393.433	355.81
393.658	364.81
393.882	337.81
394.107	341.81
394.331	352.81
394.556	351.81
394.78	360.81
395.005	350.81
395.229	352.81
395.454	361.81
395.678	366.81
395.903	366.81
396.127	411.81
396.352	425.81
396.576	379.81
396.801	361.81
397.025	364.81
397.249	360.81
397.474	387.81
397.698	366.81
397.922	367.81
398.147	407.81
398.371	387.81
398.595	399.81
398.82	383.81
399.044	388.81
399.268	401.81
399.492	416.81
399.717	444.81
399.941	437.81
400.165	463.81
400.389	475.81
400.613	461.81
400.837	417.81
401.062	397.81
401.286	366.81
401.51	403.81
401.734	402.81
401.958	380.81
402.182	395.81
402.406	412.81
402.63	415.81
402.854	387.81
403.078	414.81
403.302	397.81
403.526	408.81
403.75	406.81
403.974	403.81
404.198	395.81
404.422	412.81
404.645	419.81
404.869	412.81
405.093	436.81
405.317	441.81
405.541	454.81
405.765	429.81
405.988	435.81
406.212	448.81
406.436	485.81
406.66	483.81
406.883	452.81
407.107	469.81
407.331	515.81
407.555	564.81
407.778	559.81
408.002	500.81
408.226	467.81
408.449	464.81
408.673	464.81
408.896	468.81
409.12	511.81
409.344	471.81
409.567	458.81
409.791	426.81
410.014	421.81
410.238	412.81
410.461	411.81
410.685	425.81
410.908	448.81
411.132	452.81
411.355	477.81
411.578	458.81
411.802	410.81
412.025	416.81
412.249	395.81
412.472	406.81
412.695	403.81
412.919	423.81
413.142	404.81
413.365	395.81
413.589	412.81
413.812	405.81
414.035	390.81
414.258	371.81
414.482	388.81
414.705	375.81
414.928	378.81
415.151	371.81
415.374	384.81
415.597	382.81
415.821	393.81
416.044	390.81
416.267	400.81
416.49	386.81
416.713	373.81
416.936	398.81
417.159	357.81
417.382	393.81
417.605	395.81
417.828	410.81
418.051	426.81
418.274	414.81
418.497	403.81
418.72	383.81
418.943	380.81
419.166	406.81
419.389	423.81
419.611	424.81
419.834	419.81
420.057	399.81
420.28	412.81
420.503	407.81
420.726	397.81
420.948	434.81
421.171	460.81
421.394	487.81
421.617	417.81
421.839	428.81
422.062	409.81
422.285	425.81
422.507	474.81
422.73	550.81
422.953	541.81
423.175	468.81
423.398	428.81
423.621	444.81
423.843	431.81
424.066	466.81
424.288	455.81
424.511	467.81
424.733	527.81
424.956	599.81
425.178	599.81
425.401	560.81
425.623	586.81
425.846	519.81
426.068	463.81
426.291	452.81
426.513	472.81
426.735	488.81
426.958	512.81
427.18	573.81
427.402	710.81
427.625	772.81
427.847	691.81
428.069	574.81
428.292	530.81
428.514	446.81
428.736	458.81
428.958	462.81
429.181	442.81
429.403	415.81
429.625	435.81
429.847	468.81
430.069	526.81
430.292	527.81
430.514	463.81
430.736	456.81
430.958	426.81
431.18	415.81
431.402	398.81
431.624	393.81
431.846	391.81
432.068	377.81
432.29	394.81
432.512	406.81
432.734	400.81
432.956	420.81
433.178	416.81
433.4	430.81
433.622	412.81
433.844	405.81
434.066	394.81
434.287	394.81
434.509	410.81
434.731	422.81
434.953	430.81
435.175	435.81
435.397	453.81
435.618	458.81
435.84	516.81
436.062	577.81
436.284	651.81
436.505	540.81
436.727	497.81
436.949	448.81
437.17	451.81
437.392	449.81
437.614	448.81
437.835	492.81
438.057	589.81
438.278	688.81
438.5	640.81
438.721	724.81
438.943	669.81
439.165	544.81
439.386	485.81
439.608	498.81
439.829	497.81
440.05	518.81
440.272	533.81
440.493	518.81
440.715	459.81
440.936	452.81
441.158	445.81
441.379	443.81
441.6	451.81
441.822	468.81
442.043	496.81
442.264	558.81
442.486	622.81
442.707	521.81
442.928	483.81
443.149	491.81
443.371	508.81
443.592	549.81
443.813	635.81
444.034	693.81
444.255	569.81
444.476	498.81
444.698	475.81
444.919	471.81
445.14	600.81
445.361	536.81
445.582	499.81
445.803	565.81
446.024	643.81
446.245	653.81
446.466	600.81
446.687	538.81
446.908	477.81
447.129	465.81
447.35	436.81
447.571	442.81
447.792	440.81
448.013	441.81
448.234	456.81
448.455	491.81
448.675	601.81
448.896	719.81
449.117	600.81
449.338	567.81
449.559	663.81
449.779	744.81
450	605.81
450.221	471.81
450.442	440.81
450.662	425.81
450.883	453.81
451.104	476.81
451.324	431.81
451.545	427.81
451.766	414.81
451.986	408.81
452.207	374.81
452.428	390.81
452.648	396.81
452.869	397.81
453.089	420.81
453.31	422.81
453.53	399.81
453.751	404.81
453.971	407.81
454.192	424.81
454.412	397.81
454.633	390.81
454.853	387.81
455.073	384.81
455.294	417.81
455.514	464.81
455.734	489.81
455.955	389.81
456.175	360.81
456.395	368.81
456.616	363.81
456.836	355.81
457.056	356.81
457.276	346.81
457.497	341.81
457.717	363.81
457.937	363.81
458.157	349.81
458.377	379.81
458.598	387.81
458.818	457.81
459.038	536.81
459.258	557.81
459.478	449.81
459.698	428.81
459.918	396.81
460.138	375.81
460.358	385.81
460.578	395.81
460.798	383.81
461.018	408.81
461.238	410.81
461.458	386.81
461.678	374.81
461.898	399.81
462.118	379.81
462.338	396.81
462.558	384.81
462.777	405.81
462.997	410.81
463.217	400.81
463.437	426.81
463.657	437.81
463.876	411.81
464.096	414.81
464.316	409.81
464.536	418.81
464.755	427.81
464.975	408.81
465.195	475.81
465.414	545.81
465.634	472.81
465.854	414.81
466.073	404.81
466.293	410.81
466.512	390.81
466.732	377.81
466.951	386.81
467.171	389.81
467.391	383.81
467.61	398.81
467.829	411.81
468.049	386.81
468.268	373.81
468.488	373.81
468.707	377.81
468.927	382.81
469.146	377.81
469.365	371.81
469.585	369.81
469.804	385.81
470.023	394.81
470.243	400.81
470.462	422.81
470.681	431.81
470.901	423.81
471.12	412.81
471.339	373.81
471.558	403.81
471.777	395.81
471.997	374.81
472.216	393.81
472.435	387.81
472.654	376.81
472.873	387.81
473.092	375.81
473.311	366.81
473.53	375.81
473.749	383.81
473.968	438.81
474.187	527.81
474.406	580.81
474.625	464.81
474.844	426.81
475.063	402.81
475.282	394.81
475.501	402.81
475.72	396.81
475.939	399.81
476.158	413.81
476.377	379.81
476.596	409.81
476.814	422.81
477.033	409.81
477.252	435.81
477.471	426.81
477.69	426.81
477.908	438.81
478.127	417.81
478.346	439.81
478.564	431.81
478.783	429.81
479.002	453.81
479.22	433.81
479.439	459.81
479.658	455.81
479.876	449.81
480.095	459.81
480.313	486.81
480.532	475.81
480.751	485.81
480.969	460.81
481.188	471.81
481.406	470.81
481.624	464.81
481.843	464.81
482.061	452.81
482.28	436.81
482.498	469.81
482.717	448.81
482.935	446.81
483.153	476.81
483.372	468.81
483.59	446.81
483.808	469.81
484.027	462.81
484.245	466.81
484.463	451.81
484.681	467.81
484.9	471.81
485.118	483.81
485.336	477.81
485.554	465.81
485.772	466.81
485.99	488.81
486.209	475.81
486.427	501.81
486.645	517.81
486.863	515.81
487.081	521.81
487.299	495.81
487.517	490.81
487.735	515.81
487.953	517.81
488.171	529.81
488.389	505.81
488.607	506.81
488.825	527.81
489.043	500.81
489.261	508.81
489.479	510.81
489.696	512.81
489.914	513.81
490.132	534.81
490.35	524.81
490.568	523.81
490.786	528.81
491.003	537.81
491.221	569.81
491.439	560.81
491.657	558.81
491.874	559.81
492.092	554.81
492.31	565.81
492.527	587.81
492.745	569.81
492.963	585.81
493.18	584.81
493.398	579.81
493.615	588.81
493.833	581.81
494.05	603.81
494.268	580.81
494.485	601.81
494.703	586.81
494.92	617.81
495.138	585.81
495.355	600.81
495.573	597.81
495.79	586.81
496.008	584.81
496.225	590.81
496.442	597.81
496.66	616.81
496.877	600.81
497.094	622.81
497.312	612.81
497.529	617.81
497.746	598.81
497.963	625.81
498.181	631.81
498.398	639.81
498.615	652.81
498.832	651.81
499.049	638.81
499.267	679.81
499.484	671.81
499.701	692.81
499.918	702.81
500.135	717.81
500.352	728.81
500.569	731.81
500.786	751.81
501.003	730.81
501.22	729.81
501.437	714.81
501.654	704.81
501.871	743.81
502.088	727.81
