Data from 1986.PennyLincolnUp.Lamp.En5.5.200Scan.071819.P2_HRD10591_17-12-23-972.txt Node
Date: Thu Jul 18 17:12:23 EDT 2019
User: cochatt
Spectrometer: HR+D1059
Trigger mode: 1
Integration Time (sec): 1.000000E-1
Scans to average: 1
Electric dark correction enabled: true
Nonlinearity correction enabled: false
Boxcar width: 0
XAxis mode: Wavelengths
Number of Pixels in Spectrum: 2048
>>>>>Begin Spectral Data<<<<<
223.165	-10.38
223.4	-10.38
223.635	-10.38
223.869	-19.38
224.104	-21.38
224.338	-10.38
224.573	-16.38
224.808	-22.38
225.042	5.62
225.277	2.62
225.511	0.62
225.746	-9.38
225.98	13.62
226.215	9.62
226.449	8.62
226.683	17.62
226.918	15.62
227.152	35.62
227.387	22.62
227.621	32.62
227.856	41.62
228.09	35.62
228.324	49.62
228.559	49.62
228.793	75.62
229.027	105.62
229.262	121.62
229.496	127.62
229.73	141.62
229.964	169.62
230.199	144.62
230.433	124.62
230.667	123.62
230.901	113.62
231.136	111.62
231.37	122.62
231.604	115.62
231.838	115.62
232.072	117.62
232.306	106.62
232.541	114.62
232.775	109.62
233.009	122.62
233.243	117.62
233.477	123.62
233.711	121.62
233.945	115.62
234.179	124.62
234.413	122.62
234.647	119.62
234.881	114.62
235.115	119.62
235.349	117.62
235.583	125.62
235.817	113.62
236.051	141.62
236.285	136.62
236.519	114.62
236.753	126.62
236.987	157.62
237.221	191.62
237.455	226.62
237.689	196.62
237.922	151.62
238.156	157.62
238.39	129.62
238.624	135.62
238.858	131.62
239.091	128.62
239.325	108.62
239.559	125.62
239.793	129.62
240.027	134.62
240.26	136.62
240.494	167.62
240.728	153.62
240.961	170.62
241.195	157.62
241.429	145.62
241.662	147.62
241.896	136.62
242.13	132.62
242.363	131.62
242.597	152.62
242.83	152.62
243.064	141.62
243.298	135.62
243.531	145.62
243.765	130.62
243.998	141.62
244.232	149.62
244.465	163.62
244.699	163.62
244.932	145.62
245.166	157.62
245.399	148.62
245.633	145.62
245.866	158.62
246.099	167.62
246.333	155.62
246.566	136.62
246.8	161.62
247.033	170.62
247.266	162.62
247.5	171.62
247.733	181.62
247.966	189.62
248.2	195.62
248.433	189.62
248.666	183.62
248.899	192.62
249.133	203.62
249.366	243.62
249.599	220.62
249.832	187.62
250.066	203.62
250.299	221.62
250.532	232.62
250.765	257.62
250.998	267.62
251.231	265.62
251.465	254.62
251.698	220.62
251.931	228.62
252.164	224.62
252.397	215.62
252.63	213.62
252.863	230.62
253.096	237.62
253.329	254.62
253.562	242.62
253.795	245.62
254.028	231.62
254.261	253.62
254.494	247.62
254.727	273.62
254.96	318.62
255.193	295.62
255.426	307.62
255.659	275.62
255.892	301.62
256.124	343.62
256.357	363.62
256.59	346.62
256.823	313.62
257.056	282.62
257.289	267.62
257.521	259.62
257.754	257.62
257.987	243.62
258.22	266.62
258.452	211.62
258.685	236.62
258.918	226.62
259.151	228.62
259.383	233.62
259.616	254.62
259.849	251.62
260.081	251.62
260.314	251.62
260.547	276.62
260.779	276.62
261.012	259.62
261.244	253.62
261.477	256.62
261.71	238.62
261.942	227.62
262.175	248.62
262.407	248.62
262.64	231.62
262.872	217.62
263.105	220.62
263.337	242.62
263.57	247.62
263.802	223.62
264.035	227.62
264.267	245.62
264.499	231.62
264.732	220.62
264.964	232.62
265.197	203.62
265.429	223.62
265.661	210.62
265.894	232.62
266.126	236.62
266.358	218.62
266.591	243.62
266.823	230.62
267.055	239.62
267.287	218.62
267.52	245.62
267.752	242.62
267.984	228.62
268.216	226.62
268.448	236.62
268.681	227.62
268.913	246.62
269.145	296.62
269.377	281.62
269.609	286.62
269.841	277.62
270.073	295.62
270.306	304.62
270.538	332.62
270.77	335.62
271.002	327.62
271.234	294.62
271.466	324.62
271.698	321.62
271.93	330.62
272.162	324.62
272.394	335.62
272.626	335.62
272.858	307.62
273.09	304.62
273.322	293.62
273.553	292.62
273.785	282.62
274.017	279.62
274.249	265.62
274.481	255.62
274.713	292.62
274.945	276.62
275.176	259.62
275.408	263.62
275.64	274.62
275.872	279.62
276.104	261.62
276.335	280.62
276.567	280.62
276.799	299.62
277.031	310.62
277.262	338.62
277.494	336.62
277.726	345.62
277.957	312.62
278.189	295.62
278.421	300.62
278.652	283.62
278.884	290.62
279.115	286.62
279.347	267.62
279.579	278.62
279.81	293.62
280.042	291.62
280.273	272.62
280.505	304.62
280.736	270.62
280.968	271.62
281.199	271.62
281.431	288.62
281.662	277.62
281.894	276.62
282.125	272.62
282.356	307.62
282.588	317.62
282.819	299.62
283.051	309.62
283.282	269.62
283.513	280.62
283.745	284.62
283.976	291.62
284.207	285.62
284.439	277.62
284.67	285.62
284.901	297.62
285.132	275.62
285.364	279.62
285.595	277.62
285.826	281.62
286.057	263.62
286.288	283.62
286.52	307.62
286.751	291.62
286.982	291.62
287.213	295.62
287.444	274.62
287.675	282.62
287.906	281.62
288.138	291.62
288.369	299.62
288.6	310.62
288.831	317.62
289.062	291.62
289.293	287.62
289.524	289.62
289.755	304.62
289.986	289.62
290.217	289.62
290.448	288.62
290.679	279.62
290.91	294.62
291.141	269.62
291.371	304.62
291.602	297.62
291.833	291.62
292.064	291.62
292.295	288.62
292.526	301.62
292.757	275.62
292.987	283.62
293.218	284.62
293.449	292.62
293.68	301.62
293.91	288.62
294.141	279.62
294.372	290.62
294.603	293.62
294.833	294.62
295.064	287.62
295.295	300.62
295.525	293.62
295.756	293.62
295.987	312.62
296.217	323.62
296.448	333.62
296.679	288.62
296.909	309.62
297.14	292.62
297.37	294.62
297.601	280.62
297.831	279.62
298.062	293.62
298.292	291.62
298.523	301.62
298.753	299.62
298.984	312.62
299.214	293.62
299.445	293.62
299.675	311.62
299.905	315.62
300.136	301.62
300.366	296.62
300.597	317.62
300.827	314.62
301.057	319.62
301.288	315.62
301.518	337.62
301.748	287.62
301.979	314.62
302.209	335.62
302.439	324.62
302.669	337.62
302.9	323.62
303.13	317.62
303.36	315.62
303.59	314.62
303.82	325.62
304.051	323.62
304.281	314.62
304.511	333.62
304.741	319.62
304.971	332.62
305.201	323.62
305.431	325.62
305.661	315.62
305.891	304.62
306.121	307.62
306.352	325.62
306.582	339.62
306.812	330.62
307.042	322.62
307.272	335.62
307.502	339.62
307.731	353.62
307.961	322.62
308.191	321.62
308.421	334.62
308.651	331.62
308.881	329.62
309.111	358.62
309.341	343.62
309.571	349.62
309.8	373.62
310.03	362.62
310.26	391.62
310.49	379.62
310.72	375.62
310.949	406.62
311.179	414.62
311.409	395.62
311.639	370.62
311.868	381.62
312.098	378.62
312.328	404.62
312.557	405.62
312.787	425.62
313.017	417.62
313.246	408.62
313.476	386.62
313.706	385.62
313.935	385.62
314.165	407.62
314.394	396.62
314.624	431.62
314.853	393.62
315.083	391.62
315.312	373.62
315.542	372.62
315.771	380.62
316.001	356.62
316.23	371.62
316.46	381.62
316.689	363.62
316.919	368.62
317.148	378.62
317.377	379.62
317.607	381.62
317.836	376.62
318.065	381.62
318.295	400.62
318.524	385.62
318.753	360.62
318.983	375.62
319.212	385.62
319.441	379.62
319.67	390.62
319.9	389.62
320.129	370.62
320.358	377.62
320.587	400.62
320.816	389.62
321.046	420.62
321.275	408.62
321.504	412.62
321.733	415.62
321.962	434.62
322.191	435.62
322.42	461.62
322.649	461.62
322.878	460.62
323.108	497.62
323.337	519.62
323.566	548.62
323.795	569.62
324.024	617.62
324.253	752.62
324.482	1065.62
324.71	1666.62
324.939	2381.62
325.168	2105.62
325.397	1109.62
325.626	754.62
325.855	642.62
326.084	592.62
326.313	563.62
326.542	591.62
326.77	629.62
326.999	693.62
327.228	990.62
327.457	1476.62
327.686	1821.62
327.914	1300.62
328.143	901.62
328.372	803.62
328.6	744.62
328.829	668.62
329.058	673.62
329.287	689.62
329.515	657.62
329.744	623.62
329.972	691.62
330.201	787.62
330.43	889.62
330.658	859.62
330.887	778.62
331.115	725.62
331.344	598.62
331.572	596.62
331.801	587.62
332.03	545.62
332.258	521.62
332.486	507.62
332.715	501.62
332.943	507.62
333.172	531.62
333.4	517.62
333.629	554.62
333.857	598.62
334.085	652.62
334.314	787.62
334.542	915.62
334.771	1026.62
334.999	766.62
335.227	604.62
335.455	551.62
335.684	529.62
335.912	489.62
336.14	448.62
336.369	471.62
336.597	478.62
336.825	464.62
337.053	482.62
337.281	465.62
337.51	443.62
337.738	454.62
337.966	436.62
338.194	432.62
338.422	444.62
338.65	448.62
338.878	420.62
339.106	418.62
339.334	419.62
339.562	442.62
339.79	423.62
340.018	416.62
340.246	415.62
340.474	415.62
340.702	428.62
340.93	410.62
341.158	418.62
341.386	430.62
341.614	405.62
341.842	400.62
342.07	438.62
342.298	415.62
342.526	404.62
342.754	398.62
342.981	399.62
343.209	394.62
343.437	401.62
343.665	396.62
343.893	391.62
344.12	413.62
344.348	411.62
344.576	418.62
344.804	419.62
345.031	417.62
345.259	440.62
345.487	429.62
345.714	420.62
345.942	447.62
346.17	399.62
346.397	420.62
346.625	403.62
346.853	380.62
347.08	394.62
347.308	405.62
347.535	407.62
347.763	413.62
347.99	391.62
348.218	408.62
348.445	423.62
348.673	411.62
348.9	410.62
349.128	426.62
349.355	392.62
349.583	391.62
349.81	391.62
350.037	371.62
350.265	381.62
350.492	391.62
350.72	395.62
350.947	407.62
351.174	406.62
351.402	416.62
351.629	428.62
351.856	421.62
352.083	396.62
352.311	417.62
352.538	417.62
352.765	418.62
352.992	416.62
353.22	393.62
353.447	419.62
353.674	397.62
353.901	388.62
354.128	395.62
354.355	385.62
354.583	396.62
354.81	388.62
355.037	368.62
355.264	380.62
355.491	363.62
355.718	367.62
355.945	367.62
356.172	369.62
356.399	372.62
356.626	375.62
356.853	355.62
357.08	377.62
357.307	375.62
357.534	372.62
357.761	372.62
357.988	356.62
358.215	352.62
358.441	378.62
358.668	385.62
358.895	380.62
359.122	378.62
359.349	385.62
359.576	385.62
359.802	417.62
360.029	443.62
360.256	458.62
360.483	430.62
360.709	417.62
360.936	400.62
361.163	397.62
361.39	393.62
361.616	430.62
361.843	412.62
362.07	389.62
362.296	391.62
362.523	382.62
362.749	405.62
362.976	398.62
363.203	388.62
363.429	387.62
363.656	380.62
363.882	381.62
364.109	385.62
364.335	377.62
364.562	387.62
364.788	378.62
365.015	371.62
365.241	387.62
365.468	376.62
365.694	397.62
365.92	383.62
366.147	395.62
366.373	390.62
366.599	375.62
366.826	361.62
367.052	375.62
367.278	364.62
367.505	392.62
367.731	377.62
367.957	356.62
368.184	377.62
368.41	381.62
368.636	398.62
368.862	393.62
369.089	372.62
369.315	371.62
369.541	383.62
369.767	377.62
369.993	373.62
370.219	377.62
370.445	393.62
370.672	362.62
370.898	375.62
371.124	372.62
371.35	376.62
371.576	358.62
371.802	341.62
372.028	356.62
372.254	360.62
372.48	357.62
372.706	357.62
372.932	353.62
373.158	361.62
373.384	370.62
373.61	359.62
373.835	340.62
374.061	369.62
374.287	380.62
374.513	369.62
374.739	397.62
374.965	350.62
375.191	371.62
375.416	378.62
375.642	349.62
375.868	360.62
376.094	363.62
376.319	363.62
376.545	361.62
376.771	350.62
376.997	348.62
377.222	352.62
377.448	355.62
377.674	360.62
377.899	362.62
378.125	356.62
378.35	364.62
378.576	360.62
378.802	361.62
379.027	376.62
379.253	368.62
379.478	351.62
379.704	355.62
379.929	366.62
380.155	351.62
380.38	365.62
380.606	337.62
380.831	340.62
381.057	371.62
381.282	349.62
381.507	349.62
381.733	370.62
381.958	379.62
382.184	371.62
382.409	360.62
382.634	348.62
382.86	343.62
383.085	365.62
383.31	369.62
383.535	387.62
383.761	373.62
383.986	348.62
384.211	355.62
384.436	379.62
384.662	369.62
384.887	384.62
385.112	362.62
385.337	364.62
385.562	372.62
385.787	359.62
386.013	389.62
386.238	391.62
386.463	403.62
386.688	383.62
386.913	371.62
387.138	383.62
387.363	371.62
387.588	364.62
387.813	379.62
388.038	370.62
388.263	371.62
388.488	374.62
388.713	381.62
388.938	366.62
389.163	374.62
389.387	368.62
389.612	376.62
389.837	359.62
390.062	369.62
390.287	361.62
390.512	393.62
390.736	360.62
390.961	375.62
391.186	391.62
391.411	375.62
391.636	383.62
391.86	380.62
392.085	382.62
392.31	364.62
392.534	387.62
392.759	375.62
392.984	379.62
393.208	368.62
393.433	374.62
393.658	355.62
393.882	367.62
394.107	367.62
394.331	381.62
394.556	375.62
394.78	375.62
395.005	384.62
395.229	384.62
395.454	377.62
395.678	384.62
395.903	399.62
396.127	408.62
396.352	411.62
396.576	402.62
396.801	383.62
397.025	377.62
397.249	396.62
397.474	412.62
397.698	395.62
397.922	406.62
398.147	417.62
398.371	411.62
398.595	395.62
398.82	403.62
399.044	405.62
399.268	412.62
399.492	433.62
399.717	453.62
399.941	479.62
400.165	484.62
400.389	518.62
400.613	474.62
400.837	440.62
401.062	451.62
401.286	417.62
401.51	419.62
401.734	414.62
401.958	418.62
402.182	403.62
402.406	433.62
402.63	443.62
402.854	432.62
403.078	441.62
403.302	450.62
403.526	452.62
403.75	468.62
403.974	441.62
404.198	455.62
404.422	445.62
404.645	475.62
404.869	491.62
405.093	525.62
405.317	563.62
405.541	599.62
405.765	559.62
405.988	520.62
406.212	479.62
406.436	524.62
406.66	506.62
406.883	513.62
407.107	519.62
407.331	556.62
407.555	617.62
407.778	599.62
408.002	524.62
408.226	507.62
408.449	500.62
408.673	480.62
408.896	526.62
409.12	541.62
409.344	524.62
409.567	501.62
409.791	465.62
410.014	424.62
410.238	442.62
410.461	448.62
410.685	467.62
410.908	477.62
411.132	495.62
411.355	523.62
411.578	519.62
411.802	479.62
412.025	474.62
412.249	497.62
412.472	535.62
412.695	607.62
412.919	619.62
413.142	537.62
413.365	511.62
413.589	480.62
413.812	459.62
414.035	454.62
414.258	462.62
414.482	435.62
414.705	445.62
414.928	447.62
415.151	427.62
415.374	423.62
415.597	435.62
415.821	429.62
416.044	435.62
416.267	429.62
416.49	409.62
416.713	419.62
416.936	421.62
417.159	421.62
417.382	443.62
417.605	456.62
417.828	471.62
418.051	476.62
418.274	440.62
418.497	452.62
418.72	447.62
418.943	453.62
419.166	449.62
419.389	456.62
419.611	471.62
419.834	461.62
420.057	461.62
420.28	484.62
420.503	536.62
420.726	491.62
420.948	497.62
421.171	557.62
421.394	545.62
421.617	453.62
421.839	458.62
422.062	453.62
422.285	474.62
422.507	534.62
422.73	577.62
422.953	565.62
423.175	482.62
423.398	488.62
423.621	475.62
423.843	479.62
424.066	511.62
424.288	483.62
424.511	498.62
424.733	549.62
424.956	643.62
425.178	620.62
425.401	595.62
425.623	620.62
425.846	556.62
426.068	501.62
426.291	493.62
426.513	492.62
426.735	519.62
426.958	565.62
427.18	625.62
427.402	725.62
427.625	800.62
427.847	782.62
428.069	700.62
428.292	656.62
428.514	533.62
428.736	499.62
428.958	485.62
429.181	463.62
429.403	447.62
429.625	479.62
429.847	516.62
430.069	592.62
430.292	563.62
430.514	474.62
430.736	471.62
430.958	439.62
431.18	458.62
431.402	439.62
431.624	426.62
431.846	423.62
432.068	439.62
432.29	431.62
432.512	419.62
432.734	432.62
432.956	445.62
433.178	429.62
433.4	438.62
433.622	449.62
433.844	452.62
434.066	411.62
434.287	431.62
434.509	430.62
434.731	429.62
434.953	451.62
435.175	463.62
435.397	496.62
435.618	475.62
435.84	519.62
436.062	622.62
436.284	684.62
436.505	582.62
436.727	515.62
436.949	480.62
437.17	463.62
437.392	454.62
437.614	491.62
437.835	495.62
438.057	569.62
438.278	711.62
438.5	713.62
438.721	742.62
438.943	753.62
439.165	590.62
439.386	519.62
439.608	521.62
439.829	515.62
440.05	548.62
440.272	576.62
440.493	558.62
440.715	503.62
440.936	470.62
441.158	472.62
441.379	459.62
441.6	457.62
441.822	496.62
442.043	518.62
442.264	597.62
442.486	649.62
442.707	552.62
442.928	511.62
443.149	523.62
443.371	515.62
443.592	571.62
443.813	650.62
444.034	712.62
444.255	593.62
444.476	531.62
444.698	516.62
444.919	471.62
445.14	570.62
445.361	533.62
445.582	526.62
445.803	581.62
446.024	711.62
446.245	707.62
446.466	689.62
446.687	565.62
446.908	497.62
447.129	481.62
447.35	455.62
447.571	477.62
447.792	456.62
448.013	463.62
448.234	478.62
448.455	533.62
448.675	633.62
448.896	730.62
449.117	647.62
449.338	597.62
449.559	697.62
449.779	799.62
450	641.62
450.221	550.62
450.442	471.62
450.662	457.62
450.883	478.62
451.104	494.62
451.324	474.62
451.545	475.62
451.766	428.62
451.986	414.62
452.207	408.62
452.428	421.62
452.648	421.62
452.869	401.62
453.089	443.62
453.31	441.62
453.53	426.62
453.751	439.62
453.971	431.62
454.192	448.62
454.412	446.62
454.633	433.62
454.853	422.62
455.073	399.62
455.294	444.62
455.514	495.62
455.734	489.62
455.955	407.62
456.175	385.62
456.395	390.62
456.616	378.62
456.836	405.62
457.056	373.62
457.276	383.62
457.497	411.62
457.717	365.62
457.937	393.62
458.157	403.62
458.377	411.62
458.598	421.62
458.818	461.62
459.038	562.62
459.258	583.62
459.478	478.62
459.698	440.62
459.918	417.62
460.138	429.62
460.358	435.62
460.578	407.62
460.798	429.62
461.018	442.62
461.238	406.62
461.458	413.62
461.678	396.62
461.898	423.62
462.118	412.62
462.338	411.62
462.558	403.62
462.777	437.62
462.997	426.62
463.217	420.62
463.437	415.62
463.657	439.62
463.876	425.62
464.096	448.62
464.316	431.62
464.536	433.62
464.755	440.62
464.975	461.62
465.195	506.62
465.414	583.62
465.634	516.62
465.854	476.62
466.073	449.62
466.293	439.62
466.512	413.62
466.732	432.62
466.951	417.62
467.171	405.62
467.391	418.62
467.61	408.62
467.829	437.62
468.049	475.62
468.268	525.62
468.488	469.62
468.707	452.62
468.927	424.62
469.146	403.62
469.365	438.62
469.585	427.62
469.804	403.62
470.023	432.62
470.243	454.62
470.462	420.62
470.681	437.62
470.901	431.62
471.12	446.62
471.339	429.62
471.558	443.62
471.777	461.62
471.997	441.62
472.216	516.62
472.435	691.62
472.654	627.62
472.873	533.62
473.092	474.62
473.311	476.62
473.53	459.62
473.749	455.62
473.968	514.62
474.187	615.62
474.406	631.62
474.625	525.62
474.844	471.62
475.063	459.62
475.282	451.62
475.501	452.62
475.72	465.62
475.939	461.62
476.158	436.62
476.377	452.62
476.596	436.62
476.814	425.62
477.033	476.62
477.252	472.62
477.471	466.62
477.69	448.62
477.908	465.62
478.127	467.62
478.346	471.62
478.564	484.62
478.783	475.62
479.002	479.62
479.22	480.62
479.439	519.62
479.658	533.62
479.876	516.62
480.095	537.62
480.313	550.62
480.532	549.62
480.751	567.62
480.969	645.62
481.188	899.62
481.406	1147.62
481.624	829.62
481.843	675.62
482.061	643.62
482.28	599.62
482.498	579.62
482.717	577.62
482.935	553.62
483.153	535.62
483.372	552.62
483.59	543.62
483.808	547.62
484.027	526.62
484.245	550.62
484.463	543.62
484.681	549.62
484.9	538.62
485.118	534.62
485.336	535.62
485.554	535.62
485.772	555.62
485.99	563.62
486.209	556.62
486.427	563.62
486.645	551.62
486.863	580.62
487.081	573.62
487.299	573.62
487.517	580.62
487.735	570.62
487.953	582.62
488.171	582.62
488.389	571.62
488.607	582.62
488.825	578.62
489.043	591.62
489.261	602.62
489.479	592.62
489.696	590.62
489.914	587.62
490.132	604.62
490.35	615.62
490.568	606.62
490.786	632.62
491.003	633.62
491.221	656.62
491.439	674.62
491.657	679.62
491.874	684.62
492.092	704.62
492.31	682.62
492.527	719.62
492.745	725.62
492.963	719.62
493.18	722.62
493.398	715.62
493.615	703.62
493.833	705.62
494.05	715.62
494.268	701.62
494.485	678.62
494.703	686.62
494.92	725.62
495.138	704.62
495.355	718.62
495.573	700.62
495.79	697.62
496.008	682.62
496.225	693.62
496.442	696.62
496.66	697.62
496.877	687.62
497.094	710.62
497.312	684.62
497.529	693.62
497.746	674.62
497.963	705.62
498.181	699.62
498.398	736.62
498.615	716.62
498.832	716.62
499.049	712.62
499.267	748.62
499.484	719.62
499.701	745.62
499.918	737.62
500.135	794.62
500.352	794.62
500.569	796.62
500.786	813.62
501.003	803.62
501.22	828.62
501.437	816.62
501.654	812.62
501.871	804.62
