Data from 1986.PennyLincolnUp.Lamp.En5.5.200Scan.071819.P1_HRD10591_17-08-28-975.txt Node
Date: Thu Jul 18 17:08:28 EDT 2019
User: cochatt
Spectrometer: HR+D1059
Trigger mode: 1
Integration Time (sec): 1.000000E-1
Scans to average: 1
Electric dark correction enabled: true
Nonlinearity correction enabled: false
Boxcar width: 0
XAxis mode: Wavelengths
Number of Pixels in Spectrum: 2048
>>>>>Begin Spectral Data<<<<<
223.165	-18.25
223.4	-18.25
223.635	-18.25
223.869	-11.25
224.104	-30.25
224.338	-2.25
224.573	-15.25
224.808	-5.25
225.042	-3.25
225.277	-11.25
225.511	-8.25
225.746	3.75
225.98	10.75
226.215	20.75
226.449	14.75
226.683	16.75
226.918	18.75
227.152	19.75
227.387	20.75
227.621	31.75
227.856	37.75
228.09	39.75
228.324	43.75
228.559	51.75
228.793	60.75
229.027	85.75
229.262	72.75
229.496	78.75
229.73	103.75
229.964	120.75
230.199	106.75
230.433	92.75
230.667	104.75
230.901	100.75
231.136	99.75
231.37	96.75
231.604	101.75
231.838	90.75
232.072	92.75
232.306	89.75
232.541	106.75
232.775	102.75
233.009	96.75
233.243	88.75
233.477	96.75
233.711	104.75
233.945	105.75
234.179	104.75
234.413	98.75
234.647	89.75
234.881	98.75
235.115	107.75
235.349	126.75
235.583	107.75
235.817	108.75
236.051	104.75
236.285	100.75
236.519	101.75
236.753	121.75
236.987	124.75
237.221	153.75
237.455	171.75
237.689	144.75
237.922	129.75
238.156	120.75
238.39	106.75
238.624	107.75
238.858	102.75
239.091	117.75
239.325	113.75
239.559	94.75
239.793	118.75
240.027	116.75
240.26	123.75
240.494	131.75
240.728	120.75
240.961	126.75
241.195	114.75
241.429	122.75
241.662	124.75
241.896	105.75
242.13	120.75
242.363	112.75
242.597	129.75
242.83	125.75
243.064	121.75
243.298	108.75
243.531	105.75
243.765	116.75
243.998	132.75
244.232	119.75
244.465	118.75
244.699	132.75
244.932	136.75
245.166	131.75
245.399	118.75
245.633	117.75
245.866	141.75
246.099	121.75
246.333	126.75
246.566	129.75
246.8	126.75
247.033	130.75
247.266	132.75
247.5	123.75
247.733	128.75
247.966	152.75
248.2	137.75
248.433	135.75
248.666	140.75
248.899	154.75
249.133	162.75
249.366	159.75
249.599	161.75
249.832	168.75
250.066	141.75
250.299	143.75
250.532	152.75
250.765	149.75
250.998	162.75
251.231	160.75
251.465	171.75
251.698	157.75
251.931	156.75
252.164	155.75
252.397	162.75
252.63	162.75
252.863	174.75
253.096	184.75
253.329	184.75
253.562	195.75
253.795	172.75
254.028	182.75
254.261	174.75
254.494	184.75
254.727	208.75
254.96	210.75
255.193	191.75
255.426	206.75
255.659	183.75
255.892	168.75
256.124	167.75
256.357	161.75
256.59	173.75
256.823	172.75
257.056	170.75
257.289	171.75
257.521	168.75
257.754	161.75
257.987	166.75
258.22	164.75
258.452	156.75
258.685	176.75
258.918	165.75
259.151	168.75
259.383	174.75
259.616	169.75
259.849	190.75
260.081	164.75
260.314	182.75
260.547	192.75
260.779	169.75
261.012	192.75
261.244	182.75
261.477	175.75
261.71	185.75
261.942	182.75
262.175	178.75
262.407	173.75
262.64	180.75
262.872	172.75
263.105	184.75
263.337	181.75
263.57	184.75
263.802	193.75
264.035	170.75
264.267	181.75
264.499	165.75
264.732	172.75
264.964	178.75
265.197	166.75
265.429	167.75
265.661	171.75
265.894	173.75
266.126	198.75
266.358	188.75
266.591	178.75
266.823	163.75
267.055	170.75
267.287	183.75
267.52	181.75
267.752	187.75
267.984	176.75
268.216	198.75
268.448	189.75
268.681	190.75
268.913	201.75
269.145	212.75
269.377	226.75
269.609	212.75
269.841	200.75
270.073	208.75
270.306	218.75
270.538	236.75
270.77	225.75
271.002	249.75
271.234	216.75
271.466	210.75
271.698	217.75
271.93	240.75
272.162	258.75
272.394	251.75
272.626	243.75
272.858	221.75
273.09	217.75
273.322	206.75
273.553	231.75
273.785	228.75
274.017	204.75
274.249	216.75
274.481	228.75
274.713	211.75
274.945	209.75
275.176	199.75
275.408	222.75
275.64	222.75
275.872	220.75
276.104	224.75
276.335	221.75
276.567	197.75
276.799	216.75
277.031	262.75
277.262	226.75
277.494	218.75
277.726	234.75
277.957	234.75
278.189	236.75
278.421	225.75
278.652	204.75
278.884	211.75
279.115	216.75
279.347	217.75
279.579	234.75
279.81	211.75
280.042	231.75
280.273	222.75
280.505	200.75
280.736	235.75
280.968	226.75
281.199	206.75
281.431	229.75
281.662	217.75
281.894	209.75
282.125	210.75
282.356	228.75
282.588	254.75
282.819	222.75
283.051	220.75
283.282	227.75
283.513	226.75
283.745	251.75
283.976	222.75
284.207	236.75
284.439	221.75
284.67	222.75
284.901	221.75
285.132	232.75
285.364	219.75
285.595	222.75
285.826	234.75
286.057	238.75
286.288	211.75
286.52	235.75
286.751	216.75
286.982	218.75
287.213	227.75
287.444	230.75
287.675	219.75
287.906	237.75
288.138	261.75
288.369	240.75
288.6	251.75
288.831	237.75
289.062	221.75
289.293	252.75
289.524	229.75
289.755	238.75
289.986	248.75
290.217	226.75
290.448	243.75
290.679	240.75
290.91	231.75
291.141	232.75
291.371	232.75
291.602	236.75
291.833	236.75
292.064	230.75
292.295	253.75
292.526	240.75
292.757	224.75
292.987	237.75
293.218	229.75
293.449	249.75
293.68	246.75
293.91	222.75
294.141	227.75
294.372	220.75
294.603	220.75
294.833	237.75
295.064	254.75
295.295	237.75
295.525	259.75
295.756	263.75
295.987	252.75
296.217	270.75
296.448	275.75
296.679	258.75
296.909	251.75
297.14	259.75
297.37	256.75
297.601	236.75
297.831	232.75
298.062	253.75
298.292	218.75
298.523	253.75
298.753	245.75
298.984	270.75
299.214	249.75
299.445	262.75
299.675	247.75
299.905	262.75
300.136	231.75
300.366	255.75
300.597	250.75
300.827	260.75
301.057	273.75
301.288	277.75
301.518	263.75
301.748	261.75
301.979	270.75
302.209	264.75
302.439	282.75
302.669	257.75
302.9	281.75
303.13	280.75
303.36	264.75
303.59	277.75
303.82	291.75
304.051	275.75
304.281	260.75
304.511	263.75
304.741	261.75
304.971	261.75
305.201	249.75
305.431	274.75
305.661	262.75
305.891	269.75
306.121	268.75
306.352	273.75
306.582	288.75
306.812	284.75
307.042	284.75
307.272	276.75
307.502	288.75
307.731	273.75
307.961	268.75
308.191	264.75
308.421	268.75
308.651	285.75
308.881	271.75
309.111	281.75
309.341	256.75
309.571	278.75
309.8	304.75
310.03	291.75
310.26	310.75
310.49	307.75
310.72	286.75
310.949	302.75
311.179	286.75
311.409	314.75
311.639	292.75
311.868	289.75
312.098	306.75
312.328	321.75
312.557	300.75
312.787	332.75
313.017	340.75
313.246	319.75
313.476	292.75
313.706	308.75
313.935	312.75
314.165	320.75
314.394	316.75
314.624	315.75
314.853	286.75
315.083	301.75
315.312	304.75
315.542	304.75
315.771	308.75
316.001	307.75
316.23	305.75
316.46	294.75
316.689	309.75
316.919	296.75
317.148	294.75
317.377	299.75
317.607	317.75
317.836	327.75
318.065	308.75
318.295	311.75
318.524	315.75
318.753	319.75
318.983	314.75
319.212	309.75
319.441	322.75
319.67	308.75
319.9	297.75
320.129	310.75
320.358	296.75
320.587	319.75
320.816	323.75
321.046	315.75
321.275	308.75
321.504	328.75
321.733	321.75
321.962	316.75
322.191	338.75
322.42	342.75
322.649	342.75
322.878	360.75
323.108	343.75
323.337	359.75
323.566	379.75
323.795	384.75
324.024	421.75
324.253	478.75
324.482	668.75
324.71	965.75
324.939	1322.75
325.168	1113.75
325.397	617.75
325.626	433.75
325.855	388.75
326.084	374.75
326.313	356.75
326.542	374.75
326.77	386.75
326.999	470.75
327.228	597.75
327.457	867.75
327.686	994.75
327.914	690.75
328.143	482.75
328.372	441.75
328.6	436.75
328.829	405.75
329.058	414.75
329.287	426.75
329.515	407.75
329.744	388.75
329.972	400.75
330.201	412.75
330.43	459.75
330.658	454.75
330.887	448.75
331.115	422.75
331.344	421.75
331.572	381.75
331.801	394.75
332.03	359.75
332.258	352.75
332.486	356.75
332.715	369.75
332.943	373.75
333.172	375.75
333.4	378.75
333.629	378.75
333.857	392.75
334.085	397.75
334.314	417.75
334.542	474.75
334.771	480.75
334.999	415.75
335.227	364.75
335.455	363.75
335.684	374.75
335.912	363.75
336.14	368.75
336.369	343.75
336.597	360.75
336.825	348.75
337.053	360.75
337.281	356.75
337.51	346.75
337.738	360.75
337.966	349.75
338.194	359.75
338.422	353.75
338.65	356.75
338.878	352.75
339.106	352.75
339.334	358.75
339.562	325.75
339.79	349.75
340.018	332.75
340.246	345.75
340.474	348.75
340.702	357.75
340.93	353.75
341.158	338.75
341.386	339.75
341.614	351.75
341.842	340.75
342.07	347.75
342.298	329.75
342.526	340.75
342.754	313.75
342.981	330.75
343.209	353.75
343.437	333.75
343.665	342.75
343.893	334.75
344.12	360.75
344.348	339.75
344.576	354.75
344.804	341.75
345.031	352.75
345.259	336.75
345.487	347.75
345.714	341.75
345.942	324.75
346.17	311.75
346.397	315.75
346.625	332.75
346.853	335.75
347.08	319.75
347.308	334.75
347.535	328.75
347.763	343.75
347.99	330.75
348.218	330.75
348.445	331.75
348.673	331.75
348.9	331.75
349.128	326.75
349.355	318.75
349.583	331.75
349.81	296.75
350.037	323.75
350.265	322.75
350.492	314.75
350.72	293.75
350.947	294.75
351.174	324.75
351.402	328.75
351.629	320.75
351.856	337.75
352.083	329.75
352.311	328.75
352.538	351.75
352.765	335.75
352.992	336.75
353.22	336.75
353.447	314.75
353.674	324.75
353.901	310.75
354.128	317.75
354.355	323.75
354.583	309.75
354.81	308.75
355.037	303.75
355.264	293.75
355.491	308.75
355.718	313.75
355.945	300.75
356.172	313.75
356.399	317.75
356.626	312.75
356.853	306.75
357.08	316.75
357.307	304.75
357.534	292.75
357.761	284.75
357.988	326.75
358.215	307.75
358.441	304.75
358.668	321.75
358.895	323.75
359.122	309.75
359.349	315.75
359.576	316.75
359.802	345.75
360.029	354.75
360.256	358.75
360.483	347.75
360.709	321.75
360.936	333.75
361.163	321.75
361.39	317.75
361.616	340.75
361.843	308.75
362.07	321.75
362.296	309.75
362.523	310.75
362.749	312.75
362.976	313.75
363.203	301.75
363.429	307.75
363.656	310.75
363.882	326.75
364.109	312.75
364.335	308.75
364.562	331.75
364.788	314.75
365.015	297.75
365.241	300.75
365.468	312.75
365.694	317.75
365.92	314.75
366.147	315.75
366.373	301.75
366.599	301.75
366.826	310.75
367.052	298.75
367.278	293.75
367.505	314.75
367.731	297.75
367.957	308.75
368.184	306.75
368.41	300.75
368.636	322.75
368.862	324.75
369.089	327.75
369.315	326.75
369.541	306.75
369.767	318.75
369.993	306.75
370.219	311.75
370.445	309.75
370.672	312.75
370.898	291.75
371.124	316.75
371.35	316.75
371.576	327.75
371.802	308.75
372.028	305.75
372.254	314.75
372.48	323.75
372.706	299.75
372.932	305.75
373.158	300.75
373.384	326.75
373.61	317.75
373.835	322.75
374.061	312.75
374.287	326.75
374.513	318.75
374.739	314.75
374.965	339.75
375.191	332.75
375.416	335.75
375.642	308.75
375.868	322.75
376.094	308.75
376.319	319.75
376.545	316.75
376.771	318.75
376.997	320.75
377.222	299.75
377.448	311.75
377.674	313.75
377.899	325.75
378.125	310.75
378.35	313.75
378.576	286.75
378.802	329.75
379.027	298.75
379.253	313.75
379.478	309.75
379.704	314.75
379.929	300.75
380.155	317.75
380.38	331.75
380.606	313.75
380.831	309.75
381.057	305.75
381.282	309.75
381.507	300.75
381.733	336.75
381.958	328.75
382.184	316.75
382.409	325.75
382.634	316.75
382.86	322.75
383.085	334.75
383.31	327.75
383.535	340.75
383.761	321.75
383.986	328.75
384.211	322.75
384.436	332.75
384.662	330.75
384.887	340.75
385.112	332.75
385.337	330.75
385.562	350.75
385.787	340.75
386.013	339.75
386.238	348.75
386.463	344.75
386.688	335.75
386.913	337.75
387.138	333.75
387.363	326.75
387.588	333.75
387.813	343.75
388.038	341.75
388.263	348.75
388.488	339.75
388.713	342.75
388.938	334.75
389.163	359.75
389.387	347.75
389.612	344.75
389.837	340.75
390.062	346.75
390.287	338.75
390.512	328.75
390.736	343.75
390.961	340.75
391.186	338.75
391.411	350.75
391.636	344.75
391.86	356.75
392.085	356.75
392.31	355.75
392.534	362.75
392.759	373.75
392.984	369.75
393.208	349.75
393.433	357.75
393.658	339.75
393.882	349.75
394.107	336.75
394.331	334.75
394.556	362.75
394.78	344.75
395.005	357.75
395.229	340.75
395.454	349.75
395.678	348.75
395.903	359.75
396.127	380.75
396.352	368.75
396.576	364.75
396.801	347.75
397.025	355.75
397.249	367.75
397.474	360.75
397.698	374.75
397.922	379.75
398.147	382.75
398.371	397.75
398.595	368.75
398.82	402.75
399.044	402.75
399.268	418.75
399.492	434.75
399.717	461.75
399.941	479.75
400.165	466.75
400.389	467.75
400.613	442.75
400.837	409.75
401.062	411.75
401.286	403.75
401.51	412.75
401.734	394.75
401.958	400.75
402.182	409.75
402.406	413.75
402.63	421.75
402.854	409.75
403.078	399.75
403.302	430.75
403.526	431.75
403.75	405.75
403.974	413.75
404.198	398.75
404.422	435.75
404.645	416.75
404.869	434.75
405.093	417.75
405.317	451.75
405.541	446.75
405.765	413.75
405.988	433.75
406.212	444.75
406.436	443.75
406.66	477.75
406.883	451.75
407.107	461.75
407.331	500.75
407.555	533.75
407.778	513.75
408.002	475.75
408.226	461.75
408.449	457.75
408.673	460.75
408.896	472.75
409.12	494.75
409.344	480.75
409.567	460.75
409.791	422.75
410.014	422.75
410.238	397.75
410.461	424.75
410.685	424.75
410.908	400.75
411.132	433.75
411.355	488.75
411.578	457.75
411.802	420.75
412.025	417.75
412.249	410.75
412.472	418.75
412.695	419.75
412.919	418.75
413.142	413.75
413.365	409.75
413.589	408.75
413.812	424.75
414.035	398.75
414.258	402.75
414.482	410.75
414.705	412.75
414.928	398.75
415.151	415.75
415.374	392.75
415.597	421.75
415.821	416.75
416.044	394.75
416.267	417.75
416.49	418.75
416.713	412.75
416.936	427.75
417.159	391.75
417.382	424.75
417.605	398.75
417.828	401.75
418.051	396.75
418.274	414.75
418.497	394.75
418.72	412.75
418.943	398.75
419.166	426.75
419.389	448.75
419.611	439.75
419.834	438.75
420.057	411.75
420.28	436.75
420.503	428.75
420.726	415.75
420.948	418.75
421.171	449.75
421.394	472.75
421.617	427.75
421.839	406.75
422.062	428.75
422.285	433.75
422.507	456.75
422.73	529.75
422.953	491.75
423.175	472.75
423.398	446.75
423.621	434.75
423.843	463.75
424.066	444.75
424.288	454.75
424.511	464.75
424.733	477.75
424.956	528.75
425.178	498.75
425.401	501.75
425.623	526.75
425.846	450.75
426.068	436.75
426.291	430.75
426.513	419.75
426.735	461.75
426.958	454.75
427.18	505.75
427.402	575.75
427.625	632.75
427.847	564.75
428.069	492.75
428.292	451.75
428.514	424.75
428.736	424.75
428.958	420.75
429.181	417.75
429.403	398.75
429.625	434.75
429.847	451.75
430.069	473.75
430.292	475.75
430.514	424.75
430.736	411.75
430.958	420.75
431.18	404.75
431.402	400.75
431.624	409.75
431.846	381.75
432.068	399.75
432.29	388.75
432.512	386.75
432.734	396.75
432.956	398.75
433.178	405.75
433.4	386.75
433.622	404.75
433.844	395.75
434.066	408.75
434.287	407.75
434.509	391.75
434.731	411.75
434.953	406.75
435.175	432.75
435.397	414.75
435.618	425.75
435.84	456.75
436.062	516.75
436.284	536.75
436.505	455.75
436.727	428.75
436.949	394.75
437.17	401.75
437.392	422.75
437.614	427.75
437.835	443.75
438.057	485.75
438.278	570.75
438.5	553.75
438.721	613.75
438.943	557.75
439.165	457.75
439.386	419.75
439.608	427.75
439.829	418.75
440.05	441.75
440.272	468.75
440.493	454.75
440.715	432.75
440.936	408.75
441.158	417.75
441.379	418.75
441.6	425.75
441.822	434.75
442.043	486.75
442.264	512.75
442.486	531.75
442.707	486.75
442.928	452.75
443.149	453.75
443.371	468.75
443.592	488.75
443.813	567.75
444.034	573.75
444.255	493.75
444.476	468.75
444.698	474.75
444.919	480.75
445.14	534.75
445.361	496.75
445.582	484.75
445.803	496.75
446.024	565.75
446.245	553.75
446.466	508.75
446.687	454.75
446.908	425.75
447.129	395.75
447.35	410.75
447.571	409.75
447.792	390.75
448.013	378.75
448.234	409.75
448.455	419.75
448.675	519.75
448.896	581.75
449.117	484.75
449.338	474.75
449.559	537.75
449.779	569.75
450	483.75
450.221	397.75
450.442	380.75
450.662	400.75
450.883	377.75
451.104	397.75
451.324	388.75
451.545	391.75
451.766	384.75
451.986	366.75
452.207	365.75
452.428	345.75
452.648	371.75
452.869	364.75
453.089	357.75
453.31	379.75
453.53	370.75
453.751	374.75
453.971	354.75
454.192	374.75
454.412	374.75
454.633	365.75
454.853	370.75
455.073	341.75
455.294	383.75
455.514	418.75
455.734	401.75
455.955	390.75
456.175	357.75
456.395	363.75
456.616	340.75
456.836	364.75
457.056	355.75
457.276	345.75
457.497	348.75
457.717	368.75
457.937	342.75
458.157	354.75
458.377	328.75
458.598	380.75
458.818	400.75
459.038	434.75
459.258	471.75
459.478	413.75
459.698	388.75
459.918	378.75
460.138	388.75
460.358	398.75
460.578	413.75
460.798	406.75
461.018	424.75
461.238	404.75
461.458	416.75
461.678	404.75
461.898	410.75
462.118	411.75
462.338	420.75
462.558	451.75
462.777	426.75
462.997	439.75
463.217	436.75
463.437	460.75
463.657	457.75
463.876	438.75
464.096	444.75
464.316	434.75
464.536	441.75
464.755	432.75
464.975	419.75
465.195	440.75
465.414	494.75
465.634	449.75
465.854	418.75
466.073	392.75
466.293	394.75
466.512	370.75
466.732	385.75
466.951	370.75
467.171	378.75
467.391	364.75
467.61	371.75
467.829	382.75
468.049	405.75
468.268	395.75
468.488	397.75
468.707	388.75
468.927	374.75
469.146	377.75
469.365	364.75
469.585	370.75
469.804	380.75
470.023	397.75
470.243	394.75
470.462	390.75
470.681	406.75
470.901	370.75
471.12	393.75
471.339	394.75
471.558	406.75
471.777	392.75
471.997	382.75
472.216	403.75
472.435	473.75
472.654	452.75
472.873	392.75
473.092	387.75
473.311	383.75
473.53	383.75
473.749	396.75
473.968	422.75
474.187	473.75
474.406	469.75
474.625	407.75
474.844	392.75
475.063	405.75
475.282	379.75
475.501	378.75
475.72	372.75
475.939	375.75
476.158	383.75
476.377	416.75
476.596	393.75
476.814	413.75
477.033	394.75
477.252	416.75
477.471	416.75
477.69	418.75
477.908	425.75
478.127	428.75
478.346	420.75
478.564	406.75
478.783	408.75
479.002	433.75
479.22	443.75
479.439	440.75
479.658	447.75
479.876	458.75
480.095	477.75
480.313	470.75
480.532	477.75
480.751	481.75
480.969	484.75
481.188	575.75
481.406	648.75
481.624	519.75
481.843	474.75
482.061	461.75
482.28	467.75
482.498	451.75
482.717	438.75
482.935	451.75
483.153	460.75
483.372	440.75
483.59	464.75
483.808	428.75
484.027	462.75
484.245	457.75
484.463	431.75
484.681	460.75
484.9	475.75
485.118	435.75
485.336	453.75
485.554	471.75
485.772	462.75
485.99	472.75
486.209	447.75
486.427	478.75
486.645	489.75
486.863	489.75
487.081	487.75
487.299	473.75
487.517	476.75
487.735	480.75
487.953	481.75
488.171	456.75
488.389	476.75
488.607	466.75
488.825	479.75
489.043	494.75
489.261	476.75
489.479	471.75
489.696	485.75
489.914	487.75
490.132	493.75
490.35	501.75
490.568	489.75
490.786	488.75
491.003	526.75
491.221	517.75
491.439	520.75
491.657	508.75
491.874	540.75
492.092	534.75
492.31	541.75
492.527	530.75
492.745	541.75
492.963	517.75
493.18	524.75
493.398	551.75
493.615	555.75
493.833	569.75
494.05	551.75
494.268	557.75
494.485	542.75
494.703	523.75
494.92	524.75
495.138	554.75
495.355	555.75
495.573	537.75
495.79	540.75
496.008	563.75
496.225	579.75
496.442	566.75
496.66	550.75
496.877	548.75
497.094	575.75
497.312	574.75
497.529	566.75
497.746	574.75
497.963	574.75
498.181	582.75
498.398	604.75
498.615	626.75
498.832	645.75
499.049	664.75
499.267	664.75
499.484	684.75
499.701	704.75
499.918	769.75
500.135	821.75
500.352	820.75
500.569	861.75
500.786	844.75
501.003	824.75
501.22	782.75
501.437	759.75
501.654	731.75
501.871	728.75
502.088	713.75
