Data from 1986.PennyLincolnUp.Lamp.En5.5.200Scan.071819.P2_HRD10591_17-09-58-974.txt Node
Date: Thu Jul 18 17:09:58 EDT 2019
User: cochatt
Spectrometer: HR+D1059
Trigger mode: 1
Integration Time (sec): 1.000000E-1
Scans to average: 1
Electric dark correction enabled: true
Nonlinearity correction enabled: false
Boxcar width: 0
XAxis mode: Wavelengths
Number of Pixels in Spectrum: 2048
>>>>>Begin Spectral Data<<<<<
223.165	-11.44
223.4	-11.44
223.635	-11.44
223.869	-15.44
224.104	-11.44
224.338	-5.44
224.573	-18.44
224.808	-32.44
225.042	-13.44
225.277	-13.44
225.511	4.56
225.746	9.56
225.98	-6.44
226.215	12.56
226.449	14.56
226.683	18.56
226.918	34.56
227.152	33.56
227.387	26.56
227.621	41.56
227.856	40.56
228.09	52.56
228.324	60.56
228.559	52.56
228.793	83.56
229.027	90.56
229.262	110.56
229.496	127.56
229.73	126.56
229.964	157.56
230.199	130.56
230.433	112.56
230.667	117.56
230.901	117.56
231.136	99.56
231.37	112.56
231.604	95.56
231.838	114.56
232.072	99.56
232.306	102.56
232.541	87.56
232.775	109.56
233.009	100.56
233.243	109.56
233.477	122.56
233.711	128.56
233.945	118.56
234.179	109.56
234.413	99.56
234.647	97.56
234.881	121.56
235.115	121.56
235.349	122.56
235.583	115.56
235.817	109.56
236.051	130.56
236.285	132.56
236.519	123.56
236.753	118.56
236.987	132.56
237.221	173.56
237.455	235.56
237.689	185.56
237.922	148.56
238.156	124.56
238.39	136.56
238.624	124.56
238.858	128.56
239.091	122.56
239.325	117.56
239.559	122.56
239.793	124.56
240.027	140.56
240.26	151.56
240.494	146.56
240.728	139.56
240.961	139.56
241.195	144.56
241.429	134.56
241.662	120.56
241.896	129.56
242.13	112.56
242.363	128.56
242.597	134.56
242.83	128.56
243.064	141.56
243.298	131.56
243.531	127.56
243.765	124.56
243.998	146.56
244.232	132.56
244.465	136.56
244.699	141.56
244.932	137.56
245.166	142.56
245.399	140.56
245.633	148.56
245.866	129.56
246.099	140.56
246.333	151.56
246.566	136.56
246.8	145.56
247.033	150.56
247.266	147.56
247.5	170.56
247.733	168.56
247.966	173.56
248.2	174.56
248.433	172.56
248.666	152.56
248.899	180.56
249.133	213.56
249.366	211.56
249.599	188.56
249.832	178.56
250.066	176.56
250.299	176.56
250.532	175.56
250.765	194.56
250.998	215.56
251.231	214.56
251.465	221.56
251.698	208.56
251.931	200.56
252.164	202.56
252.397	209.56
252.63	196.56
252.863	200.56
253.096	227.56
253.329	243.56
253.562	243.56
253.795	225.56
254.028	221.56
254.261	230.56
254.494	233.56
254.727	259.56
254.96	282.56
255.193	254.56
255.426	266.56
255.659	236.56
255.892	224.56
256.124	219.56
256.357	218.56
256.59	203.56
256.823	190.56
257.056	226.56
257.289	192.56
257.521	206.56
257.754	196.56
257.987	206.56
258.22	201.56
258.452	208.56
258.685	223.56
258.918	206.56
259.151	205.56
259.383	222.56
259.616	216.56
259.849	219.56
260.081	227.56
260.314	248.56
260.547	262.56
260.779	236.56
261.012	226.56
261.244	222.56
261.477	217.56
261.71	214.56
261.942	232.56
262.175	218.56
262.407	233.56
262.64	218.56
262.872	228.56
263.105	206.56
263.337	195.56
263.57	208.56
263.802	219.56
264.035	214.56
264.267	206.56
264.499	204.56
264.732	194.56
264.964	197.56
265.197	203.56
265.429	177.56
265.661	189.56
265.894	210.56
266.126	200.56
266.358	197.56
266.591	213.56
266.823	195.56
267.055	211.56
267.287	216.56
267.52	221.56
267.752	221.56
267.984	217.56
268.216	202.56
268.448	208.56
268.681	209.56
268.913	232.56
269.145	237.56
269.377	270.56
269.609	268.56
269.841	272.56
270.073	270.56
270.306	284.56
270.538	289.56
270.77	301.56
271.002	286.56
271.234	289.56
271.466	287.56
271.698	298.56
271.93	307.56
272.162	294.56
272.394	307.56
272.626	306.56
272.858	268.56
273.09	276.56
273.322	252.56
273.553	269.56
273.785	246.56
274.017	227.56
274.249	248.56
274.481	248.56
274.713	237.56
274.945	248.56
275.176	254.56
275.408	260.56
275.64	242.56
275.872	256.56
276.104	260.56
276.335	244.56
276.567	253.56
276.799	268.56
277.031	310.56
277.262	299.56
277.494	284.56
277.726	293.56
277.957	265.56
278.189	273.56
278.421	251.56
278.652	242.56
278.884	261.56
279.115	265.56
279.347	248.56
279.579	253.56
279.81	256.56
280.042	266.56
280.273	243.56
280.505	248.56
280.736	224.56
280.968	237.56
281.199	243.56
281.431	253.56
281.662	226.56
281.894	241.56
282.125	258.56
282.356	280.56
282.588	276.56
282.819	280.56
283.051	252.56
283.282	246.56
283.513	235.56
283.745	248.56
283.976	248.56
284.207	273.56
284.439	256.56
284.67	255.56
284.901	238.56
285.132	259.56
285.364	260.56
285.595	256.56
285.826	234.56
286.057	267.56
286.288	252.56
286.52	263.56
286.751	269.56
286.982	271.56
287.213	248.56
287.444	267.56
287.675	263.56
287.906	260.56
288.138	260.56
288.369	277.56
288.6	262.56
288.831	266.56
289.062	280.56
289.293	260.56
289.524	278.56
289.755	242.56
289.986	243.56
290.217	254.56
290.448	248.56
290.679	260.56
290.91	268.56
291.141	251.56
291.371	260.56
291.602	276.56
291.833	253.56
292.064	258.56
292.295	240.56
292.526	249.56
292.757	270.56
292.987	260.56
293.218	254.56
293.449	261.56
293.68	268.56
293.91	259.56
294.141	277.56
294.372	267.56
294.603	254.56
294.833	258.56
295.064	274.56
295.295	266.56
295.525	267.56
295.756	261.56
295.987	281.56
296.217	299.56
296.448	314.56
296.679	292.56
296.909	275.56
297.14	269.56
297.37	265.56
297.601	278.56
297.831	256.56
298.062	268.56
298.292	265.56
298.523	265.56
298.753	281.56
298.984	289.56
299.214	286.56
299.445	272.56
299.675	264.56
299.905	283.56
300.136	260.56
300.366	285.56
300.597	276.56
300.827	284.56
301.057	286.56
301.288	308.56
301.518	284.56
301.748	289.56
301.979	295.56
302.209	293.56
302.439	282.56
302.669	295.56
302.9	299.56
303.13	280.56
303.36	290.56
303.59	291.56
303.82	318.56
304.051	295.56
304.281	290.56
304.511	288.56
304.741	293.56
304.971	290.56
305.201	298.56
305.431	288.56
305.661	287.56
305.891	296.56
306.121	296.56
306.352	299.56
306.582	292.56
306.812	296.56
307.042	285.56
307.272	292.56
307.502	300.56
307.731	315.56
307.961	288.56
308.191	286.56
308.421	309.56
308.651	277.56
308.881	307.56
309.111	302.56
309.341	317.56
309.571	332.56
309.8	319.56
310.03	333.56
310.26	352.56
310.49	331.56
310.72	351.56
310.949	357.56
311.179	347.56
311.409	348.56
311.639	339.56
311.868	338.56
312.098	346.56
312.328	349.56
312.557	351.56
312.787	380.56
313.017	357.56
313.246	340.56
313.476	352.56
313.706	333.56
313.935	346.56
314.165	343.56
314.394	354.56
314.624	356.56
314.853	346.56
315.083	334.56
315.312	345.56
315.542	325.56
315.771	333.56
316.001	336.56
316.23	336.56
316.46	338.56
316.689	349.56
316.919	334.56
317.148	334.56
317.377	343.56
317.607	342.56
317.836	330.56
318.065	349.56
318.295	330.56
318.524	346.56
318.753	330.56
318.983	321.56
319.212	320.56
319.441	337.56
319.67	362.56
319.9	347.56
320.129	322.56
320.358	351.56
320.587	346.56
320.816	351.56
321.046	388.56
321.275	381.56
321.504	368.56
321.733	352.56
321.962	392.56
322.191	380.56
322.42	401.56
322.649	425.56
322.878	426.56
323.108	439.56
323.337	436.56
323.566	502.56
323.795	512.56
324.024	563.56
324.253	690.56
324.482	995.56
324.71	1509.56
324.939	2202.56
325.168	1871.56
325.397	997.56
325.626	648.56
325.855	547.56
326.084	501.56
326.313	492.56
326.542	502.56
326.77	540.56
326.999	633.56
327.228	873.56
327.457	1340.56
327.686	1665.56
327.914	1129.56
328.143	726.56
328.372	594.56
328.6	565.56
328.829	548.56
329.058	563.56
329.287	564.56
329.515	509.56
329.744	474.56
329.972	435.56
330.201	449.56
330.43	473.56
330.658	533.56
330.887	592.56
331.115	571.56
331.344	503.56
331.572	453.56
331.801	467.56
332.03	456.56
332.258	423.56
332.486	416.56
332.715	405.56
332.943	407.56
333.172	391.56
333.4	402.56
333.629	382.56
333.857	409.56
334.085	414.56
334.314	408.56
334.542	385.56
334.771	432.56
334.999	414.56
335.227	392.56
335.455	392.56
335.684	407.56
335.912	374.56
336.14	363.56
336.369	376.56
336.597	394.56
336.825	386.56
337.053	402.56
337.281	382.56
337.51	386.56
337.738	379.56
337.966	379.56
338.194	386.56
338.422	405.56
338.65	387.56
338.878	378.56
339.106	380.56
339.334	373.56
339.562	356.56
339.79	376.56
340.018	364.56
340.246	378.56
340.474	382.56
340.702	393.56
340.93	377.56
341.158	357.56
341.386	372.56
341.614	378.56
341.842	383.56
342.07	354.56
342.298	365.56
342.526	364.56
342.754	363.56
342.981	351.56
343.209	366.56
343.437	347.56
343.665	374.56
343.893	397.56
344.12	368.56
344.348	390.56
344.576	378.56
344.804	370.56
345.031	388.56
345.259	414.56
345.487	389.56
345.714	369.56
345.942	379.56
346.17	379.56
346.397	385.56
346.625	368.56
346.853	351.56
347.08	343.56
347.308	381.56
347.535	380.56
347.763	388.56
347.99	376.56
348.218	398.56
348.445	403.56
348.673	376.56
348.9	381.56
349.128	357.56
349.355	343.56
349.583	355.56
349.81	356.56
350.037	357.56
350.265	378.56
350.492	362.56
350.72	375.56
350.947	352.56
351.174	378.56
351.402	386.56
351.629	387.56
351.856	389.56
352.083	385.56
352.311	386.56
352.538	381.56
352.765	392.56
352.992	375.56
353.22	382.56
353.447	362.56
353.674	370.56
353.901	348.56
354.128	352.56
354.355	339.56
354.583	352.56
354.81	364.56
355.037	338.56
355.264	337.56
355.491	343.56
355.718	326.56
355.945	346.56
356.172	325.56
356.399	343.56
356.626	338.56
356.853	336.56
357.08	344.56
357.307	343.56
357.534	314.56
357.761	362.56
357.988	343.56
358.215	342.56
358.441	334.56
358.668	328.56
358.895	336.56
359.122	316.56
359.349	360.56
359.576	371.56
359.802	384.56
360.029	429.56
360.256	445.56
360.483	381.56
360.709	385.56
360.936	353.56
361.163	369.56
361.39	353.56
361.616	370.56
361.843	370.56
362.07	370.56
362.296	365.56
362.523	358.56
362.749	363.56
362.976	363.56
363.203	353.56
363.429	347.56
363.656	340.56
363.882	357.56
364.109	355.56
364.335	355.56
364.562	350.56
364.788	336.56
365.015	340.56
365.241	375.56
365.468	372.56
365.694	349.56
365.92	366.56
366.147	342.56
366.373	360.56
366.599	338.56
366.826	342.56
367.052	337.56
367.278	343.56
367.505	337.56
367.731	340.56
367.957	365.56
368.184	340.56
368.41	353.56
368.636	344.56
368.862	378.56
369.089	366.56
369.315	346.56
369.541	341.56
369.767	343.56
369.993	350.56
370.219	350.56
370.445	323.56
370.672	340.56
370.898	342.56
371.124	347.56
371.35	347.56
371.576	338.56
371.802	316.56
372.028	335.56
372.254	360.56
372.48	344.56
372.706	325.56
372.932	315.56
373.158	347.56
373.384	339.56
373.61	327.56
373.835	343.56
374.061	349.56
374.287	341.56
374.513	340.56
374.739	345.56
374.965	352.56
375.191	342.56
375.416	347.56
375.642	344.56
375.868	360.56
376.094	356.56
376.319	340.56
376.545	351.56
376.771	343.56
376.997	328.56
377.222	342.56
377.448	338.56
377.674	333.56
377.899	316.56
378.125	334.56
378.35	324.56
378.576	325.56
378.802	327.56
379.027	340.56
379.253	340.56
379.478	336.56
379.704	344.56
379.929	342.56
380.155	340.56
380.38	340.56
380.606	352.56
380.831	342.56
381.057	338.56
381.282	342.56
381.507	329.56
381.733	334.56
381.958	332.56
382.184	353.56
382.409	338.56
382.634	352.56
382.86	330.56
383.085	334.56
383.31	348.56
383.535	368.56
383.761	338.56
383.986	349.56
384.211	351.56
384.436	343.56
384.662	354.56
384.887	337.56
385.112	340.56
385.337	348.56
385.562	357.56
385.787	357.56
386.013	381.56
386.238	363.56
386.463	377.56
386.688	370.56
386.913	344.56
387.138	346.56
387.363	382.56
387.588	377.56
387.813	371.56
388.038	360.56
388.263	350.56
388.488	351.56
388.713	382.56
388.938	361.56
389.163	360.56
389.387	352.56
389.612	358.56
389.837	342.56
390.062	325.56
390.287	352.56
390.512	350.56
390.736	351.56
390.961	342.56
391.186	362.56
391.411	364.56
391.636	353.56
391.86	361.56
392.085	357.56
392.31	358.56
392.534	357.56
392.759	355.56
392.984	345.56
393.208	368.56
393.433	347.56
393.658	341.56
393.882	347.56
394.107	336.56
394.331	361.56
394.556	345.56
394.78	364.56
395.005	348.56
395.229	359.56
395.454	349.56
395.678	375.56
395.903	376.56
396.127	370.56
396.352	392.56
396.576	379.56
396.801	365.56
397.025	353.56
397.249	365.56
397.474	363.56
397.698	376.56
397.922	375.56
398.147	418.56
398.371	401.56
398.595	398.56
398.82	377.56
399.044	385.56
399.268	384.56
399.492	412.56
399.717	412.56
399.941	449.56
400.165	495.56
400.389	485.56
400.613	440.56
400.837	440.56
401.062	417.56
401.286	396.56
401.51	404.56
401.734	382.56
401.958	400.56
402.182	406.56
402.406	420.56
402.63	437.56
402.854	404.56
403.078	411.56
403.302	418.56
403.526	418.56
403.75	400.56
403.974	402.56
404.198	380.56
404.422	403.56
404.645	414.56
404.869	400.56
405.093	428.56
405.317	461.56
405.541	467.56
405.765	455.56
405.988	429.56
406.212	441.56
406.436	485.56
406.66	493.56
406.883	435.56
407.107	466.56
407.331	507.56
407.555	570.56
407.778	563.56
408.002	501.56
408.226	473.56
408.449	473.56
408.673	461.56
408.896	511.56
409.12	532.56
409.344	480.56
409.567	436.56
409.791	414.56
410.014	405.56
410.238	416.56
410.461	421.56
410.685	399.56
410.908	429.56
411.132	456.56
411.355	500.56
411.578	455.56
411.802	421.56
412.025	426.56
412.249	406.56
412.472	406.56
412.695	404.56
412.919	406.56
413.142	420.56
413.365	387.56
413.589	380.56
413.812	389.56
414.035	374.56
414.258	397.56
414.482	380.56
414.705	375.56
414.928	396.56
415.151	403.56
415.374	397.56
415.597	386.56
415.821	400.56
416.044	406.56
416.267	388.56
416.49	400.56
416.713	366.56
416.936	380.56
417.159	394.56
417.382	397.56
417.605	396.56
417.828	424.56
418.051	429.56
418.274	410.56
418.497	398.56
418.72	390.56
418.943	410.56
419.166	393.56
419.389	429.56
419.611	421.56
419.834	416.56
420.057	414.56
420.28	402.56
420.503	383.56
420.726	408.56
420.948	435.56
421.171	450.56
421.394	507.56
421.617	429.56
421.839	443.56
422.062	434.56
422.285	457.56
422.507	485.56
422.73	574.56
422.953	541.56
423.175	469.56
423.398	465.56
423.621	459.56
423.843	483.56
424.066	463.56
424.288	478.56
424.511	485.56
424.733	506.56
424.956	595.56
425.178	576.56
425.401	576.56
425.623	597.56
425.846	507.56
426.068	459.56
426.291	469.56
426.513	464.56
426.735	482.56
426.958	530.56
427.18	613.56
427.402	696.56
427.625	796.56
427.847	719.56
428.069	566.56
428.292	530.56
428.514	462.56
428.736	457.56
428.958	459.56
429.181	434.56
429.403	422.56
429.625	462.56
429.847	484.56
430.069	540.56
430.292	535.56
430.514	445.56
430.736	434.56
430.958	426.56
431.18	391.56
431.402	386.56
431.624	409.56
431.846	388.56
432.068	384.56
432.29	407.56
432.512	410.56
432.734	425.56
432.956	403.56
433.178	408.56
433.4	416.56
433.622	390.56
433.844	410.56
434.066	404.56
434.287	394.56
434.509	412.56
434.731	410.56
434.953	397.56
435.175	425.56
435.397	450.56
435.618	474.56
435.84	516.56
436.062	603.56
436.284	646.56
436.505	556.56
436.727	480.56
436.949	454.56
437.17	454.56
437.392	442.56
437.614	436.56
437.835	483.56
438.057	565.56
438.278	644.56
438.5	668.56
438.721	714.56
438.943	674.56
439.165	553.56
439.386	498.56
439.608	512.56
439.829	510.56
440.05	489.56
440.272	552.56
440.493	526.56
440.715	475.56
440.936	437.56
441.158	434.56
441.379	439.56
441.6	458.56
441.822	471.56
442.043	504.56
442.264	595.56
442.486	612.56
442.707	540.56
442.928	484.56
443.149	485.56
443.371	502.56
443.592	558.56
443.813	624.56
444.034	688.56
444.255	570.56
444.476	499.56
444.698	486.56
444.919	471.56
445.14	597.56
445.361	525.56
445.582	520.56
445.803	544.56
446.024	659.56
446.245	674.56
446.466	606.56
446.687	516.56
446.908	486.56
447.129	443.56
447.35	440.56
447.571	461.56
447.792	442.56
448.013	441.56
448.234	448.56
448.455	503.56
448.675	617.56
448.896	704.56
449.117	600.56
449.338	578.56
449.559	660.56
449.779	745.56
450	605.56
450.221	492.56
450.442	461.56
450.662	436.56
450.883	423.56
451.104	442.56
451.324	444.56
451.545	418.56
451.766	388.56
451.986	404.56
452.207	388.56
452.428	376.56
452.648	394.56
452.869	377.56
453.089	436.56
453.31	406.56
453.53	393.56
453.751	409.56
453.971	368.56
454.192	432.56
454.412	403.56
454.633	393.56
454.853	380.56
455.073	394.56
455.294	420.56
455.514	480.56
455.734	457.56
455.955	390.56
456.175	394.56
456.395	357.56
456.616	384.56
456.836	373.56
457.056	351.56
457.276	358.56
457.497	365.56
457.717	382.56
457.937	376.56
458.157	382.56
458.377	403.56
458.598	397.56
458.818	457.56
459.038	550.56
459.258	532.56
459.478	459.56
459.698	409.56
459.918	389.56
460.138	396.56
460.358	390.56
460.578	385.56
460.798	393.56
461.018	402.56
461.238	390.56
461.458	378.56
461.678	379.56
461.898	384.56
462.118	384.56
462.338	376.56
462.558	396.56
462.777	402.56
462.997	419.56
463.217	412.56
463.437	399.56
463.657	400.56
463.876	421.56
464.096	390.56
464.316	418.56
464.536	417.56
464.755	424.56
464.975	418.56
465.195	478.56
465.414	581.56
465.634	489.56
465.854	441.56
466.073	422.56
466.293	401.56
466.512	374.56
466.732	379.56
466.951	381.56
467.171	392.56
467.391	390.56
467.61	404.56
467.829	408.56
468.049	382.56
468.268	370.56
468.488	372.56
468.707	370.56
468.927	385.56
469.146	388.56
469.365	403.56
469.585	395.56
469.804	376.56
470.023	397.56
470.243	390.56
470.462	388.56
470.681	445.56
470.901	422.56
471.12	391.56
471.339	396.56
471.558	401.56
471.777	388.56
471.997	407.56
472.216	390.56
472.435	373.56
472.654	379.56
472.873	395.56
473.092	382.56
473.311	402.56
473.53	393.56
473.749	398.56
473.968	430.56
474.187	561.56
474.406	562.56
474.625	455.56
474.844	422.56
475.063	391.56
475.282	400.56
475.501	394.56
475.72	403.56
475.939	398.56
476.158	418.56
476.377	422.56
476.596	386.56
476.814	398.56
477.033	412.56
477.252	421.56
477.471	419.56
477.69	444.56
477.908	444.56
478.127	434.56
478.346	444.56
478.564	436.56
478.783	445.56
479.002	436.56
479.22	437.56
479.439	462.56
479.658	488.56
479.876	477.56
480.095	491.56
480.313	492.56
480.532	487.56
480.751	476.56
480.969	483.56
481.188	494.56
481.406	497.56
481.624	476.56
481.843	461.56
482.061	483.56
482.28	466.56
482.498	467.56
482.717	457.56
482.935	458.56
483.153	456.56
483.372	462.56
483.59	461.56
483.808	466.56
484.027	469.56
484.245	471.56
484.463	487.56
484.681	485.56
484.9	475.56
485.118	479.56
485.336	483.56
485.554	474.56
485.772	503.56
485.99	471.56
486.209	484.56
486.427	483.56
486.645	501.56
486.863	514.56
487.081	522.56
487.299	515.56
487.517	501.56
487.735	502.56
487.953	508.56
488.171	488.56
488.389	516.56
488.607	500.56
488.825	500.56
489.043	504.56
489.261	504.56
489.479	513.56
489.696	506.56
489.914	512.56
490.132	522.56
490.35	545.56
490.568	557.56
490.786	538.56
491.003	557.56
491.221	557.56
491.439	561.56
491.657	557.56
491.874	562.56
492.092	576.56
492.31	576.56
492.527	608.56
492.745	584.56
492.963	608.56
493.18	597.56
493.398	588.56
493.615	614.56
493.833	594.56
494.05	602.56
494.268	600.56
494.485	620.56
494.703	605.56
494.92	596.56
495.138	624.56
495.355	607.56
495.573	603.56
495.79	601.56
496.008	613.56
496.225	598.56
496.442	603.56
496.66	612.56
496.877	594.56
497.094	596.56
497.312	615.56
497.529	605.56
497.746	628.56
497.963	648.56
498.181	658.56
498.398	649.56
498.615	656.56
498.832	661.56
499.049	653.56
499.267	665.56
499.484	680.56
499.701	682.56
499.918	713.56
500.135	728.56
500.352	753.56
500.569	744.56
500.786	745.56
501.003	741.56
501.22	728.56
501.437	726.56
501.654	716.56
501.871	729.56
502.088	740.56
