Data from 1986.PennyLincolnUp.Lamp.En5.5.200Scan.071819.P1_HRD10591_17-08-31-975.txt Node
Date: Thu Jul 18 17:08:31 EDT 2019
User: cochatt
Spectrometer: HR+D1059
Trigger mode: 1
Integration Time (sec): 1.000000E-1
Scans to average: 1
Electric dark correction enabled: true
Nonlinearity correction enabled: false
Boxcar width: 0
XAxis mode: Wavelengths
Number of Pixels in Spectrum: 2048
>>>>>Begin Spectral Data<<<<<
223.165	-10.69
223.4	-10.69
223.635	-10.69
223.869	-8.69
224.104	-30.69
224.338	-18.69
224.573	-19.69
224.808	-8.69
225.042	-4.69
225.277	-12.69
225.511	-0.69
225.746	5.31
225.98	11.31
226.215	15.31
226.449	13.31
226.683	31.31
226.918	6.31
227.152	32.31
227.387	39.31
227.621	33.31
227.856	46.31
228.09	47.31
228.324	46.31
228.559	47.31
228.793	75.31
229.027	87.31
229.262	95.31
229.496	71.31
229.73	108.31
229.964	127.31
230.199	105.31
230.433	84.31
230.667	86.31
230.901	100.31
231.136	96.31
231.37	101.31
231.604	103.31
231.838	95.31
232.072	101.31
232.306	96.31
232.541	92.31
232.775	119.31
233.009	91.31
233.243	114.31
233.477	109.31
233.711	113.31
233.945	102.31
234.179	97.31
234.413	114.31
234.647	121.31
234.881	112.31
235.115	104.31
235.349	100.31
235.583	115.31
235.817	101.31
236.051	113.31
236.285	105.31
236.519	119.31
236.753	117.31
236.987	127.31
237.221	155.31
237.455	169.31
237.689	156.31
237.922	119.31
238.156	115.31
238.39	111.31
238.624	109.31
238.858	104.31
239.091	100.31
239.325	109.31
239.559	115.31
239.793	123.31
240.027	122.31
240.26	135.31
240.494	128.31
240.728	112.31
240.961	115.31
241.195	118.31
241.429	115.31
241.662	109.31
241.896	125.31
242.13	115.31
242.363	113.31
242.597	111.31
242.83	127.31
243.064	116.31
243.298	122.31
243.531	131.31
243.765	136.31
243.998	127.31
244.232	131.31
244.465	129.31
244.699	127.31
244.932	111.31
245.166	129.31
245.399	125.31
245.633	118.31
245.866	129.31
246.099	145.31
246.333	133.31
246.566	121.31
246.8	127.31
247.033	144.31
247.266	128.31
247.5	140.31
247.733	147.31
247.966	148.31
248.2	132.31
248.433	140.31
248.666	170.31
248.899	151.31
249.133	158.31
249.366	163.31
249.599	168.31
249.832	144.31
250.066	148.31
250.299	143.31
250.532	154.31
250.765	157.31
250.998	181.31
251.231	187.31
251.465	152.31
251.698	162.31
251.931	155.31
252.164	167.31
252.397	184.31
252.63	167.31
252.863	168.31
253.096	168.31
253.329	162.31
253.562	190.31
253.795	168.31
254.028	168.31
254.261	171.31
254.494	187.31
254.727	199.31
254.96	201.31
255.193	194.31
255.426	188.31
255.659	180.31
255.892	181.31
256.124	171.31
256.357	175.31
256.59	171.31
256.823	168.31
257.056	167.31
257.289	159.31
257.521	171.31
257.754	168.31
257.987	171.31
258.22	168.31
258.452	174.31
258.685	177.31
258.918	168.31
259.151	180.31
259.383	173.31
259.616	158.31
259.849	191.31
260.081	176.31
260.314	183.31
260.547	193.31
260.779	177.31
261.012	174.31
261.244	183.31
261.477	176.31
261.71	182.31
261.942	183.31
262.175	181.31
262.407	182.31
262.64	187.31
262.872	179.31
263.105	178.31
263.337	173.31
263.57	182.31
263.802	172.31
264.035	170.31
264.267	173.31
264.499	183.31
264.732	179.31
264.964	173.31
265.197	187.31
265.429	189.31
265.661	172.31
265.894	181.31
266.126	185.31
266.358	177.31
266.591	184.31
266.823	185.31
267.055	174.31
267.287	189.31
267.52	187.31
267.752	190.31
267.984	188.31
268.216	177.31
268.448	189.31
268.681	191.31
268.913	202.31
269.145	199.31
269.377	226.31
269.609	218.31
269.841	217.31
270.073	204.31
270.306	217.31
270.538	237.31
270.77	230.31
271.002	224.31
271.234	224.31
271.466	243.31
271.698	240.31
271.93	261.31
272.162	254.31
272.394	243.31
272.626	238.31
272.858	223.31
273.09	224.31
273.322	215.31
273.553	222.31
273.785	211.31
274.017	213.31
274.249	220.31
274.481	221.31
274.713	217.31
274.945	217.31
275.176	221.31
275.408	206.31
275.64	209.31
275.872	204.31
276.104	193.31
276.335	215.31
276.567	237.31
276.799	231.31
277.031	239.31
277.262	260.31
277.494	255.31
277.726	232.31
277.957	245.31
278.189	229.31
278.421	227.31
278.652	214.31
278.884	224.31
279.115	204.31
279.347	224.31
279.579	228.31
279.81	205.31
280.042	225.31
280.273	223.31
280.505	207.31
280.736	228.31
280.968	219.31
281.199	219.31
281.431	228.31
281.662	225.31
281.894	225.31
282.125	217.31
282.356	244.31
282.588	222.31
282.819	232.31
283.051	218.31
283.282	218.31
283.513	219.31
283.745	217.31
283.976	219.31
284.207	232.31
284.439	215.31
284.67	231.31
284.901	238.31
285.132	232.31
285.364	221.31
285.595	219.31
285.826	244.31
286.057	244.31
286.288	212.31
286.52	249.31
286.751	230.31
286.982	232.31
287.213	224.31
287.444	225.31
287.675	235.31
287.906	233.31
288.138	243.31
288.369	231.31
288.6	247.31
288.831	262.31
289.062	243.31
289.293	247.31
289.524	245.31
289.755	241.31
289.986	246.31
290.217	239.31
290.448	238.31
290.679	245.31
290.91	245.31
291.141	234.31
291.371	232.31
291.602	234.31
291.833	235.31
292.064	228.31
292.295	243.31
292.526	243.31
292.757	248.31
292.987	251.31
293.218	240.31
293.449	238.31
293.68	240.31
293.91	248.31
294.141	232.31
294.372	228.31
294.603	229.31
294.833	237.31
295.064	244.31
295.295	259.31
295.525	232.31
295.756	237.31
295.987	269.31
296.217	239.31
296.448	272.31
296.679	243.31
296.909	263.31
297.14	255.31
297.37	256.31
297.601	262.31
297.831	264.31
298.062	268.31
298.292	248.31
298.523	268.31
298.753	259.31
298.984	257.31
299.214	251.31
299.445	261.31
299.675	238.31
299.905	267.31
300.136	259.31
300.366	249.31
300.597	267.31
300.827	246.31
301.057	269.31
301.288	270.31
301.518	276.31
301.748	263.31
301.979	270.31
302.209	269.31
302.439	263.31
302.669	255.31
302.9	261.31
303.13	268.31
303.36	276.31
303.59	291.31
303.82	280.31
304.051	273.31
304.281	274.31
304.511	273.31
304.741	276.31
304.971	265.31
305.201	273.31
305.431	264.31
305.661	288.31
305.891	269.31
306.121	268.31
306.352	277.31
306.582	269.31
306.812	277.31
307.042	271.31
307.272	269.31
307.502	270.31
307.731	281.31
307.961	277.31
308.191	262.31
308.421	285.31
308.651	261.31
308.881	282.31
309.111	299.31
309.341	274.31
309.571	277.31
309.8	292.31
310.03	268.31
310.26	291.31
310.49	289.31
310.72	309.31
310.949	318.31
311.179	301.31
311.409	300.31
311.639	310.31
311.868	315.31
312.098	303.31
312.328	276.31
312.557	295.31
312.787	319.31
313.017	309.31
313.246	299.31
313.476	317.31
313.706	315.31
313.935	298.31
314.165	304.31
314.394	318.31
314.624	318.31
314.853	313.31
315.083	317.31
315.312	285.31
315.542	310.31
315.771	317.31
316.001	309.31
316.23	301.31
316.46	311.31
316.689	301.31
316.919	309.31
317.148	312.31
317.377	312.31
317.607	308.31
317.836	305.31
318.065	312.31
318.295	310.31
318.524	307.31
318.753	286.31
318.983	295.31
319.212	312.31
319.441	325.31
319.67	327.31
319.9	305.31
320.129	304.31
320.358	311.31
320.587	328.31
320.816	301.31
321.046	307.31
321.275	302.31
321.504	327.31
321.733	326.31
321.962	328.31
322.191	328.31
322.42	339.31
322.649	344.31
322.878	345.31
323.108	367.31
323.337	383.31
323.566	371.31
323.795	382.31
324.024	418.31
324.253	483.31
324.482	669.31
324.71	974.31
324.939	1333.31
325.168	1093.31
325.397	612.31
325.626	447.31
325.855	408.31
326.084	377.31
326.313	383.31
326.542	383.31
326.77	390.31
326.999	463.31
327.228	646.31
327.457	890.31
327.686	1013.31
327.914	706.31
328.143	496.31
328.372	449.31
328.6	437.31
328.829	410.31
329.058	408.31
329.287	423.31
329.515	418.31
329.744	400.31
329.972	403.31
330.201	411.31
330.43	433.31
330.658	447.31
330.887	464.31
331.115	443.31
331.344	400.31
331.572	389.31
331.801	381.31
332.03	374.31
332.258	400.31
332.486	375.31
332.715	381.31
332.943	351.31
333.172	367.31
333.4	372.31
333.629	387.31
333.857	395.31
334.085	428.31
334.314	427.31
334.542	457.31
334.771	458.31
334.999	421.31
335.227	391.31
335.455	372.31
335.684	379.31
335.912	366.31
336.14	350.31
336.369	363.31
336.597	354.31
336.825	380.31
337.053	361.31
337.281	354.31
337.51	356.31
337.738	368.31
337.966	355.31
338.194	346.31
338.422	350.31
338.65	352.31
338.878	365.31
339.106	347.31
339.334	319.31
339.562	336.31
339.79	351.31
340.018	360.31
340.246	340.31
340.474	333.31
340.702	349.31
340.93	345.31
341.158	334.31
341.386	341.31
341.614	347.31
341.842	347.31
342.07	326.31
342.298	337.31
342.526	344.31
342.754	333.31
342.981	342.31
343.209	348.31
343.437	324.31
343.665	329.31
343.893	338.31
344.12	336.31
344.348	357.31
344.576	339.31
344.804	339.31
345.031	354.31
345.259	346.31
345.487	337.31
345.714	330.31
345.942	335.31
346.17	341.31
346.397	335.31
346.625	311.31
346.853	316.31
347.08	338.31
347.308	325.31
347.535	325.31
347.763	335.31
347.99	334.31
348.218	350.31
348.445	336.31
348.673	342.31
348.9	331.31
349.128	322.31
349.355	323.31
349.583	320.31
349.81	295.31
350.037	323.31
350.265	325.31
350.492	326.31
350.72	299.31
350.947	317.31
351.174	337.31
351.402	332.31
351.629	336.31
351.856	331.31
352.083	336.31
352.311	321.31
352.538	334.31
352.765	333.31
352.992	318.31
353.22	327.31
353.447	320.31
353.674	311.31
353.901	316.31
354.128	320.31
354.355	307.31
354.583	326.31
354.81	300.31
355.037	315.31
355.264	285.31
355.491	330.31
355.718	299.31
355.945	319.31
356.172	302.31
356.399	307.31
356.626	290.31
356.853	307.31
357.08	305.31
357.307	304.31
357.534	303.31
357.761	317.31
357.988	313.31
358.215	326.31
358.441	324.31
358.668	333.31
358.895	307.31
359.122	313.31
359.349	308.31
359.576	338.31
359.802	336.31
360.029	331.31
360.256	355.31
360.483	349.31
360.709	358.31
360.936	322.31
361.163	322.31
361.39	313.31
361.616	335.31
361.843	316.31
362.07	331.31
362.296	329.31
362.523	320.31
362.749	308.31
362.976	327.31
363.203	318.31
363.429	311.31
363.656	304.31
363.882	323.31
364.109	307.31
364.335	318.31
364.562	307.31
364.788	310.31
365.015	318.31
365.241	313.31
365.468	309.31
365.694	322.31
365.92	298.31
366.147	328.31
366.373	325.31
366.599	323.31
366.826	325.31
367.052	287.31
367.278	336.31
367.505	319.31
367.731	326.31
367.957	305.31
368.184	311.31
368.41	323.31
368.636	333.31
368.862	336.31
369.089	311.31
369.315	328.31
369.541	300.31
369.767	310.31
369.993	319.31
370.219	325.31
370.445	297.31
370.672	299.31
370.898	311.31
371.124	302.31
371.35	307.31
371.576	300.31
371.802	315.31
372.028	304.31
372.254	316.31
372.48	289.31
372.706	299.31
372.932	325.31
373.158	323.31
373.384	314.31
373.61	309.31
373.835	328.31
374.061	318.31
374.287	331.31
374.513	328.31
374.739	325.31
374.965	325.31
375.191	321.31
375.416	323.31
375.642	315.31
375.868	312.31
376.094	321.31
376.319	309.31
376.545	303.31
376.771	316.31
376.997	313.31
377.222	287.31
377.448	305.31
377.674	317.31
377.899	298.31
378.125	312.31
378.35	331.31
378.576	312.31
378.802	315.31
379.027	325.31
379.253	332.31
379.478	301.31
379.704	307.31
379.929	295.31
380.155	317.31
380.38	301.31
380.606	301.31
380.831	316.31
381.057	321.31
381.282	318.31
381.507	315.31
381.733	319.31
381.958	319.31
382.184	315.31
382.409	332.31
382.634	320.31
382.86	310.31
383.085	333.31
383.31	327.31
383.535	335.31
383.761	305.31
383.986	324.31
384.211	347.31
384.436	348.31
384.662	324.31
384.887	336.31
385.112	337.31
385.337	349.31
385.562	347.31
385.787	358.31
386.013	337.31
386.238	345.31
386.463	371.31
386.688	333.31
386.913	341.31
387.138	349.31
387.363	339.31
387.588	345.31
387.813	350.31
388.038	341.31
388.263	348.31
388.488	349.31
388.713	357.31
388.938	331.31
389.163	321.31
389.387	329.31
389.612	336.31
389.837	330.31
390.062	340.31
390.287	329.31
390.512	338.31
390.736	345.31
390.961	328.31
391.186	346.31
391.411	350.31
391.636	355.31
391.86	353.31
392.085	335.31
392.31	337.31
392.534	363.31
392.759	371.31
392.984	319.31
393.208	326.31
393.433	361.31
393.658	342.31
393.882	357.31
394.107	335.31
394.331	334.31
394.556	345.31
394.78	351.31
395.005	352.31
395.229	354.31
395.454	358.31
395.678	354.31
395.903	383.31
396.127	375.31
396.352	375.31
396.576	379.31
396.801	374.31
397.025	377.31
397.249	364.31
397.474	373.31
397.698	371.31
397.922	376.31
398.147	402.31
398.371	379.31
398.595	383.31
398.82	391.31
399.044	400.31
399.268	414.31
399.492	444.31
399.717	479.31
399.941	495.31
400.165	489.31
400.389	468.31
400.613	443.31
400.837	410.31
401.062	397.31
401.286	419.31
401.51	396.31
401.734	411.31
401.958	380.31
402.182	409.31
402.406	419.31
402.63	427.31
402.854	399.31
403.078	392.31
403.302	417.31
403.526	428.31
403.75	427.31
403.974	419.31
404.198	409.31
404.422	415.31
404.645	426.31
404.869	417.31
405.093	423.31
405.317	451.31
405.541	476.31
405.765	439.31
405.988	431.31
406.212	443.31
406.436	447.31
406.66	472.31
406.883	453.31
407.107	463.31
407.331	496.31
407.555	521.31
407.778	526.31
408.002	480.31
408.226	464.31
408.449	463.31
408.673	438.31
408.896	480.31
409.12	489.31
409.344	465.31
409.567	437.31
409.791	413.31
410.014	416.31
410.238	428.31
410.461	415.31
410.685	424.31
410.908	435.31
411.132	441.31
411.355	468.31
411.578	459.31
411.802	427.31
412.025	416.31
412.249	420.31
412.472	426.31
412.695	443.31
412.919	429.31
413.142	407.31
413.365	413.31
413.589	423.31
413.812	406.31
414.035	398.31
414.258	426.31
414.482	397.31
414.705	418.31
414.928	407.31
415.151	414.31
415.374	395.31
415.597	413.31
415.821	399.31
416.044	431.31
416.267	406.31
416.49	422.31
416.713	396.31
416.936	397.31
417.159	391.31
417.382	397.31
417.605	417.31
417.828	432.31
418.051	419.31
418.274	414.31
418.497	407.31
418.72	416.31
418.943	416.31
419.166	415.31
419.389	428.31
419.611	437.31
419.834	439.31
420.057	422.31
420.28	439.31
420.503	414.31
420.726	407.31
420.948	430.31
421.171	432.31
421.394	481.31
421.617	420.31
421.839	431.31
422.062	420.31
422.285	433.31
422.507	477.31
422.73	514.31
422.953	515.31
423.175	460.31
423.398	433.31
423.621	443.31
423.843	459.31
424.066	457.31
424.288	445.31
424.511	446.31
424.733	478.31
424.956	531.31
425.178	510.31
425.401	499.31
425.623	532.31
425.846	465.31
426.068	445.31
426.291	441.31
426.513	437.31
426.735	441.31
426.958	486.31
427.18	519.31
427.402	578.31
427.625	633.31
427.847	539.31
428.069	484.31
428.292	453.31
428.514	439.31
428.736	430.31
428.958	430.31
429.181	414.31
429.403	411.31
429.625	405.31
429.847	417.31
430.069	462.31
430.292	475.31
430.514	405.31
430.736	415.31
430.958	399.31
431.18	412.31
431.402	413.31
431.624	398.31
431.846	405.31
432.068	401.31
432.29	382.31
432.512	412.31
432.734	410.31
432.956	415.31
433.178	415.31
433.4	417.31
433.622	399.31
433.844	406.31
434.066	377.31
434.287	405.31
434.509	392.31
434.731	402.31
434.953	411.31
435.175	415.31
435.397	459.31
435.618	442.31
435.84	450.31
436.062	513.31
436.284	548.31
436.505	465.31
436.727	424.31
436.949	415.31
437.17	423.31
437.392	415.31
437.614	426.31
437.835	417.31
438.057	501.31
438.278	557.31
438.5	561.31
438.721	604.31
438.943	564.31
439.165	474.31
439.386	443.31
439.608	446.31
439.829	442.31
440.05	443.31
440.272	473.31
440.493	452.31
440.715	421.31
440.936	425.31
441.158	416.31
441.379	426.31
441.6	412.31
441.822	441.31
442.043	452.31
442.264	527.31
442.486	527.31
442.707	463.31
442.928	455.31
443.149	464.31
443.371	462.31
443.592	487.31
443.813	527.31
444.034	584.31
444.255	481.31
444.476	462.31
444.698	462.31
444.919	456.31
445.14	549.31
445.361	503.31
445.582	460.31
445.803	483.31
446.024	555.31
446.245	560.31
446.466	514.31
446.687	440.31
446.908	446.31
447.129	419.31
447.35	428.31
447.571	405.31
447.792	382.31
448.013	409.31
448.234	428.31
448.455	441.31
448.675	506.31
448.896	559.31
449.117	497.31
449.338	473.31
449.559	552.31
449.779	592.31
450	488.31
450.221	428.31
450.442	393.31
450.662	399.31
450.883	390.31
451.104	409.31
451.324	421.31
451.545	385.31
451.766	388.31
451.986	373.31
452.207	379.31
452.428	386.31
452.648	355.31
452.869	382.31
453.089	367.31
453.31	361.31
453.53	361.31
453.751	379.31
453.971	355.31
454.192	373.31
454.412	368.31
454.633	371.31
454.853	374.31
455.073	349.31
455.294	361.31
455.514	404.31
455.734	419.31
455.955	355.31
456.175	352.31
456.395	345.31
456.616	365.31
456.836	363.31
457.056	359.31
457.276	350.31
457.497	352.31
457.717	347.31
457.937	355.31
458.157	343.31
458.377	356.31
458.598	377.31
458.818	408.31
459.038	452.31
459.258	459.31
459.478	418.31
459.698	395.31
459.918	394.31
460.138	403.31
460.358	421.31
460.578	419.31
460.798	401.31
461.018	409.31
461.238	411.31
461.458	416.31
461.678	416.31
461.898	430.31
462.118	401.31
462.338	423.31
462.558	432.31
462.777	441.31
462.997	443.31
463.217	460.31
463.437	476.31
463.657	455.31
463.876	442.31
464.096	465.31
464.316	439.31
464.536	433.31
464.755	444.31
464.975	435.31
465.195	458.31
465.414	495.31
465.634	429.31
465.854	410.31
466.073	411.31
466.293	396.31
466.512	385.31
466.732	388.31
466.951	382.31
467.171	387.31
467.391	385.31
467.61	388.31
467.829	411.31
468.049	381.31
468.268	389.31
468.488	408.31
468.707	381.31
468.927	379.31
469.146	355.31
469.365	379.31
469.585	376.31
469.804	388.31
470.023	397.31
470.243	389.31
470.462	381.31
470.681	426.31
470.901	393.31
471.12	379.31
471.339	401.31
471.558	397.31
471.777	399.31
471.997	416.31
472.216	394.31
472.435	475.31
472.654	430.31
472.873	377.31
473.092	377.31
473.311	363.31
473.53	389.31
473.749	407.31
473.968	401.31
474.187	464.31
474.406	481.31
474.625	411.31
474.844	391.31
475.063	385.31
475.282	383.31
475.501	395.31
475.72	382.31
475.939	405.31
476.158	407.31
476.377	384.31
476.596	395.31
476.814	406.31
477.033	413.31
477.252	411.31
477.471	408.31
477.69	417.31
477.908	431.31
478.127	418.31
478.346	414.31
478.564	444.31
478.783	433.31
479.002	425.31
479.22	455.31
479.439	465.31
479.658	465.31
479.876	470.31
480.095	471.31
480.313	489.31
480.532	484.31
480.751	465.31
480.969	493.31
481.188	572.31
481.406	651.31
481.624	520.31
481.843	483.31
482.061	463.31
482.28	465.31
482.498	454.31
482.717	448.31
482.935	441.31
483.153	430.31
483.372	440.31
483.59	451.31
483.808	449.31
484.027	442.31
484.245	452.31
484.463	442.31
484.681	463.31
484.9	456.31
485.118	467.31
485.336	465.31
485.554	467.31
485.772	460.31
485.99	455.31
486.209	460.31
486.427	453.31
486.645	457.31
486.863	485.31
487.081	491.31
487.299	483.31
487.517	480.31
487.735	475.31
487.953	481.31
488.171	491.31
488.389	501.31
488.607	485.31
488.825	479.31
489.043	480.31
489.261	501.31
489.479	472.31
489.696	469.31
489.914	498.31
490.132	494.31
490.35	497.31
490.568	496.31
490.786	500.31
491.003	497.31
491.221	521.31
491.439	551.31
491.657	528.31
491.874	516.31
492.092	542.31
492.31	533.31
492.527	535.31
492.745	525.31
492.963	529.31
493.18	533.31
493.398	543.31
493.615	533.31
493.833	569.31
494.05	534.31
494.268	550.31
494.485	559.31
494.703	553.31
494.92	573.31
495.138	567.31
495.355	553.31
495.573	552.31
495.79	527.31
496.008	559.31
496.225	559.31
496.442	561.31
496.66	545.31
496.877	563.31
497.094	563.31
497.312	572.31
497.529	575.31
497.746	607.31
497.963	601.31
498.181	594.31
498.398	605.31
498.615	638.31
498.832	632.31
499.049	651.31
499.267	661.31
499.484	702.31
499.701	727.31
499.918	763.31
500.135	778.31
500.352	845.31
500.569	849.31
500.786	835.31
501.003	841.31
501.22	811.31
501.437	791.31
501.654	714.31
501.871	712.31
502.088	670.31
