Data from 1986.PennyLincolnUp.Lamp.En5.5.200Scan.071819.P2_HRD10591_17-10-48-975.txt Node
Date: Thu Jul 18 17:10:48 EDT 2019
User: cochatt
Spectrometer: HR+D1059
Trigger mode: 1
Integration Time (sec): 1.000000E-1
Scans to average: 1
Electric dark correction enabled: true
Nonlinearity correction enabled: false
Boxcar width: 0
XAxis mode: Wavelengths
Number of Pixels in Spectrum: 2048
>>>>>Begin Spectral Data<<<<<
223.165	-9.81
223.4	-9.81
223.635	-9.81
223.869	-3.81
224.104	-22.81
224.338	-7.81
224.573	-3.81
224.808	-11.81
225.042	-5.81
225.277	-8.81
225.511	-12.81
225.746	-9.81
225.98	-2.81
226.215	13.19
226.449	20.19
226.683	33.19
226.918	18.19
227.152	15.19
227.387	30.19
227.621	41.19
227.856	37.19
228.09	38.19
228.324	44.19
228.559	51.19
228.793	67.19
229.027	109.19
229.262	112.19
229.496	121.19
229.73	129.19
229.964	180.19
230.199	133.19
230.433	124.19
230.667	122.19
230.901	112.19
231.136	117.19
231.37	121.19
231.604	111.19
231.838	99.19
232.072	118.19
232.306	119.19
232.541	101.19
232.775	116.19
233.009	115.19
233.243	117.19
233.477	113.19
233.711	119.19
233.945	115.19
234.179	107.19
234.413	118.19
234.647	115.19
234.881	101.19
235.115	107.19
235.349	119.19
235.583	118.19
235.817	120.19
236.051	129.19
236.285	134.19
236.519	124.19
236.753	129.19
236.987	146.19
237.221	185.19
237.455	239.19
237.689	191.19
237.922	132.19
238.156	133.19
238.39	128.19
238.624	133.19
238.858	144.19
239.091	120.19
239.325	122.19
239.559	129.19
239.793	104.19
240.027	137.19
240.26	142.19
240.494	147.19
240.728	142.19
240.961	147.19
241.195	138.19
241.429	130.19
241.662	133.19
241.896	116.19
242.13	131.19
242.363	131.19
242.597	133.19
242.83	138.19
243.064	133.19
243.298	148.19
243.531	131.19
243.765	133.19
243.998	140.19
244.232	125.19
244.465	142.19
244.699	139.19
244.932	132.19
245.166	153.19
245.399	145.19
245.633	149.19
245.866	150.19
246.099	145.19
246.333	141.19
246.566	140.19
246.8	155.19
247.033	154.19
247.266	154.19
247.5	186.19
247.733	185.19
247.966	181.19
248.2	167.19
248.433	191.19
248.666	168.19
248.899	180.19
249.133	200.19
249.366	219.19
249.599	195.19
249.832	201.19
250.066	188.19
250.299	182.19
250.532	200.19
250.765	218.19
250.998	226.19
251.231	226.19
251.465	222.19
251.698	211.19
251.931	197.19
252.164	202.19
252.397	206.19
252.63	218.19
252.863	220.19
253.096	236.19
253.329	239.19
253.562	261.19
253.795	212.19
254.028	218.19
254.261	219.19
254.494	234.19
254.727	256.19
254.96	291.19
255.193	285.19
255.426	263.19
255.659	250.19
255.892	229.19
256.124	253.19
256.357	256.19
256.59	240.19
256.823	236.19
257.056	221.19
257.289	217.19
257.521	221.19
257.754	216.19
257.987	205.19
258.22	217.19
258.452	205.19
258.685	210.19
258.918	205.19
259.151	219.19
259.383	219.19
259.616	225.19
259.849	239.19
260.081	265.19
260.314	273.19
260.547	277.19
260.779	265.19
261.012	234.19
261.244	222.19
261.477	232.19
261.71	213.19
261.942	228.19
262.175	244.19
262.407	229.19
262.64	194.19
262.872	216.19
263.105	213.19
263.337	208.19
263.57	214.19
263.802	219.19
264.035	203.19
264.267	191.19
264.499	197.19
264.732	211.19
264.964	191.19
265.197	212.19
265.429	211.19
265.661	205.19
265.894	222.19
266.126	214.19
266.358	204.19
266.591	213.19
266.823	211.19
267.055	241.19
267.287	229.19
267.52	213.19
267.752	215.19
267.984	204.19
268.216	233.19
268.448	237.19
268.681	246.19
268.913	232.19
269.145	253.19
269.377	278.19
269.609	276.19
269.841	263.19
270.073	280.19
270.306	299.19
270.538	317.19
270.77	321.19
271.002	314.19
271.234	313.19
271.466	322.19
271.698	305.19
271.93	327.19
272.162	332.19
272.394	318.19
272.626	327.19
272.858	305.19
273.09	282.19
273.322	279.19
273.553	277.19
273.785	275.19
274.017	250.19
274.249	242.19
274.481	231.19
274.713	255.19
274.945	276.19
275.176	259.19
275.408	261.19
275.64	262.19
275.872	275.19
276.104	246.19
276.335	262.19
276.567	261.19
276.799	277.19
277.031	315.19
277.262	313.19
277.494	318.19
277.726	318.19
277.957	285.19
278.189	281.19
278.421	267.19
278.652	273.19
278.884	268.19
279.115	259.19
279.347	269.19
279.579	260.19
279.81	247.19
280.042	236.19
280.273	258.19
280.505	255.19
280.736	262.19
280.968	259.19
281.199	249.19
281.431	260.19
281.662	251.19
281.894	255.19
282.125	263.19
282.356	275.19
282.588	276.19
282.819	317.19
283.051	259.19
283.282	234.19
283.513	260.19
283.745	237.19
283.976	260.19
284.207	253.19
284.439	283.19
284.67	275.19
284.901	248.19
285.132	258.19
285.364	253.19
285.595	268.19
285.826	263.19
286.057	270.19
286.288	253.19
286.52	254.19
286.751	257.19
286.982	264.19
287.213	244.19
287.444	253.19
287.675	273.19
287.906	290.19
288.138	287.19
288.369	276.19
288.6	280.19
288.831	274.19
289.062	273.19
289.293	264.19
289.524	269.19
289.755	296.19
289.986	273.19
290.217	268.19
290.448	254.19
290.679	262.19
290.91	263.19
291.141	261.19
291.371	247.19
291.602	248.19
291.833	240.19
292.064	279.19
292.295	255.19
292.526	270.19
292.757	269.19
292.987	274.19
293.218	255.19
293.449	281.19
293.68	282.19
293.91	278.19
294.141	268.19
294.372	278.19
294.603	275.19
294.833	287.19
295.064	278.19
295.295	287.19
295.525	265.19
295.756	282.19
295.987	288.19
296.217	323.19
296.448	315.19
296.679	302.19
296.909	281.19
297.14	243.19
297.37	267.19
297.601	279.19
297.831	278.19
298.062	268.19
298.292	267.19
298.523	277.19
298.753	314.19
298.984	266.19
299.214	293.19
299.445	284.19
299.675	271.19
299.905	286.19
300.136	297.19
300.366	293.19
300.597	299.19
300.827	298.19
301.057	295.19
301.288	296.19
301.518	298.19
301.748	284.19
301.979	293.19
302.209	275.19
302.439	306.19
302.669	299.19
302.9	280.19
303.13	294.19
303.36	307.19
303.59	295.19
303.82	315.19
304.051	323.19
304.281	298.19
304.511	277.19
304.741	291.19
304.971	297.19
305.201	278.19
305.431	301.19
305.661	295.19
305.891	300.19
306.121	311.19
306.352	296.19
306.582	305.19
306.812	301.19
307.042	306.19
307.272	298.19
307.502	315.19
307.731	309.19
307.961	308.19
308.191	299.19
308.421	311.19
308.651	306.19
308.881	306.19
309.111	315.19
309.341	312.19
309.571	339.19
309.8	351.19
310.03	346.19
310.26	359.19
310.49	339.19
310.72	379.19
310.949	373.19
311.179	385.19
311.409	349.19
311.639	359.19
311.868	370.19
312.098	372.19
312.328	371.19
312.557	362.19
312.787	403.19
313.017	379.19
313.246	369.19
313.476	371.19
313.706	345.19
313.935	357.19
314.165	371.19
314.394	389.19
314.624	381.19
314.853	368.19
315.083	345.19
315.312	355.19
315.542	370.19
315.771	339.19
316.001	359.19
316.23	325.19
316.46	345.19
316.689	377.19
316.919	359.19
317.148	368.19
317.377	358.19
317.607	368.19
317.836	371.19
318.065	355.19
318.295	335.19
318.524	370.19
318.753	344.19
318.983	354.19
319.212	374.19
319.441	361.19
319.67	367.19
319.9	373.19
320.129	378.19
320.358	359.19
320.587	345.19
320.816	373.19
321.046	381.19
321.275	368.19
321.504	391.19
321.733	367.19
321.962	387.19
322.191	403.19
322.42	442.19
322.649	419.19
322.878	447.19
323.108	456.19
323.337	496.19
323.566	490.19
323.795	551.19
324.024	624.19
324.253	751.19
324.482	1077.19
324.71	1611.19
324.939	2356.19
325.168	2077.19
325.397	1109.19
325.626	730.19
325.855	593.19
326.084	519.19
326.313	531.19
326.542	533.19
326.77	585.19
326.999	677.19
327.228	961.19
327.457	1445.19
327.686	1786.19
327.914	1242.19
328.143	797.19
328.372	671.19
328.6	652.19
328.829	579.19
329.058	624.19
329.287	634.19
329.515	583.19
329.744	536.19
329.972	535.19
330.201	545.19
330.43	601.19
330.658	629.19
330.887	655.19
331.115	638.19
331.344	529.19
331.572	502.19
331.801	497.19
332.03	474.19
332.258	445.19
332.486	445.19
332.715	437.19
332.943	428.19
333.172	425.19
333.4	431.19
333.629	423.19
333.857	440.19
334.085	461.19
334.314	498.19
334.542	532.19
334.771	543.19
334.999	468.19
335.227	457.19
335.455	415.19
335.684	411.19
335.912	409.19
336.14	404.19
336.369	404.19
336.597	431.19
336.825	430.19
337.053	406.19
337.281	420.19
337.51	390.19
337.738	397.19
337.966	389.19
338.194	404.19
338.422	414.19
338.65	401.19
338.878	390.19
339.106	407.19
339.334	401.19
339.562	383.19
339.79	387.19
340.018	400.19
340.246	408.19
340.474	380.19
340.702	387.19
340.93	401.19
341.158	396.19
341.386	415.19
341.614	397.19
341.842	399.19
342.07	375.19
342.298	385.19
342.526	372.19
342.754	380.19
342.981	377.19
343.209	371.19
343.437	377.19
343.665	372.19
343.893	389.19
344.12	376.19
344.348	376.19
344.576	382.19
344.804	381.19
345.031	406.19
345.259	426.19
345.487	426.19
345.714	400.19
345.942	419.19
346.17	389.19
346.397	396.19
346.625	407.19
346.853	389.19
347.08	375.19
347.308	389.19
347.535	375.19
347.763	401.19
347.99	389.19
348.218	405.19
348.445	416.19
348.673	413.19
348.9	397.19
349.128	384.19
349.355	367.19
349.583	367.19
349.81	385.19
350.037	364.19
350.265	377.19
350.492	375.19
350.72	367.19
350.947	367.19
351.174	399.19
351.402	394.19
351.629	387.19
351.856	380.19
352.083	407.19
352.311	441.19
352.538	427.19
352.765	396.19
352.992	411.19
353.22	391.19
353.447	399.19
353.674	392.19
353.901	380.19
354.128	350.19
354.355	361.19
354.583	355.19
354.81	352.19
355.037	368.19
355.264	363.19
355.491	335.19
355.718	333.19
355.945	348.19
356.172	337.19
356.399	343.19
356.626	355.19
356.853	349.19
357.08	339.19
357.307	339.19
357.534	369.19
357.761	342.19
357.988	357.19
358.215	343.19
358.441	334.19
358.668	377.19
358.895	369.19
359.122	362.19
359.349	357.19
359.576	373.19
359.802	416.19
360.029	429.19
360.256	458.19
360.483	419.19
360.709	417.19
360.936	378.19
361.163	381.19
361.39	391.19
361.616	389.19
361.843	379.19
362.07	383.19
362.296	380.19
362.523	382.19
362.749	382.19
362.976	360.19
363.203	368.19
363.429	363.19
363.656	364.19
363.882	360.19
364.109	359.19
364.335	362.19
364.562	350.19
364.788	351.19
365.015	364.19
365.241	356.19
365.468	367.19
365.694	367.19
365.92	354.19
366.147	369.19
366.373	369.19
366.599	357.19
366.826	340.19
367.052	344.19
367.278	366.19
367.505	371.19
367.731	350.19
367.957	363.19
368.184	372.19
368.41	351.19
368.636	358.19
368.862	376.19
369.089	368.19
369.315	364.19
369.541	359.19
369.767	360.19
369.993	351.19
370.219	349.19
370.445	357.19
370.672	344.19
370.898	324.19
371.124	364.19
371.35	347.19
371.576	343.19
371.802	331.19
372.028	335.19
372.254	332.19
372.48	325.19
372.706	338.19
372.932	346.19
373.158	342.19
373.384	363.19
373.61	341.19
373.835	326.19
374.061	359.19
374.287	344.19
374.513	354.19
374.739	338.19
374.965	346.19
375.191	344.19
375.416	359.19
375.642	336.19
375.868	340.19
376.094	344.19
376.319	349.19
376.545	359.19
376.771	359.19
376.997	352.19
377.222	369.19
377.448	345.19
377.674	343.19
377.899	345.19
378.125	364.19
378.35	352.19
378.576	353.19
378.802	344.19
379.027	353.19
379.253	333.19
379.478	336.19
379.704	333.19
379.929	346.19
380.155	359.19
380.38	358.19
380.606	337.19
380.831	345.19
381.057	352.19
381.282	356.19
381.507	333.19
381.733	354.19
381.958	338.19
382.184	353.19
382.409	340.19
382.634	342.19
382.86	358.19
383.085	354.19
383.31	345.19
383.535	355.19
383.761	355.19
383.986	360.19
384.211	359.19
384.436	350.19
384.662	355.19
384.887	361.19
385.112	342.19
385.337	347.19
385.562	380.19
385.787	355.19
386.013	362.19
386.238	363.19
386.463	379.19
386.688	377.19
386.913	368.19
387.138	359.19
387.363	352.19
387.588	357.19
387.813	331.19
388.038	346.19
388.263	361.19
388.488	370.19
388.713	359.19
388.938	351.19
389.163	340.19
389.387	361.19
389.612	369.19
389.837	357.19
390.062	359.19
390.287	371.19
390.512	364.19
390.736	351.19
390.961	357.19
391.186	350.19
391.411	352.19
391.636	337.19
391.86	349.19
392.085	365.19
392.31	370.19
392.534	346.19
392.759	335.19
392.984	353.19
393.208	358.19
393.433	353.19
393.658	356.19
393.882	352.19
394.107	367.19
394.331	364.19
394.556	359.19
394.78	356.19
395.005	343.19
395.229	348.19
395.454	371.19
395.678	373.19
395.903	384.19
396.127	384.19
396.352	385.19
396.576	366.19
396.801	381.19
397.025	354.19
397.249	391.19
397.474	397.19
397.698	389.19
397.922	397.19
398.147	397.19
398.371	402.19
398.595	413.19
398.82	392.19
399.044	399.19
399.268	394.19
399.492	416.19
399.717	435.19
399.941	467.19
400.165	498.19
400.389	509.19
400.613	451.19
400.837	403.19
401.062	418.19
401.286	412.19
401.51	403.19
401.734	404.19
401.958	415.19
402.182	405.19
402.406	428.19
402.63	431.19
402.854	416.19
403.078	417.19
403.302	421.19
403.526	408.19
403.75	433.19
403.974	403.19
404.198	403.19
404.422	405.19
404.645	426.19
404.869	425.19
405.093	474.19
405.317	485.19
405.541	537.19
405.765	483.19
405.988	449.19
406.212	469.19
406.436	489.19
406.66	496.19
406.883	472.19
407.107	475.19
407.331	524.19
407.555	585.19
407.778	572.19
408.002	536.19
408.226	478.19
408.449	455.19
408.673	473.19
408.896	502.19
409.12	537.19
409.344	512.19
409.567	447.19
409.791	448.19
410.014	432.19
410.238	410.19
410.461	426.19
410.685	422.19
410.908	456.19
411.132	465.19
411.355	509.19
411.578	477.19
411.802	433.19
412.025	440.19
412.249	431.19
412.472	442.19
412.695	497.19
412.919	477.19
413.142	448.19
413.365	407.19
413.589	406.19
413.812	406.19
414.035	384.19
414.258	401.19
414.482	424.19
414.705	398.19
414.928	377.19
415.151	399.19
415.374	381.19
415.597	374.19
415.821	395.19
416.044	421.19
416.267	402.19
416.49	408.19
416.713	395.19
416.936	394.19
417.159	406.19
417.382	413.19
417.605	409.19
417.828	408.19
418.051	410.19
418.274	441.19
418.497	406.19
418.72	401.19
418.943	412.19
419.166	427.19
419.389	435.19
419.611	420.19
419.834	425.19
420.057	432.19
420.28	436.19
420.503	452.19
420.726	431.19
420.948	435.19
421.171	471.19
421.394	520.19
421.617	478.19
421.839	457.19
422.062	424.19
422.285	446.19
422.507	479.19
422.73	573.19
422.953	565.19
423.175	513.19
423.398	448.19
423.621	443.19
423.843	476.19
424.066	447.19
424.288	468.19
424.511	485.19
424.733	546.19
424.956	629.19
425.178	595.19
425.401	594.19
425.623	609.19
425.846	540.19
426.068	468.19
426.291	475.19
426.513	481.19
426.735	495.19
426.958	539.19
427.18	609.19
427.402	709.19
427.625	792.19
427.847	728.19
428.069	613.19
428.292	546.19
428.514	490.19
428.736	451.19
428.958	448.19
429.181	467.19
429.403	435.19
429.625	443.19
429.847	478.19
430.069	549.19
430.292	561.19
430.514	486.19
430.736	447.19
430.958	441.19
431.18	427.19
431.402	413.19
431.624	413.19
431.846	416.19
432.068	398.19
432.29	396.19
432.512	423.19
432.734	423.19
432.956	423.19
433.178	432.19
433.4	417.19
433.622	424.19
433.844	412.19
434.066	414.19
434.287	396.19
434.509	437.19
434.731	384.19
434.953	441.19
435.175	463.19
435.397	454.19
435.618	473.19
435.84	533.19
436.062	569.19
436.284	653.19
436.505	560.19
436.727	521.19
436.949	473.19
437.17	454.19
437.392	443.19
437.614	451.19
437.835	499.19
438.057	578.19
438.278	685.19
438.5	699.19
438.721	761.19
438.943	718.19
439.165	573.19
439.386	521.19
439.608	518.19
439.829	488.19
440.05	532.19
440.272	574.19
440.493	551.19
440.715	476.19
440.936	446.19
441.158	453.19
441.379	441.19
441.6	464.19
441.822	481.19
442.043	506.19
442.264	613.19
442.486	646.19
442.707	538.19
442.928	496.19
443.149	517.19
443.371	511.19
443.592	556.19
443.813	657.19
444.034	703.19
444.255	600.19
444.476	495.19
444.698	482.19
444.919	454.19
445.14	560.19
445.361	548.19
445.582	518.19
445.803	598.19
446.024	676.19
446.245	689.19
446.466	626.19
446.687	531.19
446.908	476.19
447.129	461.19
447.35	439.19
447.571	452.19
447.792	456.19
448.013	460.19
448.234	492.19
448.455	542.19
448.675	629.19
448.896	711.19
449.117	642.19
449.338	586.19
449.559	687.19
449.779	797.19
450	639.19
450.221	497.19
450.442	454.19
450.662	463.19
450.883	475.19
451.104	467.19
451.324	475.19
451.545	439.19
451.766	414.19
451.986	415.19
452.207	421.19
452.428	392.19
452.648	401.19
452.869	383.19
453.089	418.19
453.31	421.19
453.53	411.19
453.751	402.19
453.971	420.19
454.192	441.19
454.412	427.19
454.633	416.19
454.853	407.19
455.073	393.19
455.294	419.19
455.514	501.19
455.734	469.19
455.955	423.19
456.175	400.19
456.395	369.19
456.616	387.19
456.836	378.19
457.056	361.19
457.276	367.19
457.497	375.19
457.717	365.19
457.937	356.19
458.157	385.19
458.377	383.19
458.598	416.19
458.818	480.19
459.038	581.19
459.258	578.19
459.478	501.19
459.698	449.19
459.918	407.19
460.138	398.19
460.358	410.19
460.578	395.19
460.798	411.19
461.018	414.19
461.238	409.19
461.458	403.19
461.678	388.19
461.898	399.19
462.118	385.19
462.338	393.19
462.558	391.19
462.777	409.19
462.997	400.19
463.217	413.19
463.437	435.19
463.657	419.19
463.876	402.19
464.096	416.19
464.316	433.19
464.536	431.19
464.755	434.19
464.975	446.19
465.195	485.19
465.414	579.19
465.634	505.19
465.854	464.19
466.073	468.19
466.293	404.19
466.512	416.19
466.732	394.19
466.951	392.19
467.171	401.19
467.391	431.19
467.61	383.19
467.829	420.19
468.049	425.19
468.268	409.19
468.488	403.19
468.707	389.19
468.927	376.19
469.146	368.19
469.365	383.19
469.585	400.19
469.804	395.19
470.023	425.19
470.243	405.19
470.462	412.19
470.681	426.19
470.901	426.19
471.12	405.19
471.339	410.19
471.558	407.19
471.777	426.19
471.997	412.19
472.216	440.19
472.435	485.19
472.654	455.19
472.873	431.19
473.092	387.19
473.311	414.19
473.53	421.19
473.749	428.19
473.968	455.19
474.187	565.19
474.406	602.19
474.625	470.19
474.844	419.19
475.063	415.19
475.282	417.19
475.501	406.19
475.72	421.19
475.939	436.19
476.158	415.19
476.377	428.19
476.596	422.19
476.814	440.19
477.033	435.19
477.252	441.19
477.471	433.19
477.69	432.19
477.908	437.19
478.127	443.19
478.346	449.19
478.564	441.19
478.783	440.19
479.002	454.19
479.22	473.19
479.439	445.19
479.658	483.19
479.876	497.19
480.095	490.19
480.313	515.19
480.532	515.19
480.751	512.19
480.969	506.19
481.188	597.19
481.406	635.19
481.624	555.19
481.843	495.19
482.061	513.19
482.28	493.19
482.498	477.19
482.717	480.19
482.935	488.19
483.153	509.19
483.372	492.19
483.59	471.19
483.808	481.19
484.027	487.19
484.245	500.19
484.463	483.19
484.681	510.19
484.9	477.19
485.118	513.19
485.336	483.19
485.554	488.19
485.772	474.19
485.99	476.19
486.209	501.19
486.427	521.19
486.645	523.19
486.863	518.19
487.081	551.19
487.299	515.19
487.517	536.19
487.735	500.19
487.953	533.19
488.171	537.19
488.389	529.19
488.607	523.19
488.825	520.19
489.043	521.19
489.261	506.19
489.479	533.19
489.696	541.19
489.914	545.19
490.132	574.19
490.35	538.19
490.568	564.19
490.786	569.19
491.003	555.19
491.221	554.19
491.439	605.19
491.657	594.19
491.874	611.19
492.092	621.19
492.31	618.19
492.527	628.19
492.745	614.19
492.963	652.19
493.18	630.19
493.398	637.19
493.615	621.19
493.833	639.19
494.05	633.19
494.268	596.19
494.485	637.19
494.703	627.19
494.92	644.19
495.138	615.19
495.355	643.19
495.573	667.19
495.79	640.19
496.008	643.19
496.225	648.19
496.442	619.19
496.66	620.19
496.877	613.19
497.094	637.19
497.312	643.19
497.529	661.19
497.746	632.19
497.963	645.19
498.181	683.19
498.398	652.19
498.615	676.19
498.832	683.19
499.049	662.19
499.267	701.19
499.484	684.19
499.701	722.19
499.918	717.19
500.135	745.19
500.352	773.19
500.569	747.19
500.786	734.19
501.003	747.19
501.22	771.19
501.437	736.19
501.654	735.19
501.871	718.19
