Data from 1986.PennyLincolnUp.Lamp.En5.5.200Scan.071819.P2_HRD10591_17-12-10-974.txt Node
Date: Thu Jul 18 17:12:10 EDT 2019
User: cochatt
Spectrometer: HR+D1059
Trigger mode: 1
Integration Time (sec): 1.000000E-1
Scans to average: 1
Electric dark correction enabled: true
Nonlinearity correction enabled: false
Boxcar width: 0
XAxis mode: Wavelengths
Number of Pixels in Spectrum: 2048
>>>>>Begin Spectral Data<<<<<
223.165	-5.88
223.4	-5.88
223.635	-5.88
223.869	-3.88
224.104	-16.88
224.338	-18.88
224.573	-17.88
224.808	2.12
225.042	-18.88
225.277	-8.88
225.511	-6.88
225.746	13.12
225.98	0.12
226.215	9.12
226.449	8.12
226.683	15.12
226.918	29.12
227.152	21.12
227.387	36.12
227.621	29.12
227.856	43.12
228.09	42.12
228.324	43.12
228.559	57.12
228.793	63.12
229.027	95.12
229.262	114.12
229.496	117.12
229.73	137.12
229.964	176.12
230.199	125.12
230.433	129.12
230.667	122.12
230.901	129.12
231.136	126.12
231.37	111.12
231.604	120.12
231.838	109.12
232.072	102.12
232.306	97.12
232.541	94.12
232.775	116.12
233.009	116.12
233.243	114.12
233.477	112.12
233.711	108.12
233.945	110.12
234.179	110.12
234.413	113.12
234.647	113.12
234.881	120.12
235.115	108.12
235.349	129.12
235.583	125.12
235.817	119.12
236.051	130.12
236.285	137.12
236.519	127.12
236.753	142.12
236.987	156.12
237.221	193.12
237.455	273.12
237.689	218.12
237.922	160.12
238.156	129.12
238.39	113.12
238.624	138.12
238.858	139.12
239.091	127.12
239.325	129.12
239.559	134.12
239.793	128.12
240.027	133.12
240.26	150.12
240.494	173.12
240.728	159.12
240.961	158.12
241.195	168.12
241.429	159.12
241.662	145.12
241.896	115.12
242.13	132.12
242.363	128.12
242.597	139.12
242.83	143.12
243.064	142.12
243.298	129.12
243.531	143.12
243.765	157.12
243.998	129.12
244.232	159.12
244.465	141.12
244.699	163.12
244.932	157.12
245.166	158.12
245.399	167.12
245.633	169.12
245.866	147.12
246.099	156.12
246.333	174.12
246.566	160.12
246.8	151.12
247.033	170.12
247.266	173.12
247.5	175.12
247.733	178.12
247.966	163.12
248.2	190.12
248.433	183.12
248.666	179.12
248.899	190.12
249.133	211.12
249.366	241.12
249.599	207.12
249.832	204.12
250.066	200.12
250.299	223.12
250.532	234.12
250.765	277.12
250.998	275.12
251.231	263.12
251.465	263.12
251.698	234.12
251.931	235.12
252.164	232.12
252.397	222.12
252.63	211.12
252.863	219.12
253.096	237.12
253.329	231.12
253.562	229.12
253.795	246.12
254.028	238.12
254.261	230.12
254.494	259.12
254.727	289.12
254.96	324.12
255.193	315.12
255.426	289.12
255.659	271.12
255.892	295.12
256.124	340.12
256.357	351.12
256.59	330.12
256.823	304.12
257.056	282.12
257.289	249.12
257.521	261.12
257.754	255.12
257.987	231.12
258.22	237.12
258.452	239.12
258.685	225.12
258.918	230.12
259.151	247.12
259.383	248.12
259.616	255.12
259.849	247.12
260.081	252.12
260.314	278.12
260.547	272.12
260.779	274.12
261.012	252.12
261.244	252.12
261.477	232.12
261.71	243.12
261.942	243.12
262.175	258.12
262.407	263.12
262.64	221.12
262.872	241.12
263.105	232.12
263.337	206.12
263.57	226.12
263.802	225.12
264.035	227.12
264.267	219.12
264.499	227.12
264.732	223.12
264.964	216.12
265.197	220.12
265.429	211.12
265.661	231.12
265.894	222.12
266.126	225.12
266.358	225.12
266.591	238.12
266.823	224.12
267.055	233.12
267.287	254.12
267.52	235.12
267.752	223.12
267.984	216.12
268.216	251.12
268.448	237.12
268.681	235.12
268.913	260.12
269.145	263.12
269.377	305.12
269.609	293.12
269.841	283.12
270.073	288.12
270.306	297.12
270.538	340.12
270.77	337.12
271.002	327.12
271.234	317.12
271.466	313.12
271.698	345.12
271.93	334.12
272.162	334.12
272.394	336.12
272.626	324.12
272.858	323.12
273.09	294.12
273.322	298.12
273.553	292.12
273.785	274.12
274.017	276.12
274.249	277.12
274.481	284.12
274.713	275.12
274.945	288.12
275.176	297.12
275.408	263.12
275.64	275.12
275.872	284.12
276.104	291.12
276.335	270.12
276.567	268.12
276.799	298.12
277.031	325.12
277.262	353.12
277.494	332.12
277.726	305.12
277.957	318.12
278.189	303.12
278.421	300.12
278.652	303.12
278.884	305.12
279.115	280.12
279.347	271.12
279.579	269.12
279.81	285.12
280.042	289.12
280.273	285.12
280.505	285.12
280.736	289.12
280.968	282.12
281.199	293.12
281.431	275.12
281.662	285.12
281.894	293.12
282.125	285.12
282.356	298.12
282.588	307.12
282.819	319.12
283.051	261.12
283.282	257.12
283.513	297.12
283.745	279.12
283.976	311.12
284.207	289.12
284.439	287.12
284.67	289.12
284.901	275.12
285.132	284.12
285.364	249.12
285.595	293.12
285.826	283.12
286.057	278.12
286.288	286.12
286.52	285.12
286.751	297.12
286.982	289.12
287.213	298.12
287.444	276.12
287.675	291.12
287.906	286.12
288.138	308.12
288.369	302.12
288.6	325.12
288.831	304.12
289.062	291.12
289.293	295.12
289.524	283.12
289.755	281.12
289.986	292.12
290.217	302.12
290.448	292.12
290.679	294.12
290.91	289.12
291.141	271.12
291.371	280.12
291.602	287.12
291.833	293.12
292.064	298.12
292.295	292.12
292.526	284.12
292.757	272.12
292.987	287.12
293.218	290.12
293.449	293.12
293.68	289.12
293.91	290.12
294.141	298.12
294.372	286.12
294.603	274.12
294.833	286.12
295.064	289.12
295.295	275.12
295.525	293.12
295.756	301.12
295.987	306.12
296.217	323.12
296.448	339.12
296.679	315.12
296.909	296.12
297.14	275.12
297.37	275.12
297.601	289.12
297.831	305.12
298.062	321.12
298.292	310.12
298.523	307.12
298.753	289.12
298.984	307.12
299.214	311.12
299.445	307.12
299.675	298.12
299.905	306.12
300.136	305.12
300.366	322.12
300.597	305.12
300.827	321.12
301.057	327.12
301.288	319.12
301.518	331.12
301.748	318.12
301.979	319.12
302.209	324.12
302.439	315.12
302.669	339.12
302.9	326.12
303.13	319.12
303.36	331.12
303.59	330.12
303.82	345.12
304.051	362.12
304.281	333.12
304.511	327.12
304.741	306.12
304.971	320.12
305.201	334.12
305.431	333.12
305.661	329.12
305.891	328.12
306.121	334.12
306.352	317.12
306.582	332.12
306.812	309.12
307.042	349.12
307.272	340.12
307.502	351.12
307.731	339.12
307.961	361.12
308.191	327.12
308.421	328.12
308.651	348.12
308.881	329.12
309.111	345.12
309.341	331.12
309.571	355.12
309.8	372.12
310.03	359.12
310.26	383.12
310.49	376.12
310.72	399.12
310.949	412.12
311.179	399.12
311.409	393.12
311.639	375.12
311.868	397.12
312.098	371.12
312.328	384.12
312.557	405.12
312.787	451.12
313.017	433.12
313.246	406.12
313.476	380.12
313.706	388.12
313.935	391.12
314.165	394.12
314.394	401.12
314.624	405.12
314.853	396.12
315.083	375.12
315.312	383.12
315.542	381.12
315.771	376.12
316.001	382.12
316.23	372.12
316.46	369.12
316.689	387.12
316.919	382.12
317.148	403.12
317.377	389.12
317.607	379.12
317.836	390.12
318.065	391.12
318.295	389.12
318.524	387.12
318.753	383.12
318.983	369.12
319.212	379.12
319.441	410.12
319.67	413.12
319.9	397.12
320.129	388.12
320.358	382.12
320.587	394.12
320.816	386.12
321.046	411.12
321.275	412.12
321.504	399.12
321.733	393.12
321.962	436.12
322.191	435.12
322.42	467.12
322.649	475.12
322.878	471.12
323.108	502.12
323.337	531.12
323.566	532.12
323.795	586.12
324.024	629.12
324.253	775.12
324.482	1103.12
324.71	1705.12
324.939	2478.12
325.168	2167.12
325.397	1093.12
325.626	739.12
325.855	628.12
326.084	598.12
326.313	535.12
326.542	568.12
326.77	605.12
326.999	750.12
327.228	997.12
327.457	1501.12
327.686	1864.12
327.914	1297.12
328.143	877.12
328.372	810.12
328.6	729.12
328.829	668.12
329.058	697.12
329.287	687.12
329.515	653.12
329.744	645.12
329.972	666.12
330.201	737.12
330.43	858.12
330.658	839.12
330.887	748.12
331.115	691.12
331.344	600.12
331.572	553.12
331.801	558.12
332.03	559.12
332.258	535.12
332.486	516.12
332.715	488.12
332.943	488.12
333.172	494.12
333.4	513.12
333.629	541.12
333.857	582.12
334.085	636.12
334.314	723.12
334.542	859.12
334.771	935.12
334.999	730.12
335.227	591.12
335.455	531.12
335.684	492.12
335.912	499.12
336.14	461.12
336.369	469.12
336.597	486.12
336.825	482.12
337.053	473.12
337.281	445.12
337.51	446.12
337.738	451.12
337.966	461.12
338.194	447.12
338.422	450.12
338.65	446.12
338.878	433.12
339.106	423.12
339.334	413.12
339.562	433.12
339.79	416.12
340.018	436.12
340.246	413.12
340.474	429.12
340.702	436.12
340.93	435.12
341.158	418.12
341.386	451.12
341.614	438.12
341.842	420.12
342.07	422.12
342.298	416.12
342.526	410.12
342.754	405.12
342.981	422.12
343.209	421.12
343.437	397.12
343.665	407.12
343.893	421.12
344.12	419.12
344.348	405.12
344.576	430.12
344.804	435.12
345.031	445.12
345.259	425.12
345.487	436.12
345.714	451.12
345.942	437.12
346.17	453.12
346.397	416.12
346.625	415.12
346.853	420.12
347.08	414.12
347.308	428.12
347.535	441.12
347.763	399.12
347.99	425.12
348.218	422.12
348.445	425.12
348.673	421.12
348.9	410.12
349.128	391.12
349.355	403.12
349.583	405.12
349.81	390.12
350.037	400.12
350.265	401.12
350.492	398.12
350.72	405.12
350.947	399.12
351.174	421.12
351.402	416.12
351.629	398.12
351.856	415.12
352.083	409.12
352.311	437.12
352.538	421.12
352.765	425.12
352.992	433.12
353.22	425.12
353.447	414.12
353.674	412.12
353.901	388.12
354.128	386.12
354.355	366.12
354.583	390.12
354.81	389.12
355.037	384.12
355.264	360.12
355.491	375.12
355.718	364.12
355.945	370.12
356.172	361.12
356.399	372.12
356.626	375.12
356.853	371.12
357.08	351.12
357.307	374.12
357.534	359.12
357.761	353.12
357.988	363.12
358.215	357.12
358.441	397.12
358.668	395.12
358.895	393.12
359.122	357.12
359.349	378.12
359.576	403.12
359.802	422.12
360.029	448.12
360.256	484.12
360.483	458.12
360.709	428.12
360.936	412.12
361.163	432.12
361.39	427.12
361.616	422.12
361.843	415.12
362.07	416.12
362.296	437.12
362.523	413.12
362.749	397.12
362.976	389.12
363.203	419.12
363.429	381.12
363.656	405.12
363.882	389.12
364.109	389.12
364.335	380.12
364.562	388.12
364.788	386.12
365.015	375.12
365.241	384.12
365.468	387.12
365.694	400.12
365.92	394.12
366.147	389.12
366.373	392.12
366.599	389.12
366.826	379.12
367.052	395.12
367.278	391.12
367.505	373.12
367.731	386.12
367.957	369.12
368.184	376.12
368.41	383.12
368.636	411.12
368.862	395.12
369.089	409.12
369.315	381.12
369.541	382.12
369.767	386.12
369.993	389.12
370.219	375.12
370.445	389.12
370.672	386.12
370.898	357.12
371.124	382.12
371.35	359.12
371.576	371.12
371.802	365.12
372.028	381.12
372.254	364.12
372.48	367.12
372.706	385.12
372.932	376.12
373.158	375.12
373.384	376.12
373.61	363.12
373.835	371.12
374.061	377.12
374.287	364.12
374.513	383.12
374.739	372.12
374.965	369.12
375.191	386.12
375.416	380.12
375.642	374.12
375.868	375.12
376.094	374.12
376.319	375.12
376.545	372.12
376.771	357.12
376.997	366.12
377.222	375.12
377.448	350.12
377.674	362.12
377.899	363.12
378.125	373.12
378.35	375.12
378.576	358.12
378.802	376.12
379.027	374.12
379.253	363.12
379.478	358.12
379.704	385.12
379.929	377.12
380.155	383.12
380.38	375.12
380.606	373.12
380.831	375.12
381.057	378.12
381.282	391.12
381.507	370.12
381.733	366.12
381.958	372.12
382.184	385.12
382.409	366.12
382.634	367.12
382.86	365.12
383.085	383.12
383.31	367.12
383.535	372.12
383.761	363.12
383.986	369.12
384.211	366.12
384.436	391.12
384.662	387.12
384.887	378.12
385.112	383.12
385.337	400.12
385.562	384.12
385.787	403.12
386.013	403.12
386.238	388.12
386.463	393.12
386.688	388.12
386.913	387.12
387.138	377.12
387.363	403.12
387.588	396.12
387.813	379.12
388.038	381.12
388.263	379.12
388.488	392.12
388.713	383.12
388.938	385.12
389.163	371.12
389.387	358.12
389.612	379.12
389.837	397.12
390.062	394.12
390.287	391.12
390.512	401.12
390.736	381.12
390.961	390.12
391.186	386.12
391.411	375.12
391.636	389.12
391.86	382.12
392.085	388.12
392.31	390.12
392.534	388.12
392.759	390.12
392.984	396.12
393.208	389.12
393.433	387.12
393.658	385.12
393.882	381.12
394.107	407.12
394.331	386.12
394.556	383.12
394.78	372.12
395.005	379.12
395.229	377.12
395.454	387.12
395.678	393.12
395.903	394.12
396.127	427.12
396.352	416.12
396.576	395.12
396.801	405.12
397.025	407.12
397.249	419.12
397.474	426.12
397.698	437.12
397.922	415.12
398.147	437.12
398.371	442.12
398.595	412.12
398.82	403.12
399.044	430.12
399.268	421.12
399.492	456.12
399.717	464.12
399.941	504.12
400.165	516.12
400.389	548.12
400.613	511.12
400.837	442.12
401.062	453.12
401.286	427.12
401.51	443.12
401.734	446.12
401.958	435.12
402.182	444.12
402.406	437.12
402.63	451.12
402.854	440.12
403.078	441.12
403.302	459.12
403.526	460.12
403.75	475.12
403.974	435.12
404.198	459.12
404.422	482.12
404.645	460.12
404.869	501.12
405.093	545.12
405.317	597.12
405.541	632.12
405.765	568.12
405.988	520.12
406.212	529.12
406.436	519.12
406.66	550.12
406.883	533.12
407.107	551.12
407.331	539.12
407.555	589.12
407.778	591.12
408.002	566.12
408.226	519.12
408.449	499.12
408.673	510.12
408.896	545.12
409.12	573.12
409.344	556.12
409.567	511.12
409.791	485.12
410.014	489.12
410.238	481.12
410.461	485.12
410.685	466.12
410.908	499.12
411.132	521.12
411.355	565.12
411.578	524.12
411.802	495.12
412.025	485.12
412.249	497.12
412.472	585.12
412.695	615.12
412.919	610.12
413.142	537.12
413.365	524.12
413.589	486.12
413.812	477.12
414.035	450.12
414.258	443.12
414.482	452.12
414.705	455.12
414.928	439.12
415.151	433.12
415.374	450.12
415.597	424.12
415.821	451.12
416.044	445.12
416.267	469.12
416.49	435.12
416.713	443.12
416.936	428.12
417.159	450.12
417.382	465.12
417.605	454.12
417.828	475.12
418.051	476.12
418.274	458.12
418.497	448.12
418.72	440.12
418.943	454.12
419.166	466.12
419.389	483.12
419.611	477.12
419.834	485.12
420.057	489.12
420.28	515.12
420.503	526.12
420.726	522.12
420.948	522.12
421.171	549.12
421.394	561.12
421.617	490.12
421.839	501.12
422.062	473.12
422.285	487.12
422.507	514.12
422.73	611.12
422.953	597.12
423.175	523.12
423.398	503.12
423.621	502.12
423.843	534.12
424.066	502.12
424.288	512.12
424.511	526.12
424.733	581.12
424.956	651.12
425.178	637.12
425.401	612.12
425.623	653.12
425.846	545.12
426.068	528.12
426.291	517.12
426.513	537.12
426.735	527.12
426.958	550.12
427.18	643.12
427.402	730.12
427.625	856.12
427.847	795.12
428.069	707.12
428.292	635.12
428.514	573.12
428.736	519.12
428.958	490.12
429.181	483.12
429.403	474.12
429.625	482.12
429.847	516.12
430.069	593.12
430.292	581.12
430.514	477.12
430.736	482.12
430.958	461.12
431.18	450.12
431.402	460.12
431.624	453.12
431.846	444.12
432.068	439.12
432.29	426.12
432.512	429.12
432.734	470.12
432.956	443.12
433.178	446.12
433.4	455.12
433.622	460.12
433.844	453.12
434.066	441.12
434.287	440.12
434.509	451.12
434.731	455.12
434.953	456.12
435.175	477.12
435.397	486.12
435.618	518.12
435.84	551.12
436.062	630.12
436.284	724.12
436.505	596.12
436.727	536.12
436.949	493.12
437.17	485.12
437.392	483.12
437.614	494.12
437.835	519.12
438.057	595.12
438.278	730.12
438.5	745.12
438.721	786.12
438.943	750.12
439.165	604.12
439.386	544.12
439.608	526.12
439.829	548.12
440.05	578.12
440.272	616.12
440.493	594.12
440.715	539.12
440.936	467.12
441.158	482.12
441.379	480.12
441.6	488.12
441.822	500.12
442.043	519.12
442.264	626.12
442.486	678.12
442.707	569.12
442.928	539.12
443.149	537.12
443.371	535.12
443.592	596.12
443.813	695.12
444.034	744.12
444.255	600.12
444.476	532.12
444.698	522.12
444.919	506.12
445.14	651.12
445.361	596.12
445.582	576.12
445.803	634.12
446.024	745.12
446.245	725.12
446.466	686.12
446.687	577.12
446.908	539.12
447.129	498.12
447.35	496.12
447.571	488.12
447.792	467.12
448.013	499.12
448.234	506.12
448.455	569.12
448.675	679.12
448.896	774.12
449.117	660.12
449.338	597.12
449.559	717.12
449.779	827.12
450	655.12
450.221	561.12
450.442	517.12
450.662	474.12
450.883	485.12
451.104	504.12
451.324	483.12
451.545	478.12
451.766	458.12
451.986	432.12
452.207	434.12
452.428	439.12
452.648	448.12
452.869	437.12
453.089	438.12
453.31	446.12
453.53	430.12
453.751	425.12
453.971	435.12
454.192	440.12
454.412	445.12
454.633	437.12
454.853	431.12
455.073	424.12
455.294	437.12
455.514	523.12
455.734	513.12
455.955	449.12
456.175	429.12
456.395	400.12
456.616	409.12
456.836	394.12
457.056	382.12
457.276	395.12
457.497	397.12
457.717	389.12
457.937	397.12
458.157	398.12
458.377	416.12
458.598	440.12
458.818	505.12
459.038	574.12
459.258	610.12
459.478	507.12
459.698	455.12
459.918	425.12
460.138	421.12
460.358	408.12
460.578	429.12
460.798	428.12
461.018	426.12
461.238	430.12
461.458	441.12
461.678	423.12
461.898	460.12
462.118	427.12
462.338	441.12
462.558	411.12
462.777	451.12
462.997	435.12
463.217	448.12
463.437	445.12
463.657	454.12
463.876	459.12
464.096	457.12
464.316	463.12
464.536	457.12
464.755	464.12
464.975	482.12
465.195	515.12
465.414	615.12
465.634	546.12
465.854	470.12
466.073	445.12
466.293	454.12
466.512	423.12
466.732	427.12
466.951	418.12
467.171	396.12
467.391	443.12
467.61	461.12
467.829	472.12
468.049	451.12
468.268	497.12
468.488	486.12
468.707	464.12
468.927	445.12
469.146	428.12
469.365	438.12
469.585	417.12
469.804	425.12
470.023	442.12
470.243	462.12
470.462	434.12
470.681	457.12
470.901	441.12
471.12	434.12
471.339	457.12
471.558	450.12
471.777	462.12
471.997	468.12
472.216	523.12
472.435	681.12
472.654	614.12
472.873	513.12
473.092	489.12
473.311	477.12
473.53	457.12
473.749	460.12
473.968	519.12
474.187	622.12
474.406	642.12
474.625	513.12
474.844	462.12
475.063	486.12
475.282	467.12
475.501	478.12
475.72	456.12
475.939	446.12
476.158	461.12
476.377	474.12
476.596	488.12
476.814	475.12
477.033	485.12
477.252	484.12
477.471	475.12
477.69	468.12
477.908	484.12
478.127	473.12
478.346	479.12
478.564	490.12
478.783	484.12
479.002	494.12
479.22	491.12
479.439	539.12
479.658	550.12
479.876	537.12
480.095	531.12
480.313	599.12
480.532	578.12
480.751	567.12
480.969	622.12
481.188	894.12
481.406	1065.12
481.624	775.12
481.843	661.12
482.061	642.12
482.28	596.12
482.498	581.12
482.717	566.12
482.935	569.12
483.153	563.12
483.372	521.12
483.59	557.12
483.808	542.12
484.027	542.12
484.245	547.12
484.463	556.12
484.681	533.12
484.9	541.12
485.118	551.12
485.336	579.12
485.554	558.12
485.772	552.12
485.99	558.12
486.209	555.12
486.427	552.12
486.645	557.12
486.863	608.12
487.081	590.12
487.299	568.12
487.517	577.12
487.735	604.12
487.953	587.12
488.171	597.12
488.389	598.12
488.607	596.12
488.825	599.12
489.043	564.12
489.261	593.12
489.479	611.12
489.696	611.12
489.914	598.12
490.132	605.12
490.35	615.12
490.568	671.12
490.786	635.12
491.003	653.12
491.221	661.12
491.439	695.12
491.657	695.12
491.874	698.12
492.092	695.12
492.31	686.12
492.527	734.12
492.745	714.12
492.963	726.12
493.18	745.12
493.398	718.12
493.615	716.12
493.833	727.12
494.05	730.12
494.268	725.12
494.485	723.12
494.703	713.12
494.92	716.12
495.138	744.12
495.355	722.12
495.573	695.12
495.79	705.12
496.008	677.12
496.225	709.12
496.442	729.12
496.66	731.12
496.877	709.12
497.094	684.12
497.312	707.12
497.529	707.12
497.746	726.12
497.963	717.12
498.181	745.12
498.398	743.12
498.615	740.12
498.832	730.12
499.049	726.12
499.267	747.12
499.484	753.12
499.701	793.12
499.918	779.12
500.135	791.12
500.352	812.12
500.569	819.12
500.786	850.12
501.003	840.12
501.22	820.12
501.437	797.12
501.654	810.12
501.871	836.12
502.088	815.12
