Data from 1986.PennyLincolnUp.Lamp.En5.5.200Scan.071819.P2_HRD10591_17-12-12-973.txt Node
Date: Thu Jul 18 17:12:12 EDT 2019
User: cochatt
Spectrometer: HR+D1059
Trigger mode: 1
Integration Time (sec): 1.000000E-1
Scans to average: 1
Electric dark correction enabled: true
Nonlinearity correction enabled: false
Boxcar width: 0
XAxis mode: Wavelengths
Number of Pixels in Spectrum: 2048
>>>>>Begin Spectral Data<<<<<
223.165	-30.31
223.4	-30.31
223.635	-30.31
223.869	-8.31
224.104	-10.31
224.338	-16.31
224.573	-11.31
224.808	-19.31
225.042	-6.31
225.277	7.69
225.511	-5.31
225.746	9.69
225.98	18.69
226.215	9.69
226.449	-1.31
226.683	5.69
226.918	24.69
227.152	32.69
227.387	36.69
227.621	27.69
227.856	53.69
228.09	53.69
228.324	53.69
228.559	54.69
228.793	68.69
229.027	104.69
229.262	104.69
229.496	129.69
229.73	136.69
229.964	172.69
230.199	116.69
230.433	122.69
230.667	123.69
230.901	105.69
231.136	104.69
231.37	117.69
231.604	111.69
231.838	117.69
232.072	117.69
232.306	117.69
232.541	97.69
232.775	123.69
233.009	123.69
233.243	108.69
233.477	113.69
233.711	98.69
233.945	112.69
234.179	119.69
234.413	118.69
234.647	120.69
234.881	115.69
235.115	124.69
235.349	115.69
235.583	116.69
235.817	131.69
236.051	132.69
236.285	119.69
236.519	127.69
236.753	153.69
236.987	154.69
237.221	206.69
237.455	259.69
237.689	189.69
237.922	142.69
238.156	151.69
238.39	127.69
238.624	136.69
238.858	137.69
239.091	121.69
239.325	127.69
239.559	133.69
239.793	109.69
240.027	132.69
240.26	153.69
240.494	166.69
240.728	147.69
240.961	160.69
241.195	150.69
241.429	136.69
241.662	124.69
241.896	138.69
242.13	153.69
242.363	120.69
242.597	151.69
242.83	139.69
243.064	149.69
243.298	164.69
243.531	125.69
243.765	141.69
243.998	148.69
244.232	157.69
244.465	148.69
244.699	148.69
244.932	143.69
245.166	147.69
245.399	149.69
245.633	147.69
245.866	146.69
246.099	145.69
246.333	164.69
246.566	160.69
246.8	157.69
247.033	162.69
247.266	161.69
247.5	173.69
247.733	191.69
247.966	189.69
248.2	178.69
248.433	171.69
248.666	182.69
248.899	205.69
249.133	195.69
249.366	228.69
249.599	223.69
249.832	197.69
250.066	204.69
250.299	212.69
250.532	251.69
250.765	262.69
250.998	290.69
251.231	266.69
251.465	228.69
251.698	241.69
251.931	223.69
252.164	201.69
252.397	227.69
252.63	226.69
252.863	221.69
253.096	231.69
253.329	258.69
253.562	240.69
253.795	246.69
254.028	247.69
254.261	240.69
254.494	243.69
254.727	281.69
254.96	334.69
255.193	312.69
255.426	293.69
255.659	269.69
255.892	316.69
256.124	332.69
256.357	350.69
256.59	325.69
256.823	295.69
257.056	272.69
257.289	265.69
257.521	270.69
257.754	261.69
257.987	247.69
258.22	262.69
258.452	230.69
258.685	257.69
258.918	251.69
259.151	238.69
259.383	240.69
259.616	252.69
259.849	243.69
260.081	251.69
260.314	279.69
260.547	295.69
260.779	273.69
261.012	259.69
261.244	241.69
261.477	240.69
261.71	234.69
261.942	253.69
262.175	253.69
262.407	242.69
262.64	246.69
262.872	237.69
263.105	254.69
263.337	219.69
263.57	217.69
263.802	215.69
264.035	228.69
264.267	227.69
264.499	212.69
264.732	226.69
264.964	231.69
265.197	230.69
265.429	241.69
265.661	222.69
265.894	234.69
266.126	221.69
266.358	226.69
266.591	235.69
266.823	238.69
267.055	255.69
267.287	252.69
267.52	239.69
267.752	264.69
267.984	250.69
268.216	232.69
268.448	239.69
268.681	234.69
268.913	268.69
269.145	268.69
269.377	284.69
269.609	284.69
269.841	271.69
270.073	276.69
270.306	312.69
270.538	322.69
270.77	348.69
271.002	322.69
271.234	317.69
271.466	311.69
271.698	327.69
271.93	308.69
272.162	327.69
272.394	347.69
272.626	332.69
272.858	297.69
273.09	305.69
273.322	301.69
273.553	297.69
273.785	277.69
274.017	284.69
274.249	286.69
274.481	275.69
274.713	285.69
274.945	298.69
275.176	274.69
275.408	285.69
275.64	269.69
275.872	295.69
276.104	297.69
276.335	285.69
276.567	291.69
276.799	291.69
277.031	325.69
277.262	340.69
277.494	346.69
277.726	320.69
277.957	323.69
278.189	300.69
278.421	295.69
278.652	283.69
278.884	295.69
279.115	283.69
279.347	290.69
279.579	285.69
279.81	265.69
280.042	283.69
280.273	300.69
280.505	308.69
280.736	284.69
280.968	279.69
281.199	278.69
281.431	292.69
281.662	270.69
281.894	269.69
282.125	283.69
282.356	289.69
282.588	331.69
282.819	319.69
283.051	299.69
283.282	267.69
283.513	290.69
283.745	285.69
283.976	268.69
284.207	291.69
284.439	303.69
284.67	292.69
284.901	267.69
285.132	280.69
285.364	298.69
285.595	276.69
285.826	279.69
286.057	289.69
286.288	282.69
286.52	279.69
286.751	272.69
286.982	292.69
287.213	269.69
287.444	275.69
287.675	287.69
287.906	298.69
288.138	304.69
288.369	317.69
288.6	323.69
288.831	307.69
289.062	297.69
289.293	283.69
289.524	287.69
289.755	289.69
289.986	291.69
290.217	297.69
290.448	281.69
290.679	276.69
290.91	285.69
291.141	293.69
291.371	305.69
291.602	287.69
291.833	297.69
292.064	296.69
292.295	305.69
292.526	281.69
292.757	301.69
292.987	289.69
293.218	286.69
293.449	301.69
293.68	288.69
293.91	296.69
294.141	270.69
294.372	273.69
294.603	293.69
294.833	315.69
295.064	279.69
295.295	310.69
295.525	283.69
295.756	300.69
295.987	316.69
296.217	325.69
296.448	327.69
296.679	333.69
296.909	277.69
297.14	280.69
297.37	294.69
297.601	298.69
297.831	285.69
298.062	289.69
298.292	271.69
298.523	305.69
298.753	304.69
298.984	289.69
299.214	307.69
299.445	335.69
299.675	314.69
299.905	324.69
300.136	304.69
300.366	312.69
300.597	308.69
300.827	296.69
301.057	305.69
301.288	309.69
301.518	338.69
301.748	321.69
301.979	329.69
302.209	315.69
302.439	332.69
302.669	325.69
302.9	343.69
303.13	319.69
303.36	330.69
303.59	309.69
303.82	333.69
304.051	344.69
304.281	336.69
304.511	339.69
304.741	327.69
304.971	316.69
305.201	327.69
305.431	323.69
305.661	323.69
305.891	319.69
306.121	312.69
306.352	311.69
306.582	307.69
306.812	328.69
307.042	330.69
307.272	331.69
307.502	309.69
307.731	349.69
307.961	341.69
308.191	325.69
308.421	338.69
308.651	336.69
308.881	336.69
309.111	339.69
309.341	352.69
309.571	355.69
309.8	344.69
310.03	379.69
310.26	383.69
310.49	369.69
310.72	375.69
310.949	376.69
311.179	424.69
311.409	409.69
311.639	400.69
311.868	377.69
312.098	383.69
312.328	372.69
312.557	396.69
312.787	428.69
313.017	424.69
313.246	415.69
313.476	387.69
313.706	395.69
313.935	409.69
314.165	389.69
314.394	409.69
314.624	390.69
314.853	405.69
315.083	392.69
315.312	393.69
315.542	375.69
315.771	374.69
316.001	374.69
316.23	354.69
316.46	361.69
316.689	354.69
316.919	405.69
317.148	409.69
317.377	399.69
317.607	385.69
317.836	394.69
318.065	392.69
318.295	379.69
318.524	391.69
318.753	376.69
318.983	387.69
319.212	368.69
319.441	390.69
319.67	395.69
319.9	408.69
320.129	391.69
320.358	377.69
320.587	398.69
320.816	397.69
321.046	411.69
321.275	452.69
321.504	403.69
321.733	422.69
321.962	435.69
322.191	433.69
322.42	465.69
322.649	476.69
322.878	485.69
323.108	500.69
323.337	537.69
323.566	565.69
323.795	593.69
324.024	631.69
324.253	793.69
324.482	1137.69
324.71	1688.69
324.939	2480.69
325.168	2203.69
325.397	1125.69
325.626	793.69
325.855	634.69
326.084	582.69
326.313	573.69
326.542	575.69
326.77	625.69
326.999	746.69
327.228	1041.69
327.457	1510.69
327.686	1887.69
327.914	1345.69
328.143	891.69
328.372	818.69
328.6	732.69
328.829	670.69
329.058	703.69
329.287	698.69
329.515	641.69
329.744	619.69
329.972	679.69
330.201	759.69
330.43	865.69
330.658	840.69
330.887	777.69
331.115	726.69
331.344	632.69
331.572	579.69
331.801	572.69
332.03	522.69
332.258	535.69
332.486	490.69
332.715	482.69
332.943	515.69
333.172	503.69
333.4	544.69
333.629	553.69
333.857	575.69
334.085	665.69
334.314	763.69
334.542	917.69
334.771	961.69
334.999	742.69
335.227	597.69
335.455	523.69
335.684	500.69
335.912	492.69
336.14	470.69
336.369	447.69
336.597	463.69
336.825	473.69
337.053	476.69
337.281	437.69
337.51	442.69
337.738	468.69
337.966	442.69
338.194	471.69
338.422	432.69
338.65	442.69
338.878	424.69
339.106	420.69
339.334	425.69
339.562	423.69
339.79	445.69
340.018	418.69
340.246	441.69
340.474	424.69
340.702	427.69
340.93	433.69
341.158	412.69
341.386	428.69
341.614	419.69
341.842	440.69
342.07	408.69
342.298	410.69
342.526	407.69
342.754	407.69
342.981	422.69
343.209	396.69
343.437	409.69
343.665	386.69
343.893	407.69
344.12	404.69
344.348	424.69
344.576	425.69
344.804	419.69
345.031	440.69
345.259	450.69
345.487	417.69
345.714	418.69
345.942	412.69
346.17	409.69
346.397	416.69
346.625	421.69
346.853	444.69
347.08	391.69
347.308	414.69
347.535	435.69
347.763	414.69
347.99	420.69
348.218	424.69
348.445	440.69
348.673	444.69
348.9	426.69
349.128	394.69
349.355	395.69
349.583	400.69
349.81	393.69
350.037	387.69
350.265	403.69
350.492	401.69
350.72	391.69
350.947	415.69
351.174	406.69
351.402	407.69
351.629	426.69
351.856	424.69
352.083	423.69
352.311	429.69
352.538	440.69
352.765	427.69
352.992	396.69
353.22	419.69
353.447	415.69
353.674	405.69
353.901	403.69
354.128	393.69
354.355	408.69
354.583	392.69
354.81	402.69
355.037	380.69
355.264	382.69
355.491	361.69
355.718	379.69
355.945	383.69
356.172	365.69
356.399	361.69
356.626	386.69
356.853	374.69
357.08	391.69
357.307	359.69
357.534	355.69
357.761	361.69
357.988	378.69
358.215	365.69
358.441	379.69
358.668	366.69
358.895	385.69
359.122	381.69
359.349	395.69
359.576	400.69
359.802	417.69
360.029	460.69
360.256	473.69
360.483	460.69
360.709	417.69
360.936	392.69
361.163	413.69
361.39	408.69
361.616	400.69
361.843	409.69
362.07	416.69
362.296	403.69
362.523	386.69
362.749	399.69
362.976	383.69
363.203	409.69
363.429	395.69
363.656	389.69
363.882	395.69
364.109	392.69
364.335	388.69
364.562	369.69
364.788	382.69
365.015	395.69
365.241	373.69
365.468	388.69
365.694	401.69
365.92	384.69
366.147	374.69
366.373	384.69
366.599	389.69
366.826	404.69
367.052	372.69
367.278	364.69
367.505	377.69
367.731	374.69
367.957	385.69
368.184	375.69
368.41	396.69
368.636	398.69
368.862	395.69
369.089	387.69
369.315	393.69
369.541	381.69
369.767	381.69
369.993	369.69
370.219	375.69
370.445	377.69
370.672	379.69
370.898	367.69
371.124	377.69
371.35	383.69
371.576	372.69
371.802	386.69
372.028	368.69
372.254	370.69
372.48	376.69
372.706	362.69
372.932	358.69
373.158	380.69
373.384	373.69
373.61	365.69
373.835	354.69
374.061	368.69
374.287	373.69
374.513	377.69
374.739	373.69
374.965	360.69
375.191	362.69
375.416	377.69
375.642	356.69
375.868	372.69
376.094	377.69
376.319	356.69
376.545	350.69
376.771	367.69
376.997	364.69
377.222	374.69
377.448	359.69
377.674	356.69
377.899	334.69
378.125	358.69
378.35	373.69
378.576	377.69
378.802	360.69
379.027	379.69
379.253	365.69
379.478	365.69
379.704	357.69
379.929	377.69
380.155	375.69
380.38	367.69
380.606	358.69
380.831	361.69
381.057	369.69
381.282	349.69
381.507	367.69
381.733	356.69
381.958	368.69
382.184	359.69
382.409	377.69
382.634	373.69
382.86	360.69
383.085	365.69
383.31	351.69
383.535	356.69
383.761	357.69
383.986	363.69
384.211	375.69
384.436	384.69
384.662	382.69
384.887	381.69
385.112	369.69
385.337	366.69
385.562	365.69
385.787	385.69
386.013	403.69
386.238	388.69
386.463	405.69
386.688	388.69
386.913	385.69
387.138	364.69
387.363	385.69
387.588	386.69
387.813	372.69
388.038	391.69
388.263	377.69
388.488	383.69
388.713	385.69
388.938	378.69
389.163	390.69
389.387	375.69
389.612	359.69
389.837	392.69
390.062	377.69
390.287	397.69
390.512	376.69
390.736	372.69
390.961	371.69
391.186	370.69
391.411	386.69
391.636	389.69
391.86	385.69
392.085	378.69
392.31	381.69
392.534	369.69
392.759	391.69
392.984	373.69
393.208	391.69
393.433	365.69
393.658	357.69
393.882	383.69
394.107	380.69
394.331	397.69
394.556	389.69
394.78	389.69
395.005	371.69
395.229	389.69
395.454	395.69
395.678	370.69
395.903	397.69
396.127	421.69
396.352	427.69
396.576	396.69
396.801	382.69
397.025	378.69
397.249	398.69
397.474	406.69
397.698	405.69
397.922	418.69
398.147	420.69
398.371	443.69
398.595	401.69
398.82	396.69
399.044	422.69
399.268	396.69
399.492	444.69
399.717	445.69
399.941	477.69
400.165	511.69
400.389	518.69
400.613	509.69
400.837	466.69
401.062	424.69
401.286	427.69
401.51	427.69
401.734	432.69
401.958	432.69
402.182	440.69
402.406	440.69
402.63	461.69
402.854	438.69
403.078	441.69
403.302	452.69
403.526	448.69
403.75	451.69
403.974	447.69
404.198	464.69
404.422	468.69
404.645	478.69
404.869	488.69
405.093	528.69
405.317	583.69
405.541	610.69
405.765	553.69
405.988	525.69
406.212	506.69
406.436	521.69
406.66	518.69
406.883	501.69
407.107	543.69
407.331	568.69
407.555	623.69
407.778	613.69
408.002	555.69
408.226	509.69
408.449	496.69
408.673	502.69
408.896	519.69
409.12	563.69
409.344	537.69
409.567	486.69
409.791	487.69
410.014	463.69
410.238	450.69
410.461	451.69
410.685	445.69
410.908	466.69
411.132	532.69
411.355	567.69
411.578	548.69
411.802	492.69
412.025	497.69
412.249	490.69
412.472	531.69
412.695	627.69
412.919	587.69
413.142	548.69
413.365	500.69
413.589	498.69
413.812	485.69
414.035	485.69
414.258	444.69
414.482	448.69
414.705	430.69
414.928	424.69
415.151	422.69
415.374	420.69
415.597	424.69
415.821	416.69
416.044	437.69
416.267	463.69
416.49	433.69
416.713	432.69
416.936	447.69
417.159	441.69
417.382	439.69
417.605	440.69
417.828	474.69
418.051	486.69
418.274	461.69
418.497	449.69
418.72	449.69
418.943	416.69
419.166	460.69
419.389	472.69
419.611	470.69
419.834	496.69
420.057	467.69
420.28	511.69
420.503	507.69
420.726	542.69
420.948	543.69
421.171	517.69
421.394	556.69
421.617	499.69
421.839	483.69
422.062	504.69
422.285	491.69
422.507	539.69
422.73	633.69
422.953	584.69
423.175	521.69
423.398	512.69
423.621	505.69
423.843	498.69
424.066	513.69
424.288	489.69
424.511	519.69
424.733	578.69
424.956	659.69
425.178	627.69
425.401	599.69
425.623	648.69
425.846	556.69
426.068	521.69
426.291	512.69
426.513	511.69
426.735	536.69
426.958	556.69
427.18	640.69
427.402	767.69
427.625	853.69
427.847	772.69
428.069	717.69
428.292	632.69
428.514	556.69
428.736	527.69
428.958	489.69
429.181	480.69
429.403	484.69
429.625	489.69
429.847	497.69
430.069	603.69
430.292	593.69
430.514	490.69
430.736	473.69
430.958	459.69
431.18	458.69
431.402	423.69
431.624	437.69
431.846	428.69
432.068	440.69
432.29	447.69
432.512	424.69
432.734	458.69
432.956	463.69
433.178	451.69
433.4	442.69
433.622	429.69
433.844	418.69
434.066	437.69
434.287	457.69
434.509	432.69
434.731	437.69
434.953	447.69
435.175	441.69
435.397	513.69
435.618	513.69
435.84	547.69
436.062	653.69
436.284	711.69
436.505	587.69
436.727	521.69
436.949	486.69
437.17	480.69
437.392	470.69
437.614	484.69
437.835	512.69
438.057	611.69
438.278	714.69
438.5	717.69
438.721	773.69
438.943	742.69
439.165	601.69
439.386	539.69
439.608	561.69
439.829	520.69
440.05	565.69
440.272	610.69
440.493	582.69
440.715	492.69
440.936	495.69
441.158	508.69
441.379	471.69
441.6	487.69
441.822	469.69
442.043	553.69
442.264	628.69
442.486	673.69
442.707	577.69
442.928	523.69
443.149	525.69
443.371	551.69
443.592	594.69
443.813	660.69
444.034	713.69
444.255	611.69
444.476	540.69
444.698	520.69
444.919	504.69
445.14	642.69
445.361	575.69
445.582	574.69
445.803	616.69
446.024	700.69
446.245	723.69
446.466	665.69
446.687	587.69
446.908	505.69
447.129	484.69
447.35	480.69
447.571	491.69
447.792	449.69
448.013	478.69
448.234	492.69
448.455	555.69
448.675	671.69
448.896	767.69
449.117	678.69
449.338	620.69
449.559	704.69
449.779	792.69
450	644.69
450.221	543.69
450.442	482.69
450.662	462.69
450.883	469.69
451.104	518.69
451.324	503.69
451.545	472.69
451.766	436.69
451.986	432.69
452.207	425.69
452.428	415.69
452.648	413.69
452.869	424.69
453.089	434.69
453.31	427.69
453.53	439.69
453.751	433.69
453.971	426.69
454.192	420.69
454.412	436.69
454.633	411.69
454.853	409.69
455.073	439.69
455.294	468.69
455.514	549.69
455.734	503.69
455.955	428.69
456.175	435.69
456.395	399.69
456.616	385.69
456.836	388.69
457.056	372.69
457.276	389.69
457.497	391.69
457.717	401.69
457.937	400.69
458.157	409.69
458.377	389.69
458.598	417.69
458.818	493.69
459.038	597.69
459.258	584.69
459.478	497.69
459.698	461.69
459.918	436.69
460.138	425.69
460.358	442.69
460.578	407.69
460.798	432.69
461.018	437.69
461.238	413.69
461.458	415.69
461.678	403.69
461.898	413.69
462.118	413.69
462.338	425.69
462.558	442.69
462.777	426.69
462.997	451.69
463.217	449.69
463.437	448.69
463.657	441.69
463.876	427.69
464.096	449.69
464.316	433.69
464.536	475.69
464.755	464.69
464.975	475.69
465.195	503.69
465.414	583.69
465.634	515.69
465.854	472.69
466.073	481.69
466.293	445.69
466.512	424.69
466.732	408.69
466.951	420.69
467.171	436.69
467.391	438.69
467.61	442.69
467.829	474.69
468.049	485.69
468.268	503.69
468.488	475.69
468.707	434.69
468.927	448.69
469.146	425.69
469.365	436.69
469.585	407.69
469.804	422.69
470.023	444.69
470.243	444.69
470.462	441.69
470.681	471.69
470.901	473.69
471.12	446.69
471.339	435.69
471.558	460.69
471.777	439.69
471.997	457.69
472.216	519.69
472.435	698.69
472.654	643.69
472.873	537.69
473.092	513.69
473.311	471.69
473.53	460.69
473.749	458.69
473.968	525.69
474.187	640.69
474.406	631.69
474.625	523.69
474.844	479.69
475.063	482.69
475.282	441.69
475.501	444.69
475.72	469.69
475.939	455.69
476.158	477.69
476.377	457.69
476.596	439.69
476.814	475.69
477.033	462.69
477.252	474.69
477.471	477.69
477.69	489.69
477.908	477.69
478.127	471.69
478.346	472.69
478.564	483.69
478.783	501.69
479.002	499.69
479.22	487.69
479.439	491.69
479.658	535.69
479.876	542.69
480.095	542.69
480.313	585.69
480.532	577.69
480.751	582.69
480.969	641.69
481.188	895.69
481.406	1109.69
481.624	770.69
481.843	691.69
482.061	632.69
482.28	599.69
482.498	585.69
482.717	571.69
482.935	548.69
483.153	548.69
483.372	544.69
483.59	548.69
483.808	542.69
484.027	561.69
484.245	531.69
484.463	552.69
484.681	547.69
484.9	551.69
485.118	555.69
485.336	561.69
485.554	535.69
485.772	536.69
485.99	537.69
486.209	556.69
486.427	563.69
486.645	576.69
486.863	608.69
487.081	581.69
487.299	583.69
487.517	576.69
487.735	581.69
487.953	569.69
488.171	582.69
488.389	579.69
488.607	577.69
488.825	584.69
489.043	597.69
489.261	591.69
489.479	614.69
489.696	593.69
489.914	592.69
490.132	595.69
490.35	617.69
490.568	621.69
490.786	659.69
491.003	677.69
491.221	672.69
491.439	673.69
491.657	672.69
491.874	661.69
492.092	689.69
492.31	711.69
492.527	696.69
492.745	700.69
492.963	721.69
493.18	741.69
493.398	725.69
493.615	720.69
493.833	719.69
494.05	748.69
494.268	728.69
494.485	695.69
494.703	711.69
494.92	718.69
495.138	715.69
495.355	710.69
495.573	736.69
495.79	720.69
496.008	731.69
496.225	698.69
496.442	701.69
496.66	704.69
496.877	695.69
497.094	713.69
497.312	696.69
497.529	719.69
497.746	698.69
497.963	721.69
498.181	731.69
498.398	733.69
498.615	723.69
498.832	745.69
499.049	756.69
499.267	742.69
499.484	747.69
499.701	769.69
499.918	776.69
500.135	785.69
500.352	823.69
500.569	817.69
500.786	836.69
501.003	837.69
501.22	804.69
501.437	799.69
501.654	789.69
501.871	825.69
