Data from 1986.PennyLincolnUp.Lamp.En5.5.200Scan.071819.P2_HRD10591_17-10-40-977.txt Node
Date: Thu Jul 18 17:10:40 EDT 2019
User: cochatt
Spectrometer: HR+D1059
Trigger mode: 1
Integration Time (sec): 1.000000E-1
Scans to average: 1
Electric dark correction enabled: true
Nonlinearity correction enabled: false
Boxcar width: 0
XAxis mode: Wavelengths
Number of Pixels in Spectrum: 2048
>>>>>Begin Spectral Data<<<<<
223.165	-18.69
223.4	-18.69
223.635	-18.69
223.869	-19.69
224.104	-21.69
224.338	-12.69
224.573	-21.69
224.808	-3.69
225.042	-4.69
225.277	4.31
225.511	-10.69
225.746	8.31
225.98	14.31
226.215	4.31
226.449	14.31
226.683	12.31
226.918	22.31
227.152	33.31
227.387	50.31
227.621	30.31
227.856	33.31
228.09	33.31
228.324	45.31
228.559	51.31
228.793	63.31
229.027	84.31
229.262	107.31
229.496	118.31
229.73	117.31
229.964	157.31
230.199	133.31
230.433	131.31
230.667	111.31
230.901	102.31
231.136	114.31
231.37	107.31
231.604	104.31
231.838	110.31
232.072	123.31
232.306	125.31
232.541	123.31
232.775	113.31
233.009	116.31
233.243	100.31
233.477	113.31
233.711	123.31
233.945	100.31
234.179	117.31
234.413	120.31
234.647	118.31
234.881	107.31
235.115	113.31
235.349	119.31
235.583	102.31
235.817	119.31
236.051	115.31
236.285	125.31
236.519	124.31
236.753	123.31
236.987	160.31
237.221	193.31
237.455	246.31
237.689	191.31
237.922	147.31
238.156	127.31
238.39	136.31
238.624	122.31
238.858	123.31
239.091	122.31
239.325	117.31
239.559	119.31
239.793	143.31
240.027	130.31
240.26	147.31
240.494	153.31
240.728	149.31
240.961	135.31
241.195	156.31
241.429	143.31
241.662	130.31
241.896	130.31
242.13	142.31
242.363	121.31
242.597	133.31
242.83	126.31
243.064	135.31
243.298	135.31
243.531	147.31
243.765	134.31
243.998	131.31
244.232	131.31
244.465	134.31
244.699	137.31
244.932	148.31
245.166	149.31
245.399	142.31
245.633	158.31
245.866	151.31
246.099	142.31
246.333	148.31
246.566	151.31
246.8	136.31
247.033	160.31
247.266	159.31
247.5	145.31
247.733	163.31
247.966	183.31
248.2	173.31
248.433	163.31
248.666	182.31
248.899	186.31
249.133	204.31
249.366	207.31
249.599	199.31
249.832	204.31
250.066	179.31
250.299	181.31
250.532	196.31
250.765	217.31
250.998	236.31
251.231	231.31
251.465	211.31
251.698	203.31
251.931	197.31
252.164	183.31
252.397	214.31
252.63	204.31
252.863	210.31
253.096	208.31
253.329	222.31
253.562	213.31
253.795	220.31
254.028	205.31
254.261	212.31
254.494	234.31
254.727	258.31
254.96	277.31
255.193	270.31
255.426	261.31
255.659	226.31
255.892	241.31
256.124	244.31
256.357	232.31
256.59	248.31
256.823	227.31
257.056	232.31
257.289	232.31
257.521	204.31
257.754	201.31
257.987	214.31
258.22	218.31
258.452	220.31
258.685	201.31
258.918	199.31
259.151	215.31
259.383	220.31
259.616	209.31
259.849	213.31
260.081	223.31
260.314	243.31
260.547	245.31
260.779	240.31
261.012	245.31
261.244	245.31
261.477	215.31
261.71	227.31
261.942	215.31
262.175	260.31
262.407	222.31
262.64	228.31
262.872	207.31
263.105	217.31
263.337	213.31
263.57	205.31
263.802	214.31
264.035	205.31
264.267	197.31
264.499	200.31
264.732	208.31
264.964	218.31
265.197	211.31
265.429	216.31
265.661	211.31
265.894	199.31
266.126	207.31
266.358	201.31
266.591	210.31
266.823	207.31
267.055	213.31
267.287	224.31
267.52	215.31
267.752	215.31
267.984	235.31
268.216	222.31
268.448	221.31
268.681	222.31
268.913	242.31
269.145	266.31
269.377	265.31
269.609	260.31
269.841	254.31
270.073	268.31
270.306	286.31
270.538	324.31
270.77	318.31
271.002	305.31
271.234	293.31
271.466	303.31
271.698	311.31
271.93	321.31
272.162	310.31
272.394	302.31
272.626	294.31
272.858	294.31
273.09	282.31
273.322	276.31
273.553	255.31
273.785	282.31
274.017	247.31
274.249	245.31
274.481	233.31
274.713	258.31
274.945	269.31
275.176	263.31
275.408	262.31
275.64	241.31
275.872	250.31
276.104	255.31
276.335	257.31
276.567	273.31
276.799	280.31
277.031	299.31
277.262	319.31
277.494	322.31
277.726	294.31
277.957	275.31
278.189	274.31
278.421	265.31
278.652	266.31
278.884	271.31
279.115	237.31
279.347	234.31
279.579	264.31
279.81	263.31
280.042	256.31
280.273	234.31
280.505	259.31
280.736	254.31
280.968	231.31
281.199	250.31
281.431	256.31
281.662	246.31
281.894	247.31
282.125	266.31
282.356	266.31
282.588	306.31
282.819	294.31
283.051	257.31
283.282	252.31
283.513	257.31
283.745	266.31
283.976	270.31
284.207	258.31
284.439	260.31
284.67	255.31
284.901	251.31
285.132	262.31
285.364	243.31
285.595	243.31
285.826	254.31
286.057	255.31
286.288	276.31
286.52	259.31
286.751	259.31
286.982	257.31
287.213	267.31
287.444	246.31
287.675	258.31
287.906	274.31
288.138	262.31
288.369	267.31
288.6	301.31
288.831	274.31
289.062	269.31
289.293	261.31
289.524	257.31
289.755	285.31
289.986	279.31
290.217	281.31
290.448	267.31
290.679	267.31
290.91	249.31
291.141	247.31
291.371	274.31
291.602	262.31
291.833	267.31
292.064	257.31
292.295	268.31
292.526	261.31
292.757	282.31
292.987	281.31
293.218	258.31
293.449	285.31
293.68	254.31
293.91	272.31
294.141	258.31
294.372	255.31
294.603	257.31
294.833	273.31
295.064	261.31
295.295	286.31
295.525	263.31
295.756	286.31
295.987	284.31
296.217	316.31
296.448	318.31
296.679	294.31
296.909	275.31
297.14	268.31
297.37	261.31
297.601	266.31
297.831	277.31
298.062	258.31
298.292	272.31
298.523	271.31
298.753	281.31
298.984	277.31
299.214	291.31
299.445	267.31
299.675	276.31
299.905	279.31
300.136	284.31
300.366	293.31
300.597	275.31
300.827	300.31
301.057	296.31
301.288	300.31
301.518	290.31
301.748	288.31
301.979	295.31
302.209	295.31
302.439	290.31
302.669	295.31
302.9	285.31
303.13	281.31
303.36	301.31
303.59	311.31
303.82	325.31
304.051	282.31
304.281	287.31
304.511	288.31
304.741	300.31
304.971	296.31
305.201	295.31
305.431	293.31
305.661	294.31
305.891	301.31
306.121	298.31
306.352	306.31
306.582	313.31
306.812	289.31
307.042	293.31
307.272	297.31
307.502	294.31
307.731	300.31
307.961	294.31
308.191	306.31
308.421	293.31
308.651	295.31
308.881	319.31
309.111	307.31
309.341	291.31
309.571	334.31
309.8	354.31
310.03	333.31
310.26	356.31
310.49	357.31
310.72	371.31
310.949	371.31
311.179	375.31
311.409	363.31
311.639	361.31
311.868	350.31
312.098	350.31
312.328	364.31
312.557	362.31
312.787	408.31
313.017	405.31
313.246	373.31
313.476	335.31
313.706	348.31
313.935	357.31
314.165	354.31
314.394	375.31
314.624	374.31
314.853	372.31
315.083	356.31
315.312	327.31
315.542	336.31
315.771	350.31
316.001	338.31
316.23	361.31
316.46	347.31
316.689	342.31
316.919	344.31
317.148	354.31
317.377	362.31
317.607	360.31
317.836	359.31
318.065	341.31
318.295	347.31
318.524	361.31
318.753	341.31
318.983	363.31
319.212	343.31
319.441	362.31
319.67	345.31
319.9	357.31
320.129	340.31
320.358	361.31
320.587	352.31
320.816	359.31
321.046	358.31
321.275	374.31
321.504	381.31
321.733	383.31
321.962	388.31
322.191	410.31
322.42	413.31
322.649	423.31
322.878	443.31
323.108	431.31
323.337	471.31
323.566	505.31
323.795	541.31
324.024	588.31
324.253	720.31
324.482	1029.31
324.71	1557.31
324.939	2218.31
325.168	1961.31
325.397	1066.31
325.626	722.31
325.855	563.31
326.084	517.31
326.313	497.31
326.542	520.31
326.77	584.31
326.999	661.31
327.228	929.31
327.457	1379.31
327.686	1703.31
327.914	1173.31
328.143	765.31
328.372	668.31
328.6	611.31
328.829	583.31
329.058	582.31
329.287	569.31
329.515	534.31
329.744	536.31
329.972	513.31
330.201	538.31
330.43	577.31
330.658	606.31
330.887	616.31
331.115	597.31
331.344	507.31
331.572	473.31
331.801	481.31
332.03	478.31
332.258	439.31
332.486	421.31
332.715	420.31
332.943	389.31
333.172	431.31
333.4	428.31
333.629	442.31
333.857	442.31
334.085	454.31
334.314	460.31
334.542	495.31
334.771	499.31
334.999	459.31
335.227	412.31
335.455	409.31
335.684	404.31
335.912	418.31
336.14	393.31
336.369	382.31
336.597	385.31
336.825	417.31
337.053	423.31
337.281	382.31
337.51	377.31
337.738	393.31
337.966	403.31
338.194	407.31
338.422	413.31
338.65	380.31
338.878	404.31
339.106	392.31
339.334	379.31
339.562	381.31
339.79	385.31
340.018	389.31
340.246	387.31
340.474	404.31
340.702	413.31
340.93	389.31
341.158	377.31
341.386	395.31
341.614	394.31
341.842	395.31
342.07	374.31
342.298	389.31
342.526	388.31
342.754	374.31
342.981	377.31
343.209	334.31
343.437	369.31
343.665	389.31
343.893	359.31
344.12	371.31
344.348	381.31
344.576	390.31
344.804	391.31
345.031	398.31
345.259	428.31
345.487	390.31
345.714	377.31
345.942	373.31
346.17	386.31
346.397	353.31
346.625	381.31
346.853	381.31
347.08	366.31
347.308	389.31
347.535	379.31
347.763	380.31
347.99	392.31
348.218	377.31
348.445	411.31
348.673	383.31
348.9	394.31
349.128	382.31
349.355	373.31
349.583	353.31
349.81	362.31
350.037	353.31
350.265	346.31
350.492	361.31
350.72	385.31
350.947	375.31
351.174	392.31
351.402	383.31
351.629	385.31
351.856	386.31
352.083	380.31
352.311	407.31
352.538	403.31
352.765	400.31
352.992	401.31
353.22	391.31
353.447	393.31
353.674	363.31
353.901	383.31
354.128	352.31
354.355	347.31
354.583	348.31
354.81	343.31
355.037	349.31
355.264	333.31
355.491	338.31
355.718	339.31
355.945	340.31
356.172	334.31
356.399	342.31
356.626	344.31
356.853	345.31
357.08	339.31
357.307	351.31
357.534	331.31
357.761	353.31
357.988	346.31
358.215	330.31
358.441	328.31
358.668	361.31
358.895	357.31
359.122	345.31
359.349	346.31
359.576	383.31
359.802	405.31
360.029	426.31
360.256	433.31
360.483	423.31
360.709	371.31
360.936	385.31
361.163	361.31
361.39	350.31
361.616	364.31
361.843	380.31
362.07	374.31
362.296	405.31
362.523	390.31
362.749	372.31
362.976	362.31
363.203	374.31
363.429	355.31
363.656	351.31
363.882	342.31
364.109	351.31
364.335	344.31
364.562	332.31
364.788	355.31
365.015	341.31
365.241	341.31
365.468	350.31
365.694	354.31
365.92	374.31
366.147	358.31
366.373	353.31
366.599	359.31
366.826	341.31
367.052	343.31
367.278	344.31
367.505	365.31
367.731	351.31
367.957	350.31
368.184	371.31
368.41	347.31
368.636	355.31
368.862	360.31
369.089	347.31
369.315	349.31
369.541	347.31
369.767	362.31
369.993	354.31
370.219	343.31
370.445	350.31
370.672	346.31
370.898	342.31
371.124	349.31
371.35	328.31
371.576	342.31
371.802	334.31
372.028	335.31
372.254	345.31
372.48	348.31
372.706	343.31
372.932	338.31
373.158	346.31
373.384	342.31
373.61	345.31
373.835	340.31
374.061	360.31
374.287	327.31
374.513	341.31
374.739	343.31
374.965	353.31
375.191	343.31
375.416	353.31
375.642	341.31
375.868	356.31
376.094	321.31
376.319	350.31
376.545	347.31
376.771	343.31
376.997	342.31
377.222	341.31
377.448	336.31
377.674	339.31
377.899	360.31
378.125	333.31
378.35	345.31
378.576	346.31
378.802	321.31
379.027	333.31
379.253	338.31
379.478	335.31
379.704	335.31
379.929	333.31
380.155	344.31
380.38	345.31
380.606	344.31
380.831	331.31
381.057	345.31
381.282	326.31
381.507	328.31
381.733	335.31
381.958	348.31
382.184	351.31
382.409	355.31
382.634	340.31
382.86	332.31
383.085	351.31
383.31	351.31
383.535	334.31
383.761	326.31
383.986	348.31
384.211	349.31
384.436	341.31
384.662	332.31
384.887	355.31
385.112	354.31
385.337	348.31
385.562	364.31
385.787	348.31
386.013	361.31
386.238	381.31
386.463	359.31
386.688	357.31
386.913	374.31
387.138	358.31
387.363	356.31
387.588	357.31
387.813	351.31
388.038	348.31
388.263	351.31
388.488	357.31
388.713	338.31
388.938	351.31
389.163	349.31
389.387	361.31
389.612	350.31
389.837	355.31
390.062	352.31
390.287	357.31
390.512	343.31
390.736	349.31
390.961	346.31
391.186	350.31
391.411	341.31
391.636	343.31
391.86	357.31
392.085	339.31
392.31	362.31
392.534	372.31
392.759	356.31
392.984	367.31
393.208	356.31
393.433	344.31
393.658	345.31
393.882	353.31
394.107	368.31
394.331	360.31
394.556	349.31
394.78	355.31
395.005	349.31
395.229	362.31
395.454	367.31
395.678	354.31
395.903	361.31
396.127	401.31
396.352	407.31
396.576	374.31
396.801	379.31
397.025	356.31
397.249	373.31
397.474	371.31
397.698	367.31
397.922	395.31
398.147	402.31
398.371	393.31
398.595	389.31
398.82	410.31
399.044	373.31
399.268	385.31
399.492	396.31
399.717	428.31
399.941	442.31
400.165	483.31
400.389	494.31
400.613	442.31
400.837	423.31
401.062	399.31
401.286	390.31
401.51	392.31
401.734	387.31
401.958	390.31
402.182	406.31
402.406	425.31
402.63	426.31
402.854	425.31
403.078	398.31
403.302	400.31
403.526	431.31
403.75	414.31
403.974	426.31
404.198	435.31
404.422	415.31
404.645	433.31
404.869	433.31
405.093	454.31
405.317	479.31
405.541	500.31
405.765	453.31
405.988	438.31
406.212	457.31
406.436	470.31
406.66	475.31
406.883	471.31
407.107	469.31
407.331	511.31
407.555	551.31
407.778	566.31
408.002	527.31
408.226	476.31
408.449	469.31
408.673	470.31
408.896	485.31
409.12	485.31
409.344	501.31
409.567	437.31
409.791	426.31
410.014	425.31
410.238	417.31
410.461	430.31
410.685	413.31
410.908	424.31
411.132	479.31
411.355	490.31
411.578	491.31
411.802	437.31
412.025	416.31
412.249	433.31
412.472	420.31
412.695	470.31
412.919	461.31
413.142	431.31
413.365	422.31
413.589	412.31
413.812	423.31
414.035	399.31
414.258	392.31
414.482	393.31
414.705	400.31
414.928	405.31
415.151	395.31
415.374	386.31
415.597	407.31
415.821	397.31
416.044	398.31
416.267	384.31
416.49	383.31
416.713	423.31
416.936	409.31
417.159	389.31
417.382	376.31
417.605	413.31
417.828	407.31
418.051	432.31
418.274	407.31
418.497	402.31
418.72	394.31
418.943	413.31
419.166	391.31
419.389	396.31
419.611	409.31
419.834	409.31
420.057	422.31
420.28	422.31
420.503	412.31
420.726	418.31
420.948	430.31
421.171	468.31
421.394	503.31
421.617	439.31
421.839	424.31
422.062	431.31
422.285	423.31
422.507	494.31
422.73	556.31
422.953	554.31
423.175	481.31
423.398	449.31
423.621	467.31
423.843	490.31
424.066	467.31
424.288	457.31
424.511	482.31
424.733	529.31
424.956	601.31
425.178	591.31
425.401	578.31
425.623	609.31
425.846	550.31
426.068	476.31
426.291	483.31
426.513	476.31
426.735	466.31
426.958	505.31
427.18	590.31
427.402	675.31
427.625	793.31
427.847	713.31
428.069	623.31
428.292	538.31
428.514	486.31
428.736	451.31
428.958	456.31
429.181	461.31
429.403	427.31
429.625	458.31
429.847	479.31
430.069	537.31
430.292	553.31
430.514	458.31
430.736	457.31
430.958	414.31
431.18	434.31
431.402	406.31
431.624	399.31
431.846	385.31
432.068	393.31
432.29	397.31
432.512	402.31
432.734	407.31
432.956	413.31
433.178	407.31
433.4	410.31
433.622	409.31
433.844	407.31
434.066	391.31
434.287	391.31
434.509	419.31
434.731	429.31
434.953	426.31
435.175	427.31
435.397	455.31
435.618	487.31
435.84	508.31
436.062	594.31
436.284	637.31
436.505	553.31
436.727	491.31
436.949	457.31
437.17	441.31
437.392	437.31
437.614	448.31
437.835	504.31
438.057	578.31
438.278	693.31
438.5	659.31
438.721	726.31
438.943	710.31
439.165	545.31
439.386	485.31
439.608	494.31
439.829	488.31
440.05	513.31
440.272	549.31
440.493	547.31
440.715	492.31
440.936	475.31
441.158	437.31
441.379	430.31
441.6	443.31
441.822	451.31
442.043	516.31
442.264	583.31
442.486	625.31
442.707	539.31
442.928	489.31
443.149	507.31
443.371	531.31
443.592	570.31
443.813	626.31
444.034	663.31
444.255	581.31
444.476	493.31
444.698	466.31
444.919	463.31
445.14	566.31
445.361	510.31
445.582	529.31
445.803	580.31
446.024	687.31
446.245	691.31
446.466	618.31
446.687	533.31
446.908	491.31
447.129	457.31
447.35	469.31
447.571	437.31
447.792	447.31
448.013	455.31
448.234	465.31
448.455	518.31
448.675	604.31
448.896	697.31
449.117	606.31
449.338	562.31
449.559	665.31
449.779	737.31
450	612.31
450.221	493.31
450.442	458.31
450.662	462.31
450.883	462.31
451.104	470.31
451.324	446.31
451.545	428.31
451.766	415.31
451.986	391.31
452.207	388.31
452.428	396.31
452.648	378.31
452.869	394.31
453.089	404.31
453.31	437.31
453.53	416.31
453.751	408.31
453.971	411.31
454.192	411.31
454.412	421.31
454.633	399.31
454.853	409.31
455.073	402.31
455.294	414.31
455.514	469.31
455.734	484.31
455.955	399.31
456.175	377.31
456.395	364.31
456.616	371.31
456.836	349.31
457.056	373.31
457.276	354.31
457.497	364.31
457.717	367.31
457.937	347.31
458.157	375.31
458.377	370.31
458.598	399.31
458.818	463.31
459.038	550.31
459.258	529.31
459.478	462.31
459.698	397.31
459.918	421.31
460.138	399.31
460.358	394.31
460.578	392.31
460.798	388.31
461.018	408.31
461.238	395.31
461.458	405.31
461.678	385.31
461.898	411.31
462.118	395.31
462.338	387.31
462.558	398.31
462.777	394.31
462.997	400.31
463.217	415.31
463.437	409.31
463.657	423.31
463.876	406.31
464.096	412.31
464.316	420.31
464.536	430.31
464.755	412.31
464.975	437.31
465.195	487.31
465.414	578.31
465.634	500.31
465.854	460.31
466.073	419.31
466.293	430.31
466.512	412.31
466.732	398.31
466.951	393.31
467.171	389.31
467.391	405.31
467.61	410.31
467.829	411.31
468.049	403.31
468.268	428.31
468.488	378.31
468.707	376.31
468.927	385.31
469.146	380.31
469.365	370.31
469.585	381.31
469.804	391.31
470.023	420.31
470.243	389.31
470.462	402.31
470.681	423.31
470.901	401.31
471.12	399.31
471.339	393.31
471.558	403.31
471.777	407.31
471.997	388.31
472.216	397.31
472.435	447.31
472.654	442.31
472.873	409.31
473.092	379.31
473.311	395.31
473.53	402.31
473.749	417.31
473.968	460.31
474.187	573.31
474.406	558.31
474.625	478.31
474.844	422.31
475.063	400.31
475.282	403.31
475.501	414.31
475.72	444.31
475.939	408.31
476.158	404.31
476.377	420.31
476.596	444.31
476.814	423.31
477.033	434.31
477.252	406.31
477.471	446.31
477.69	422.31
477.908	416.31
478.127	434.31
478.346	420.31
478.564	425.31
478.783	441.31
479.002	433.31
479.22	449.31
479.439	457.31
479.658	485.31
479.876	471.31
480.095	496.31
480.313	515.31
480.532	493.31
480.751	472.31
480.969	502.31
481.188	574.31
481.406	619.31
481.624	564.31
481.843	488.31
482.061	488.31
482.28	467.31
482.498	480.31
482.717	479.31
482.935	475.31
483.153	468.31
483.372	477.31
483.59	456.31
483.808	478.31
484.027	476.31
484.245	501.31
484.463	477.31
484.681	502.31
484.9	497.31
485.118	491.31
485.336	507.31
485.554	466.31
485.772	491.31
485.99	498.31
486.209	489.31
486.427	477.31
486.645	511.31
486.863	526.31
487.081	521.31
487.299	518.31
487.517	504.31
487.735	520.31
487.953	510.31
488.171	493.31
488.389	521.31
488.607	517.31
488.825	527.31
489.043	515.31
489.261	528.31
489.479	525.31
489.696	523.31
489.914	544.31
490.132	542.31
490.35	563.31
490.568	549.31
490.786	529.31
491.003	556.31
491.221	554.31
491.439	551.31
491.657	565.31
491.874	595.31
492.092	600.31
492.31	584.31
492.527	587.31
492.745	610.31
492.963	598.31
493.18	589.31
493.398	607.31
493.615	621.31
493.833	612.31
494.05	590.31
494.268	636.31
494.485	607.31
494.703	629.31
494.92	614.31
495.138	641.31
495.355	622.31
495.573	618.31
495.79	620.31
496.008	645.31
496.225	599.31
496.442	633.31
496.66	621.31
496.877	618.31
497.094	639.31
497.312	618.31
497.529	615.31
497.746	645.31
497.963	617.31
498.181	637.31
498.398	659.31
498.615	705.31
498.832	690.31
499.049	639.31
499.267	665.31
499.484	668.31
499.701	686.31
499.918	693.31
500.135	728.31
500.352	750.31
500.569	750.31
500.786	759.31
501.003	744.31
501.22	758.31
501.437	731.31
501.654	757.31
501.871	738.31
