Data from 1986.PennyLincolnUp.Lamp.En5.5.200Scan.071819.P2_HRD10591_17-10-13-974.txt Node
Date: Thu Jul 18 17:10:13 EDT 2019
User: cochatt
Spectrometer: HR+D1059
Trigger mode: 1
Integration Time (sec): 1.000000E-1
Scans to average: 1
Electric dark correction enabled: true
Nonlinearity correction enabled: false
Boxcar width: 0
XAxis mode: Wavelengths
Number of Pixels in Spectrum: 2048
>>>>>Begin Spectral Data<<<<<
223.165	-17.62
223.4	-17.62
223.635	-17.62
223.869	-18.62
224.104	-20.62
224.338	-11.62
224.573	-10.62
224.808	-7.62
225.042	2.38
225.277	14.38
225.511	-2.62
225.746	0.38
225.98	-4.62
226.215	5.38
226.449	10.38
226.683	21.38
226.918	17.38
227.152	22.38
227.387	47.38
227.621	44.38
227.856	39.38
228.09	50.38
228.324	48.38
228.559	48.38
228.793	59.38
229.027	113.38
229.262	110.38
229.496	133.38
229.73	138.38
229.964	169.38
230.199	124.38
230.433	116.38
230.667	110.38
230.901	116.38
231.136	116.38
231.37	114.38
231.604	119.38
231.838	113.38
232.072	109.38
232.306	115.38
232.541	98.38
232.775	107.38
233.009	114.38
233.243	104.38
233.477	114.38
233.711	102.38
233.945	98.38
234.179	114.38
234.413	120.38
234.647	119.38
234.881	125.38
235.115	106.38
235.349	119.38
235.583	118.38
235.817	123.38
236.051	129.38
236.285	130.38
236.519	122.38
236.753	132.38
236.987	144.38
237.221	174.38
237.455	235.38
237.689	186.38
237.922	136.38
238.156	133.38
238.39	129.38
238.624	134.38
238.858	137.38
239.091	140.38
239.325	137.38
239.559	125.38
239.793	123.38
240.027	118.38
240.26	153.38
240.494	173.38
240.728	150.38
240.961	151.38
241.195	138.38
241.429	139.38
241.662	142.38
241.896	139.38
242.13	129.38
242.363	141.38
242.597	141.38
242.83	131.38
243.064	140.38
243.298	138.38
243.531	136.38
243.765	134.38
243.998	155.38
244.232	129.38
244.465	145.38
244.699	146.38
244.932	140.38
245.166	137.38
245.399	141.38
245.633	141.38
245.866	155.38
246.099	140.38
246.333	142.38
246.566	131.38
246.8	156.38
247.033	141.38
247.266	168.38
247.5	152.38
247.733	153.38
247.966	169.38
248.2	181.38
248.433	162.38
248.666	175.38
248.899	176.38
249.133	195.38
249.366	206.38
249.599	202.38
249.832	197.38
250.066	169.38
250.299	176.38
250.532	194.38
250.765	195.38
250.998	233.38
251.231	229.38
251.465	212.38
251.698	212.38
251.931	212.38
252.164	198.38
252.397	192.38
252.63	208.38
252.863	208.38
253.096	217.38
253.329	229.38
253.562	213.38
253.795	229.38
254.028	229.38
254.261	231.38
254.494	246.38
254.727	273.38
254.96	293.38
255.193	268.38
255.426	249.38
255.659	220.38
255.892	225.38
256.124	231.38
256.357	218.38
256.59	212.38
256.823	204.38
257.056	201.38
257.289	204.38
257.521	189.38
257.754	218.38
257.987	195.38
258.22	185.38
258.452	216.38
258.685	191.38
258.918	201.38
259.151	207.38
259.383	202.38
259.616	232.38
259.849	225.38
260.081	231.38
260.314	256.38
260.547	245.38
260.779	245.38
261.012	237.38
261.244	228.38
261.477	234.38
261.71	244.38
261.942	222.38
262.175	249.38
262.407	230.38
262.64	208.38
262.872	229.38
263.105	217.38
263.337	205.38
263.57	206.38
263.802	207.38
264.035	206.38
264.267	228.38
264.499	204.38
264.732	196.38
264.964	217.38
265.197	201.38
265.429	211.38
265.661	204.38
265.894	186.38
266.126	214.38
266.358	209.38
266.591	211.38
266.823	213.38
267.055	218.38
267.287	227.38
267.52	202.38
267.752	226.38
267.984	217.38
268.216	246.38
268.448	218.38
268.681	236.38
268.913	241.38
269.145	247.38
269.377	275.38
269.609	278.38
269.841	252.38
270.073	281.38
270.306	283.38
270.538	320.38
270.77	322.38
271.002	315.38
271.234	301.38
271.466	303.38
271.698	315.38
271.93	319.38
272.162	330.38
272.394	313.38
272.626	310.38
272.858	296.38
273.09	269.38
273.322	263.38
273.553	261.38
273.785	261.38
274.017	263.38
274.249	274.38
274.481	244.38
274.713	249.38
274.945	259.38
275.176	246.38
275.408	261.38
275.64	253.38
275.872	258.38
276.104	261.38
276.335	260.38
276.567	253.38
276.799	273.38
277.031	286.38
277.262	297.38
277.494	316.38
277.726	277.38
277.957	288.38
278.189	286.38
278.421	257.38
278.652	254.38
278.884	246.38
279.115	238.38
279.347	229.38
279.579	243.38
279.81	249.38
280.042	236.38
280.273	249.38
280.505	233.38
280.736	251.38
280.968	263.38
281.199	236.38
281.431	254.38
281.662	249.38
281.894	269.38
282.125	232.38
282.356	279.38
282.588	287.38
282.819	295.38
283.051	253.38
283.282	243.38
283.513	278.38
283.745	258.38
283.976	266.38
284.207	272.38
284.439	250.38
284.67	239.38
284.901	259.38
285.132	252.38
285.364	243.38
285.595	243.38
285.826	248.38
286.057	250.38
286.288	254.38
286.52	272.38
286.751	265.38
286.982	270.38
287.213	270.38
287.444	262.38
287.675	255.38
287.906	250.38
288.138	284.38
288.369	282.38
288.6	269.38
288.831	285.38
289.062	268.38
289.293	271.38
289.524	267.38
289.755	261.38
289.986	247.38
290.217	265.38
290.448	266.38
290.679	250.38
290.91	248.38
291.141	259.38
291.371	259.38
291.602	255.38
291.833	260.38
292.064	259.38
292.295	279.38
292.526	251.38
292.757	272.38
292.987	278.38
293.218	257.38
293.449	255.38
293.68	270.38
293.91	261.38
294.141	267.38
294.372	249.38
294.603	267.38
294.833	278.38
295.064	253.38
295.295	264.38
295.525	271.38
295.756	260.38
295.987	246.38
296.217	302.38
296.448	303.38
296.679	279.38
296.909	281.38
297.14	252.38
297.37	272.38
297.601	275.38
297.831	265.38
298.062	261.38
298.292	268.38
298.523	250.38
298.753	271.38
298.984	277.38
299.214	266.38
299.445	280.38
299.675	265.38
299.905	270.38
300.136	281.38
300.366	293.38
300.597	282.38
300.827	286.38
301.057	308.38
301.288	289.38
301.518	285.38
301.748	289.38
301.979	281.38
302.209	307.38
302.439	286.38
302.669	294.38
302.9	282.38
303.13	263.38
303.36	296.38
303.59	318.38
303.82	300.38
304.051	328.38
304.281	295.38
304.511	297.38
304.741	305.38
304.971	289.38
305.201	293.38
305.431	306.38
305.661	269.38
305.891	293.38
306.121	278.38
306.352	289.38
306.582	295.38
306.812	321.38
307.042	295.38
307.272	307.38
307.502	306.38
307.731	310.38
307.961	295.38
308.191	303.38
308.421	300.38
308.651	318.38
308.881	289.38
309.111	289.38
309.341	309.38
309.571	325.38
309.8	329.38
310.03	320.38
310.26	345.38
310.49	342.38
310.72	370.38
310.949	379.38
311.179	378.38
311.409	346.38
311.639	360.38
311.868	358.38
312.098	354.38
312.328	343.38
312.557	373.38
312.787	371.38
313.017	414.38
313.246	359.38
313.476	328.38
313.706	342.38
313.935	359.38
314.165	373.38
314.394	377.38
314.624	380.38
314.853	362.38
315.083	339.38
315.312	355.38
315.542	339.38
315.771	332.38
316.001	325.38
316.23	342.38
316.46	344.38
316.689	338.38
316.919	352.38
317.148	346.38
317.377	375.38
317.607	359.38
317.836	333.38
318.065	353.38
318.295	338.38
318.524	335.38
318.753	352.38
318.983	335.38
319.212	339.38
319.441	358.38
319.67	377.38
319.9	345.38
320.129	349.38
320.358	355.38
320.587	351.38
320.816	357.38
321.046	370.38
321.275	361.38
321.504	375.38
321.733	371.38
321.962	391.38
322.191	382.38
322.42	417.38
322.649	416.38
322.878	428.38
323.108	459.38
323.337	474.38
323.566	509.38
323.795	537.38
324.024	618.38
324.253	697.38
324.482	1004.38
324.71	1531.38
324.939	2238.38
325.168	1971.38
325.397	1042.38
325.626	712.38
325.855	574.38
326.084	531.38
326.313	499.38
326.542	527.38
326.77	554.38
326.999	633.38
327.228	906.38
327.457	1377.38
327.686	1683.38
327.914	1173.38
328.143	743.38
328.372	620.38
328.6	591.38
328.829	557.38
329.058	577.38
329.287	593.38
329.515	505.38
329.744	489.38
329.972	467.38
330.201	494.38
330.43	512.38
330.658	542.38
330.887	599.38
331.115	593.38
331.344	517.38
331.572	470.38
331.801	452.38
332.03	437.38
332.258	420.38
332.486	405.38
332.715	400.38
332.943	400.38
333.172	417.38
333.4	393.38
333.629	407.38
333.857	415.38
334.085	428.38
334.314	405.38
334.542	405.38
334.771	434.38
334.999	417.38
335.227	409.38
335.455	419.38
335.684	390.38
335.912	394.38
336.14	386.38
336.369	390.38
336.597	389.38
336.825	387.38
337.053	389.38
337.281	383.38
337.51	387.38
337.738	372.38
337.966	379.38
338.194	388.38
338.422	389.38
338.65	380.38
338.878	379.38
339.106	391.38
339.334	376.38
339.562	385.38
339.79	373.38
340.018	364.38
340.246	369.38
340.474	371.38
340.702	363.38
340.93	398.38
341.158	385.38
341.386	387.38
341.614	393.38
341.842	375.38
342.07	381.38
342.298	383.38
342.526	364.38
342.754	349.38
342.981	363.38
343.209	349.38
343.437	358.38
343.665	376.38
343.893	381.38
344.12	373.38
344.348	381.38
344.576	380.38
344.804	396.38
345.031	396.38
345.259	396.38
345.487	395.38
345.714	386.38
345.942	386.38
346.17	372.38
346.397	369.38
346.625	382.38
346.853	365.38
347.08	380.38
347.308	373.38
347.535	379.38
347.763	381.38
347.99	363.38
348.218	393.38
348.445	384.38
348.673	383.38
348.9	393.38
349.128	365.38
349.355	348.38
349.583	371.38
349.81	343.38
350.037	343.38
350.265	353.38
350.492	353.38
350.72	375.38
350.947	346.38
351.174	376.38
351.402	405.38
351.629	389.38
351.856	381.38
352.083	373.38
352.311	410.38
352.538	394.38
352.765	415.38
352.992	388.38
353.22	375.38
353.447	365.38
353.674	377.38
353.901	365.38
354.128	360.38
354.355	354.38
354.583	333.38
354.81	334.38
355.037	357.38
355.264	353.38
355.491	345.38
355.718	333.38
355.945	332.38
356.172	352.38
356.399	341.38
356.626	347.38
356.853	318.38
357.08	350.38
357.307	335.38
357.534	340.38
357.761	335.38
357.988	344.38
358.215	337.38
358.441	333.38
358.668	340.38
358.895	361.38
359.122	363.38
359.349	358.38
359.576	340.38
359.802	402.38
360.029	429.38
360.256	442.38
360.483	415.38
360.709	402.38
360.936	375.38
361.163	384.38
361.39	384.38
361.616	371.38
361.843	377.38
362.07	371.38
362.296	367.38
362.523	361.38
362.749	373.38
362.976	364.38
363.203	355.38
363.429	342.38
363.656	326.38
363.882	344.38
364.109	323.38
364.335	343.38
364.562	344.38
364.788	349.38
365.015	351.38
365.241	340.38
365.468	365.38
365.694	367.38
365.92	374.38
366.147	349.38
366.373	357.38
366.599	346.38
366.826	344.38
367.052	327.38
367.278	334.38
367.505	346.38
367.731	355.38
367.957	340.38
368.184	350.38
368.41	370.38
368.636	355.38
368.862	371.38
369.089	348.38
369.315	344.38
369.541	339.38
369.767	331.38
369.993	355.38
370.219	357.38
370.445	358.38
370.672	341.38
370.898	341.38
371.124	325.38
371.35	338.38
371.576	348.38
371.802	324.38
372.028	317.38
372.254	323.38
372.48	337.38
372.706	327.38
372.932	340.38
373.158	345.38
373.384	329.38
373.61	322.38
373.835	334.38
374.061	345.38
374.287	349.38
374.513	331.38
374.739	342.38
374.965	357.38
375.191	344.38
375.416	334.38
375.642	354.38
375.868	348.38
376.094	354.38
376.319	357.38
376.545	324.38
376.771	340.38
376.997	344.38
377.222	333.38
377.448	333.38
377.674	335.38
377.899	329.38
378.125	341.38
378.35	328.38
378.576	346.38
378.802	339.38
379.027	343.38
379.253	323.38
379.478	346.38
379.704	313.38
379.929	342.38
380.155	330.38
380.38	332.38
380.606	343.38
380.831	348.38
381.057	355.38
381.282	342.38
381.507	334.38
381.733	335.38
381.958	338.38
382.184	350.38
382.409	334.38
382.634	337.38
382.86	353.38
383.085	325.38
383.31	334.38
383.535	347.38
383.761	358.38
383.986	324.38
384.211	345.38
384.436	340.38
384.662	347.38
384.887	347.38
385.112	346.38
385.337	311.38
385.562	344.38
385.787	334.38
386.013	365.38
386.238	367.38
386.463	357.38
386.688	375.38
386.913	355.38
387.138	328.38
387.363	362.38
387.588	365.38
387.813	356.38
388.038	364.38
388.263	339.38
388.488	332.38
388.713	349.38
388.938	346.38
389.163	363.38
389.387	327.38
389.612	341.38
389.837	350.38
390.062	348.38
390.287	354.38
390.512	342.38
390.736	340.38
390.961	354.38
391.186	366.38
391.411	337.38
391.636	353.38
391.86	339.38
392.085	346.38
392.31	351.38
392.534	346.38
392.759	347.38
392.984	354.38
393.208	346.38
393.433	348.38
393.658	364.38
393.882	334.38
394.107	333.38
394.331	356.38
394.556	344.38
394.78	339.38
395.005	364.38
395.229	345.38
395.454	360.38
395.678	342.38
395.903	356.38
396.127	380.38
396.352	369.38
396.576	364.38
396.801	367.38
397.025	375.38
397.249	362.38
397.474	366.38
397.698	378.38
397.922	387.38
398.147	390.38
398.371	399.38
398.595	392.38
398.82	377.38
399.044	373.38
399.268	421.38
399.492	410.38
399.717	439.38
399.941	433.38
400.165	486.38
400.389	499.38
400.613	441.38
400.837	418.38
401.062	404.38
401.286	409.38
401.51	410.38
401.734	401.38
401.958	397.38
402.182	403.38
402.406	411.38
402.63	405.38
402.854	403.38
403.078	401.38
403.302	409.38
403.526	413.38
403.75	423.38
403.974	422.38
404.198	390.38
404.422	415.38
404.645	409.38
404.869	413.38
405.093	444.38
405.317	462.38
405.541	458.38
405.765	447.38
405.988	441.38
406.212	434.38
406.436	457.38
406.66	481.38
406.883	476.38
407.107	478.38
407.331	526.38
407.555	566.38
407.778	567.38
408.002	505.38
408.226	451.38
408.449	448.38
408.673	491.38
408.896	485.38
409.12	515.38
409.344	493.38
409.567	461.38
409.791	444.38
410.014	435.38
410.238	429.38
410.461	415.38
410.685	408.38
410.908	429.38
411.132	471.38
411.355	490.38
411.578	477.38
411.802	426.38
412.025	388.38
412.249	408.38
412.472	426.38
412.695	426.38
412.919	411.38
413.142	417.38
413.365	403.38
413.589	390.38
413.812	383.38
414.035	393.38
414.258	361.38
414.482	389.38
414.705	389.38
414.928	380.38
415.151	383.38
415.374	389.38
415.597	384.38
415.821	380.38
416.044	380.38
416.267	397.38
416.49	384.38
416.713	400.38
416.936	398.38
417.159	379.38
417.382	371.38
417.605	383.38
417.828	411.38
418.051	418.38
418.274	423.38
418.497	398.38
418.72	399.38
418.943	379.38
419.166	379.38
419.389	412.38
419.611	406.38
419.834	414.38
420.057	417.38
420.28	411.38
420.503	424.38
420.726	393.38
420.948	429.38
421.171	462.38
421.394	492.38
421.617	457.38
421.839	440.38
422.062	424.38
422.285	430.38
422.507	475.38
422.73	559.38
422.953	497.38
423.175	463.38
423.398	428.38
423.621	435.38
423.843	483.38
424.066	469.38
424.288	457.38
424.511	485.38
424.733	524.38
424.956	618.38
425.178	606.38
425.401	578.38
425.623	577.38
425.846	509.38
426.068	479.38
426.291	465.38
426.513	466.38
426.735	470.38
426.958	508.38
427.18	568.38
427.402	708.38
427.625	776.38
427.847	677.38
428.069	586.38
428.292	525.38
428.514	481.38
428.736	468.38
428.958	431.38
429.181	422.38
429.403	445.38
429.625	447.38
429.847	492.38
430.069	550.38
430.292	542.38
430.514	449.38
430.736	422.38
430.958	424.38
431.18	426.38
431.402	406.38
431.624	394.38
431.846	385.38
432.068	413.38
432.29	399.38
432.512	395.38
432.734	414.38
432.956	405.38
433.178	426.38
433.4	427.38
433.622	405.38
433.844	393.38
434.066	395.38
434.287	391.38
434.509	398.38
434.731	413.38
434.953	419.38
435.175	422.38
435.397	473.38
435.618	468.38
435.84	514.38
436.062	571.38
436.284	654.38
436.505	571.38
436.727	482.38
436.949	458.38
437.17	444.38
437.392	422.38
437.614	430.38
437.835	503.38
438.057	599.38
438.278	665.38
438.5	664.38
438.721	731.38
438.943	698.38
439.165	570.38
439.386	466.38
439.608	492.38
439.829	504.38
440.05	519.38
440.272	548.38
440.493	524.38
440.715	457.38
440.936	451.38
441.158	449.38
441.379	433.38
441.6	429.38
441.822	461.38
442.043	503.38
442.264	586.38
442.486	644.38
442.707	516.38
442.928	500.38
443.149	510.38
443.371	521.38
443.592	555.38
443.813	623.38
444.034	692.38
444.255	561.38
444.476	481.38
444.698	470.38
444.919	462.38
445.14	545.38
445.361	540.38
445.582	527.38
445.803	577.38
446.024	667.38
446.245	669.38
446.466	614.38
446.687	508.38
446.908	465.38
447.129	458.38
447.35	440.38
447.571	454.38
447.792	426.38
448.013	458.38
448.234	442.38
448.455	521.38
448.675	614.38
448.896	702.38
449.117	601.38
449.338	556.38
449.559	643.38
449.779	726.38
450	603.38
450.221	501.38
450.442	450.38
450.662	439.38
450.883	450.38
451.104	462.38
451.324	426.38
451.545	417.38
451.766	421.38
451.986	410.38
452.207	376.38
452.428	375.38
452.648	372.38
452.869	399.38
453.089	393.38
453.31	413.38
453.53	397.38
453.751	414.38
453.971	389.38
454.192	404.38
454.412	414.38
454.633	368.38
454.853	392.38
455.073	393.38
455.294	428.38
455.514	493.38
455.734	464.38
455.955	392.38
456.175	353.38
456.395	348.38
456.616	358.38
456.836	381.38
457.056	361.38
457.276	357.38
457.497	364.38
457.717	363.38
457.937	382.38
458.157	390.38
458.377	388.38
458.598	417.38
458.818	467.38
459.038	564.38
459.258	565.38
459.478	476.38
459.698	419.38
459.918	400.38
460.138	393.38
460.358	414.38
460.578	381.38
460.798	387.38
461.018	402.38
461.238	377.38
461.458	389.38
461.678	382.38
461.898	392.38
462.118	388.38
462.338	411.38
462.558	399.38
462.777	408.38
462.997	420.38
463.217	433.38
463.437	421.38
463.657	396.38
463.876	410.38
464.096	405.38
464.316	410.38
464.536	424.38
464.755	423.38
464.975	419.38
465.195	504.38
465.414	586.38
465.634	492.38
465.854	422.38
466.073	406.38
466.293	386.38
466.512	385.38
466.732	389.38
466.951	385.38
467.171	394.38
467.391	411.38
467.61	407.38
467.829	423.38
468.049	418.38
468.268	405.38
468.488	380.38
468.707	382.38
468.927	373.38
469.146	373.38
469.365	371.38
469.585	380.38
469.804	401.38
470.023	413.38
470.243	408.38
470.462	405.38
470.681	408.38
470.901	430.38
471.12	415.38
471.339	392.38
471.558	391.38
471.777	401.38
471.997	394.38
472.216	405.38
472.435	386.38
472.654	409.38
472.873	394.38
473.092	373.38
473.311	391.38
473.53	388.38
473.749	407.38
473.968	457.38
474.187	561.38
474.406	592.38
474.625	462.38
474.844	417.38
475.063	390.38
475.282	375.38
475.501	386.38
475.72	393.38
475.939	422.38
476.158	415.38
476.377	430.38
476.596	409.38
476.814	428.38
477.033	399.38
477.252	443.38
477.471	410.38
477.69	420.38
477.908	421.38
478.127	427.38
478.346	427.38
478.564	439.38
478.783	423.38
479.002	461.38
479.22	454.38
479.439	463.38
479.658	477.38
479.876	492.38
480.095	472.38
480.313	509.38
480.532	485.38
480.751	469.38
480.969	500.38
481.188	523.38
481.406	513.38
481.624	484.38
481.843	469.38
482.061	475.38
482.28	462.38
482.498	439.38
482.717	446.38
482.935	453.38
483.153	443.38
483.372	464.38
483.59	460.38
483.808	433.38
484.027	449.38
484.245	467.38
484.463	466.38
484.681	464.38
484.9	469.38
485.118	480.38
485.336	474.38
485.554	472.38
485.772	479.38
485.99	478.38
486.209	495.38
486.427	484.38
486.645	495.38
486.863	518.38
487.081	505.38
487.299	507.38
487.517	496.38
487.735	521.38
487.953	494.38
488.171	499.38
488.389	489.38
488.607	509.38
488.825	489.38
489.043	503.38
489.261	515.38
489.479	531.38
489.696	524.38
489.914	544.38
490.132	517.38
490.35	543.38
490.568	525.38
490.786	539.38
491.003	524.38
491.221	551.38
491.439	584.38
491.657	582.38
491.874	578.38
492.092	581.38
492.31	567.38
492.527	602.38
492.745	601.38
492.963	577.38
493.18	615.38
493.398	592.38
493.615	599.38
493.833	609.38
494.05	578.38
494.268	592.38
494.485	610.38
494.703	596.38
494.92	615.38
495.138	603.38
495.355	618.38
495.573	598.38
495.79	633.38
496.008	621.38
496.225	627.38
496.442	613.38
496.66	602.38
496.877	614.38
497.094	625.38
497.312	622.38
497.529	618.38
497.746	637.38
497.963	618.38
498.181	648.38
498.398	645.38
498.615	663.38
498.832	659.38
499.049	651.38
499.267	657.38
499.484	684.38
499.701	695.38
499.918	673.38
500.135	720.38
500.352	711.38
500.569	737.38
500.786	745.38
501.003	730.38
501.22	733.38
501.437	722.38
501.654	714.38
501.871	730.38
