Data from 1986.PennyLincolnUp.Lamp.En5.5.200Scan.071819.P2_HRD10591_17-10-25-975.txt Node
Date: Thu Jul 18 17:10:25 EDT 2019
User: cochatt
Spectrometer: HR+D1059
Trigger mode: 1
Integration Time (sec): 1.000000E-1
Scans to average: 1
Electric dark correction enabled: true
Nonlinearity correction enabled: false
Boxcar width: 0
XAxis mode: Wavelengths
Number of Pixels in Spectrum: 2048
>>>>>Begin Spectral Data<<<<<
223.165	-14.56
223.4	-14.56
223.635	-14.56
223.869	-9.56
224.104	-13.56
224.338	-18.56
224.573	-5.56
224.808	-22.56
225.042	-9.56
225.277	2.44
225.511	-8.56
225.746	4.44
225.98	-11.56
226.215	4.44
226.449	21.44
226.683	18.44
226.918	24.44
227.152	38.44
227.387	35.44
227.621	44.44
227.856	26.44
228.09	62.44
228.324	51.44
228.559	51.44
228.793	44.44
229.027	96.44
229.262	107.44
229.496	118.44
229.73	126.44
229.964	168.44
230.199	123.44
230.433	118.44
230.667	117.44
230.901	108.44
231.136	128.44
231.37	106.44
231.604	110.44
231.838	120.44
232.072	105.44
232.306	106.44
232.541	114.44
232.775	107.44
233.009	98.44
233.243	108.44
233.477	104.44
233.711	108.44
233.945	117.44
234.179	107.44
234.413	124.44
234.647	107.44
234.881	110.44
235.115	121.44
235.349	114.44
235.583	113.44
235.817	114.44
236.051	123.44
236.285	120.44
236.519	124.44
236.753	136.44
236.987	159.44
237.221	174.44
237.455	244.44
237.689	177.44
237.922	151.44
238.156	130.44
238.39	126.44
238.624	122.44
238.858	123.44
239.091	114.44
239.325	126.44
239.559	123.44
239.793	125.44
240.027	128.44
240.26	146.44
240.494	160.44
240.728	146.44
240.961	141.44
241.195	145.44
241.429	136.44
241.662	137.44
241.896	138.44
242.13	139.44
242.363	137.44
242.597	132.44
242.83	141.44
243.064	122.44
243.298	143.44
243.531	126.44
243.765	136.44
243.998	136.44
244.232	125.44
244.465	128.44
244.699	144.44
244.932	137.44
245.166	140.44
245.399	140.44
245.633	135.44
245.866	151.44
246.099	142.44
246.333	144.44
246.566	136.44
246.8	136.44
247.033	154.44
247.266	154.44
247.5	161.44
247.733	167.44
247.966	172.44
248.2	183.44
248.433	178.44
248.666	192.44
248.899	185.44
249.133	193.44
249.366	212.44
249.599	205.44
249.832	192.44
250.066	180.44
250.299	168.44
250.532	176.44
250.765	219.44
250.998	219.44
251.231	245.44
251.465	214.44
251.698	222.44
251.931	218.44
252.164	193.44
252.397	212.44
252.63	207.44
252.863	215.44
253.096	216.44
253.329	231.44
253.562	238.44
253.795	218.44
254.028	224.44
254.261	221.44
254.494	224.44
254.727	269.44
254.96	287.44
255.193	284.44
255.426	247.44
255.659	243.44
255.892	236.44
256.124	234.44
256.357	256.44
256.59	207.44
256.823	219.44
257.056	228.44
257.289	217.44
257.521	209.44
257.754	198.44
257.987	233.44
258.22	221.44
258.452	204.44
258.685	203.44
258.918	198.44
259.151	212.44
259.383	237.44
259.616	228.44
259.849	221.44
260.081	262.44
260.314	244.44
260.547	252.44
260.779	251.44
261.012	247.44
261.244	235.44
261.477	234.44
261.71	218.44
261.942	235.44
262.175	267.44
262.407	246.44
262.64	236.44
262.872	216.44
263.105	220.44
263.337	217.44
263.57	218.44
263.802	208.44
264.035	219.44
264.267	208.44
264.499	215.44
264.732	202.44
264.964	210.44
265.197	200.44
265.429	207.44
265.661	212.44
265.894	212.44
266.126	209.44
266.358	212.44
266.591	206.44
266.823	204.44
267.055	217.44
267.287	220.44
267.52	225.44
267.752	232.44
267.984	221.44
268.216	231.44
268.448	229.44
268.681	234.44
268.913	227.44
269.145	251.44
269.377	288.44
269.609	284.44
269.841	248.44
270.073	267.44
270.306	267.44
270.538	304.44
270.77	313.44
271.002	290.44
271.234	293.44
271.466	315.44
271.698	298.44
271.93	306.44
272.162	327.44
272.394	337.44
272.626	330.44
272.858	288.44
273.09	307.44
273.322	283.44
273.553	263.44
273.785	261.44
274.017	251.44
274.249	267.44
274.481	235.44
274.713	244.44
274.945	236.44
275.176	244.44
275.408	253.44
275.64	249.44
275.872	256.44
276.104	267.44
276.335	271.44
276.567	283.44
276.799	280.44
277.031	290.44
277.262	315.44
277.494	307.44
277.726	297.44
277.957	293.44
278.189	268.44
278.421	262.44
278.652	263.44
278.884	270.44
279.115	248.44
279.347	251.44
279.579	237.44
279.81	269.44
280.042	242.44
280.273	235.44
280.505	253.44
280.736	261.44
280.968	277.44
281.199	242.44
281.431	259.44
281.662	250.44
281.894	264.44
282.125	267.44
282.356	272.44
282.588	308.44
282.819	320.44
283.051	272.44
283.282	264.44
283.513	245.44
283.745	260.44
283.976	263.44
284.207	263.44
284.439	265.44
284.67	266.44
284.901	231.44
285.132	241.44
285.364	238.44
285.595	261.44
285.826	249.44
286.057	250.44
286.288	264.44
286.52	266.44
286.751	261.44
286.982	261.44
287.213	249.44
287.444	256.44
287.675	274.44
287.906	278.44
288.138	279.44
288.369	287.44
288.6	285.44
288.831	275.44
289.062	268.44
289.293	261.44
289.524	257.44
289.755	249.44
289.986	282.44
290.217	268.44
290.448	258.44
290.679	247.44
290.91	267.44
291.141	251.44
291.371	265.44
291.602	263.44
291.833	266.44
292.064	271.44
292.295	264.44
292.526	267.44
292.757	256.44
292.987	244.44
293.218	260.44
293.449	262.44
293.68	267.44
293.91	265.44
294.141	260.44
294.372	264.44
294.603	261.44
294.833	262.44
295.064	259.44
295.295	260.44
295.525	264.44
295.756	268.44
295.987	265.44
296.217	295.44
296.448	308.44
296.679	288.44
296.909	274.44
297.14	259.44
297.37	277.44
297.601	264.44
297.831	279.44
298.062	261.44
298.292	280.44
298.523	274.44
298.753	281.44
298.984	278.44
299.214	285.44
299.445	282.44
299.675	267.44
299.905	289.44
300.136	275.44
300.366	272.44
300.597	300.44
300.827	288.44
301.057	278.44
301.288	295.44
301.518	305.44
301.748	310.44
301.979	292.44
302.209	280.44
302.439	308.44
302.669	295.44
302.9	314.44
303.13	278.44
303.36	288.44
303.59	314.44
303.82	301.44
304.051	320.44
304.281	304.44
304.511	307.44
304.741	276.44
304.971	277.44
305.201	285.44
305.431	305.44
305.661	298.44
305.891	285.44
306.121	280.44
306.352	303.44
306.582	321.44
306.812	287.44
307.042	280.44
307.272	304.44
307.502	305.44
307.731	302.44
307.961	306.44
308.191	304.44
308.421	292.44
308.651	325.44
308.881	304.44
309.111	324.44
309.341	334.44
309.571	328.44
309.8	331.44
310.03	344.44
310.26	354.44
310.49	358.44
310.72	369.44
310.949	363.44
311.179	380.44
311.409	367.44
311.639	357.44
311.868	352.44
312.098	371.44
312.328	386.44
312.557	366.44
312.787	386.44
313.017	402.44
313.246	373.44
313.476	342.44
313.706	365.44
313.935	366.44
314.165	372.44
314.394	374.44
314.624	384.44
314.853	377.44
315.083	366.44
315.312	350.44
315.542	355.44
315.771	349.44
316.001	353.44
316.23	343.44
316.46	336.44
316.689	344.44
316.919	348.44
317.148	377.44
317.377	376.44
317.607	353.44
317.836	349.44
318.065	357.44
318.295	354.44
318.524	348.44
318.753	352.44
318.983	349.44
319.212	343.44
319.441	360.44
319.67	386.44
319.9	378.44
320.129	362.44
320.358	370.44
320.587	361.44
320.816	373.44
321.046	378.44
321.275	359.44
321.504	362.44
321.733	393.44
321.962	396.44
322.191	385.44
322.42	425.44
322.649	430.44
322.878	434.44
323.108	459.44
323.337	508.44
323.566	520.44
323.795	554.44
324.024	602.44
324.253	753.44
324.482	1061.44
324.71	1608.44
324.939	2252.44
325.168	2058.44
325.397	1094.44
325.626	727.44
325.855	573.44
326.084	555.44
326.313	542.44
326.542	500.44
326.77	545.44
326.999	674.44
327.228	922.44
327.457	1421.44
327.686	1753.44
327.914	1212.44
328.143	809.44
328.372	666.44
328.6	605.44
328.829	567.44
329.058	587.44
329.287	604.44
329.515	548.44
329.744	506.44
329.972	504.44
330.201	517.44
330.43	544.44
330.658	596.44
330.887	612.44
331.115	608.44
331.344	523.44
331.572	477.44
331.801	468.44
332.03	454.44
332.258	453.44
332.486	428.44
332.715	428.44
332.943	411.44
333.172	403.44
333.4	413.44
333.629	419.44
333.857	406.44
334.085	435.44
334.314	435.44
334.542	470.44
334.771	474.44
334.999	449.44
335.227	419.44
335.455	410.44
335.684	433.44
335.912	390.44
336.14	400.44
336.369	390.44
336.597	411.44
336.825	406.44
337.053	418.44
337.281	410.44
337.51	398.44
337.738	388.44
337.966	392.44
338.194	405.44
338.422	393.44
338.65	393.44
338.878	382.44
339.106	383.44
339.334	398.44
339.562	393.44
339.79	384.44
340.018	392.44
340.246	407.44
340.474	400.44
340.702	381.44
340.93	365.44
341.158	372.44
341.386	397.44
341.614	396.44
341.842	410.44
342.07	392.44
342.298	375.44
342.526	383.44
342.754	368.44
342.981	363.44
343.209	375.44
343.437	380.44
343.665	372.44
343.893	380.44
344.12	372.44
344.348	391.44
344.576	393.44
344.804	410.44
345.031	391.44
345.259	408.44
345.487	399.44
345.714	396.44
345.942	381.44
346.17	393.44
346.397	387.44
346.625	378.44
346.853	384.44
347.08	372.44
347.308	379.44
347.535	397.44
347.763	403.44
347.99	400.44
348.218	390.44
348.445	396.44
348.673	407.44
348.9	384.44
349.128	379.44
349.355	368.44
349.583	365.44
349.81	362.44
350.037	353.44
350.265	361.44
350.492	371.44
350.72	376.44
350.947	374.44
351.174	405.44
351.402	395.44
351.629	388.44
351.856	394.44
352.083	408.44
352.311	389.44
352.538	414.44
352.765	411.44
352.992	404.44
353.22	378.44
353.447	398.44
353.674	371.44
353.901	370.44
354.128	342.44
354.355	343.44
354.583	357.44
354.81	347.44
355.037	347.44
355.264	336.44
355.491	358.44
355.718	344.44
355.945	346.44
356.172	363.44
356.399	346.44
356.626	342.44
356.853	345.44
357.08	355.44
357.307	354.44
357.534	357.44
357.761	331.44
357.988	334.44
358.215	339.44
358.441	328.44
358.668	364.44
358.895	360.44
359.122	340.44
359.349	360.44
359.576	377.44
359.802	396.44
360.029	444.44
360.256	453.44
360.483	420.44
360.709	388.44
360.936	397.44
361.163	378.44
361.39	394.44
361.616	389.44
361.843	377.44
362.07	401.44
362.296	381.44
362.523	383.44
362.749	376.44
362.976	376.44
363.203	356.44
363.429	362.44
363.656	356.44
363.882	347.44
364.109	360.44
364.335	337.44
364.562	352.44
364.788	351.44
365.015	368.44
365.241	375.44
365.468	360.44
365.694	365.44
365.92	380.44
366.147	381.44
366.373	347.44
366.599	346.44
366.826	355.44
367.052	353.44
367.278	360.44
367.505	334.44
367.731	350.44
367.957	349.44
368.184	368.44
368.41	358.44
368.636	370.44
368.862	362.44
369.089	380.44
369.315	348.44
369.541	328.44
369.767	329.44
369.993	354.44
370.219	339.44
370.445	333.44
370.672	340.44
370.898	349.44
371.124	337.44
371.35	346.44
371.576	352.44
371.802	348.44
372.028	352.44
372.254	352.44
372.48	341.44
372.706	336.44
372.932	340.44
373.158	330.44
373.384	340.44
373.61	349.44
373.835	340.44
374.061	352.44
374.287	363.44
374.513	376.44
374.739	357.44
374.965	368.44
375.191	352.44
375.416	329.44
375.642	336.44
375.868	352.44
376.094	336.44
376.319	342.44
376.545	363.44
376.771	326.44
376.997	340.44
377.222	360.44
377.448	349.44
377.674	349.44
377.899	333.44
378.125	329.44
378.35	343.44
378.576	338.44
378.802	332.44
379.027	352.44
379.253	347.44
379.478	336.44
379.704	328.44
379.929	337.44
380.155	362.44
380.38	353.44
380.606	338.44
380.831	321.44
381.057	342.44
381.282	343.44
381.507	340.44
381.733	346.44
381.958	349.44
382.184	353.44
382.409	346.44
382.634	344.44
382.86	340.44
383.085	353.44
383.31	344.44
383.535	354.44
383.761	341.44
383.986	368.44
384.211	341.44
384.436	346.44
384.662	345.44
384.887	357.44
385.112	352.44
385.337	345.44
385.562	339.44
385.787	361.44
386.013	386.44
386.238	375.44
386.463	388.44
386.688	369.44
386.913	360.44
387.138	343.44
387.363	351.44
387.588	357.44
387.813	349.44
388.038	369.44
388.263	347.44
388.488	344.44
388.713	357.44
388.938	339.44
389.163	364.44
389.387	371.44
389.612	342.44
389.837	363.44
390.062	353.44
390.287	377.44
390.512	365.44
390.736	357.44
390.961	343.44
391.186	345.44
391.411	368.44
391.636	362.44
391.86	350.44
392.085	355.44
392.31	361.44
392.534	369.44
392.759	365.44
392.984	361.44
393.208	362.44
393.433	353.44
393.658	362.44
393.882	365.44
394.107	368.44
394.331	358.44
394.556	355.44
394.78	348.44
395.005	349.44
395.229	349.44
395.454	371.44
395.678	378.44
395.903	371.44
396.127	396.44
396.352	397.44
396.576	380.44
396.801	370.44
397.025	370.44
397.249	372.44
397.474	386.44
397.698	372.44
397.922	406.44
398.147	402.44
398.371	402.44
398.595	389.44
398.82	398.44
399.044	379.44
399.268	404.44
399.492	422.44
399.717	437.44
399.941	434.44
400.165	488.44
400.389	508.44
400.613	476.44
400.837	451.44
401.062	407.44
401.286	388.44
401.51	408.44
401.734	406.44
401.958	386.44
402.182	410.44
402.406	404.44
402.63	421.44
402.854	422.44
403.078	415.44
403.302	421.44
403.526	425.44
403.75	438.44
403.974	436.44
404.198	411.44
404.422	412.44
404.645	417.44
404.869	437.44
405.093	450.44
405.317	472.44
405.541	497.44
405.765	457.44
405.988	425.44
406.212	446.44
406.436	491.44
406.66	487.44
406.883	458.44
407.107	480.44
407.331	540.44
407.555	578.44
407.778	565.44
408.002	489.44
408.226	490.44
408.449	459.44
408.673	452.44
408.896	501.44
409.12	520.44
409.344	512.44
409.567	454.44
409.791	429.44
410.014	428.44
410.238	417.44
410.461	426.44
410.685	429.44
410.908	448.44
411.132	496.44
411.355	522.44
411.578	489.44
411.802	436.44
412.025	430.44
412.249	427.44
412.472	450.44
412.695	464.44
412.919	452.44
413.142	421.44
413.365	416.44
413.589	414.44
413.812	404.44
414.035	405.44
414.258	390.44
414.482	390.44
414.705	379.44
414.928	388.44
415.151	401.44
415.374	390.44
415.597	384.44
415.821	391.44
416.044	391.44
416.267	407.44
416.49	406.44
416.713	382.44
416.936	394.44
417.159	405.44
417.382	418.44
417.605	420.44
417.828	414.44
418.051	414.44
418.274	423.44
418.497	399.44
418.72	394.44
418.943	398.44
419.166	417.44
419.389	407.44
419.611	414.44
419.834	410.44
420.057	411.44
420.28	421.44
420.503	423.44
420.726	413.44
420.948	450.44
421.171	486.44
421.394	507.44
421.617	465.44
421.839	427.44
422.062	420.44
422.285	439.44
422.507	516.44
422.73	560.44
422.953	530.44
423.175	496.44
423.398	449.44
423.621	440.44
423.843	483.44
424.066	483.44
424.288	465.44
424.511	503.44
424.733	556.44
424.956	620.44
425.178	590.44
425.401	589.44
425.623	629.44
425.846	507.44
426.068	477.44
426.291	475.44
426.513	471.44
426.735	483.44
426.958	553.44
427.18	581.44
427.402	725.44
427.625	812.44
427.847	711.44
428.069	615.44
428.292	549.44
428.514	518.44
428.736	468.44
428.958	453.44
429.181	430.44
429.403	456.44
429.625	455.44
429.847	498.44
430.069	552.44
430.292	567.44
430.514	470.44
430.736	432.44
430.958	424.44
431.18	416.44
431.402	404.44
431.624	408.44
431.846	398.44
432.068	380.44
432.29	408.44
432.512	421.44
432.734	435.44
432.956	435.44
433.178	430.44
433.4	402.44
433.622	412.44
433.844	418.44
434.066	382.44
434.287	412.44
434.509	409.44
434.731	406.44
434.953	403.44
435.175	435.44
435.397	469.44
435.618	497.44
435.84	515.44
436.062	601.44
436.284	664.44
436.505	577.44
436.727	513.44
436.949	487.44
437.17	454.44
437.392	443.44
437.614	440.44
437.835	486.44
438.057	618.44
438.278	667.44
438.5	682.44
438.721	728.44
438.943	696.44
439.165	570.44
439.386	534.44
439.608	508.44
439.829	527.44
440.05	520.44
440.272	566.44
440.493	524.44
440.715	479.44
440.936	448.44
441.158	447.44
441.379	444.44
441.6	449.44
441.822	467.44
442.043	523.44
442.264	616.44
442.486	633.44
442.707	532.44
442.928	490.44
443.149	514.44
443.371	530.44
443.592	570.44
443.813	637.44
444.034	696.44
444.255	564.44
444.476	500.44
444.698	479.44
444.919	477.44
445.14	570.44
445.361	540.44
445.582	538.44
445.803	605.44
446.024	676.44
446.245	666.44
446.466	649.44
446.687	547.44
446.908	501.44
447.129	488.44
447.35	436.44
447.571	450.44
447.792	423.44
448.013	455.44
448.234	478.44
448.455	526.44
448.675	612.44
448.896	713.44
449.117	636.44
449.338	585.44
449.559	686.44
449.779	749.44
450	623.44
450.221	504.44
450.442	449.44
450.662	470.44
450.883	482.44
451.104	487.44
451.324	456.44
451.545	424.44
451.766	425.44
451.986	401.44
452.207	377.44
452.428	394.44
452.648	391.44
452.869	391.44
453.089	408.44
453.31	432.44
453.53	431.44
453.751	403.44
453.971	391.44
454.192	460.44
454.412	427.44
454.633	424.44
454.853	406.44
455.073	386.44
455.294	437.44
455.514	486.44
455.734	508.44
455.955	419.44
456.175	388.44
456.395	354.44
456.616	353.44
456.836	365.44
457.056	364.44
457.276	361.44
457.497	370.44
457.717	357.44
457.937	388.44
458.157	384.44
458.377	383.44
458.598	427.44
458.818	466.44
459.038	562.44
459.258	583.44
459.478	512.44
459.698	442.44
459.918	410.44
460.138	408.44
460.358	383.44
460.578	377.44
460.798	404.44
461.018	400.44
461.238	390.44
461.458	376.44
461.678	382.44
461.898	396.44
462.118	370.44
462.338	406.44
462.558	402.44
462.777	430.44
462.997	393.44
463.217	427.44
463.437	432.44
463.657	393.44
463.876	407.44
464.096	426.44
464.316	429.44
464.536	424.44
464.755	427.44
464.975	428.44
465.195	495.44
465.414	612.44
465.634	498.44
465.854	446.44
466.073	438.44
466.293	403.44
466.512	402.44
466.732	386.44
466.951	397.44
467.171	414.44
467.391	406.44
467.61	404.44
467.829	418.44
468.049	416.44
468.268	382.44
468.488	394.44
468.707	384.44
468.927	380.44
469.146	371.44
469.365	381.44
469.585	365.44
469.804	408.44
470.023	410.44
470.243	412.44
470.462	425.44
470.681	458.44
470.901	420.44
471.12	412.44
471.339	406.44
471.558	409.44
471.777	422.44
471.997	412.44
472.216	412.44
472.435	434.44
472.654	418.44
472.873	382.44
473.092	398.44
473.311	407.44
473.53	403.44
473.749	401.44
473.968	459.44
474.187	565.44
474.406	594.44
474.625	491.44
474.844	442.44
475.063	423.44
475.282	402.44
475.501	387.44
475.72	423.44
475.939	412.44
476.158	427.44
476.377	403.44
476.596	412.44
476.814	437.44
477.033	441.44
477.252	408.44
477.471	432.44
477.69	425.44
477.908	440.44
478.127	421.44
478.346	429.44
478.564	429.44
478.783	441.44
479.002	458.44
479.22	450.44
479.439	480.44
479.658	491.44
479.876	487.44
480.095	492.44
480.313	494.44
480.532	485.44
480.751	473.44
480.969	474.44
481.188	538.44
481.406	569.44
481.624	507.44
481.843	493.44
482.061	493.44
482.28	485.44
482.498	481.44
482.717	486.44
482.935	474.44
483.153	486.44
483.372	461.44
483.59	496.44
483.808	473.44
484.027	492.44
484.245	480.44
484.463	490.44
484.681	477.44
484.9	514.44
485.118	508.44
485.336	514.44
485.554	496.44
485.772	482.44
485.99	524.44
486.209	477.44
486.427	488.44
486.645	515.44
486.863	518.44
487.081	525.44
487.299	533.44
487.517	503.44
487.735	510.44
487.953	534.44
488.171	547.44
488.389	506.44
488.607	525.44
488.825	533.44
489.043	534.44
489.261	531.44
489.479	531.44
489.696	551.44
489.914	521.44
490.132	508.44
490.35	543.44
490.568	535.44
490.786	564.44
491.003	547.44
491.221	574.44
491.439	581.44
491.657	588.44
491.874	592.44
492.092	596.44
492.31	611.44
492.527	613.44
492.745	619.44
492.963	607.44
493.18	611.44
493.398	631.44
493.615	626.44
493.833	633.44
494.05	615.44
494.268	622.44
494.485	617.44
494.703	600.44
494.92	632.44
495.138	592.44
495.355	630.44
495.573	631.44
495.79	634.44
496.008	624.44
496.225	634.44
496.442	607.44
496.66	616.44
496.877	626.44
497.094	628.44
497.312	621.44
497.529	630.44
497.746	636.44
497.963	633.44
498.181	681.44
498.398	662.44
498.615	673.44
498.832	670.44
499.049	674.44
499.267	672.44
499.484	688.44
499.701	708.44
499.918	731.44
500.135	725.44
500.352	738.44
500.569	743.44
500.786	760.44
501.003	770.44
501.22	743.44
501.437	757.44
501.654	729.44
501.871	744.44
