Data from 1986.PennyLincolnUp.Lamp.En5.5.200Scan.071819.P2_HRD10591_17-12-35-973.txt Node
Date: Thu Jul 18 17:12:35 EDT 2019
User: cochatt
Spectrometer: HR+D1059
Trigger mode: 1
Integration Time (sec): 1.000000E-1
Scans to average: 1
Electric dark correction enabled: true
Nonlinearity correction enabled: false
Boxcar width: 0
XAxis mode: Wavelengths
Number of Pixels in Spectrum: 2048
>>>>>Begin Spectral Data<<<<<
223.165	-16.44
223.4	-16.44
223.635	-16.44
223.869	-19.44
224.104	-14.44
224.338	-9.44
224.573	-14.44
224.808	-12.44
225.042	-7.44
225.277	-5.44
225.511	2.56
225.746	7.56
225.98	4.56
226.215	10.56
226.449	8.56
226.683	13.56
226.918	20.56
227.152	31.56
227.387	28.56
227.621	41.56
227.856	52.56
228.09	55.56
228.324	47.56
228.559	53.56
228.793	66.56
229.027	109.56
229.262	94.56
229.496	118.56
229.73	136.56
229.964	165.56
230.199	121.56
230.433	107.56
230.667	106.56
230.901	110.56
231.136	99.56
231.37	104.56
231.604	91.56
231.838	117.56
232.072	111.56
232.306	116.56
232.541	108.56
232.775	110.56
233.009	111.56
233.243	115.56
233.477	105.56
233.711	116.56
233.945	101.56
234.179	114.56
234.413	123.56
234.647	111.56
234.881	119.56
235.115	123.56
235.349	113.56
235.583	127.56
235.817	128.56
236.051	150.56
236.285	126.56
236.519	126.56
236.753	127.56
236.987	138.56
237.221	172.56
237.455	250.56
237.689	194.56
237.922	158.56
238.156	142.56
238.39	145.56
238.624	123.56
238.858	124.56
239.091	124.56
239.325	127.56
239.559	129.56
239.793	140.56
240.027	119.56
240.26	131.56
240.494	165.56
240.728	149.56
240.961	144.56
241.195	149.56
241.429	138.56
241.662	145.56
241.896	131.56
242.13	121.56
242.363	140.56
242.597	133.56
242.83	134.56
243.064	136.56
243.298	140.56
243.531	134.56
243.765	139.56
243.998	148.56
244.232	160.56
244.465	138.56
244.699	161.56
244.932	140.56
245.166	143.56
245.399	142.56
245.633	150.56
245.866	133.56
246.099	155.56
246.333	148.56
246.566	156.56
246.8	166.56
247.033	167.56
247.266	164.56
247.5	187.56
247.733	153.56
247.966	185.56
248.2	184.56
248.433	181.56
248.666	194.56
248.899	184.56
249.133	192.56
249.366	225.56
249.599	232.56
249.832	203.56
250.066	204.56
250.299	226.56
250.532	243.56
250.765	275.56
250.998	272.56
251.231	258.56
251.465	246.56
251.698	244.56
251.931	228.56
252.164	225.56
252.397	213.56
252.63	217.56
252.863	241.56
253.096	258.56
253.329	247.56
253.562	238.56
253.795	242.56
254.028	242.56
254.261	246.56
254.494	242.56
254.727	259.56
254.96	308.56
255.193	299.56
255.426	298.56
255.659	306.56
255.892	302.56
256.124	359.56
256.357	363.56
256.59	345.56
256.823	313.56
257.056	292.56
257.289	284.56
257.521	263.56
257.754	273.56
257.987	254.56
258.22	235.56
258.452	252.56
258.685	244.56
258.918	248.56
259.151	240.56
259.383	234.56
259.616	233.56
259.849	245.56
260.081	253.56
260.314	257.56
260.547	277.56
260.779	252.56
261.012	240.56
261.244	262.56
261.477	256.56
261.71	254.56
261.942	236.56
262.175	242.56
262.407	240.56
262.64	227.56
262.872	232.56
263.105	213.56
263.337	244.56
263.57	227.56
263.802	233.56
264.035	224.56
264.267	221.56
264.499	220.56
264.732	224.56
264.964	229.56
265.197	213.56
265.429	230.56
265.661	238.56
265.894	213.56
266.126	231.56
266.358	221.56
266.591	227.56
266.823	228.56
267.055	238.56
267.287	244.56
267.52	223.56
267.752	236.56
267.984	224.56
268.216	228.56
268.448	247.56
268.681	244.56
268.913	268.56
269.145	267.56
269.377	307.56
269.609	276.56
269.841	263.56
270.073	298.56
270.306	290.56
270.538	341.56
270.77	348.56
271.002	315.56
271.234	297.56
271.466	306.56
271.698	322.56
271.93	328.56
272.162	339.56
272.394	347.56
272.626	315.56
272.858	299.56
273.09	298.56
273.322	306.56
273.553	289.56
273.785	268.56
274.017	268.56
274.249	284.56
274.481	282.56
274.713	265.56
274.945	286.56
275.176	269.56
275.408	288.56
275.64	289.56
275.872	272.56
276.104	287.56
276.335	305.56
276.567	277.56
276.799	282.56
277.031	343.56
277.262	356.56
277.494	356.56
277.726	322.56
277.957	302.56
278.189	302.56
278.421	290.56
278.652	294.56
278.884	286.56
279.115	282.56
279.347	281.56
279.579	292.56
279.81	294.56
280.042	289.56
280.273	304.56
280.505	287.56
280.736	290.56
280.968	300.56
281.199	294.56
281.431	288.56
281.662	284.56
281.894	288.56
282.125	266.56
282.356	296.56
282.588	320.56
282.819	329.56
283.051	279.56
283.282	272.56
283.513	275.56
283.745	285.56
283.976	304.56
284.207	284.56
284.439	284.56
284.67	301.56
284.901	285.56
285.132	285.56
285.364	283.56
285.595	284.56
285.826	253.56
286.057	291.56
286.288	266.56
286.52	274.56
286.751	277.56
286.982	279.56
287.213	284.56
287.444	288.56
287.675	285.56
287.906	300.56
288.138	303.56
288.369	327.56
288.6	299.56
288.831	303.56
289.062	292.56
289.293	286.56
289.524	292.56
289.755	282.56
289.986	299.56
290.217	275.56
290.448	278.56
290.679	303.56
290.91	309.56
291.141	289.56
291.371	289.56
291.602	300.56
291.833	286.56
292.064	280.56
292.295	282.56
292.526	295.56
292.757	291.56
292.987	293.56
293.218	283.56
293.449	299.56
293.68	286.56
293.91	306.56
294.141	292.56
294.372	285.56
294.603	300.56
294.833	304.56
295.064	295.56
295.295	291.56
295.525	298.56
295.756	319.56
295.987	296.56
296.217	326.56
296.448	333.56
296.679	314.56
296.909	299.56
297.14	307.56
297.37	310.56
297.601	312.56
297.831	293.56
298.062	281.56
298.292	270.56
298.523	326.56
298.753	290.56
298.984	290.56
299.214	303.56
299.445	300.56
299.675	289.56
299.905	304.56
300.136	290.56
300.366	316.56
300.597	305.56
300.827	308.56
301.057	315.56
301.288	300.56
301.518	338.56
301.748	308.56
301.979	326.56
302.209	323.56
302.439	329.56
302.669	327.56
302.9	315.56
303.13	311.56
303.36	320.56
303.59	323.56
303.82	346.56
304.051	337.56
304.281	339.56
304.511	331.56
304.741	334.56
304.971	320.56
305.201	329.56
305.431	315.56
305.661	311.56
305.891	326.56
306.121	311.56
306.352	328.56
306.582	358.56
306.812	345.56
307.042	306.56
307.272	330.56
307.502	344.56
307.731	331.56
307.961	332.56
308.191	341.56
308.421	324.56
308.651	334.56
308.881	343.56
309.111	335.56
309.341	349.56
309.571	350.56
309.8	366.56
310.03	383.56
310.26	380.56
310.49	393.56
310.72	392.56
310.949	392.56
311.179	440.56
311.409	366.56
311.639	388.56
311.868	386.56
312.098	386.56
312.328	402.56
312.557	408.56
312.787	414.56
313.017	425.56
313.246	403.56
313.476	381.56
313.706	377.56
313.935	370.56
314.165	379.56
314.394	415.56
314.624	400.56
314.853	394.56
315.083	383.56
315.312	377.56
315.542	369.56
315.771	392.56
316.001	384.56
316.23	373.56
316.46	374.56
316.689	390.56
316.919	373.56
317.148	395.56
317.377	399.56
317.607	396.56
317.836	391.56
318.065	382.56
318.295	407.56
318.524	377.56
318.753	392.56
318.983	390.56
319.212	399.56
319.441	369.56
319.67	391.56
319.9	371.56
320.129	389.56
320.358	395.56
320.587	422.56
320.816	424.56
321.046	407.56
321.275	417.56
321.504	422.56
321.733	412.56
321.962	411.56
322.191	439.56
322.42	482.56
322.649	453.56
322.878	479.56
323.108	521.56
323.337	518.56
323.566	539.56
323.795	580.56
324.024	636.56
324.253	790.56
324.482	1106.56
324.71	1677.56
324.939	2446.56
325.168	2184.56
325.397	1146.56
325.626	752.56
325.855	652.56
326.084	594.56
326.313	554.56
326.542	586.56
326.77	622.56
326.999	734.56
327.228	987.56
327.457	1519.56
327.686	1887.56
327.914	1292.56
328.143	904.56
328.372	834.56
328.6	791.56
328.829	706.56
329.058	660.56
329.287	724.56
329.515	676.56
329.744	656.56
329.972	723.56
330.201	828.56
330.43	934.56
330.658	918.56
330.887	806.56
331.115	732.56
331.344	644.56
331.572	575.56
331.801	572.56
332.03	577.56
332.258	542.56
332.486	523.56
332.715	506.56
332.943	514.56
333.172	546.56
333.4	553.56
333.629	568.56
333.857	632.56
334.085	691.56
334.314	810.56
334.542	999.56
334.771	1076.56
334.999	809.56
335.227	642.56
335.455	579.56
335.684	536.56
335.912	503.56
336.14	479.56
336.369	481.56
336.597	478.56
336.825	483.56
337.053	459.56
337.281	472.56
337.51	459.56
337.738	446.56
337.966	446.56
338.194	459.56
338.422	426.56
338.65	435.56
338.878	434.56
339.106	427.56
339.334	470.56
339.562	433.56
339.79	440.56
340.018	423.56
340.246	416.56
340.474	420.56
340.702	453.56
340.93	438.56
341.158	419.56
341.386	421.56
341.614	442.56
341.842	409.56
342.07	428.56
342.298	419.56
342.526	432.56
342.754	402.56
342.981	386.56
343.209	420.56
343.437	404.56
343.665	405.56
343.893	406.56
344.12	412.56
344.348	416.56
344.576	421.56
344.804	423.56
345.031	430.56
345.259	458.56
345.487	434.56
345.714	433.56
345.942	412.56
346.17	423.56
346.397	425.56
346.625	411.56
346.853	411.56
347.08	419.56
347.308	422.56
347.535	426.56
347.763	429.56
347.99	438.56
348.218	416.56
348.445	432.56
348.673	426.56
348.9	416.56
349.128	410.56
349.355	404.56
349.583	383.56
349.81	390.56
350.037	388.56
350.265	389.56
350.492	395.56
350.72	397.56
350.947	396.56
351.174	421.56
351.402	428.56
351.629	424.56
351.856	406.56
352.083	401.56
352.311	439.56
352.538	423.56
352.765	433.56
352.992	428.56
353.22	412.56
353.447	403.56
353.674	416.56
353.901	392.56
354.128	407.56
354.355	396.56
354.583	383.56
354.81	376.56
355.037	378.56
355.264	373.56
355.491	368.56
355.718	372.56
355.945	357.56
356.172	374.56
356.399	374.56
356.626	367.56
356.853	355.56
357.08	384.56
357.307	378.56
357.534	374.56
357.761	383.56
357.988	374.56
358.215	370.56
358.441	371.56
358.668	369.56
358.895	372.56
359.122	388.56
359.349	397.56
359.576	410.56
359.802	426.56
360.029	464.56
360.256	459.56
360.483	455.56
360.709	440.56
360.936	411.56
361.163	421.56
361.39	402.56
361.616	405.56
361.843	411.56
362.07	392.56
362.296	414.56
362.523	403.56
362.749	403.56
362.976	388.56
363.203	406.56
363.429	399.56
363.656	385.56
363.882	384.56
364.109	390.56
364.335	386.56
364.562	381.56
364.788	375.56
365.015	376.56
365.241	385.56
365.468	380.56
365.694	388.56
365.92	370.56
366.147	402.56
366.373	382.56
366.599	358.56
366.826	357.56
367.052	377.56
367.278	377.56
367.505	388.56
367.731	362.56
367.957	373.56
368.184	363.56
368.41	384.56
368.636	379.56
368.862	408.56
369.089	398.56
369.315	382.56
369.541	370.56
369.767	364.56
369.993	375.56
370.219	384.56
370.445	392.56
370.672	384.56
370.898	368.56
371.124	356.56
371.35	384.56
371.576	375.56
371.802	363.56
372.028	372.56
372.254	366.56
372.48	379.56
372.706	364.56
372.932	345.56
373.158	373.56
373.384	388.56
373.61	383.56
373.835	361.56
374.061	347.56
374.287	372.56
374.513	369.56
374.739	388.56
374.965	372.56
375.191	356.56
375.416	383.56
375.642	370.56
375.868	361.56
376.094	357.56
376.319	368.56
376.545	371.56
376.771	344.56
376.997	374.56
377.222	382.56
377.448	358.56
377.674	370.56
377.899	360.56
378.125	352.56
378.35	356.56
378.576	353.56
378.802	354.56
379.027	370.56
379.253	372.56
379.478	347.56
379.704	379.56
379.929	378.56
380.155	357.56
380.38	363.56
380.606	369.56
380.831	360.56
381.057	384.56
381.282	352.56
381.507	353.56
381.733	368.56
381.958	375.56
382.184	362.56
382.409	376.56
382.634	373.56
382.86	375.56
383.085	387.56
383.31	354.56
383.535	368.56
383.761	373.56
383.986	366.56
384.211	385.56
384.436	354.56
384.662	366.56
384.887	380.56
385.112	371.56
385.337	390.56
385.562	376.56
385.787	379.56
386.013	412.56
386.238	400.56
386.463	416.56
386.688	392.56
386.913	374.56
387.138	374.56
387.363	387.56
387.588	388.56
387.813	369.56
388.038	375.56
388.263	390.56
388.488	383.56
388.713	367.56
388.938	391.56
389.163	378.56
389.387	402.56
389.612	386.56
389.837	375.56
390.062	369.56
390.287	378.56
390.512	370.56
390.736	379.56
390.961	375.56
391.186	373.56
391.411	374.56
391.636	393.56
391.86	391.56
392.085	364.56
392.31	406.56
392.534	392.56
392.759	378.56
392.984	379.56
393.208	370.56
393.433	393.56
393.658	371.56
393.882	378.56
394.107	390.56
394.331	375.56
394.556	380.56
394.78	379.56
395.005	397.56
395.229	386.56
395.454	373.56
395.678	383.56
395.903	396.56
396.127	409.56
396.352	424.56
396.576	398.56
396.801	390.56
397.025	390.56
397.249	392.56
397.474	406.56
397.698	401.56
397.922	426.56
398.147	435.56
398.371	446.56
398.595	427.56
398.82	412.56
399.044	436.56
399.268	422.56
399.492	463.56
399.717	455.56
399.941	498.56
400.165	498.56
400.389	521.56
400.613	483.56
400.837	474.56
401.062	464.56
401.286	432.56
401.51	427.56
401.734	420.56
401.958	433.56
402.182	446.56
402.406	444.56
402.63	440.56
402.854	440.56
403.078	433.56
403.302	446.56
403.526	450.56
403.75	464.56
403.974	472.56
404.198	462.56
404.422	467.56
404.645	468.56
404.869	510.56
405.093	548.56
405.317	588.56
405.541	629.56
405.765	577.56
405.988	541.56
406.212	510.56
406.436	528.56
406.66	545.56
406.883	504.56
407.107	528.56
407.331	546.56
407.555	610.56
407.778	603.56
408.002	545.56
408.226	516.56
408.449	492.56
408.673	480.56
408.896	531.56
409.12	573.56
409.344	525.56
409.567	500.56
409.791	460.56
410.014	461.56
410.238	452.56
410.461	450.56
410.685	475.56
410.908	491.56
411.132	524.56
411.355	541.56
411.578	529.56
411.802	478.56
412.025	482.56
412.249	516.56
412.472	560.56
412.695	618.56
412.919	647.56
413.142	560.56
413.365	514.56
413.589	490.56
413.812	485.56
414.035	467.56
414.258	462.56
414.482	463.56
414.705	443.56
414.928	446.56
415.151	453.56
415.374	434.56
415.597	431.56
415.821	427.56
416.044	438.56
416.267	432.56
416.49	467.56
416.713	442.56
416.936	441.56
417.159	447.56
417.382	441.56
417.605	454.56
417.828	473.56
418.051	472.56
418.274	447.56
418.497	438.56
418.72	447.56
418.943	424.56
419.166	442.56
419.389	462.56
419.611	465.56
419.834	496.56
420.057	505.56
420.28	516.56
420.503	550.56
420.726	527.56
420.948	513.56
421.171	536.56
421.394	582.56
421.617	509.56
421.839	459.56
422.062	472.56
422.285	482.56
422.507	531.56
422.73	588.56
422.953	593.56
423.175	507.56
423.398	468.56
423.621	480.56
423.843	493.56
424.066	522.56
424.288	493.56
424.511	524.56
424.733	584.56
424.956	633.56
425.178	646.56
425.401	615.56
425.623	638.56
425.846	556.56
426.068	504.56
426.291	491.56
426.513	500.56
426.735	508.56
426.958	539.56
427.18	635.56
427.402	753.56
427.625	835.56
427.847	794.56
428.069	706.56
428.292	652.56
428.514	577.56
428.736	524.56
428.958	485.56
429.181	478.56
429.403	466.56
429.625	467.56
429.847	491.56
430.069	592.56
430.292	584.56
430.514	503.56
430.736	453.56
430.958	464.56
431.18	465.56
431.402	450.56
431.624	440.56
431.846	430.56
432.068	432.56
432.29	453.56
432.512	441.56
432.734	450.56
432.956	437.56
433.178	442.56
433.4	466.56
433.622	446.56
433.844	451.56
434.066	426.56
434.287	426.56
434.509	437.56
434.731	429.56
434.953	427.56
435.175	455.56
435.397	486.56
435.618	498.56
435.84	554.56
436.062	658.56
436.284	706.56
436.505	586.56
436.727	520.56
436.949	494.56
437.17	456.56
437.392	474.56
437.614	469.56
437.835	530.56
438.057	610.56
438.278	699.56
438.5	681.56
438.721	768.56
438.943	746.56
439.165	594.56
439.386	532.56
439.608	546.56
439.829	516.56
440.05	548.56
440.272	607.56
440.493	563.56
440.715	523.56
440.936	480.56
441.158	467.56
441.379	487.56
441.6	484.56
441.822	491.56
442.043	555.56
442.264	634.56
442.486	667.56
442.707	579.56
442.928	530.56
443.149	543.56
443.371	548.56
443.592	610.56
443.813	662.56
444.034	737.56
444.255	584.56
444.476	530.56
444.698	523.56
444.919	509.56
445.14	571.56
445.361	535.56
445.582	560.56
445.803	656.56
446.024	709.56
446.245	740.56
446.466	678.56
446.687	570.56
446.908	526.56
447.129	498.56
447.35	473.56
447.571	446.56
447.792	466.56
448.013	469.56
448.234	491.56
448.455	546.56
448.675	624.56
448.896	764.56
449.117	636.56
449.338	604.56
449.559	716.56
449.779	825.56
450	650.56
450.221	544.56
450.442	494.56
450.662	467.56
450.883	478.56
451.104	475.56
451.324	467.56
451.545	458.56
451.766	436.56
451.986	436.56
452.207	412.56
452.428	438.56
452.648	420.56
452.869	404.56
453.089	444.56
453.31	460.56
453.53	414.56
453.751	395.56
453.971	433.56
454.192	434.56
454.412	433.56
454.633	417.56
454.853	427.56
455.073	408.56
455.294	444.56
455.514	525.56
455.734	513.56
455.955	450.56
456.175	418.56
456.395	385.56
456.616	407.56
456.836	391.56
457.056	398.56
457.276	378.56
457.497	388.56
457.717	401.56
457.937	390.56
458.157	402.56
458.377	396.56
458.598	440.56
458.818	482.56
459.038	555.56
459.258	562.56
459.478	484.56
459.698	457.56
459.918	425.56
460.138	436.56
460.358	419.56
460.578	423.56
460.798	416.56
461.018	421.56
461.238	409.56
461.458	418.56
461.678	416.56
461.898	440.56
462.118	432.56
462.338	423.56
462.558	430.56
462.777	414.56
462.997	422.56
463.217	437.56
463.437	419.56
463.657	434.56
463.876	443.56
464.096	423.56
464.316	436.56
464.536	468.56
464.755	475.56
464.975	449.56
465.195	522.56
465.414	603.56
465.634	546.56
465.854	485.56
466.073	457.56
466.293	449.56
466.512	409.56
466.732	424.56
466.951	436.56
467.171	437.56
467.391	442.56
467.61	438.56
467.829	484.56
468.049	477.56
468.268	539.56
468.488	494.56
468.707	460.56
468.927	415.56
469.146	430.56
469.365	440.56
469.585	439.56
469.804	448.56
470.023	432.56
470.243	444.56
470.462	457.56
470.681	476.56
470.901	453.56
471.12	440.56
471.339	466.56
471.558	468.56
471.777	452.56
471.997	474.56
472.216	551.56
472.435	770.56
472.654	666.56
472.873	580.56
473.092	516.56
473.311	521.56
473.53	486.56
473.749	489.56
473.968	551.56
474.187	626.56
474.406	646.56
474.625	537.56
474.844	480.56
475.063	442.56
475.282	439.56
475.501	444.56
475.72	450.56
475.939	454.56
476.158	469.56
476.377	454.56
476.596	459.56
476.814	483.56
477.033	483.56
477.252	491.56
477.471	487.56
477.69	477.56
477.908	491.56
478.127	497.56
478.346	466.56
478.564	486.56
478.783	488.56
479.002	511.56
479.22	499.56
479.439	509.56
479.658	528.56
479.876	553.56
480.095	552.56
480.313	579.56
480.532	562.56
480.751	595.56
480.969	679.56
481.188	971.56
481.406	1234.56
481.624	884.56
481.843	711.56
482.061	668.56
482.28	636.56
482.498	604.56
482.717	601.56
482.935	576.56
483.153	558.56
483.372	564.56
483.59	556.56
483.808	528.56
484.027	535.56
484.245	534.56
484.463	536.56
484.681	542.56
484.9	565.56
485.118	550.56
485.336	545.56
485.554	550.56
485.772	573.56
485.99	551.56
486.209	568.56
486.427	578.56
486.645	565.56
486.863	609.56
487.081	598.56
487.299	583.56
487.517	587.56
487.735	578.56
487.953	576.56
488.171	595.56
488.389	584.56
488.607	579.56
488.825	584.56
489.043	584.56
489.261	598.56
489.479	610.56
489.696	605.56
489.914	600.56
490.132	629.56
490.35	623.56
490.568	652.56
490.786	648.56
491.003	659.56
491.221	698.56
491.439	685.56
491.657	687.56
491.874	721.56
492.092	726.56
492.31	725.56
492.527	731.56
492.745	747.56
492.963	743.56
493.18	747.56
493.398	748.56
493.615	733.56
493.833	740.56
494.05	751.56
494.268	775.56
494.485	706.56
494.703	727.56
494.92	713.56
495.138	709.56
495.355	726.56
495.573	723.56
495.79	712.56
496.008	731.56
496.225	722.56
496.442	709.56
496.66	701.56
496.877	709.56
497.094	690.56
497.312	694.56
497.529	706.56
497.746	729.56
497.963	727.56
498.181	747.56
498.398	746.56
498.615	726.56
498.832	728.56
499.049	726.56
499.267	762.56
499.484	762.56
499.701	817.56
499.918	767.56
500.135	805.56
500.352	799.56
500.569	825.56
500.786	832.56
501.003	843.56
501.22	862.56
501.437	820.56
501.654	814.56
501.871	809.56
