Data from 1986.PennyLincolnUp.Lamp.En5.5.200Scan.071819.P2_HRD10591_17-11-54-973.txt Node
Date: Thu Jul 18 17:11:54 EDT 2019
User: cochatt
Spectrometer: HR+D1059
Trigger mode: 1
Integration Time (sec): 1.000000E-1
Scans to average: 1
Electric dark correction enabled: true
Nonlinearity correction enabled: false
Boxcar width: 0
XAxis mode: Wavelengths
Number of Pixels in Spectrum: 2048
>>>>>Begin Spectral Data<<<<<
223.165	-14.38
223.4	-14.38
223.635	-14.38
223.869	-11.38
224.104	-25.38
224.338	-7.38
224.573	-18.38
224.808	-22.38
225.042	-26.38
225.277	-4.38
225.511	0.62
225.746	10.62
225.98	3.62
226.215	8.62
226.449	15.62
226.683	16.62
226.918	33.62
227.152	40.62
227.387	38.62
227.621	31.62
227.856	31.62
228.09	49.62
228.324	53.62
228.559	42.62
228.793	61.62
229.027	109.62
229.262	120.62
229.496	99.62
229.73	137.62
229.964	152.62
230.199	136.62
230.433	110.62
230.667	89.62
230.901	109.62
231.136	116.62
231.37	113.62
231.604	125.62
231.838	105.62
232.072	125.62
232.306	113.62
232.541	111.62
232.775	113.62
233.009	110.62
233.243	109.62
233.477	113.62
233.711	93.62
233.945	114.62
234.179	108.62
234.413	103.62
234.647	101.62
234.881	111.62
235.115	115.62
235.349	104.62
235.583	118.62
235.817	129.62
236.051	117.62
236.285	118.62
236.519	115.62
236.753	125.62
236.987	153.62
237.221	183.62
237.455	229.62
237.689	222.62
237.922	149.62
238.156	130.62
238.39	129.62
238.624	134.62
238.858	117.62
239.091	123.62
239.325	131.62
239.559	137.62
239.793	139.62
240.027	125.62
240.26	152.62
240.494	147.62
240.728	157.62
240.961	129.62
241.195	148.62
241.429	149.62
241.662	147.62
241.896	129.62
242.13	145.62
242.363	131.62
242.597	149.62
242.83	139.62
243.064	146.62
243.298	138.62
243.531	133.62
243.765	133.62
243.998	157.62
244.232	145.62
244.465	144.62
244.699	144.62
244.932	151.62
245.166	150.62
245.399	147.62
245.633	149.62
245.866	149.62
246.099	130.62
246.333	145.62
246.566	157.62
246.8	142.62
247.033	157.62
247.266	169.62
247.5	166.62
247.733	193.62
247.966	164.62
248.2	177.62
248.433	173.62
248.666	193.62
248.899	200.62
249.133	209.62
249.366	207.62
249.599	192.62
249.832	195.62
250.066	203.62
250.299	195.62
250.532	234.62
250.765	237.62
250.998	273.62
251.231	267.62
251.465	241.62
251.698	228.62
251.931	217.62
252.164	210.62
252.397	218.62
252.63	217.62
252.863	226.62
253.096	230.62
253.329	231.62
253.562	247.62
253.795	238.62
254.028	240.62
254.261	245.62
254.494	230.62
254.727	276.62
254.96	288.62
255.193	303.62
255.426	278.62
255.659	257.62
255.892	276.62
256.124	301.62
256.357	335.62
256.59	315.62
256.823	265.62
257.056	262.62
257.289	266.62
257.521	256.62
257.754	233.62
257.987	230.62
258.22	242.62
258.452	244.62
258.685	226.62
258.918	227.62
259.151	222.62
259.383	233.62
259.616	241.62
259.849	258.62
260.081	225.62
260.314	248.62
260.547	269.62
260.779	246.62
261.012	241.62
261.244	261.62
261.477	233.62
261.71	243.62
261.942	253.62
262.175	243.62
262.407	246.62
262.64	231.62
262.872	219.62
263.105	216.62
263.337	222.62
263.57	218.62
263.802	231.62
264.035	215.62
264.267	204.62
264.499	213.62
264.732	231.62
264.964	214.62
265.197	199.62
265.429	216.62
265.661	210.62
265.894	227.62
266.126	211.62
266.358	217.62
266.591	231.62
266.823	233.62
267.055	226.62
267.287	218.62
267.52	236.62
267.752	228.62
267.984	235.62
268.216	229.62
268.448	230.62
268.681	227.62
268.913	255.62
269.145	261.62
269.377	278.62
269.609	280.62
269.841	275.62
270.073	279.62
270.306	296.62
270.538	342.62
270.77	317.62
271.002	303.62
271.234	311.62
271.466	310.62
271.698	291.62
271.93	346.62
272.162	328.62
272.394	340.62
272.626	323.62
272.858	298.62
273.09	294.62
273.322	276.62
273.553	266.62
273.785	285.62
274.017	279.62
274.249	269.62
274.481	293.62
274.713	264.62
274.945	290.62
275.176	266.62
275.408	291.62
275.64	280.62
275.872	249.62
276.104	270.62
276.335	265.62
276.567	286.62
276.799	310.62
277.031	326.62
277.262	331.62
277.494	334.62
277.726	327.62
277.957	305.62
278.189	304.62
278.421	283.62
278.652	281.62
278.884	279.62
279.115	280.62
279.347	277.62
279.579	281.62
279.81	265.62
280.042	266.62
280.273	289.62
280.505	277.62
280.736	263.62
280.968	281.62
281.199	271.62
281.431	268.62
281.662	271.62
281.894	283.62
282.125	263.62
282.356	288.62
282.588	315.62
282.819	304.62
283.051	302.62
283.282	264.62
283.513	283.62
283.745	293.62
283.976	284.62
284.207	255.62
284.439	277.62
284.67	285.62
284.901	273.62
285.132	260.62
285.364	268.62
285.595	285.62
285.826	269.62
286.057	281.62
286.288	276.62
286.52	292.62
286.751	256.62
286.982	277.62
287.213	262.62
287.444	310.62
287.675	267.62
287.906	282.62
288.138	303.62
288.369	321.62
288.6	312.62
288.831	284.62
289.062	273.62
289.293	261.62
289.524	291.62
289.755	280.62
289.986	294.62
290.217	291.62
290.448	278.62
290.679	282.62
290.91	279.62
291.141	289.62
291.371	283.62
291.602	281.62
291.833	286.62
292.064	265.62
292.295	280.62
292.526	282.62
292.757	280.62
292.987	293.62
293.218	277.62
293.449	279.62
293.68	289.62
293.91	277.62
294.141	273.62
294.372	281.62
294.603	279.62
294.833	287.62
295.064	286.62
295.295	307.62
295.525	284.62
295.756	284.62
295.987	283.62
296.217	313.62
296.448	329.62
296.679	296.62
296.909	291.62
297.14	291.62
297.37	275.62
297.601	264.62
297.831	287.62
298.062	302.62
298.292	303.62
298.523	294.62
298.753	293.62
298.984	281.62
299.214	303.62
299.445	309.62
299.675	296.62
299.905	295.62
300.136	303.62
300.366	309.62
300.597	306.62
300.827	306.62
301.057	318.62
301.288	324.62
301.518	298.62
301.748	298.62
301.979	314.62
302.209	315.62
302.439	325.62
302.669	303.62
302.9	307.62
303.13	302.62
303.36	303.62
303.59	327.62
303.82	333.62
304.051	342.62
304.281	341.62
304.511	309.62
304.741	302.62
304.971	306.62
305.201	323.62
305.431	296.62
305.661	301.62
305.891	294.62
306.121	330.62
306.352	334.62
306.582	321.62
306.812	312.62
307.042	330.62
307.272	321.62
307.502	327.62
307.731	333.62
307.961	337.62
308.191	330.62
308.421	334.62
308.651	319.62
308.881	329.62
309.111	341.62
309.341	334.62
309.571	341.62
309.8	377.62
310.03	382.62
310.26	379.62
310.49	377.62
310.72	374.62
310.949	391.62
311.179	412.62
311.409	379.62
311.639	389.62
311.868	408.62
312.098	377.62
312.328	380.62
312.557	391.62
312.787	393.62
313.017	404.62
313.246	374.62
313.476	384.62
313.706	376.62
313.935	380.62
314.165	428.62
314.394	402.62
314.624	366.62
314.853	390.62
315.083	371.62
315.312	377.62
315.542	366.62
315.771	367.62
316.001	377.62
316.23	371.62
316.46	381.62
316.689	369.62
316.919	382.62
317.148	394.62
317.377	385.62
317.607	394.62
317.836	382.62
318.065	385.62
318.295	383.62
318.524	351.62
318.753	407.62
318.983	381.62
319.212	367.62
319.441	382.62
319.67	386.62
319.9	382.62
320.129	381.62
320.358	389.62
320.587	371.62
320.816	368.62
321.046	409.62
321.275	400.62
321.504	400.62
321.733	411.62
321.962	411.62
322.191	410.62
322.42	449.62
322.649	447.62
322.878	472.62
323.108	494.62
323.337	523.62
323.566	542.62
323.795	569.62
324.024	630.62
324.253	741.62
324.482	1103.62
324.71	1652.62
324.939	2399.62
325.168	2088.62
325.397	1101.62
325.626	730.62
325.855	617.62
326.084	549.62
326.313	575.62
326.542	555.62
326.77	612.62
326.999	711.62
327.228	984.62
327.457	1485.62
327.686	1843.62
327.914	1264.62
328.143	845.62
328.372	783.62
328.6	730.62
328.829	661.62
329.058	643.62
329.287	671.62
329.515	648.62
329.744	612.62
329.972	618.62
330.201	706.62
330.43	794.62
330.658	774.62
330.887	727.62
331.115	682.62
331.344	571.62
331.572	537.62
331.801	557.62
332.03	539.62
332.258	511.62
332.486	495.62
332.715	473.62
332.943	487.62
333.172	498.62
333.4	495.62
333.629	498.62
333.857	536.62
334.085	581.62
334.314	687.62
334.542	783.62
334.771	847.62
334.999	659.62
335.227	543.62
335.455	515.62
335.684	471.62
335.912	464.62
336.14	447.62
336.369	450.62
336.597	456.62
336.825	450.62
337.053	421.62
337.281	445.62
337.51	444.62
337.738	430.62
337.966	414.62
338.194	430.62
338.422	421.62
338.65	442.62
338.878	437.62
339.106	418.62
339.334	421.62
339.562	399.62
339.79	433.62
340.018	423.62
340.246	412.62
340.474	400.62
340.702	410.62
340.93	404.62
341.158	413.62
341.386	406.62
341.614	410.62
341.842	422.62
342.07	409.62
342.298	409.62
342.526	387.62
342.754	410.62
342.981	387.62
343.209	394.62
343.437	407.62
343.665	402.62
343.893	392.62
344.12	416.62
344.348	408.62
344.576	385.62
344.804	430.62
345.031	429.62
345.259	454.62
345.487	432.62
345.714	416.62
345.942	408.62
346.17	390.62
346.397	391.62
346.625	404.62
346.853	415.62
347.08	389.62
347.308	410.62
347.535	399.62
347.763	412.62
347.99	394.62
348.218	400.62
348.445	416.62
348.673	403.62
348.9	427.62
349.128	406.62
349.355	392.62
349.583	375.62
349.81	388.62
350.037	358.62
350.265	385.62
350.492	385.62
350.72	393.62
350.947	387.62
351.174	410.62
351.402	413.62
351.629	412.62
351.856	417.62
352.083	426.62
352.311	420.62
352.538	424.62
352.765	419.62
352.992	411.62
353.22	389.62
353.447	390.62
353.674	402.62
353.901	374.62
354.128	381.62
354.355	381.62
354.583	374.62
354.81	363.62
355.037	371.62
355.264	366.62
355.491	365.62
355.718	356.62
355.945	357.62
356.172	351.62
356.399	350.62
356.626	372.62
356.853	372.62
357.08	331.62
357.307	352.62
357.534	347.62
357.761	362.62
357.988	352.62
358.215	367.62
358.441	375.62
358.668	375.62
358.895	365.62
359.122	368.62
359.349	385.62
359.576	412.62
359.802	419.62
360.029	461.62
360.256	453.62
360.483	430.62
360.709	399.62
360.936	409.62
361.163	393.62
361.39	396.62
361.616	403.62
361.843	410.62
362.07	383.62
362.296	399.62
362.523	391.62
362.749	411.62
362.976	385.62
363.203	375.62
363.429	376.62
363.656	386.62
363.882	354.62
364.109	375.62
364.335	365.62
364.562	371.62
364.788	375.62
365.015	379.62
365.241	366.62
365.468	385.62
365.694	378.62
365.92	396.62
366.147	374.62
366.373	368.62
366.599	371.62
366.826	353.62
367.052	383.62
367.278	367.62
367.505	384.62
367.731	374.62
367.957	391.62
368.184	375.62
368.41	381.62
368.636	374.62
368.862	395.62
369.089	377.62
369.315	365.62
369.541	349.62
369.767	362.62
369.993	371.62
370.219	347.62
370.445	381.62
370.672	361.62
370.898	355.62
371.124	362.62
371.35	361.62
371.576	363.62
371.802	362.62
372.028	376.62
372.254	369.62
372.48	359.62
372.706	344.62
372.932	355.62
373.158	345.62
373.384	374.62
373.61	350.62
373.835	347.62
374.061	365.62
374.287	356.62
374.513	377.62
374.739	344.62
374.965	367.62
375.191	350.62
375.416	379.62
375.642	360.62
375.868	355.62
376.094	350.62
376.319	360.62
376.545	371.62
376.771	359.62
376.997	365.62
377.222	361.62
377.448	342.62
377.674	360.62
377.899	335.62
378.125	367.62
378.35	346.62
378.576	340.62
378.802	352.62
379.027	341.62
379.253	375.62
379.478	355.62
379.704	352.62
379.929	360.62
380.155	357.62
380.38	353.62
380.606	358.62
380.831	349.62
381.057	363.62
381.282	357.62
381.507	368.62
381.733	360.62
381.958	367.62
382.184	345.62
382.409	375.62
382.634	367.62
382.86	362.62
383.085	349.62
383.31	358.62
383.535	367.62
383.761	360.62
383.986	358.62
384.211	377.62
384.436	357.62
384.662	375.62
384.887	385.62
385.112	373.62
385.337	371.62
385.562	361.62
385.787	361.62
386.013	382.62
386.238	377.62
386.463	376.62
386.688	373.62
386.913	368.62
387.138	370.62
387.363	374.62
387.588	379.62
387.813	368.62
388.038	380.62
388.263	383.62
388.488	377.62
388.713	375.62
388.938	395.62
389.163	376.62
389.387	347.62
389.612	377.62
389.837	371.62
390.062	370.62
390.287	383.62
390.512	369.62
390.736	363.62
390.961	374.62
391.186	368.62
391.411	382.62
391.636	369.62
391.86	374.62
392.085	385.62
392.31	369.62
392.534	377.62
392.759	374.62
392.984	361.62
393.208	363.62
393.433	358.62
393.658	344.62
393.882	363.62
394.107	380.62
394.331	373.62
394.556	363.62
394.78	377.62
395.005	381.62
395.229	354.62
395.454	371.62
395.678	379.62
395.903	408.62
396.127	408.62
396.352	410.62
396.576	387.62
396.801	379.62
397.025	395.62
397.249	377.62
397.474	394.62
397.698	385.62
397.922	402.62
398.147	420.62
398.371	424.62
398.595	395.62
398.82	416.62
399.044	404.62
399.268	431.62
399.492	425.62
399.717	454.62
399.941	477.62
400.165	497.62
400.389	498.62
400.613	472.62
400.837	425.62
401.062	455.62
401.286	419.62
401.51	407.62
401.734	421.62
401.958	440.62
402.182	440.62
402.406	452.62
402.63	452.62
402.854	437.62
403.078	459.62
403.302	421.62
403.526	426.62
403.75	453.62
403.974	439.62
404.198	438.62
404.422	451.62
404.645	483.62
404.869	477.62
405.093	517.62
405.317	577.62
405.541	563.62
405.765	535.62
405.988	500.62
406.212	517.62
406.436	529.62
406.66	515.62
406.883	498.62
407.107	484.62
407.331	541.62
407.555	610.62
407.778	591.62
408.002	541.62
408.226	474.62
408.449	488.62
408.673	505.62
408.896	515.62
409.12	545.62
409.344	531.62
409.567	488.62
409.791	457.62
410.014	439.62
410.238	427.62
410.461	453.62
410.685	458.62
410.908	461.62
411.132	505.62
411.355	544.62
411.578	499.62
411.802	465.62
412.025	473.62
412.249	475.62
412.472	538.62
412.695	599.62
412.919	583.62
413.142	529.62
413.365	481.62
413.589	474.62
413.812	456.62
414.035	455.62
414.258	451.62
414.482	435.62
414.705	425.62
414.928	438.62
415.151	433.62
415.374	419.62
415.597	427.62
415.821	424.62
416.044	415.62
416.267	424.62
416.49	419.62
416.713	398.62
416.936	414.62
417.159	435.62
417.382	421.62
417.605	458.62
417.828	466.62
418.051	467.62
418.274	450.62
418.497	436.62
418.72	421.62
418.943	420.62
419.166	430.62
419.389	445.62
419.611	462.62
419.834	450.62
420.057	480.62
420.28	473.62
420.503	497.62
420.726	476.62
420.948	482.62
421.171	536.62
421.394	534.62
421.617	448.62
421.839	451.62
422.062	458.62
422.285	470.62
422.507	504.62
422.73	584.62
422.953	552.62
423.175	511.62
423.398	481.62
423.621	462.62
423.843	489.62
424.066	498.62
424.288	477.62
424.511	496.62
424.733	573.62
424.956	624.62
425.178	599.62
425.401	623.62
425.623	649.62
425.846	545.62
426.068	499.62
426.291	507.62
426.513	485.62
426.735	479.62
426.958	553.62
427.18	628.62
427.402	751.62
427.625	811.62
427.847	742.62
428.069	693.62
428.292	594.62
428.514	514.62
428.736	497.62
428.958	502.62
429.181	466.62
429.403	456.62
429.625	496.62
429.847	527.62
430.069	558.62
430.292	550.62
430.514	474.62
430.736	453.62
430.958	439.62
431.18	423.62
431.402	458.62
431.624	434.62
431.846	440.62
432.068	416.62
432.29	418.62
432.512	407.62
432.734	423.62
432.956	435.62
433.178	443.62
433.4	456.62
433.622	426.62
433.844	437.62
434.066	438.62
434.287	413.62
434.509	407.62
434.731	433.62
434.953	447.62
435.175	454.62
435.397	461.62
435.618	487.62
435.84	543.62
436.062	644.62
436.284	692.62
436.505	580.62
436.727	513.62
436.949	502.62
437.17	453.62
437.392	457.62
437.614	470.62
437.835	524.62
438.057	612.62
438.278	713.62
438.5	701.62
438.721	789.62
438.943	721.62
439.165	592.62
439.386	537.62
439.608	532.62
439.829	522.62
440.05	554.62
440.272	616.62
440.493	547.62
440.715	490.62
440.936	481.62
441.158	478.62
441.379	453.62
441.6	478.62
441.822	494.62
442.043	522.62
442.264	619.62
442.486	669.62
442.707	554.62
442.928	511.62
443.149	518.62
443.371	533.62
443.592	593.62
443.813	645.62
444.034	718.62
444.255	610.62
444.476	542.62
444.698	499.62
444.919	479.62
445.14	590.62
445.361	545.62
445.582	535.62
445.803	619.62
446.024	704.62
446.245	702.62
446.466	657.62
446.687	578.62
446.908	508.62
447.129	483.62
447.35	464.62
447.571	477.62
447.792	467.62
448.013	465.62
448.234	507.62
448.455	543.62
448.675	622.62
448.896	750.62
449.117	638.62
449.338	611.62
449.559	719.62
449.779	788.62
450	639.62
450.221	502.62
450.442	470.62
450.662	479.62
450.883	444.62
451.104	481.62
451.324	455.62
451.545	440.62
451.766	420.62
451.986	417.62
452.207	427.62
452.428	424.62
452.648	421.62
452.869	403.62
453.089	428.62
453.31	438.62
453.53	411.62
453.751	430.62
453.971	421.62
454.192	437.62
454.412	452.62
454.633	421.62
454.853	423.62
455.073	418.62
455.294	438.62
455.514	496.62
455.734	487.62
455.955	427.62
456.175	390.62
456.395	384.62
456.616	389.62
456.836	377.62
457.056	377.62
457.276	383.62
457.497	355.62
457.717	391.62
457.937	385.62
458.157	395.62
458.377	408.62
458.598	399.62
458.818	469.62
459.038	574.62
459.258	588.62
459.478	473.62
459.698	443.62
459.918	425.62
460.138	430.62
460.358	427.62
460.578	413.62
460.798	400.62
461.018	409.62
461.238	419.62
461.458	410.62
461.678	408.62
461.898	426.62
462.118	418.62
462.338	438.62
462.558	415.62
462.777	437.62
462.997	421.62
463.217	425.62
463.437	443.62
463.657	418.62
463.876	440.62
464.096	432.62
464.316	417.62
464.536	441.62
464.755	439.62
464.975	461.62
465.195	507.62
465.414	583.62
465.634	496.62
465.854	466.62
466.073	439.62
466.293	433.62
466.512	432.62
466.732	399.62
466.951	410.62
467.171	413.62
467.391	413.62
467.61	441.62
467.829	423.62
468.049	453.62
468.268	479.62
468.488	456.62
468.707	424.62
468.927	408.62
469.146	416.62
469.365	423.62
469.585	401.62
469.804	425.62
470.023	420.62
470.243	422.62
470.462	439.62
470.681	443.62
470.901	439.62
471.12	434.62
471.339	436.62
471.558	415.62
471.777	458.62
471.997	434.62
472.216	505.62
472.435	631.62
472.654	578.62
472.873	503.62
473.092	465.62
473.311	451.62
473.53	437.62
473.749	463.62
473.968	515.62
474.187	598.62
474.406	643.62
474.625	499.62
474.844	467.62
475.063	456.62
475.282	441.62
475.501	432.62
475.72	449.62
475.939	446.62
476.158	457.62
476.377	455.62
476.596	460.62
476.814	438.62
477.033	450.62
477.252	464.62
477.471	455.62
477.69	466.62
477.908	466.62
478.127	449.62
478.346	451.62
478.564	470.62
478.783	459.62
479.002	493.62
479.22	486.62
479.439	514.62
479.658	536.62
479.876	530.62
480.095	524.62
480.313	557.62
480.532	534.62
480.751	532.62
480.969	574.62
481.188	805.62
481.406	953.62
481.624	724.62
481.843	623.62
482.061	573.62
482.28	549.62
482.498	536.62
482.717	559.62
482.935	540.62
483.153	534.62
483.372	521.62
483.59	557.62
483.808	531.62
484.027	543.62
484.245	530.62
484.463	535.62
484.681	539.62
484.9	529.62
485.118	529.62
485.336	497.62
485.554	530.62
485.772	534.62
485.99	515.62
486.209	551.62
486.427	541.62
486.645	567.62
486.863	575.62
487.081	568.62
487.299	547.62
487.517	586.62
487.735	566.62
487.953	577.62
488.171	549.62
488.389	561.62
488.607	544.62
488.825	557.62
489.043	558.62
489.261	550.62
489.479	552.62
489.696	558.62
489.914	596.62
490.132	588.62
490.35	612.62
490.568	603.62
490.786	599.62
491.003	646.62
491.221	665.62
491.439	637.62
491.657	682.62
491.874	667.62
492.092	666.62
492.31	666.62
492.527	670.62
492.745	662.62
492.963	691.62
493.18	666.62
493.398	679.62
493.615	680.62
493.833	698.62
494.05	694.62
494.268	696.62
494.485	671.62
494.703	683.62
494.92	701.62
495.138	678.62
495.355	679.62
495.573	688.62
495.79	713.62
496.008	706.62
496.225	670.62
496.442	699.62
496.66	691.62
496.877	674.62
497.094	681.62
497.312	666.62
497.529	676.62
497.746	690.62
497.963	699.62
498.181	704.62
498.398	714.62
498.615	719.62
498.832	731.62
499.049	733.62
499.267	728.62
499.484	724.62
499.701	745.62
499.918	739.62
500.135	764.62
500.352	778.62
500.569	797.62
500.786	813.62
501.003	818.62
501.22	783.62
501.437	799.62
501.654	787.62
501.871	776.62
