Data from 1986.PennyLincolnUp.Lamp.En5.5.200Scan.071819.P2_HRD10591_17-11-51-973.txt Node
Date: Thu Jul 18 17:11:51 EDT 2019
User: cochatt
Spectrometer: HR+D1059
Trigger mode: 1
Integration Time (sec): 1.000000E-1
Scans to average: 1
Electric dark correction enabled: true
Nonlinearity correction enabled: false
Boxcar width: 0
XAxis mode: Wavelengths
Number of Pixels in Spectrum: 2048
>>>>>Begin Spectral Data<<<<<
223.165	-16.56
223.4	-16.56
223.635	-16.56
223.869	-23.56
224.104	-12.56
224.338	-8.56
224.573	-16.56
224.808	-16.56
225.042	-8.56
225.277	-0.56
225.511	-3.56
225.746	6.44
225.98	7.44
226.215	11.44
226.449	13.44
226.683	13.44
226.918	23.44
227.152	31.44
227.387	27.44
227.621	46.44
227.856	50.44
228.09	57.44
228.324	43.44
228.559	71.44
228.793	60.44
229.027	98.44
229.262	100.44
229.496	127.44
229.73	132.44
229.964	162.44
230.199	134.44
230.433	109.44
230.667	112.44
230.901	116.44
231.136	120.44
231.37	120.44
231.604	118.44
231.838	114.44
232.072	102.44
232.306	125.44
232.541	111.44
232.775	107.44
233.009	119.44
233.243	118.44
233.477	118.44
233.711	119.44
233.945	121.44
234.179	120.44
234.413	136.44
234.647	121.44
234.881	122.44
235.115	136.44
235.349	115.44
235.583	125.44
235.817	122.44
236.051	118.44
236.285	138.44
236.519	122.44
236.753	139.44
236.987	142.44
237.221	192.44
237.455	275.44
237.689	206.44
237.922	169.44
238.156	136.44
238.39	142.44
238.624	128.44
238.858	118.44
239.091	123.44
239.325	132.44
239.559	131.44
239.793	134.44
240.027	139.44
240.26	149.44
240.494	166.44
240.728	163.44
240.961	166.44
241.195	160.44
241.429	138.44
241.662	150.44
241.896	148.44
242.13	140.44
242.363	130.44
242.597	130.44
242.83	139.44
243.064	149.44
243.298	166.44
243.531	151.44
243.765	140.44
243.998	137.44
244.232	157.44
244.465	161.44
244.699	149.44
244.932	153.44
245.166	154.44
245.399	146.44
245.633	153.44
245.866	149.44
246.099	154.44
246.333	163.44
246.566	137.44
246.8	165.44
247.033	163.44
247.266	171.44
247.5	172.44
247.733	186.44
247.966	185.44
248.2	174.44
248.433	178.44
248.666	189.44
248.899	207.44
249.133	225.44
249.366	232.44
249.599	207.44
249.832	197.44
250.066	213.44
250.299	219.44
250.532	232.44
250.765	255.44
250.998	268.44
251.231	241.44
251.465	239.44
251.698	231.44
251.931	216.44
252.164	219.44
252.397	211.44
252.63	236.44
252.863	238.44
253.096	242.44
253.329	252.44
253.562	254.44
253.795	243.44
254.028	245.44
254.261	253.44
254.494	246.44
254.727	278.44
254.96	298.44
255.193	307.44
255.426	293.44
255.659	290.44
255.892	275.44
256.124	300.44
256.357	327.44
256.59	300.44
256.823	276.44
257.056	242.44
257.289	259.44
257.521	260.44
257.754	245.44
257.987	246.44
258.22	251.44
258.452	246.44
258.685	234.44
258.918	235.44
259.151	238.44
259.383	216.44
259.616	222.44
259.849	248.44
260.081	255.44
260.314	267.44
260.547	277.44
260.779	270.44
261.012	262.44
261.244	267.44
261.477	253.44
261.71	248.44
261.942	264.44
262.175	264.44
262.407	251.44
262.64	248.44
262.872	226.44
263.105	218.44
263.337	232.44
263.57	229.44
263.802	226.44
264.035	224.44
264.267	219.44
264.499	216.44
264.732	226.44
264.964	226.44
265.197	228.44
265.429	215.44
265.661	211.44
265.894	233.44
266.126	227.44
266.358	235.44
266.591	216.44
266.823	245.44
267.055	240.44
267.287	238.44
267.52	236.44
267.752	235.44
267.984	239.44
268.216	241.44
268.448	227.44
268.681	245.44
268.913	237.44
269.145	283.44
269.377	283.44
269.609	268.44
269.841	263.44
270.073	296.44
270.306	318.44
270.538	346.44
270.77	340.44
271.002	306.44
271.234	309.44
271.466	302.44
271.698	328.44
271.93	357.44
272.162	352.44
272.394	331.44
272.626	331.44
272.858	328.44
273.09	308.44
273.322	277.44
273.553	287.44
273.785	285.44
274.017	286.44
274.249	284.44
274.481	285.44
274.713	266.44
274.945	274.44
275.176	297.44
275.408	268.44
275.64	259.44
275.872	280.44
276.104	276.44
276.335	294.44
276.567	283.44
276.799	322.44
277.031	326.44
277.262	325.44
277.494	346.44
277.726	326.44
277.957	292.44
278.189	298.44
278.421	288.44
278.652	283.44
278.884	280.44
279.115	272.44
279.347	271.44
279.579	279.44
279.81	269.44
280.042	264.44
280.273	283.44
280.505	284.44
280.736	275.44
280.968	265.44
281.199	279.44
281.431	251.44
281.662	276.44
281.894	267.44
282.125	280.44
282.356	303.44
282.588	316.44
282.819	339.44
283.051	296.44
283.282	268.44
283.513	270.44
283.745	288.44
283.976	309.44
284.207	278.44
284.439	281.44
284.67	283.44
284.901	282.44
285.132	290.44
285.364	279.44
285.595	290.44
285.826	272.44
286.057	290.44
286.288	268.44
286.52	282.44
286.751	268.44
286.982	286.44
287.213	280.44
287.444	302.44
287.675	306.44
287.906	309.44
288.138	286.44
288.369	317.44
288.6	297.44
288.831	285.44
289.062	308.44
289.293	294.44
289.524	298.44
289.755	279.44
289.986	277.44
290.217	284.44
290.448	290.44
290.679	274.44
290.91	277.44
291.141	313.44
291.371	290.44
291.602	263.44
291.833	298.44
292.064	282.44
292.295	273.44
292.526	291.44
292.757	279.44
292.987	278.44
293.218	280.44
293.449	287.44
293.68	283.44
293.91	284.44
294.141	271.44
294.372	288.44
294.603	287.44
294.833	280.44
295.064	295.44
295.295	276.44
295.525	280.44
295.756	304.44
295.987	300.44
296.217	318.44
296.448	326.44
296.679	319.44
296.909	303.44
297.14	280.44
297.37	291.44
297.601	286.44
297.831	288.44
298.062	279.44
298.292	285.44
298.523	282.44
298.753	303.44
298.984	295.44
299.214	285.44
299.445	305.44
299.675	297.44
299.905	317.44
300.136	326.44
300.366	297.44
300.597	307.44
300.827	310.44
301.057	307.44
301.288	340.44
301.518	316.44
301.748	316.44
301.979	315.44
302.209	321.44
302.439	331.44
302.669	315.44
302.9	325.44
303.13	309.44
303.36	325.44
303.59	316.44
303.82	354.44
304.051	323.44
304.281	319.44
304.511	325.44
304.741	321.44
304.971	322.44
305.201	310.44
305.431	319.44
305.661	317.44
305.891	314.44
306.121	318.44
306.352	332.44
306.582	343.44
306.812	351.44
307.042	319.44
307.272	333.44
307.502	345.44
307.731	345.44
307.961	331.44
308.191	331.44
308.421	344.44
308.651	339.44
308.881	346.44
309.111	339.44
309.341	343.44
309.571	362.44
309.8	356.44
310.03	388.44
310.26	391.44
310.49	362.44
310.72	379.44
310.949	416.44
311.179	412.44
311.409	373.44
311.639	374.44
311.868	382.44
312.098	379.44
312.328	380.44
312.557	410.44
312.787	431.44
313.017	404.44
313.246	395.44
313.476	376.44
313.706	389.44
313.935	397.44
314.165	391.44
314.394	407.44
314.624	408.44
314.853	382.44
315.083	357.44
315.312	378.44
315.542	375.44
315.771	376.44
316.001	366.44
316.23	384.44
316.46	387.44
316.689	374.44
316.919	405.44
317.148	412.44
317.377	391.44
317.607	376.44
317.836	391.44
318.065	387.44
318.295	365.44
318.524	374.44
318.753	368.44
318.983	386.44
319.212	382.44
319.441	386.44
319.67	399.44
319.9	398.44
320.129	394.44
320.358	387.44
320.587	376.44
320.816	383.44
321.046	408.44
321.275	398.44
321.504	404.44
321.733	399.44
321.962	426.44
322.191	423.44
322.42	442.44
322.649	471.44
322.878	481.44
323.108	502.44
323.337	517.44
323.566	536.44
323.795	594.44
324.024	640.44
324.253	786.44
324.482	1107.44
324.71	1701.44
324.939	2455.44
325.168	2134.44
325.397	1109.44
325.626	746.44
325.855	623.44
326.084	573.44
326.313	557.44
326.542	548.44
326.77	620.44
326.999	738.44
327.228	998.44
327.457	1494.44
327.686	1856.44
327.914	1284.44
328.143	880.44
328.372	784.44
328.6	702.44
328.829	664.44
329.058	657.44
329.287	666.44
329.515	653.44
329.744	597.44
329.972	626.44
330.201	734.44
330.43	791.44
330.658	774.44
330.887	729.44
331.115	677.44
331.344	590.44
331.572	539.44
331.801	558.44
332.03	543.44
332.258	526.44
332.486	472.44
332.715	466.44
332.943	503.44
333.172	497.44
333.4	493.44
333.629	525.44
333.857	555.44
334.085	597.44
334.314	657.44
334.542	775.44
334.771	830.44
334.999	688.44
335.227	574.44
335.455	510.44
335.684	477.44
335.912	455.44
336.14	478.44
336.369	455.44
336.597	468.44
336.825	453.44
337.053	444.44
337.281	434.44
337.51	420.44
337.738	437.44
337.966	423.44
338.194	428.44
338.422	419.44
338.65	448.44
338.878	434.44
339.106	418.44
339.334	425.44
339.562	421.44
339.79	418.44
340.018	425.44
340.246	420.44
340.474	443.44
340.702	435.44
340.93	419.44
341.158	410.44
341.386	426.44
341.614	427.44
341.842	421.44
342.07	416.44
342.298	404.44
342.526	405.44
342.754	396.44
342.981	396.44
343.209	398.44
343.437	405.44
343.665	406.44
343.893	419.44
344.12	390.44
344.348	397.44
344.576	420.44
344.804	423.44
345.031	428.44
345.259	452.44
345.487	412.44
345.714	424.44
345.942	420.44
346.17	411.44
346.397	418.44
346.625	427.44
346.853	404.44
347.08	414.44
347.308	410.44
347.535	410.44
347.763	427.44
347.99	404.44
348.218	413.44
348.445	428.44
348.673	432.44
348.9	402.44
349.128	420.44
349.355	395.44
349.583	392.44
349.81	389.44
350.037	373.44
350.265	385.44
350.492	386.44
350.72	396.44
350.947	401.44
351.174	392.44
351.402	425.44
351.629	430.44
351.856	418.44
352.083	414.44
352.311	428.44
352.538	413.44
352.765	415.44
352.992	431.44
353.22	414.44
353.447	418.44
353.674	407.44
353.901	393.44
354.128	373.44
354.355	373.44
354.583	378.44
354.81	380.44
355.037	381.44
355.264	388.44
355.491	366.44
355.718	378.44
355.945	378.44
356.172	350.44
356.399	379.44
356.626	376.44
356.853	359.44
357.08	367.44
357.307	357.44
357.534	331.44
357.761	370.44
357.988	377.44
358.215	343.44
358.441	360.44
358.668	374.44
358.895	386.44
359.122	379.44
359.349	386.44
359.576	426.44
359.802	421.44
360.029	468.44
360.256	468.44
360.483	450.44
360.709	426.44
360.936	422.44
361.163	398.44
361.39	411.44
361.616	408.44
361.843	406.44
362.07	386.44
362.296	397.44
362.523	387.44
362.749	401.44
362.976	370.44
363.203	382.44
363.429	358.44
363.656	374.44
363.882	396.44
364.109	392.44
364.335	376.44
364.562	379.44
364.788	404.44
365.015	396.44
365.241	370.44
365.468	389.44
365.694	396.44
365.92	394.44
366.147	374.44
366.373	386.44
366.599	368.44
366.826	365.44
367.052	358.44
367.278	386.44
367.505	368.44
367.731	387.44
367.957	354.44
368.184	383.44
368.41	370.44
368.636	402.44
368.862	398.44
369.089	380.44
369.315	380.44
369.541	375.44
369.767	381.44
369.993	355.44
370.219	382.44
370.445	386.44
370.672	380.44
370.898	350.44
371.124	376.44
371.35	360.44
371.576	352.44
371.802	352.44
372.028	364.44
372.254	354.44
372.48	369.44
372.706	370.44
372.932	359.44
373.158	382.44
373.384	381.44
373.61	371.44
373.835	370.44
374.061	351.44
374.287	374.44
374.513	378.44
374.739	382.44
374.965	360.44
375.191	371.44
375.416	372.44
375.642	354.44
375.868	375.44
376.094	360.44
376.319	354.44
376.545	375.44
376.771	356.44
376.997	346.44
377.222	355.44
377.448	373.44
377.674	363.44
377.899	362.44
378.125	368.44
378.35	350.44
378.576	368.44
378.802	339.44
379.027	362.44
379.253	363.44
379.478	370.44
379.704	360.44
379.929	386.44
380.155	356.44
380.38	365.44
380.606	362.44
380.831	379.44
381.057	390.44
381.282	359.44
381.507	333.44
381.733	335.44
381.958	362.44
382.184	359.44
382.409	363.44
382.634	348.44
382.86	357.44
383.085	364.44
383.31	365.44
383.535	359.44
383.761	351.44
383.986	359.44
384.211	374.44
384.436	354.44
384.662	373.44
384.887	364.44
385.112	377.44
385.337	374.44
385.562	372.44
385.787	384.44
386.013	367.44
386.238	392.44
386.463	388.44
386.688	394.44
386.913	377.44
387.138	367.44
387.363	373.44
387.588	398.44
387.813	376.44
388.038	382.44
388.263	380.44
388.488	386.44
388.713	390.44
388.938	380.44
389.163	419.44
389.387	386.44
389.612	399.44
389.837	386.44
390.062	382.44
390.287	377.44
390.512	353.44
390.736	383.44
390.961	360.44
391.186	384.44
391.411	374.44
391.636	381.44
391.86	395.44
392.085	399.44
392.31	380.44
392.534	378.44
392.759	393.44
392.984	367.44
393.208	367.44
393.433	383.44
393.658	387.44
393.882	381.44
394.107	376.44
394.331	376.44
394.556	368.44
394.78	382.44
395.005	380.44
395.229	383.44
395.454	395.44
395.678	392.44
395.903	399.44
396.127	424.44
396.352	429.44
396.576	418.44
396.801	404.44
397.025	416.44
397.249	403.44
397.474	400.44
397.698	403.44
397.922	410.44
398.147	426.44
398.371	453.44
398.595	407.44
398.82	403.44
399.044	439.44
399.268	437.44
399.492	422.44
399.717	458.44
399.941	485.44
400.165	513.44
400.389	538.44
400.613	497.44
400.837	451.44
401.062	445.44
401.286	415.44
401.51	447.44
401.734	424.44
401.958	453.44
402.182	420.44
402.406	445.44
402.63	462.44
402.854	414.44
403.078	455.44
403.302	442.44
403.526	460.44
403.75	459.44
403.974	453.44
404.198	425.44
404.422	456.44
404.645	459.44
404.869	495.44
405.093	524.44
405.317	579.44
405.541	600.44
405.765	540.44
405.988	495.44
406.212	528.44
406.436	529.44
406.66	506.44
406.883	481.44
407.107	500.44
407.331	542.44
407.555	614.44
407.778	593.44
408.002	569.44
408.226	505.44
408.449	506.44
408.673	510.44
408.896	524.44
409.12	566.44
409.344	550.44
409.567	486.44
409.791	462.44
410.014	440.44
410.238	449.44
410.461	446.44
410.685	465.44
410.908	470.44
411.132	516.44
411.355	547.44
411.578	518.44
411.802	477.44
412.025	463.44
412.249	494.44
412.472	532.44
412.695	577.44
412.919	579.44
413.142	531.44
413.365	475.44
413.589	482.44
413.812	468.44
414.035	447.44
414.258	442.44
414.482	431.44
414.705	439.44
414.928	435.44
415.151	422.44
415.374	421.44
415.597	419.44
415.821	415.44
416.044	435.44
416.267	438.44
416.49	431.44
416.713	438.44
416.936	429.44
417.159	414.44
417.382	442.44
417.605	455.44
417.828	452.44
418.051	447.44
418.274	460.44
418.497	441.44
418.72	433.44
418.943	422.44
419.166	458.44
419.389	468.44
419.611	469.44
419.834	494.44
420.057	495.44
420.28	494.44
420.503	500.44
420.726	484.44
420.948	490.44
421.171	529.44
421.394	555.44
421.617	502.44
421.839	444.44
422.062	471.44
422.285	469.44
422.507	519.44
422.73	583.44
422.953	574.44
423.175	514.44
423.398	463.44
423.621	480.44
423.843	512.44
424.066	518.44
424.288	482.44
424.511	516.44
424.733	574.44
424.956	638.44
425.178	609.44
425.401	623.44
425.623	622.44
425.846	562.44
426.068	514.44
426.291	498.44
426.513	491.44
426.735	526.44
426.958	546.44
427.18	627.44
427.402	750.44
427.625	822.44
427.847	786.44
428.069	668.44
428.292	593.44
428.514	542.44
428.736	516.44
428.958	504.44
429.181	476.44
429.403	467.44
429.625	476.44
429.847	487.44
430.069	605.44
430.292	584.44
430.514	468.44
430.736	481.44
430.958	471.44
431.18	465.44
431.402	443.44
431.624	419.44
431.846	431.44
432.068	418.44
432.29	414.44
432.512	449.44
432.734	445.44
432.956	439.44
433.178	462.44
433.4	447.44
433.622	453.44
433.844	434.44
434.066	441.44
434.287	424.44
434.509	416.44
434.731	428.44
434.953	454.44
435.175	467.44
435.397	482.44
435.618	497.44
435.84	529.44
436.062	624.44
436.284	704.44
436.505	606.44
436.727	520.44
436.949	502.44
437.17	457.44
437.392	490.44
437.614	483.44
437.835	519.44
438.057	599.44
438.278	722.44
438.5	731.44
438.721	769.44
438.943	726.44
439.165	594.44
439.386	526.44
439.608	519.44
439.829	541.44
440.05	564.44
440.272	606.44
440.493	547.44
440.715	504.44
440.936	495.44
441.158	489.44
441.379	481.44
441.6	477.44
441.822	517.44
442.043	532.44
442.264	638.44
442.486	682.44
442.707	566.44
442.928	530.44
443.149	527.44
443.371	556.44
443.592	589.44
443.813	665.44
444.034	722.44
444.255	622.44
444.476	523.44
444.698	499.44
444.919	477.44
445.14	564.44
445.361	544.44
445.582	555.44
445.803	603.44
446.024	740.44
446.245	721.44
446.466	666.44
446.687	553.44
446.908	522.44
447.129	500.44
447.35	472.44
447.571	486.44
447.792	469.44
448.013	464.44
448.234	504.44
448.455	546.44
448.675	645.44
448.896	756.44
449.117	656.44
449.338	612.44
449.559	701.44
449.779	805.44
450	635.44
450.221	556.44
450.442	506.44
450.662	450.44
450.883	466.44
451.104	510.44
451.324	489.44
451.545	464.44
451.766	443.44
451.986	421.44
452.207	394.44
452.428	410.44
452.648	414.44
452.869	443.44
453.089	429.44
453.31	430.44
453.53	419.44
453.751	439.44
453.971	441.44
454.192	460.44
454.412	434.44
454.633	417.44
454.853	422.44
455.073	410.44
455.294	471.44
455.514	504.44
455.734	513.44
455.955	424.44
456.175	400.44
456.395	406.44
456.616	399.44
456.836	383.44
457.056	375.44
457.276	408.44
457.497	390.44
457.717	394.44
457.937	384.44
458.157	394.44
458.377	426.44
458.598	433.44
458.818	505.44
459.038	580.44
459.258	609.44
459.478	502.44
459.698	457.44
459.918	425.44
460.138	422.44
460.358	444.44
460.578	464.44
460.798	415.44
461.018	448.44
461.238	431.44
461.458	420.44
461.678	408.44
461.898	420.44
462.118	430.44
462.338	407.44
462.558	452.44
462.777	451.44
462.997	449.44
463.217	444.44
463.437	443.44
463.657	436.44
463.876	444.44
464.096	455.44
464.316	437.44
464.536	460.44
464.755	470.44
464.975	480.44
465.195	512.44
465.414	596.44
465.634	535.44
465.854	487.44
466.073	474.44
466.293	444.44
466.512	431.44
466.732	439.44
466.951	425.44
467.171	418.44
467.391	422.44
467.61	446.44
467.829	451.44
468.049	463.44
468.268	484.44
468.488	457.44
468.707	431.44
468.927	435.44
469.146	438.44
469.365	416.44
469.585	419.44
469.804	426.44
470.023	426.44
470.243	445.44
470.462	438.44
470.681	452.44
470.901	462.44
471.12	440.44
471.339	442.44
471.558	448.44
471.777	453.44
471.997	458.44
472.216	500.44
472.435	616.44
472.654	585.44
472.873	493.44
473.092	485.44
473.311	464.44
473.53	469.44
473.749	462.44
473.968	504.44
474.187	601.44
474.406	627.44
474.625	522.44
474.844	466.44
475.063	441.44
475.282	451.44
475.501	424.44
475.72	439.44
475.939	443.44
476.158	458.44
476.377	445.44
476.596	453.44
476.814	463.44
477.033	467.44
477.252	450.44
477.471	454.44
477.69	452.44
477.908	469.44
478.127	472.44
478.346	463.44
478.564	461.44
478.783	468.44
479.002	466.44
479.22	501.44
479.439	506.44
479.658	534.44
479.876	520.44
480.095	541.44
480.313	574.44
480.532	569.44
480.751	565.44
480.969	590.44
481.188	794.44
481.406	985.44
481.624	745.44
481.843	640.44
482.061	592.44
482.28	554.44
482.498	554.44
482.717	543.44
482.935	532.44
483.153	557.44
483.372	539.44
483.59	526.44
483.808	526.44
484.027	535.44
484.245	522.44
484.463	528.44
484.681	503.44
484.9	538.44
485.118	541.44
485.336	523.44
485.554	544.44
485.772	573.44
485.99	530.44
486.209	524.44
486.427	534.44
486.645	546.44
486.863	584.44
487.081	582.44
487.299	571.44
487.517	584.44
487.735	571.44
487.953	586.44
488.171	556.44
488.389	571.44
488.607	559.44
488.825	586.44
489.043	573.44
489.261	571.44
489.479	574.44
489.696	596.44
489.914	613.44
490.132	623.44
490.35	605.44
490.568	634.44
490.786	590.44
491.003	624.44
491.221	646.44
491.439	656.44
491.657	660.44
491.874	690.44
492.092	644.44
492.31	685.44
492.527	715.44
492.745	700.44
492.963	682.44
493.18	707.44
493.398	717.44
493.615	697.44
493.833	707.44
494.05	709.44
494.268	711.44
494.485	685.44
494.703	715.44
494.92	703.44
495.138	703.44
495.355	685.44
495.573	720.44
495.79	694.44
496.008	688.44
496.225	690.44
496.442	668.44
496.66	666.44
496.877	690.44
497.094	708.44
497.312	719.44
497.529	662.44
497.746	691.44
497.963	702.44
498.181	713.44
498.398	732.44
498.615	693.44
498.832	740.44
499.049	722.44
499.267	723.44
499.484	726.44
499.701	745.44
499.918	752.44
500.135	773.44
500.352	779.44
500.569	801.44
500.786	822.44
501.003	813.44
501.22	813.44
501.437	805.44
501.654	794.44
501.871	795.44
