Data from 1986.PennyLincolnUp.Lamp.En5.5.200Scan.071819.P2_HRD10591_17-09-59-974.txt Node
Date: Thu Jul 18 17:09:59 EDT 2019
User: cochatt
Spectrometer: HR+D1059
Trigger mode: 1
Integration Time (sec): 1.000000E-1
Scans to average: 1
Electric dark correction enabled: true
Nonlinearity correction enabled: false
Boxcar width: 0
XAxis mode: Wavelengths
Number of Pixels in Spectrum: 2048
>>>>>Begin Spectral Data<<<<<
223.165	-20.38
223.4	-20.38
223.635	-20.38
223.869	-24.38
224.104	-16.38
224.338	-12.38
224.573	-2.38
224.808	-19.38
225.042	-7.38
225.277	-2.38
225.511	-9.38
225.746	7.62
225.98	5.62
226.215	4.62
226.449	14.62
226.683	20.62
226.918	33.62
227.152	27.62
227.387	30.62
227.621	41.62
227.856	35.62
228.09	49.62
228.324	42.62
228.559	61.62
228.793	66.62
229.027	104.62
229.262	106.62
229.496	108.62
229.73	132.62
229.964	148.62
230.199	138.62
230.433	123.62
230.667	133.62
230.901	109.62
231.136	95.62
231.37	115.62
231.604	102.62
231.838	114.62
232.072	120.62
232.306	103.62
232.541	102.62
232.775	119.62
233.009	117.62
233.243	109.62
233.477	119.62
233.711	101.62
233.945	103.62
234.179	112.62
234.413	108.62
234.647	111.62
234.881	107.62
235.115	112.62
235.349	115.62
235.583	102.62
235.817	115.62
236.051	125.62
236.285	142.62
236.519	115.62
236.753	114.62
236.987	130.62
237.221	167.62
237.455	248.62
237.689	188.62
237.922	142.62
238.156	145.62
238.39	133.62
238.624	110.62
238.858	132.62
239.091	108.62
239.325	114.62
239.559	114.62
239.793	118.62
240.027	114.62
240.26	127.62
240.494	154.62
240.728	148.62
240.961	142.62
241.195	142.62
241.429	137.62
241.662	148.62
241.896	121.62
242.13	144.62
242.363	121.62
242.597	134.62
242.83	140.62
243.064	146.62
243.298	127.62
243.531	130.62
243.765	137.62
243.998	140.62
244.232	138.62
244.465	144.62
244.699	137.62
244.932	150.62
245.166	130.62
245.399	136.62
245.633	141.62
245.866	135.62
246.099	145.62
246.333	146.62
246.566	137.62
246.8	138.62
247.033	156.62
247.266	152.62
247.5	144.62
247.733	186.62
247.966	179.62
248.2	181.62
248.433	175.62
248.666	167.62
248.899	189.62
249.133	188.62
249.366	202.62
249.599	208.62
249.832	185.62
250.066	198.62
250.299	189.62
250.532	189.62
250.765	198.62
250.998	217.62
251.231	217.62
251.465	212.62
251.698	225.62
251.931	207.62
252.164	195.62
252.397	194.62
252.63	204.62
252.863	217.62
253.096	216.62
253.329	230.62
253.562	237.62
253.795	212.62
254.028	211.62
254.261	219.62
254.494	215.62
254.727	262.62
254.96	272.62
255.193	270.62
255.426	237.62
255.659	214.62
255.892	231.62
256.124	222.62
256.357	213.62
256.59	192.62
256.823	195.62
257.056	209.62
257.289	213.62
257.521	201.62
257.754	204.62
257.987	216.62
258.22	242.62
258.452	208.62
258.685	210.62
258.918	216.62
259.151	201.62
259.383	210.62
259.616	225.62
259.849	230.62
260.081	217.62
260.314	259.62
260.547	259.62
260.779	240.62
261.012	250.62
261.244	206.62
261.477	221.62
261.71	207.62
261.942	206.62
262.175	231.62
262.407	225.62
262.64	216.62
262.872	210.62
263.105	228.62
263.337	206.62
263.57	209.62
263.802	211.62
264.035	205.62
264.267	210.62
264.499	207.62
264.732	194.62
264.964	206.62
265.197	206.62
265.429	198.62
265.661	214.62
265.894	218.62
266.126	232.62
266.358	205.62
266.591	202.62
266.823	202.62
267.055	219.62
267.287	204.62
267.52	208.62
267.752	221.62
267.984	223.62
268.216	223.62
268.448	223.62
268.681	234.62
268.913	238.62
269.145	254.62
269.377	278.62
269.609	264.62
269.841	272.62
270.073	264.62
270.306	283.62
270.538	292.62
270.77	316.62
271.002	303.62
271.234	282.62
271.466	308.62
271.698	311.62
271.93	302.62
272.162	300.62
272.394	323.62
272.626	299.62
272.858	284.62
273.09	283.62
273.322	262.62
273.553	272.62
273.785	263.62
274.017	253.62
274.249	245.62
274.481	244.62
274.713	246.62
274.945	255.62
275.176	252.62
275.408	245.62
275.64	252.62
275.872	234.62
276.104	244.62
276.335	250.62
276.567	256.62
276.799	261.62
277.031	298.62
277.262	285.62
277.494	294.62
277.726	278.62
277.957	292.62
278.189	278.62
278.421	258.62
278.652	264.62
278.884	251.62
279.115	251.62
279.347	243.62
279.579	256.62
279.81	248.62
280.042	264.62
280.273	236.62
280.505	234.62
280.736	238.62
280.968	243.62
281.199	255.62
281.431	236.62
281.662	246.62
281.894	236.62
282.125	237.62
282.356	278.62
282.588	293.62
282.819	310.62
283.051	276.62
283.282	234.62
283.513	248.62
283.745	245.62
283.976	255.62
284.207	276.62
284.439	266.62
284.67	239.62
284.901	264.62
285.132	253.62
285.364	250.62
285.595	243.62
285.826	253.62
286.057	261.62
286.288	266.62
286.52	255.62
286.751	268.62
286.982	252.62
287.213	255.62
287.444	263.62
287.675	260.62
287.906	276.62
288.138	267.62
288.369	271.62
288.6	269.62
288.831	273.62
289.062	266.62
289.293	278.62
289.524	266.62
289.755	255.62
289.986	252.62
290.217	228.62
290.448	265.62
290.679	270.62
290.91	263.62
291.141	254.62
291.371	250.62
291.602	264.62
291.833	258.62
292.064	247.62
292.295	248.62
292.526	261.62
292.757	254.62
292.987	252.62
293.218	261.62
293.449	258.62
293.68	260.62
293.91	262.62
294.141	266.62
294.372	268.62
294.603	255.62
294.833	264.62
295.064	252.62
295.295	260.62
295.525	248.62
295.756	287.62
295.987	277.62
296.217	308.62
296.448	316.62
296.679	274.62
296.909	276.62
297.14	275.62
297.37	272.62
297.601	260.62
297.831	262.62
298.062	278.62
298.292	272.62
298.523	276.62
298.753	274.62
298.984	286.62
299.214	270.62
299.445	278.62
299.675	279.62
299.905	278.62
300.136	271.62
300.366	264.62
300.597	284.62
300.827	282.62
301.057	283.62
301.288	286.62
301.518	300.62
301.748	290.62
301.979	279.62
302.209	285.62
302.439	280.62
302.669	287.62
302.9	303.62
303.13	296.62
303.36	294.62
303.59	280.62
303.82	322.62
304.051	307.62
304.281	298.62
304.511	291.62
304.741	276.62
304.971	295.62
305.201	280.62
305.431	297.62
305.661	259.62
305.891	295.62
306.121	292.62
306.352	301.62
306.582	301.62
306.812	294.62
307.042	281.62
307.272	295.62
307.502	298.62
307.731	297.62
307.961	301.62
308.191	294.62
308.421	284.62
308.651	303.62
308.881	300.62
309.111	314.62
309.341	327.62
309.571	335.62
309.8	324.62
310.03	350.62
310.26	336.62
310.49	337.62
310.72	343.62
310.949	382.62
311.179	359.62
311.409	356.62
311.639	336.62
311.868	346.62
312.098	333.62
312.328	349.62
312.557	375.62
312.787	380.62
313.017	404.62
313.246	354.62
313.476	357.62
313.706	340.62
313.935	364.62
314.165	360.62
314.394	363.62
314.624	376.62
314.853	360.62
315.083	349.62
315.312	363.62
315.542	336.62
315.771	326.62
316.001	325.62
316.23	339.62
316.46	345.62
316.689	343.62
316.919	336.62
317.148	372.62
317.377	358.62
317.607	353.62
317.836	373.62
318.065	335.62
318.295	343.62
318.524	335.62
318.753	338.62
318.983	335.62
319.212	346.62
319.441	375.62
319.67	372.62
319.9	348.62
320.129	348.62
320.358	336.62
320.587	343.62
320.816	359.62
321.046	387.62
321.275	366.62
321.504	380.62
321.733	370.62
321.962	384.62
322.191	371.62
322.42	403.62
322.649	426.62
322.878	410.62
323.108	415.62
323.337	452.62
323.566	476.62
323.795	507.62
324.024	546.62
324.253	683.62
324.482	982.62
324.71	1492.62
324.939	2130.62
325.168	1872.62
325.397	959.62
325.626	661.62
325.855	563.62
326.084	497.62
326.313	475.62
326.542	484.62
326.77	517.62
326.999	634.62
327.228	856.62
327.457	1314.62
327.686	1640.62
327.914	1111.62
328.143	710.62
328.372	610.62
328.6	565.62
328.829	548.62
329.058	556.62
329.287	584.62
329.515	503.62
329.744	477.62
329.972	453.62
330.201	467.62
330.43	482.62
330.658	531.62
330.887	559.62
331.115	576.62
331.344	495.62
331.572	452.62
331.801	456.62
332.03	440.62
332.258	448.62
332.486	397.62
332.715	406.62
332.943	406.62
333.172	399.62
333.4	392.62
333.629	388.62
333.857	410.62
334.085	409.62
334.314	402.62
334.542	384.62
334.771	388.62
334.999	418.62
335.227	389.62
335.455	392.62
335.684	409.62
335.912	404.62
336.14	397.62
336.369	389.62
336.597	382.62
336.825	409.62
337.053	387.62
337.281	364.62
337.51	373.62
337.738	398.62
337.966	407.62
338.194	399.62
338.422	391.62
338.65	379.62
338.878	401.62
339.106	387.62
339.334	390.62
339.562	378.62
339.79	379.62
340.018	375.62
340.246	390.62
340.474	398.62
340.702	380.62
340.93	389.62
341.158	380.62
341.386	384.62
341.614	396.62
341.842	398.62
342.07	375.62
342.298	386.62
342.526	354.62
342.754	372.62
342.981	352.62
343.209	374.62
343.437	382.62
343.665	379.62
343.893	358.62
344.12	379.62
344.348	380.62
344.576	383.62
344.804	393.62
345.031	418.62
345.259	402.62
345.487	412.62
345.714	385.62
345.942	367.62
346.17	374.62
346.397	375.62
346.625	376.62
346.853	374.62
347.08	357.62
347.308	365.62
347.535	379.62
347.763	382.62
347.99	378.62
348.218	370.62
348.445	405.62
348.673	392.62
348.9	372.62
349.128	360.62
349.355	350.62
349.583	352.62
349.81	352.62
350.037	361.62
350.265	360.62
350.492	367.62
350.72	359.62
350.947	359.62
351.174	376.62
351.402	390.62
351.629	375.62
351.856	382.62
352.083	392.62
352.311	380.62
352.538	392.62
352.765	388.62
352.992	374.62
353.22	371.62
353.447	381.62
353.674	356.62
353.901	347.62
354.128	361.62
354.355	352.62
354.583	344.62
354.81	344.62
355.037	335.62
355.264	330.62
355.491	352.62
355.718	338.62
355.945	345.62
356.172	340.62
356.399	343.62
356.626	341.62
356.853	335.62
357.08	345.62
357.307	336.62
357.534	333.62
357.761	340.62
357.988	333.62
358.215	336.62
358.441	339.62
358.668	342.62
358.895	327.62
359.122	336.62
359.349	371.62
359.576	362.62
359.802	402.62
360.029	421.62
360.256	437.62
360.483	414.62
360.709	374.62
360.936	366.62
361.163	373.62
361.39	371.62
361.616	379.62
361.843	363.62
362.07	382.62
362.296	396.62
362.523	363.62
362.749	357.62
362.976	370.62
363.203	361.62
363.429	359.62
363.656	352.62
363.882	356.62
364.109	355.62
364.335	346.62
364.562	361.62
364.788	364.62
365.015	360.62
365.241	345.62
365.468	340.62
365.694	354.62
365.92	344.62
366.147	351.62
366.373	347.62
366.599	344.62
366.826	330.62
367.052	334.62
367.278	327.62
367.505	342.62
367.731	346.62
367.957	356.62
368.184	335.62
368.41	335.62
368.636	345.62
368.862	359.62
369.089	353.62
369.315	351.62
369.541	329.62
369.767	354.62
369.993	357.62
370.219	353.62
370.445	362.62
370.672	340.62
370.898	334.62
371.124	342.62
371.35	355.62
371.576	348.62
371.802	333.62
372.028	338.62
372.254	336.62
372.48	340.62
372.706	341.62
372.932	323.62
373.158	360.62
373.384	308.62
373.61	348.62
373.835	346.62
374.061	338.62
374.287	345.62
374.513	347.62
374.739	350.62
374.965	333.62
375.191	333.62
375.416	359.62
375.642	345.62
375.868	346.62
376.094	325.62
376.319	327.62
376.545	334.62
376.771	350.62
376.997	347.62
377.222	327.62
377.448	340.62
377.674	330.62
377.899	330.62
378.125	347.62
378.35	320.62
378.576	341.62
378.802	351.62
379.027	334.62
379.253	331.62
379.478	346.62
379.704	331.62
379.929	318.62
380.155	370.62
380.38	327.62
380.606	345.62
380.831	335.62
381.057	352.62
381.282	356.62
381.507	346.62
381.733	343.62
381.958	363.62
382.184	355.62
382.409	344.62
382.634	359.62
382.86	333.62
383.085	345.62
383.31	359.62
383.535	349.62
383.761	347.62
383.986	349.62
384.211	383.62
384.436	340.62
384.662	335.62
384.887	369.62
385.112	363.62
385.337	350.62
385.562	342.62
385.787	355.62
386.013	364.62
386.238	353.62
386.463	358.62
386.688	358.62
386.913	357.62
387.138	350.62
387.363	366.62
387.588	357.62
387.813	361.62
388.038	367.62
388.263	364.62
388.488	370.62
388.713	371.62
388.938	360.62
389.163	374.62
389.387	352.62
389.612	358.62
389.837	358.62
390.062	350.62
390.287	355.62
390.512	354.62
390.736	353.62
390.961	385.62
391.186	349.62
391.411	364.62
391.636	356.62
391.86	351.62
392.085	361.62
392.31	381.62
392.534	351.62
392.759	360.62
392.984	362.62
393.208	341.62
393.433	378.62
393.658	366.62
393.882	358.62
394.107	372.62
394.331	375.62
394.556	356.62
394.78	346.62
395.005	354.62
395.229	358.62
395.454	359.62
395.678	367.62
395.903	390.62
396.127	390.62
396.352	400.62
396.576	384.62
396.801	370.62
397.025	374.62
397.249	362.62
397.474	375.62
397.698	367.62
397.922	406.62
398.147	417.62
398.371	407.62
398.595	412.62
398.82	388.62
399.044	405.62
399.268	408.62
399.492	441.62
399.717	458.62
399.941	456.62
400.165	495.62
400.389	496.62
400.613	447.62
400.837	427.62
401.062	423.62
401.286	424.62
401.51	410.62
401.734	407.62
401.958	400.62
402.182	404.62
402.406	419.62
402.63	410.62
402.854	384.62
403.078	389.62
403.302	404.62
403.526	434.62
403.75	418.62
403.974	421.62
404.198	409.62
404.422	401.62
404.645	428.62
404.869	386.62
405.093	435.62
405.317	450.62
405.541	472.62
405.765	450.62
405.988	434.62
406.212	446.62
406.436	468.62
406.66	496.62
406.883	476.62
407.107	488.62
407.331	515.62
407.555	547.62
407.778	574.62
408.002	516.62
408.226	471.62
408.449	465.62
408.673	475.62
408.896	482.62
409.12	528.62
409.344	514.62
409.567	451.62
409.791	435.62
410.014	424.62
410.238	409.62
410.461	434.62
410.685	442.62
410.908	445.62
411.132	458.62
411.355	497.62
411.578	464.62
411.802	463.62
412.025	445.62
412.249	437.62
412.472	412.62
412.695	412.62
412.919	415.62
413.142	406.62
413.365	409.62
413.589	396.62
413.812	387.62
414.035	397.62
414.258	397.62
414.482	382.62
414.705	405.62
414.928	390.62
415.151	380.62
415.374	403.62
415.597	410.62
415.821	384.62
416.044	386.62
416.267	389.62
416.49	414.62
416.713	396.62
416.936	392.62
417.159	383.62
417.382	391.62
417.605	400.62
417.828	411.62
418.051	423.62
418.274	402.62
418.497	412.62
418.72	389.62
418.943	397.62
419.166	427.62
419.389	407.62
419.611	417.62
419.834	425.62
420.057	415.62
420.28	411.62
420.503	419.62
420.726	408.62
420.948	416.62
421.171	458.62
421.394	501.62
421.617	457.62
421.839	422.62
422.062	439.62
422.285	442.62
422.507	522.62
422.73	569.62
422.953	523.62
423.175	482.62
423.398	455.62
423.621	436.62
423.843	450.62
424.066	455.62
424.288	462.62
424.511	479.62
424.733	541.62
424.956	602.62
425.178	562.62
425.401	560.62
425.623	592.62
425.846	531.62
426.068	478.62
426.291	464.62
426.513	457.62
426.735	488.62
426.958	533.62
427.18	589.62
427.402	704.62
427.625	783.62
427.847	681.62
428.069	565.62
428.292	520.62
428.514	490.62
428.736	452.62
428.958	451.62
429.181	428.62
429.403	437.62
429.625	436.62
429.847	453.62
430.069	533.62
430.292	527.62
430.514	454.62
430.736	438.62
430.958	449.62
431.18	429.62
431.402	410.62
431.624	393.62
431.846	386.62
432.068	397.62
432.29	406.62
432.512	403.62
432.734	415.62
432.956	419.62
433.178	423.62
433.4	432.62
433.622	423.62
433.844	406.62
434.066	405.62
434.287	391.62
434.509	419.62
434.731	408.62
434.953	422.62
435.175	428.62
435.397	483.62
435.618	493.62
435.84	508.62
436.062	611.62
436.284	652.62
436.505	557.62
436.727	492.62
436.949	459.62
437.17	456.62
437.392	432.62
437.614	451.62
437.835	499.62
438.057	564.62
438.278	680.62
438.5	692.62
438.721	727.62
438.943	696.62
439.165	543.62
439.386	506.62
439.608	504.62
439.829	490.62
440.05	522.62
440.272	562.62
440.493	519.62
440.715	490.62
440.936	455.62
441.158	452.62
441.379	447.62
441.6	444.62
441.822	468.62
442.043	504.62
442.264	605.62
442.486	612.62
442.707	522.62
442.928	486.62
443.149	482.62
443.371	527.62
443.592	550.62
443.813	632.62
444.034	701.62
444.255	566.62
444.476	475.62
444.698	467.62
444.919	469.62
445.14	597.62
445.361	539.62
445.582	500.62
445.803	551.62
446.024	667.62
446.245	667.62
446.466	618.62
446.687	524.62
446.908	481.62
447.129	467.62
447.35	439.62
447.571	454.62
447.792	436.62
448.013	436.62
448.234	450.62
448.455	504.62
448.675	628.62
448.896	720.62
449.117	614.62
449.338	555.62
449.559	664.62
449.779	717.62
450	594.62
450.221	513.62
450.442	462.62
450.662	460.62
450.883	446.62
451.104	474.62
451.324	453.62
451.545	428.62
451.766	412.62
451.986	391.62
452.207	404.62
452.428	380.62
452.648	392.62
452.869	406.62
453.089	404.62
453.31	419.62
453.53	407.62
453.751	391.62
453.971	387.62
454.192	439.62
454.412	415.62
454.633	385.62
454.853	379.62
455.073	405.62
455.294	403.62
455.514	485.62
455.734	478.62
455.955	398.62
456.175	383.62
456.395	374.62
456.616	354.62
456.836	365.62
457.056	359.62
457.276	361.62
457.497	352.62
457.717	352.62
457.937	362.62
458.157	373.62
458.377	390.62
458.598	383.62
458.818	447.62
459.038	550.62
459.258	556.62
459.478	483.62
459.698	406.62
459.918	405.62
460.138	410.62
460.358	404.62
460.578	392.62
460.798	404.62
461.018	408.62
461.238	390.62
461.458	379.62
461.678	395.62
461.898	426.62
462.118	388.62
462.338	398.62
462.558	399.62
462.777	427.62
462.997	393.62
463.217	408.62
463.437	418.62
463.657	396.62
463.876	409.62
464.096	418.62
464.316	420.62
464.536	425.62
464.755	422.62
464.975	442.62
465.195	474.62
465.414	596.62
465.634	471.62
465.854	443.62
466.073	423.62
466.293	407.62
466.512	398.62
466.732	395.62
466.951	404.62
467.171	371.62
467.391	408.62
467.61	404.62
467.829	416.62
468.049	394.62
468.268	383.62
468.488	379.62
468.707	381.62
468.927	370.62
469.146	366.62
469.365	376.62
469.585	386.62
469.804	391.62
470.023	394.62
470.243	406.62
470.462	420.62
470.681	417.62
470.901	427.62
471.12	410.62
471.339	405.62
471.558	397.62
471.777	392.62
471.997	389.62
472.216	391.62
472.435	402.62
472.654	378.62
472.873	383.62
473.092	391.62
473.311	394.62
473.53	392.62
473.749	409.62
473.968	430.62
474.187	529.62
474.406	559.62
474.625	450.62
474.844	396.62
475.063	399.62
475.282	423.62
475.501	406.62
475.72	439.62
475.939	403.62
476.158	399.62
476.377	417.62
476.596	397.62
476.814	420.62
477.033	430.62
477.252	409.62
477.471	399.62
477.69	419.62
477.908	424.62
478.127	418.62
478.346	446.62
478.564	435.62
478.783	428.62
479.002	458.62
479.22	468.62
479.439	446.62
479.658	474.62
479.876	478.62
480.095	458.62
480.313	515.62
480.532	492.62
480.751	474.62
480.969	491.62
481.188	488.62
481.406	483.62
481.624	483.62
481.843	468.62
482.061	462.62
482.28	456.62
482.498	465.62
482.717	446.62
482.935	466.62
483.153	460.62
483.372	469.62
483.59	458.62
483.808	470.62
484.027	475.62
484.245	471.62
484.463	441.62
484.681	469.62
484.9	451.62
485.118	470.62
485.336	471.62
485.554	493.62
485.772	498.62
485.99	487.62
486.209	486.62
486.427	491.62
486.645	511.62
486.863	520.62
487.081	521.62
487.299	512.62
487.517	508.62
487.735	503.62
487.953	508.62
488.171	512.62
488.389	491.62
488.607	508.62
488.825	518.62
489.043	506.62
489.261	503.62
489.479	494.62
489.696	498.62
489.914	518.62
490.132	534.62
490.35	523.62
490.568	525.62
490.786	543.62
491.003	553.62
491.221	556.62
491.439	556.62
491.657	555.62
491.874	576.62
492.092	578.62
492.31	584.62
492.527	590.62
492.745	581.62
492.963	586.62
493.18	594.62
493.398	619.62
493.615	610.62
493.833	570.62
494.05	584.62
494.268	598.62
494.485	596.62
494.703	575.62
494.92	579.62
495.138	571.62
495.355	598.62
495.573	607.62
495.79	599.62
496.008	598.62
496.225	606.62
496.442	605.62
496.66	601.62
496.877	595.62
497.094	603.62
497.312	610.62
497.529	606.62
497.746	634.62
497.963	634.62
498.181	627.62
498.398	644.62
498.615	635.62
498.832	661.62
499.049	685.62
499.267	692.62
499.484	687.62
499.701	696.62
499.918	719.62
500.135	712.62
500.352	735.62
500.569	750.62
500.786	774.62
501.003	758.62
501.22	741.62
501.437	736.62
501.654	738.62
501.871	756.62
