Data from 1986.PennyLincolnUp.Lamp.En5.5.200Scan.071819.P2_HRD10591_17-12-00-972.txt Node
Date: Thu Jul 18 17:12:00 EDT 2019
User: cochatt
Spectrometer: HR+D1059
Trigger mode: 1
Integration Time (sec): 1.000000E-1
Scans to average: 1
Electric dark correction enabled: true
Nonlinearity correction enabled: false
Boxcar width: 0
XAxis mode: Wavelengths
Number of Pixels in Spectrum: 2048
>>>>>Begin Spectral Data<<<<<
223.165	-16.56
223.4	-16.56
223.635	-16.56
223.869	-12.56
224.104	-22.56
224.338	-17.56
224.573	-3.56
224.808	-12.56
225.042	-12.56
225.277	-6.56
225.511	-8.56
225.746	5.44
225.98	1.44
226.215	13.44
226.449	15.44
226.683	16.44
226.918	31.44
227.152	29.44
227.387	27.44
227.621	40.44
227.856	49.44
228.09	48.44
228.324	53.44
228.559	47.44
228.793	53.44
229.027	110.44
229.262	106.44
229.496	122.44
229.73	140.44
229.964	178.44
230.199	149.44
230.433	106.44
230.667	124.44
230.901	128.44
231.136	125.44
231.37	106.44
231.604	121.44
231.838	115.44
232.072	122.44
232.306	119.44
232.541	123.44
232.775	119.44
233.009	101.44
233.243	118.44
233.477	110.44
233.711	126.44
233.945	127.44
234.179	118.44
234.413	110.44
234.647	118.44
234.881	122.44
235.115	134.44
235.349	121.44
235.583	121.44
235.817	125.44
236.051	142.44
236.285	138.44
236.519	125.44
236.753	136.44
236.987	156.44
237.221	174.44
237.455	253.44
237.689	197.44
237.922	142.44
238.156	152.44
238.39	133.44
238.624	129.44
238.858	115.44
239.091	132.44
239.325	125.44
239.559	111.44
239.793	129.44
240.027	133.44
240.26	152.44
240.494	165.44
240.728	169.44
240.961	161.44
241.195	139.44
241.429	140.44
241.662	142.44
241.896	153.44
242.13	146.44
242.363	147.44
242.597	128.44
242.83	151.44
243.064	138.44
243.298	158.44
243.531	158.44
243.765	150.44
243.998	139.44
244.232	151.44
244.465	149.44
244.699	153.44
244.932	157.44
245.166	151.44
245.399	164.44
245.633	171.44
245.866	165.44
246.099	156.44
246.333	166.44
246.566	154.44
246.8	167.44
247.033	158.44
247.266	154.44
247.5	173.44
247.733	197.44
247.966	173.44
248.2	193.44
248.433	178.44
248.666	181.44
248.899	185.44
249.133	206.44
249.366	238.44
249.599	221.44
249.832	198.44
250.066	215.44
250.299	214.44
250.532	232.44
250.765	271.44
250.998	266.44
251.231	268.44
251.465	254.44
251.698	242.44
251.931	235.44
252.164	223.44
252.397	208.44
252.63	217.44
252.863	211.44
253.096	247.44
253.329	252.44
253.562	240.44
253.795	254.44
254.028	223.44
254.261	236.44
254.494	255.44
254.727	269.44
254.96	296.44
255.193	302.44
255.426	290.44
255.659	267.44
255.892	280.44
256.124	318.44
256.357	346.44
256.59	333.44
256.823	305.44
257.056	261.44
257.289	266.44
257.521	249.44
257.754	255.44
257.987	237.44
258.22	241.44
258.452	229.44
258.685	245.44
258.918	223.44
259.151	243.44
259.383	241.44
259.616	246.44
259.849	242.44
260.081	263.44
260.314	296.44
260.547	279.44
260.779	273.44
261.012	260.44
261.244	251.44
261.477	244.44
261.71	246.44
261.942	256.44
262.175	268.44
262.407	243.44
262.64	240.44
262.872	221.44
263.105	239.44
263.337	228.44
263.57	234.44
263.802	221.44
264.035	206.44
264.267	221.44
264.499	226.44
264.732	220.44
264.964	197.44
265.197	223.44
265.429	216.44
265.661	218.44
265.894	229.44
266.126	231.44
266.358	231.44
266.591	225.44
266.823	244.44
267.055	243.44
267.287	237.44
267.52	225.44
267.752	235.44
267.984	244.44
268.216	249.44
268.448	243.44
268.681	230.44
268.913	260.44
269.145	275.44
269.377	303.44
269.609	294.44
269.841	283.44
270.073	285.44
270.306	300.44
270.538	336.44
270.77	334.44
271.002	326.44
271.234	303.44
271.466	309.44
271.698	355.44
271.93	319.44
272.162	340.44
272.394	326.44
272.626	343.44
272.858	297.44
273.09	307.44
273.322	300.44
273.553	280.44
273.785	285.44
274.017	263.44
274.249	276.44
274.481	265.44
274.713	277.44
274.945	266.44
275.176	297.44
275.408	293.44
275.64	294.44
275.872	279.44
276.104	286.44
276.335	275.44
276.567	290.44
276.799	313.44
277.031	346.44
277.262	349.44
277.494	366.44
277.726	314.44
277.957	314.44
278.189	288.44
278.421	304.44
278.652	302.44
278.884	288.44
279.115	299.44
279.347	289.44
279.579	277.44
279.81	288.44
280.042	270.44
280.273	286.44
280.505	287.44
280.736	259.44
280.968	272.44
281.199	286.44
281.431	261.44
281.662	282.44
281.894	277.44
282.125	274.44
282.356	280.44
282.588	326.44
282.819	333.44
283.051	289.44
283.282	281.44
283.513	292.44
283.745	291.44
283.976	281.44
284.207	282.44
284.439	271.44
284.67	278.44
284.901	286.44
285.132	276.44
285.364	272.44
285.595	282.44
285.826	281.44
286.057	286.44
286.288	267.44
286.52	287.44
286.751	281.44
286.982	295.44
287.213	278.44
287.444	278.44
287.675	302.44
287.906	305.44
288.138	311.44
288.369	310.44
288.6	303.44
288.831	308.44
289.062	303.44
289.293	277.44
289.524	278.44
289.755	279.44
289.986	297.44
290.217	302.44
290.448	271.44
290.679	294.44
290.91	273.44
291.141	295.44
291.371	278.44
291.602	281.44
291.833	285.44
292.064	287.44
292.295	292.44
292.526	280.44
292.757	290.44
292.987	295.44
293.218	277.44
293.449	311.44
293.68	286.44
293.91	306.44
294.141	289.44
294.372	285.44
294.603	289.44
294.833	299.44
295.064	280.44
295.295	298.44
295.525	308.44
295.756	285.44
295.987	305.44
296.217	323.44
296.448	340.44
296.679	300.44
296.909	290.44
297.14	276.44
297.37	291.44
297.601	298.44
297.831	283.44
298.062	306.44
298.292	313.44
298.523	287.44
298.753	300.44
298.984	293.44
299.214	299.44
299.445	305.44
299.675	297.44
299.905	310.44
300.136	317.44
300.366	296.44
300.597	308.44
300.827	321.44
301.057	317.44
301.288	322.44
301.518	324.44
301.748	306.44
301.979	328.44
302.209	316.44
302.439	333.44
302.669	317.44
302.9	323.44
303.13	324.44
303.36	319.44
303.59	312.44
303.82	340.44
304.051	333.44
304.281	325.44
304.511	326.44
304.741	324.44
304.971	310.44
305.201	310.44
305.431	318.44
305.661	326.44
305.891	341.44
306.121	321.44
306.352	337.44
306.582	339.44
306.812	352.44
307.042	334.44
307.272	319.44
307.502	364.44
307.731	329.44
307.961	354.44
308.191	346.44
308.421	323.44
308.651	349.44
308.881	332.44
309.111	355.44
309.341	345.44
309.571	347.44
309.8	367.44
310.03	405.44
310.26	376.44
310.49	374.44
310.72	401.44
310.949	403.44
311.179	408.44
311.409	388.44
311.639	381.44
311.868	375.44
312.098	383.44
312.328	397.44
312.557	428.44
312.787	429.44
313.017	424.44
313.246	405.44
313.476	385.44
313.706	393.44
313.935	381.44
314.165	399.44
314.394	374.44
314.624	410.44
314.853	389.44
315.083	384.44
315.312	378.44
315.542	386.44
315.771	371.44
316.001	370.44
316.23	370.44
316.46	376.44
316.689	392.44
316.919	385.44
317.148	391.44
317.377	387.44
317.607	399.44
317.836	395.44
318.065	381.44
318.295	381.44
318.524	385.44
318.753	375.44
318.983	393.44
319.212	386.44
319.441	386.44
319.67	399.44
319.9	391.44
320.129	367.44
320.358	403.44
320.587	392.44
320.816	395.44
321.046	397.44
321.275	397.44
321.504	414.44
321.733	429.44
321.962	436.44
322.191	432.44
322.42	445.44
322.649	460.44
322.878	481.44
323.108	514.44
323.337	521.44
323.566	558.44
323.795	602.44
324.024	619.44
324.253	798.44
324.482	1136.44
324.71	1731.44
324.939	2557.44
325.168	2243.44
325.397	1161.44
325.626	787.44
325.855	669.44
326.084	590.44
326.313	569.44
326.542	555.44
326.77	637.44
326.999	765.44
327.228	1020.44
327.457	1542.44
327.686	1899.44
327.914	1375.44
328.143	918.44
328.372	796.44
328.6	737.44
328.829	695.44
329.058	709.44
329.287	697.44
329.515	666.44
329.744	639.44
329.972	675.44
330.201	725.44
330.43	840.44
330.658	839.44
330.887	781.44
331.115	723.44
331.344	632.44
331.572	537.44
331.801	557.44
332.03	550.44
332.258	521.44
332.486	485.44
332.715	524.44
332.943	491.44
333.172	492.44
333.4	521.44
333.629	504.44
333.857	575.44
334.085	627.44
334.314	709.44
334.542	858.44
334.771	907.44
334.999	722.44
335.227	557.44
335.455	519.44
335.684	486.44
335.912	485.44
336.14	471.44
336.369	463.44
336.597	467.44
336.825	484.44
337.053	438.44
337.281	460.44
337.51	450.44
337.738	456.44
337.966	423.44
338.194	436.44
338.422	429.44
338.65	457.44
338.878	438.44
339.106	418.44
339.334	429.44
339.562	424.44
339.79	423.44
340.018	417.44
340.246	431.44
340.474	434.44
340.702	436.44
340.93	420.44
341.158	438.44
341.386	438.44
341.614	430.44
341.842	428.44
342.07	404.44
342.298	412.44
342.526	411.44
342.754	385.44
342.981	399.44
343.209	404.44
343.437	399.44
343.665	422.44
343.893	408.44
344.12	409.44
344.348	414.44
344.576	418.44
344.804	411.44
345.031	437.44
345.259	425.44
345.487	445.44
345.714	433.44
345.942	427.44
346.17	413.44
346.397	418.44
346.625	401.44
346.853	411.44
347.08	395.44
347.308	401.44
347.535	419.44
347.763	438.44
347.99	441.44
348.218	444.44
348.445	444.44
348.673	448.44
348.9	391.44
349.128	395.44
349.355	393.44
349.583	381.44
349.81	403.44
350.037	407.44
350.265	388.44
350.492	394.44
350.72	405.44
350.947	389.44
351.174	413.44
351.402	407.44
351.629	426.44
351.856	423.44
352.083	434.44
352.311	439.44
352.538	450.44
352.765	418.44
352.992	408.44
353.22	419.44
353.447	418.44
353.674	391.44
353.901	389.44
354.128	380.44
354.355	375.44
354.583	377.44
354.81	372.44
355.037	373.44
355.264	355.44
355.491	360.44
355.718	373.44
355.945	391.44
356.172	370.44
356.399	371.44
356.626	345.44
356.853	355.44
357.08	359.44
357.307	363.44
357.534	357.44
357.761	373.44
357.988	387.44
358.215	368.44
358.441	381.44
358.668	372.44
358.895	372.44
359.122	382.44
359.349	397.44
359.576	396.44
359.802	435.44
360.029	451.44
360.256	476.44
360.483	445.44
360.709	439.44
360.936	403.44
361.163	393.44
361.39	413.44
361.616	410.44
361.843	403.44
362.07	390.44
362.296	425.44
362.523	393.44
362.749	382.44
362.976	387.44
363.203	389.44
363.429	387.44
363.656	390.44
363.882	382.44
364.109	377.44
364.335	386.44
364.562	383.44
364.788	367.44
365.015	373.44
365.241	372.44
365.468	392.44
365.694	394.44
365.92	396.44
366.147	376.44
366.373	390.44
366.599	379.44
366.826	375.44
367.052	369.44
367.278	377.44
367.505	377.44
367.731	370.44
367.957	385.44
368.184	383.44
368.41	384.44
368.636	404.44
368.862	397.44
369.089	371.44
369.315	383.44
369.541	387.44
369.767	383.44
369.993	350.44
370.219	369.44
370.445	387.44
370.672	361.44
370.898	358.44
371.124	381.44
371.35	377.44
371.576	365.44
371.802	365.44
372.028	364.44
372.254	359.44
372.48	366.44
372.706	374.44
372.932	365.44
373.158	351.44
373.384	370.44
373.61	383.44
373.835	381.44
374.061	361.44
374.287	385.44
374.513	357.44
374.739	377.44
374.965	381.44
375.191	351.44
375.416	362.44
375.642	357.44
375.868	374.44
376.094	358.44
376.319	348.44
376.545	365.44
376.771	353.44
376.997	362.44
377.222	373.44
377.448	375.44
377.674	366.44
377.899	350.44
378.125	354.44
378.35	351.44
378.576	353.44
378.802	338.44
379.027	369.44
379.253	367.44
379.478	356.44
379.704	367.44
379.929	364.44
380.155	343.44
380.38	358.44
380.606	364.44
380.831	359.44
381.057	376.44
381.282	347.44
381.507	356.44
381.733	358.44
381.958	369.44
382.184	361.44
382.409	376.44
382.634	373.44
382.86	365.44
383.085	357.44
383.31	380.44
383.535	353.44
383.761	347.44
383.986	373.44
384.211	366.44
384.436	375.44
384.662	370.44
384.887	364.44
385.112	379.44
385.337	369.44
385.562	365.44
385.787	374.44
386.013	385.44
386.238	373.44
386.463	390.44
386.688	396.44
386.913	363.44
387.138	374.44
387.363	364.44
387.588	372.44
387.813	365.44
388.038	391.44
388.263	373.44
388.488	374.44
388.713	380.44
388.938	367.44
389.163	393.44
389.387	390.44
389.612	373.44
389.837	349.44
390.062	377.44
390.287	395.44
390.512	392.44
390.736	387.44
390.961	369.44
391.186	383.44
391.411	379.44
391.636	387.44
391.86	384.44
392.085	390.44
392.31	382.44
392.534	369.44
392.759	364.44
392.984	375.44
393.208	379.44
393.433	382.44
393.658	393.44
393.882	375.44
394.107	373.44
394.331	360.44
394.556	377.44
394.78	366.44
395.005	381.44
395.229	358.44
395.454	385.44
395.678	379.44
395.903	394.44
396.127	417.44
396.352	417.44
396.576	407.44
396.801	393.44
397.025	401.44
397.249	389.44
397.474	406.44
397.698	392.44
397.922	426.44
398.147	412.44
398.371	429.44
398.595	429.44
398.82	404.44
399.044	399.44
399.268	423.44
399.492	439.44
399.717	451.44
399.941	482.44
400.165	518.44
400.389	519.44
400.613	475.44
400.837	440.44
401.062	442.44
401.286	456.44
401.51	435.44
401.734	439.44
401.958	422.44
402.182	436.44
402.406	438.44
402.63	441.44
402.854	429.44
403.078	458.44
403.302	445.44
403.526	455.44
403.75	454.44
403.974	462.44
404.198	439.44
404.422	440.44
404.645	453.44
404.869	490.44
405.093	540.44
405.317	583.44
405.541	600.44
405.765	585.44
405.988	506.44
406.212	531.44
406.436	527.44
406.66	505.44
406.883	502.44
407.107	535.44
407.331	545.44
407.555	596.44
407.778	620.44
408.002	553.44
408.226	498.44
408.449	485.44
408.673	488.44
408.896	515.44
409.12	547.44
409.344	523.44
409.567	461.44
409.791	461.44
410.014	458.44
410.238	435.44
410.461	448.44
410.685	466.44
410.908	484.44
411.132	500.44
411.355	534.44
411.578	510.44
411.802	473.44
412.025	474.44
412.249	507.44
412.472	539.44
412.695	570.44
412.919	579.44
413.142	534.44
413.365	490.44
413.589	481.44
413.812	479.44
414.035	464.44
414.258	445.44
414.482	438.44
414.705	415.44
414.928	449.44
415.151	459.44
415.374	441.44
415.597	412.44
415.821	423.44
416.044	433.44
416.267	435.44
416.49	454.44
416.713	428.44
416.936	418.44
417.159	426.44
417.382	450.44
417.605	449.44
417.828	454.44
418.051	471.44
418.274	467.44
418.497	445.44
418.72	425.44
418.943	436.44
419.166	431.44
419.389	463.44
419.611	459.44
419.834	482.44
420.057	482.44
420.28	497.44
420.503	509.44
420.726	490.44
420.948	531.44
421.171	543.44
421.394	565.44
421.617	523.44
421.839	483.44
422.062	441.44
422.285	474.44
422.507	558.44
422.73	603.44
422.953	577.44
423.175	516.44
423.398	490.44
423.621	473.44
423.843	511.44
424.066	502.44
424.288	517.44
424.511	526.44
424.733	572.44
424.956	651.44
425.178	641.44
425.401	619.44
425.623	641.44
425.846	537.44
426.068	515.44
426.291	479.44
426.513	500.44
426.735	504.44
426.958	582.44
427.18	632.44
427.402	749.44
427.625	841.44
427.847	808.44
428.069	677.44
428.292	615.44
428.514	518.44
428.736	486.44
428.958	481.44
429.181	458.44
429.403	447.44
429.625	508.44
429.847	517.44
430.069	601.44
430.292	597.44
430.514	492.44
430.736	468.44
430.958	428.44
431.18	446.44
431.402	435.44
431.624	437.44
431.846	420.44
432.068	431.44
432.29	429.44
432.512	422.44
432.734	418.44
432.956	447.44
433.178	449.44
433.4	465.44
433.622	441.44
433.844	450.44
434.066	413.44
434.287	414.44
434.509	434.44
434.731	431.44
434.953	447.44
435.175	463.44
435.397	490.44
435.618	504.44
435.84	542.44
436.062	643.44
436.284	697.44
436.505	598.44
436.727	532.44
436.949	493.44
437.17	479.44
437.392	475.44
437.614	501.44
437.835	526.44
438.057	635.44
438.278	735.44
438.5	747.44
438.721	769.44
438.943	753.44
439.165	603.44
439.386	542.44
439.608	532.44
439.829	517.44
440.05	549.44
440.272	611.44
440.493	568.44
440.715	513.44
440.936	480.44
441.158	458.44
441.379	466.44
441.6	479.44
441.822	494.44
442.043	552.44
442.264	647.44
442.486	651.44
442.707	554.44
442.928	546.44
443.149	563.44
443.371	562.44
443.592	588.44
443.813	670.44
444.034	731.44
444.255	604.44
444.476	527.44
444.698	497.44
444.919	501.44
445.14	618.44
445.361	586.44
445.582	558.44
445.803	619.44
446.024	737.44
446.245	747.44
446.466	669.44
446.687	566.44
446.908	521.44
447.129	492.44
447.35	468.44
447.571	458.44
447.792	436.44
448.013	467.44
448.234	486.44
448.455	551.44
448.675	659.44
448.896	737.44
449.117	655.44
449.338	623.44
449.559	689.44
449.779	796.44
450	654.44
450.221	540.44
450.442	484.44
450.662	474.44
450.883	499.44
451.104	485.44
451.324	470.44
451.545	464.44
451.766	445.44
451.986	433.44
452.207	431.44
452.428	428.44
452.648	404.44
452.869	420.44
453.089	455.44
453.31	452.44
453.53	430.44
453.751	424.44
453.971	432.44
454.192	457.44
454.412	421.44
454.633	444.44
454.853	404.44
455.073	413.44
455.294	452.44
455.514	502.44
455.734	513.44
455.955	439.44
456.175	431.44
456.395	385.44
456.616	391.44
456.836	392.44
457.056	393.44
457.276	362.44
457.497	407.44
457.717	405.44
457.937	398.44
458.157	418.44
458.377	399.44
458.598	413.44
458.818	497.44
459.038	591.44
459.258	612.44
459.478	501.44
459.698	430.44
459.918	431.44
460.138	421.44
460.358	408.44
460.578	431.44
460.798	411.44
461.018	423.44
461.238	433.44
461.458	417.44
461.678	405.44
461.898	433.44
462.118	408.44
462.338	415.44
462.558	425.44
462.777	425.44
462.997	434.44
463.217	445.44
463.437	438.44
463.657	439.44
463.876	429.44
464.096	426.44
464.316	446.44
464.536	445.44
464.755	466.44
464.975	434.44
465.195	523.44
465.414	625.44
465.634	543.44
465.854	497.44
466.073	465.44
466.293	426.44
466.512	440.44
466.732	431.44
466.951	445.44
467.171	427.44
467.391	433.44
467.61	427.44
467.829	458.44
468.049	444.44
468.268	521.44
468.488	461.44
468.707	426.44
468.927	420.44
469.146	421.44
469.365	410.44
469.585	421.44
469.804	452.44
470.023	444.44
470.243	449.44
470.462	430.44
470.681	470.44
470.901	448.44
471.12	464.44
471.339	443.44
471.558	436.44
471.777	459.44
471.997	462.44
472.216	510.44
472.435	655.44
472.654	605.44
472.873	481.44
473.092	479.44
473.311	476.44
473.53	475.44
473.749	466.44
473.968	519.44
474.187	632.44
474.406	653.44
474.625	523.44
474.844	464.44
475.063	458.44
475.282	468.44
475.501	457.44
475.72	467.44
475.939	453.44
476.158	466.44
476.377	467.44
476.596	444.44
476.814	454.44
477.033	467.44
477.252	470.44
477.471	470.44
477.69	458.44
477.908	467.44
478.127	477.44
478.346	461.44
478.564	460.44
478.783	510.44
479.002	503.44
479.22	487.44
479.439	519.44
479.658	526.44
479.876	537.44
480.095	565.44
480.313	569.44
480.532	551.44
480.751	589.44
480.969	609.44
481.188	854.44
481.406	1058.44
481.624	759.44
481.843	639.44
482.061	612.44
482.28	597.44
482.498	585.44
482.717	553.44
482.935	539.44
483.153	543.44
483.372	547.44
483.59	527.44
483.808	535.44
484.027	527.44
484.245	510.44
484.463	518.44
484.681	538.44
484.9	528.44
485.118	539.44
485.336	532.44
485.554	545.44
485.772	560.44
485.99	537.44
486.209	527.44
486.427	582.44
486.645	551.44
486.863	581.44
487.081	595.44
487.299	574.44
487.517	589.44
487.735	578.44
487.953	570.44
488.171	579.44
488.389	578.44
488.607	582.44
488.825	590.44
489.043	575.44
489.261	582.44
489.479	567.44
489.696	583.44
489.914	620.44
490.132	603.44
490.35	609.44
490.568	625.44
490.786	636.44
491.003	639.44
491.221	668.44
491.439	664.44
491.657	677.44
491.874	693.44
492.092	702.44
492.31	691.44
492.527	715.44
492.745	727.44
492.963	716.44
493.18	738.44
493.398	727.44
493.615	705.44
493.833	708.44
494.05	709.44
494.268	706.44
494.485	723.44
494.703	702.44
494.92	731.44
495.138	713.44
495.355	655.44
495.573	703.44
495.79	691.44
496.008	699.44
496.225	694.44
496.442	691.44
496.66	709.44
496.877	683.44
497.094	694.44
497.312	706.44
497.529	707.44
497.746	705.44
497.963	707.44
498.181	699.44
498.398	710.44
498.615	728.44
498.832	718.44
499.049	732.44
499.267	723.44
499.484	746.44
499.701	769.44
499.918	750.44
500.135	777.44
500.352	799.44
500.569	812.44
500.786	837.44
501.003	833.44
501.22	820.44
501.437	815.44
501.654	768.44
501.871	805.44
