Data from 1986.PennyLincolnUp.Lamp.En5.5.200Scan.071819.P1_HRD10591_17-08-34-992.txt Node
Date: Thu Jul 18 17:08:34 EDT 2019
User: cochatt
Spectrometer: HR+D1059
Trigger mode: 1
Integration Time (sec): 1.000000E-1
Scans to average: 1
Electric dark correction enabled: true
Nonlinearity correction enabled: false
Boxcar width: 0
XAxis mode: Wavelengths
Number of Pixels in Spectrum: 2048
>>>>>Begin Spectral Data<<<<<
223.165	-21.56
223.4	-21.56
223.635	-21.56
223.869	-18.56
224.104	-32.56
224.338	-18.56
224.573	-11.56
224.808	-10.56
225.042	8.44
225.277	-10.56
225.511	6.44
225.746	-4.56
225.98	14.44
226.215	13.44
226.449	22.44
226.683	17.44
226.918	31.44
227.152	14.44
227.387	34.44
227.621	32.44
227.856	40.44
228.09	38.44
228.324	61.44
228.559	47.44
228.793	53.44
229.027	79.44
229.262	94.44
229.496	93.44
229.73	87.44
229.964	100.44
230.199	88.44
230.433	94.44
230.667	79.44
230.901	88.44
231.136	106.44
231.37	94.44
231.604	104.44
231.838	83.44
232.072	101.44
232.306	98.44
232.541	94.44
232.775	101.44
233.009	102.44
233.243	99.44
233.477	101.44
233.711	109.44
233.945	89.44
234.179	89.44
234.413	104.44
234.647	102.44
234.881	91.44
235.115	112.44
235.349	105.44
235.583	104.44
235.817	111.44
236.051	119.44
236.285	118.44
236.519	98.44
236.753	102.44
236.987	112.44
237.221	138.44
237.455	169.44
237.689	146.44
237.922	125.44
238.156	106.44
238.39	119.44
238.624	111.44
238.858	106.44
239.091	109.44
239.325	111.44
239.559	113.44
239.793	110.44
240.027	107.44
240.26	106.44
240.494	129.44
240.728	129.44
240.961	115.44
241.195	123.44
241.429	118.44
241.662	120.44
241.896	99.44
242.13	98.44
242.363	109.44
242.597	111.44
242.83	119.44
243.064	126.44
243.298	122.44
243.531	114.44
243.765	119.44
243.998	110.44
244.232	128.44
244.465	129.44
244.699	120.44
244.932	124.44
245.166	114.44
245.399	123.44
245.633	130.44
245.866	129.44
246.099	121.44
246.333	119.44
246.566	119.44
246.8	123.44
247.033	127.44
247.266	123.44
247.5	147.44
247.733	134.44
247.966	145.44
248.2	139.44
248.433	146.44
248.666	130.44
248.899	152.44
249.133	144.44
249.366	153.44
249.599	157.44
249.832	149.44
250.066	142.44
250.299	147.44
250.532	145.44
250.765	161.44
250.998	170.44
251.231	150.44
251.465	163.44
251.698	141.44
251.931	166.44
252.164	150.44
252.397	165.44
252.63	154.44
252.863	157.44
253.096	147.44
253.329	168.44
253.562	178.44
253.795	177.44
254.028	163.44
254.261	158.44
254.494	168.44
254.727	196.44
254.96	211.44
255.193	199.44
255.426	181.44
255.659	157.44
255.892	165.44
256.124	175.44
256.357	169.44
256.59	169.44
256.823	162.44
257.056	176.44
257.289	180.44
257.521	176.44
257.754	179.44
257.987	147.44
258.22	157.44
258.452	161.44
258.685	167.44
258.918	162.44
259.151	159.44
259.383	176.44
259.616	182.44
259.849	185.44
260.081	180.44
260.314	215.44
260.547	201.44
260.779	187.44
261.012	181.44
261.244	177.44
261.477	181.44
261.71	184.44
261.942	170.44
262.175	178.44
262.407	164.44
262.64	168.44
262.872	171.44
263.105	169.44
263.337	163.44
263.57	164.44
263.802	163.44
264.035	171.44
264.267	173.44
264.499	165.44
264.732	154.44
264.964	170.44
265.197	179.44
265.429	173.44
265.661	173.44
265.894	168.44
266.126	197.44
266.358	177.44
266.591	171.44
266.823	167.44
267.055	182.44
267.287	181.44
267.52	189.44
267.752	185.44
267.984	176.44
268.216	173.44
268.448	190.44
268.681	176.44
268.913	179.44
269.145	196.44
269.377	216.44
269.609	189.44
269.841	202.44
270.073	212.44
270.306	216.44
270.538	238.44
270.77	219.44
271.002	234.44
271.234	219.44
271.466	219.44
271.698	225.44
271.93	237.44
272.162	218.44
272.394	247.44
272.626	217.44
272.858	213.44
273.09	203.44
273.322	222.44
273.553	204.44
273.785	202.44
274.017	189.44
274.249	207.44
274.481	210.44
274.713	207.44
274.945	212.44
275.176	204.44
275.408	200.44
275.64	225.44
275.872	197.44
276.104	208.44
276.335	199.44
276.567	203.44
276.799	206.44
277.031	241.44
277.262	248.44
277.494	248.44
277.726	227.44
277.957	219.44
278.189	208.44
278.421	221.44
278.652	213.44
278.884	220.44
279.115	217.44
279.347	201.44
279.579	210.44
279.81	219.44
280.042	218.44
280.273	209.44
280.505	201.44
280.736	207.44
280.968	216.44
281.199	200.44
281.431	209.44
281.662	230.44
281.894	211.44
282.125	208.44
282.356	212.44
282.588	250.44
282.819	241.44
283.051	232.44
283.282	226.44
283.513	220.44
283.745	221.44
283.976	231.44
284.207	241.44
284.439	218.44
284.67	226.44
284.901	218.44
285.132	224.44
285.364	230.44
285.595	220.44
285.826	219.44
286.057	210.44
286.288	228.44
286.52	241.44
286.751	221.44
286.982	229.44
287.213	230.44
287.444	240.44
287.675	233.44
287.906	221.44
288.138	237.44
288.369	226.44
288.6	241.44
288.831	247.44
289.062	246.44
289.293	230.44
289.524	243.44
289.755	230.44
289.986	230.44
290.217	235.44
290.448	235.44
290.679	214.44
290.91	249.44
291.141	226.44
291.371	257.44
291.602	222.44
291.833	237.44
292.064	223.44
292.295	239.44
292.526	228.44
292.757	228.44
292.987	225.44
293.218	221.44
293.449	234.44
293.68	226.44
293.91	238.44
294.141	259.44
294.372	218.44
294.603	246.44
294.833	228.44
295.064	243.44
295.295	249.44
295.525	247.44
295.756	240.44
295.987	249.44
296.217	253.44
296.448	264.44
296.679	242.44
296.909	243.44
297.14	231.44
297.37	254.44
297.601	247.44
297.831	232.44
298.062	239.44
298.292	247.44
298.523	260.44
298.753	255.44
298.984	245.44
299.214	251.44
299.445	249.44
299.675	255.44
299.905	253.44
300.136	228.44
300.366	244.44
300.597	253.44
300.827	256.44
301.057	273.44
301.288	257.44
301.518	275.44
301.748	269.44
301.979	262.44
302.209	283.44
302.439	275.44
302.669	269.44
302.9	263.44
303.13	263.44
303.36	280.44
303.59	280.44
303.82	273.44
304.051	275.44
304.281	259.44
304.511	267.44
304.741	268.44
304.971	275.44
305.201	276.44
305.431	261.44
305.661	242.44
305.891	247.44
306.121	273.44
306.352	263.44
306.582	274.44
306.812	264.44
307.042	258.44
307.272	259.44
307.502	259.44
307.731	277.44
307.961	263.44
308.191	266.44
308.421	259.44
308.651	262.44
308.881	271.44
309.111	285.44
309.341	286.44
309.571	284.44
309.8	296.44
310.03	298.44
310.26	269.44
310.49	287.44
310.72	298.44
310.949	301.44
311.179	295.44
311.409	281.44
311.639	285.44
311.868	307.44
312.098	293.44
312.328	286.44
312.557	304.44
312.787	329.44
313.017	309.44
313.246	299.44
313.476	295.44
313.706	303.44
313.935	320.44
314.165	307.44
314.394	295.44
314.624	312.44
314.853	320.44
315.083	296.44
315.312	296.44
315.542	296.44
315.771	296.44
316.001	304.44
316.23	293.44
316.46	309.44
316.689	307.44
316.919	314.44
317.148	281.44
317.377	301.44
317.607	321.44
317.836	306.44
318.065	290.44
318.295	301.44
318.524	310.44
318.753	288.44
318.983	280.44
319.212	312.44
319.441	309.44
319.67	308.44
319.9	321.44
320.129	299.44
320.358	297.44
320.587	306.44
320.816	306.44
321.046	314.44
321.275	303.44
321.504	311.44
321.733	311.44
321.962	313.44
322.191	330.44
322.42	325.44
322.649	342.44
322.878	336.44
323.108	344.44
323.337	382.44
323.566	367.44
323.795	389.44
324.024	424.44
324.253	477.44
324.482	672.44
324.71	1015.44
324.939	1365.44
325.168	1121.44
325.397	627.44
325.626	437.44
325.855	393.44
326.084	365.44
326.313	359.44
326.542	375.44
326.77	406.44
326.999	457.44
327.228	629.44
327.457	895.44
327.686	1036.44
327.914	698.44
328.143	520.44
328.372	449.44
328.6	433.44
328.829	413.44
329.058	408.44
329.287	433.44
329.515	410.44
329.744	384.44
329.972	405.44
330.201	409.44
330.43	437.44
330.658	454.44
330.887	465.44
331.115	444.44
331.344	415.44
331.572	357.44
331.801	378.44
332.03	365.44
332.258	365.44
332.486	371.44
332.715	350.44
332.943	337.44
333.172	369.44
333.4	382.44
333.629	372.44
333.857	381.44
334.085	411.44
334.314	417.44
334.542	438.44
334.771	473.44
334.999	412.44
335.227	377.44
335.455	373.44
335.684	355.44
335.912	374.44
336.14	357.44
336.369	356.44
336.597	360.44
336.825	358.44
337.053	371.44
337.281	336.44
337.51	333.44
337.738	322.44
337.966	337.44
338.194	340.44
338.422	364.44
338.65	346.44
338.878	331.44
339.106	342.44
339.334	348.44
339.562	333.44
339.79	339.44
340.018	345.44
340.246	347.44
340.474	327.44
340.702	326.44
340.93	337.44
341.158	337.44
341.386	329.44
341.614	327.44
341.842	332.44
342.07	308.44
342.298	322.44
342.526	336.44
342.754	298.44
342.981	337.44
343.209	333.44
343.437	343.44
343.665	326.44
343.893	357.44
344.12	363.44
344.348	335.44
344.576	351.44
344.804	346.44
345.031	349.44
345.259	337.44
345.487	348.44
345.714	341.44
345.942	324.44
346.17	314.44
346.397	329.44
346.625	307.44
346.853	326.44
347.08	328.44
347.308	323.44
347.535	321.44
347.763	323.44
347.99	320.44
348.218	327.44
348.445	334.44
348.673	332.44
348.9	333.44
349.128	309.44
349.355	313.44
349.583	299.44
349.81	317.44
350.037	312.44
350.265	319.44
350.492	322.44
350.72	325.44
350.947	319.44
351.174	321.44
351.402	330.44
351.629	323.44
351.856	303.44
352.083	305.44
352.311	323.44
352.538	316.44
352.765	336.44
352.992	316.44
353.22	337.44
353.447	315.44
353.674	306.44
353.901	301.44
354.128	280.44
354.355	293.44
354.583	303.44
354.81	309.44
355.037	308.44
355.264	283.44
355.491	298.44
355.718	306.44
355.945	313.44
356.172	298.44
356.399	298.44
356.626	317.44
356.853	286.44
357.08	298.44
357.307	305.44
357.534	315.44
357.761	306.44
357.988	326.44
358.215	318.44
358.441	305.44
358.668	301.44
358.895	306.44
359.122	313.44
359.349	327.44
359.576	313.44
359.802	328.44
360.029	378.44
360.256	351.44
360.483	321.44
360.709	307.44
360.936	326.44
361.163	315.44
361.39	332.44
361.616	311.44
361.843	320.44
362.07	321.44
362.296	299.44
362.523	317.44
362.749	328.44
362.976	317.44
363.203	318.44
363.429	301.44
363.656	298.44
363.882	303.44
364.109	289.44
364.335	286.44
364.562	306.44
364.788	294.44
365.015	301.44
365.241	313.44
365.468	305.44
365.694	315.44
365.92	311.44
366.147	296.44
366.373	323.44
366.599	290.44
366.826	295.44
367.052	309.44
367.278	317.44
367.505	304.44
367.731	303.44
367.957	294.44
368.184	295.44
368.41	311.44
368.636	312.44
368.862	330.44
369.089	306.44
369.315	292.44
369.541	294.44
369.767	292.44
369.993	314.44
370.219	310.44
370.445	313.44
370.672	301.44
370.898	309.44
371.124	304.44
371.35	304.44
371.576	314.44
371.802	296.44
372.028	291.44
372.254	305.44
372.48	291.44
372.706	316.44
372.932	303.44
373.158	315.44
373.384	330.44
373.61	315.44
373.835	313.44
374.061	298.44
374.287	317.44
374.513	314.44
374.739	325.44
374.965	301.44
375.191	310.44
375.416	298.44
375.642	302.44
375.868	301.44
376.094	312.44
376.319	305.44
376.545	282.44
376.771	303.44
376.997	310.44
377.222	313.44
377.448	313.44
377.674	311.44
377.899	284.44
378.125	273.44
378.35	274.44
378.576	328.44
378.802	299.44
379.027	326.44
379.253	297.44
379.478	311.44
379.704	289.44
379.929	311.44
380.155	296.44
380.38	317.44
380.606	301.44
380.831	298.44
381.057	317.44
381.282	309.44
381.507	320.44
381.733	299.44
381.958	321.44
382.184	311.44
382.409	329.44
382.634	308.44
382.86	311.44
383.085	307.44
383.31	305.44
383.535	318.44
383.761	329.44
383.986	322.44
384.211	326.44
384.436	313.44
384.662	314.44
384.887	329.44
385.112	347.44
385.337	342.44
385.562	336.44
385.787	328.44
386.013	354.44
386.238	332.44
386.463	348.44
386.688	339.44
386.913	330.44
387.138	326.44
387.363	328.44
387.588	355.44
387.813	313.44
388.038	352.44
388.263	336.44
388.488	337.44
388.713	333.44
388.938	327.44
389.163	346.44
389.387	345.44
389.612	324.44
389.837	329.44
390.062	322.44
390.287	339.44
390.512	328.44
390.736	338.44
390.961	341.44
391.186	351.44
391.411	341.44
391.636	340.44
391.86	336.44
392.085	342.44
392.31	346.44
392.534	335.44
392.759	335.44
392.984	343.44
393.208	358.44
393.433	340.44
393.658	351.44
393.882	340.44
394.107	338.44
394.331	338.44
394.556	360.44
394.78	362.44
395.005	350.44
395.229	352.44
395.454	332.44
395.678	340.44
395.903	338.44
396.127	366.44
396.352	362.44
396.576	354.44
396.801	359.44
397.025	351.44
397.249	350.44
397.474	356.44
397.698	346.44
397.922	370.44
398.147	378.44
398.371	391.44
398.595	395.44
398.82	383.44
399.044	385.44
399.268	415.44
399.492	446.44
399.717	446.44
399.941	487.44
400.165	488.44
400.389	463.44
400.613	433.44
400.837	412.44
401.062	389.44
401.286	389.44
401.51	394.44
401.734	381.44
401.958	397.44
402.182	385.44
402.406	391.44
402.63	399.44
402.854	420.44
403.078	408.44
403.302	398.44
403.526	416.44
403.75	417.44
403.974	435.44
404.198	413.44
404.422	429.44
404.645	422.44
404.869	426.44
405.093	434.44
405.317	436.44
405.541	438.44
405.765	425.44
405.988	431.44
406.212	409.44
406.436	455.44
406.66	471.44
406.883	450.44
407.107	463.44
407.331	512.44
407.555	522.44
407.778	532.44
408.002	486.44
408.226	459.44
408.449	458.44
408.673	464.44
408.896	475.44
409.12	485.44
409.344	455.44
409.567	442.44
409.791	421.44
410.014	423.44
410.238	409.44
410.461	430.44
410.685	422.44
410.908	450.44
411.132	455.44
411.355	454.44
411.578	431.44
411.802	419.44
412.025	406.44
412.249	412.44
412.472	424.44
412.695	415.44
412.919	413.44
413.142	420.44
413.365	417.44
413.589	415.44
413.812	399.44
414.035	400.44
414.258	391.44
414.482	378.44
414.705	405.44
414.928	399.44
415.151	404.44
415.374	399.44
415.597	403.44
415.821	384.44
416.044	399.44
416.267	401.44
416.49	393.44
416.713	394.44
416.936	403.44
417.159	403.44
417.382	399.44
417.605	392.44
417.828	402.44
418.051	424.44
418.274	395.44
418.497	403.44
418.72	399.44
418.943	405.44
419.166	403.44
419.389	427.44
419.611	452.44
419.834	409.44
420.057	434.44
420.28	421.44
420.503	401.44
420.726	410.44
420.948	406.44
421.171	440.44
421.394	479.44
421.617	426.44
421.839	414.44
422.062	412.44
422.285	407.44
422.507	463.44
422.73	504.44
422.953	471.44
423.175	446.44
423.398	432.44
423.621	419.44
423.843	441.44
424.066	451.44
424.288	443.44
424.511	465.44
424.733	466.44
424.956	525.44
425.178	493.44
425.401	499.44
425.623	531.44
425.846	481.44
426.068	449.44
426.291	433.44
426.513	451.44
426.735	420.44
426.958	444.44
427.18	506.44
427.402	582.44
427.625	618.44
427.847	558.44
428.069	482.44
428.292	440.44
428.514	422.44
428.736	413.44
428.958	417.44
429.181	400.44
429.403	394.44
429.625	406.44
429.847	443.44
430.069	463.44
430.292	466.44
430.514	408.44
430.736	401.44
430.958	391.44
431.18	389.44
431.402	387.44
431.624	370.44
431.846	378.44
432.068	378.44
432.29	381.44
432.512	411.44
432.734	393.44
432.956	396.44
433.178	384.44
433.4	397.44
433.622	377.44
433.844	400.44
434.066	402.44
434.287	371.44
434.509	401.44
434.731	404.44
434.953	401.44
435.175	405.44
435.397	430.44
435.618	437.44
435.84	448.44
436.062	511.44
436.284	555.44
436.505	479.44
436.727	444.44
436.949	405.44
437.17	412.44
437.392	414.44
437.614	405.44
437.835	424.44
438.057	482.44
438.278	546.44
438.5	539.44
438.721	581.44
438.943	559.44
439.165	471.44
439.386	415.44
439.608	423.44
439.829	406.44
440.05	452.44
440.272	471.44
440.493	445.44
440.715	404.44
440.936	405.44
441.158	408.44
441.379	411.44
441.6	417.44
441.822	433.44
442.043	443.44
442.264	514.44
442.486	531.44
442.707	450.44
442.928	454.44
443.149	457.44
443.371	449.44
443.592	479.44
443.813	543.44
444.034	561.44
444.255	496.44
444.476	441.44
444.698	455.44
444.919	438.44
445.14	548.44
445.361	489.44
445.582	454.44
445.803	495.44
446.024	569.44
446.245	543.44
446.466	507.44
446.687	463.44
446.908	424.44
447.129	411.44
447.35	408.44
447.571	407.44
447.792	374.44
448.013	394.44
448.234	398.44
448.455	435.44
448.675	507.44
448.896	574.44
449.117	499.44
449.338	474.44
449.559	542.44
449.779	577.44
450	479.44
450.221	423.44
450.442	413.44
450.662	379.44
450.883	393.44
451.104	413.44
451.324	401.44
451.545	392.44
451.766	375.44
451.986	366.44
452.207	377.44
452.428	357.44
452.648	362.44
452.869	356.44
453.089	357.44
453.31	364.44
453.53	363.44
453.751	358.44
453.971	363.44
454.192	365.44
454.412	373.44
454.633	370.44
454.853	362.44
455.073	374.44
455.294	377.44
455.514	399.44
455.734	401.44
455.955	357.44
456.175	335.44
456.395	349.44
456.616	347.44
456.836	347.44
457.056	338.44
457.276	321.44
457.497	349.44
457.717	345.44
457.937	350.44
458.157	353.44
458.377	367.44
458.598	370.44
458.818	393.44
459.038	465.44
459.258	461.44
459.478	409.44
459.698	388.44
459.918	384.44
460.138	396.44
460.358	401.44
460.578	387.44
460.798	384.44
461.018	393.44
461.238	395.44
461.458	401.44
461.678	389.44
461.898	401.44
462.118	424.44
462.338	404.44
462.558	425.44
462.777	395.44
462.997	435.44
463.217	435.44
463.437	450.44
463.657	449.44
463.876	413.44
464.096	435.44
464.316	421.44
464.536	427.44
464.755	438.44
464.975	428.44
465.195	458.44
465.414	504.44
465.634	445.44
465.854	418.44
466.073	376.44
466.293	386.44
466.512	367.44
466.732	362.44
466.951	383.44
467.171	377.44
467.391	383.44
467.61	401.44
467.829	409.44
468.049	386.44
468.268	406.44
468.488	387.44
468.707	377.44
468.927	359.44
469.146	353.44
469.365	381.44
469.585	370.44
469.804	358.44
470.023	354.44
470.243	378.44
470.462	397.44
470.681	399.44
470.901	371.44
471.12	378.44
471.339	370.44
471.558	366.44
471.777	388.44
471.997	406.44
472.216	394.44
472.435	459.44
472.654	424.44
472.873	385.44
473.092	370.44
473.311	378.44
473.53	381.44
473.749	371.44
473.968	413.44
474.187	474.44
474.406	457.44
474.625	416.44
474.844	390.44
475.063	371.44
475.282	385.44
475.501	371.44
475.72	389.44
475.939	374.44
476.158	377.44
476.377	403.44
476.596	393.44
476.814	382.44
477.033	401.44
477.252	398.44
477.471	405.44
477.69	414.44
477.908	402.44
478.127	430.44
478.346	409.44
478.564	431.44
478.783	424.44
479.002	442.44
479.22	442.44
479.439	458.44
479.658	459.44
479.876	450.44
480.095	470.44
480.313	495.44
480.532	479.44
480.751	481.44
480.969	481.44
481.188	579.44
481.406	632.44
481.624	520.44
481.843	477.44
482.061	450.44
482.28	422.44
482.498	448.44
482.717	438.44
482.935	440.44
483.153	432.44
483.372	456.44
483.59	462.44
483.808	459.44
484.027	441.44
484.245	441.44
484.463	436.44
484.681	450.44
484.9	451.44
485.118	445.44
485.336	442.44
485.554	435.44
485.772	449.44
485.99	471.44
486.209	463.44
486.427	458.44
486.645	457.44
486.863	478.44
487.081	475.44
487.299	456.44
487.517	457.44
487.735	474.44
487.953	457.44
488.171	474.44
488.389	480.44
488.607	465.44
488.825	469.44
489.043	459.44
489.261	491.44
489.479	467.44
489.696	469.44
489.914	477.44
490.132	475.44
490.35	491.44
490.568	517.44
490.786	503.44
491.003	511.44
491.221	474.44
491.439	521.44
491.657	515.44
491.874	518.44
492.092	507.44
492.31	533.44
492.527	529.44
492.745	533.44
492.963	534.44
493.18	531.44
493.398	546.44
493.615	546.44
493.833	542.44
494.05	540.44
494.268	562.44
494.485	531.44
494.703	535.44
494.92	541.44
495.138	531.44
495.355	521.44
495.573	544.44
495.79	550.44
496.008	562.44
496.225	539.44
496.442	546.44
496.66	545.44
496.877	532.44
497.094	561.44
497.312	561.44
497.529	587.44
497.746	571.44
497.963	572.44
498.181	584.44
498.398	620.44
498.615	599.44
498.832	621.44
499.049	618.44
499.267	649.44
499.484	697.44
499.701	712.44
499.918	728.44
500.135	795.44
500.352	847.44
500.569	817.44
500.786	830.44
501.003	855.44
501.22	776.44
501.437	763.44
501.654	713.44
501.871	713.44
502.088	680.44
