Data from 1986.PennyLincolnUp.Lamp.En5.5.200Scan.071819.P2_HRD10591_17-11-38-974.txt Node
Date: Thu Jul 18 17:11:38 EDT 2019
User: cochatt
Spectrometer: HR+D1059
Trigger mode: 1
Integration Time (sec): 1.000000E-1
Scans to average: 1
Electric dark correction enabled: true
Nonlinearity correction enabled: false
Boxcar width: 0
XAxis mode: Wavelengths
Number of Pixels in Spectrum: 2048
>>>>>Begin Spectral Data<<<<<
223.165	-20.81
223.4	-20.81
223.635	-20.81
223.869	-17.81
224.104	-16.81
224.338	-10.81
224.573	-9.81
224.808	-13.81
225.042	-11.81
225.277	-6.81
225.511	1.19
225.746	2.19
225.98	5.19
226.215	1.19
226.449	32.19
226.683	5.19
226.918	33.19
227.152	28.19
227.387	33.19
227.621	32.19
227.856	45.19
228.09	40.19
228.324	57.19
228.559	52.19
228.793	67.19
229.027	115.19
229.262	114.19
229.496	108.19
229.73	136.19
229.964	161.19
230.199	145.19
230.433	118.19
230.667	115.19
230.901	118.19
231.136	109.19
231.37	123.19
231.604	105.19
231.838	111.19
232.072	104.19
232.306	121.19
232.541	113.19
232.775	100.19
233.009	104.19
233.243	108.19
233.477	117.19
233.711	101.19
233.945	116.19
234.179	131.19
234.413	117.19
234.647	116.19
234.881	116.19
235.115	127.19
235.349	119.19
235.583	111.19
235.817	126.19
236.051	128.19
236.285	136.19
236.519	123.19
236.753	139.19
236.987	137.19
237.221	195.19
237.455	251.19
237.689	200.19
237.922	163.19
238.156	131.19
238.39	132.19
238.624	142.19
238.858	114.19
239.091	125.19
239.325	131.19
239.559	122.19
239.793	123.19
240.027	127.19
240.26	150.19
240.494	170.19
240.728	151.19
240.961	139.19
241.195	160.19
241.429	128.19
241.662	141.19
241.896	122.19
242.13	126.19
242.363	144.19
242.597	141.19
242.83	144.19
243.064	151.19
243.298	140.19
243.531	145.19
243.765	143.19
243.998	141.19
244.232	126.19
244.465	145.19
244.699	157.19
244.932	137.19
245.166	154.19
245.399	144.19
245.633	141.19
245.866	151.19
246.099	156.19
246.333	153.19
246.566	153.19
246.8	157.19
247.033	155.19
247.266	146.19
247.5	167.19
247.733	178.19
247.966	172.19
248.2	172.19
248.433	197.19
248.666	173.19
248.899	186.19
249.133	217.19
249.366	234.19
249.599	225.19
249.832	183.19
250.066	198.19
250.299	215.19
250.532	204.19
250.765	231.19
250.998	268.19
251.231	246.19
251.465	249.19
251.698	236.19
251.931	212.19
252.164	232.19
252.397	216.19
252.63	220.19
252.863	222.19
253.096	237.19
253.329	260.19
253.562	232.19
253.795	228.19
254.028	231.19
254.261	231.19
254.494	253.19
254.727	267.19
254.96	314.19
255.193	300.19
255.426	280.19
255.659	256.19
255.892	269.19
256.124	292.19
256.357	313.19
256.59	298.19
256.823	269.19
257.056	249.19
257.289	251.19
257.521	228.19
257.754	246.19
257.987	229.19
258.22	234.19
258.452	222.19
258.685	229.19
258.918	216.19
259.151	227.19
259.383	230.19
259.616	231.19
259.849	240.19
260.081	239.19
260.314	262.19
260.547	283.19
260.779	272.19
261.012	258.19
261.244	236.19
261.477	231.19
261.71	239.19
261.942	261.19
262.175	250.19
262.407	239.19
262.64	229.19
262.872	205.19
263.105	233.19
263.337	216.19
263.57	241.19
263.802	226.19
264.035	219.19
264.267	218.19
264.499	228.19
264.732	213.19
264.964	225.19
265.197	212.19
265.429	201.19
265.661	216.19
265.894	220.19
266.126	211.19
266.358	217.19
266.591	220.19
266.823	226.19
267.055	242.19
267.287	252.19
267.52	227.19
267.752	237.19
267.984	227.19
268.216	232.19
268.448	243.19
268.681	235.19
268.913	250.19
269.145	260.19
269.377	273.19
269.609	285.19
269.841	298.19
270.073	293.19
270.306	303.19
270.538	334.19
270.77	332.19
271.002	332.19
271.234	308.19
271.466	321.19
271.698	323.19
271.93	328.19
272.162	339.19
272.394	333.19
272.626	324.19
272.858	300.19
273.09	292.19
273.322	288.19
273.553	289.19
273.785	268.19
274.017	264.19
274.249	266.19
274.481	260.19
274.713	284.19
274.945	293.19
275.176	294.19
275.408	259.19
275.64	284.19
275.872	273.19
276.104	269.19
276.335	255.19
276.567	292.19
276.799	296.19
277.031	325.19
277.262	343.19
277.494	329.19
277.726	331.19
277.957	312.19
278.189	281.19
278.421	290.19
278.652	294.19
278.884	288.19
279.115	283.19
279.347	286.19
279.579	277.19
279.81	280.19
280.042	290.19
280.273	289.19
280.505	273.19
280.736	272.19
280.968	280.19
281.199	295.19
281.431	268.19
281.662	272.19
281.894	284.19
282.125	269.19
282.356	291.19
282.588	315.19
282.819	309.19
283.051	256.19
283.282	287.19
283.513	272.19
283.745	284.19
283.976	280.19
284.207	263.19
284.439	278.19
284.67	264.19
284.901	281.19
285.132	275.19
285.364	273.19
285.595	267.19
285.826	276.19
286.057	263.19
286.288	287.19
286.52	281.19
286.751	278.19
286.982	287.19
287.213	268.19
287.444	274.19
287.675	273.19
287.906	285.19
288.138	301.19
288.369	328.19
288.6	299.19
288.831	305.19
289.062	305.19
289.293	300.19
289.524	291.19
289.755	285.19
289.986	285.19
290.217	292.19
290.448	297.19
290.679	282.19
290.91	288.19
291.141	277.19
291.371	287.19
291.602	294.19
291.833	285.19
292.064	281.19
292.295	284.19
292.526	267.19
292.757	277.19
292.987	287.19
293.218	284.19
293.449	294.19
293.68	285.19
293.91	290.19
294.141	279.19
294.372	274.19
294.603	303.19
294.833	278.19
295.064	292.19
295.295	289.19
295.525	282.19
295.756	303.19
295.987	288.19
296.217	296.19
296.448	315.19
296.679	280.19
296.909	305.19
297.14	305.19
297.37	289.19
297.601	300.19
297.831	283.19
298.062	288.19
298.292	297.19
298.523	301.19
298.753	291.19
298.984	285.19
299.214	315.19
299.445	301.19
299.675	309.19
299.905	331.19
300.136	325.19
300.366	303.19
300.597	307.19
300.827	314.19
301.057	308.19
301.288	313.19
301.518	319.19
301.748	323.19
301.979	309.19
302.209	321.19
302.439	319.19
302.669	307.19
302.9	325.19
303.13	333.19
303.36	299.19
303.59	317.19
303.82	318.19
304.051	323.19
304.281	344.19
304.511	315.19
304.741	301.19
304.971	315.19
305.201	311.19
305.431	314.19
305.661	310.19
305.891	312.19
306.121	324.19
306.352	313.19
306.582	328.19
306.812	337.19
307.042	314.19
307.272	306.19
307.502	331.19
307.731	347.19
307.961	330.19
308.191	319.19
308.421	311.19
308.651	332.19
308.881	314.19
309.111	334.19
309.341	337.19
309.571	348.19
309.8	340.19
310.03	374.19
310.26	376.19
310.49	373.19
310.72	392.19
310.949	410.19
311.179	411.19
311.409	392.19
311.639	385.19
311.868	392.19
312.098	374.19
312.328	394.19
312.557	386.19
312.787	432.19
313.017	406.19
313.246	404.19
313.476	380.19
313.706	390.19
313.935	386.19
314.165	431.19
314.394	400.19
314.624	381.19
314.853	389.19
315.083	393.19
315.312	376.19
315.542	373.19
315.771	372.19
316.001	364.19
316.23	373.19
316.46	360.19
316.689	385.19
316.919	382.19
317.148	400.19
317.377	391.19
317.607	383.19
317.836	384.19
318.065	374.19
318.295	362.19
318.524	360.19
318.753	361.19
318.983	383.19
319.212	370.19
319.441	371.19
319.67	400.19
319.9	391.19
320.129	381.19
320.358	396.19
320.587	390.19
320.816	411.19
321.046	401.19
321.275	407.19
321.504	401.19
321.733	392.19
321.962	431.19
322.191	427.19
322.42	456.19
322.649	466.19
322.878	476.19
323.108	476.19
323.337	504.19
323.566	543.19
323.795	593.19
324.024	638.19
324.253	782.19
324.482	1082.19
324.71	1704.19
324.939	2464.19
325.168	2152.19
325.397	1136.19
325.626	757.19
325.855	637.19
326.084	548.19
326.313	528.19
326.542	563.19
326.77	605.19
326.999	736.19
327.228	980.19
327.457	1488.19
327.686	1837.19
327.914	1259.19
328.143	855.19
328.372	744.19
328.6	697.19
328.829	629.19
329.058	642.19
329.287	679.19
329.515	629.19
329.744	590.19
329.972	592.19
330.201	656.19
330.43	741.19
330.658	771.19
330.887	697.19
331.115	672.19
331.344	595.19
331.572	508.19
331.801	517.19
332.03	512.19
332.258	495.19
332.486	453.19
332.715	470.19
332.943	469.19
333.172	463.19
333.4	492.19
333.629	490.19
333.857	531.19
334.085	560.19
334.314	619.19
334.542	716.19
334.771	758.19
334.999	628.19
335.227	529.19
335.455	485.19
335.684	473.19
335.912	440.19
336.14	443.19
336.369	450.19
336.597	469.19
336.825	460.19
337.053	441.19
337.281	456.19
337.51	431.19
337.738	439.19
337.966	431.19
338.194	437.19
338.422	433.19
338.65	432.19
338.878	425.19
339.106	409.19
339.334	392.19
339.562	402.19
339.79	389.19
340.018	429.19
340.246	417.19
340.474	437.19
340.702	413.19
340.93	396.19
341.158	418.19
341.386	422.19
341.614	419.19
341.842	404.19
342.07	419.19
342.298	404.19
342.526	415.19
342.754	379.19
342.981	385.19
343.209	402.19
343.437	423.19
343.665	395.19
343.893	417.19
344.12	406.19
344.348	397.19
344.576	400.19
344.804	441.19
345.031	421.19
345.259	461.19
345.487	436.19
345.714	427.19
345.942	423.19
346.17	426.19
346.397	395.19
346.625	404.19
346.853	399.19
347.08	401.19
347.308	395.19
347.535	408.19
347.763	437.19
347.99	419.19
348.218	411.19
348.445	418.19
348.673	411.19
348.9	402.19
349.128	387.19
349.355	382.19
349.583	383.19
349.81	390.19
350.037	388.19
350.265	411.19
350.492	397.19
350.72	386.19
350.947	420.19
351.174	399.19
351.402	423.19
351.629	422.19
351.856	411.19
352.083	437.19
352.311	423.19
352.538	435.19
352.765	428.19
352.992	398.19
353.22	415.19
353.447	418.19
353.674	398.19
353.901	383.19
354.128	374.19
354.355	376.19
354.583	380.19
354.81	369.19
355.037	355.19
355.264	367.19
355.491	346.19
355.718	371.19
355.945	350.19
356.172	347.19
356.399	371.19
356.626	357.19
356.853	376.19
357.08	368.19
357.307	364.19
357.534	356.19
357.761	373.19
357.988	364.19
358.215	371.19
358.441	373.19
358.668	374.19
358.895	383.19
359.122	363.19
359.349	378.19
359.576	411.19
359.802	409.19
360.029	445.19
360.256	490.19
360.483	459.19
360.709	410.19
360.936	403.19
361.163	390.19
361.39	423.19
361.616	412.19
361.843	385.19
362.07	416.19
362.296	417.19
362.523	404.19
362.749	381.19
362.976	390.19
363.203	387.19
363.429	378.19
363.656	375.19
363.882	376.19
364.109	378.19
364.335	381.19
364.562	376.19
364.788	373.19
365.015	375.19
365.241	368.19
365.468	394.19
365.694	389.19
365.92	370.19
366.147	391.19
366.373	378.19
366.599	385.19
366.826	377.19
367.052	353.19
367.278	369.19
367.505	370.19
367.731	371.19
367.957	390.19
368.184	396.19
368.41	377.19
368.636	388.19
368.862	406.19
369.089	391.19
369.315	384.19
369.541	360.19
369.767	378.19
369.993	367.19
370.219	352.19
370.445	373.19
370.672	367.19
370.898	374.19
371.124	347.19
371.35	346.19
371.576	354.19
371.802	353.19
372.028	355.19
372.254	365.19
372.48	375.19
372.706	371.19
372.932	362.19
373.158	357.19
373.384	363.19
373.61	379.19
373.835	370.19
374.061	367.19
374.287	379.19
374.513	364.19
374.739	383.19
374.965	368.19
375.191	363.19
375.416	372.19
375.642	371.19
375.868	360.19
376.094	350.19
376.319	373.19
376.545	373.19
376.771	353.19
376.997	351.19
377.222	355.19
377.448	349.19
377.674	352.19
377.899	373.19
378.125	367.19
378.35	352.19
378.576	354.19
378.802	347.19
379.027	357.19
379.253	356.19
379.478	360.19
379.704	362.19
379.929	362.19
380.155	356.19
380.38	371.19
380.606	375.19
380.831	363.19
381.057	377.19
381.282	374.19
381.507	367.19
381.733	371.19
381.958	360.19
382.184	373.19
382.409	355.19
382.634	357.19
382.86	355.19
383.085	349.19
383.31	349.19
383.535	364.19
383.761	371.19
383.986	391.19
384.211	368.19
384.436	364.19
384.662	371.19
384.887	373.19
385.112	362.19
385.337	385.19
385.562	379.19
385.787	370.19
386.013	377.19
386.238	397.19
386.463	391.19
386.688	375.19
386.913	373.19
387.138	377.19
387.363	377.19
387.588	374.19
387.813	391.19
388.038	382.19
388.263	372.19
388.488	397.19
388.713	380.19
388.938	389.19
389.163	390.19
389.387	375.19
389.612	381.19
389.837	381.19
390.062	391.19
390.287	382.19
390.512	386.19
390.736	390.19
390.961	369.19
391.186	373.19
391.411	377.19
391.636	370.19
391.86	378.19
392.085	403.19
392.31	367.19
392.534	384.19
392.759	382.19
392.984	382.19
393.208	378.19
393.433	379.19
393.658	372.19
393.882	376.19
394.107	386.19
394.331	366.19
394.556	381.19
394.78	367.19
395.005	360.19
395.229	373.19
395.454	397.19
395.678	375.19
395.903	402.19
396.127	417.19
396.352	420.19
396.576	405.19
396.801	394.19
397.025	411.19
397.249	403.19
397.474	423.19
397.698	415.19
397.922	404.19
398.147	427.19
398.371	405.19
398.595	419.19
398.82	424.19
399.044	423.19
399.268	450.19
399.492	422.19
399.717	440.19
399.941	470.19
400.165	505.19
400.389	522.19
400.613	476.19
400.837	448.19
401.062	442.19
401.286	448.19
401.51	430.19
401.734	424.19
401.958	431.19
402.182	442.19
402.406	440.19
402.63	450.19
402.854	439.19
403.078	435.19
403.302	418.19
403.526	441.19
403.75	440.19
403.974	441.19
404.198	462.19
404.422	455.19
404.645	474.19
404.869	465.19
405.093	541.19
405.317	556.19
405.541	605.19
405.765	544.19
405.988	519.19
406.212	483.19
406.436	537.19
406.66	505.19
406.883	493.19
407.107	530.19
407.331	567.19
407.555	600.19
407.778	578.19
408.002	544.19
408.226	503.19
408.449	486.19
408.673	498.19
408.896	511.19
409.12	559.19
409.344	532.19
409.567	476.19
409.791	461.19
410.014	461.19
410.238	443.19
410.461	450.19
410.685	462.19
410.908	475.19
411.132	515.19
411.355	524.19
411.578	509.19
411.802	477.19
412.025	445.19
412.249	473.19
412.472	521.19
412.695	569.19
412.919	581.19
413.142	524.19
413.365	460.19
413.589	471.19
413.812	458.19
414.035	438.19
414.258	424.19
414.482	430.19
414.705	430.19
414.928	430.19
415.151	419.19
415.374	425.19
415.597	421.19
415.821	416.19
416.044	428.19
416.267	437.19
416.49	423.19
416.713	411.19
416.936	430.19
417.159	421.19
417.382	435.19
417.605	447.19
417.828	463.19
418.051	475.19
418.274	441.19
418.497	422.19
418.72	450.19
418.943	426.19
419.166	442.19
419.389	458.19
419.611	457.19
419.834	463.19
420.057	459.19
420.28	491.19
420.503	496.19
420.726	468.19
420.948	490.19
421.171	522.19
421.394	553.19
421.617	501.19
421.839	458.19
422.062	453.19
422.285	480.19
422.507	537.19
422.73	588.19
422.953	544.19
423.175	506.19
423.398	465.19
423.621	457.19
423.843	495.19
424.066	501.19
424.288	498.19
424.511	507.19
424.733	545.19
424.956	667.19
425.178	613.19
425.401	605.19
425.623	640.19
425.846	565.19
426.068	521.19
426.291	491.19
426.513	495.19
426.735	513.19
426.958	545.19
427.18	662.19
427.402	777.19
427.625	842.19
427.847	769.19
428.069	699.19
428.292	586.19
428.514	544.19
428.736	512.19
428.958	473.19
429.181	480.19
429.403	470.19
429.625	482.19
429.847	520.19
430.069	587.19
430.292	585.19
430.514	486.19
430.736	458.19
430.958	452.19
431.18	437.19
431.402	437.19
431.624	414.19
431.846	421.19
432.068	419.19
432.29	432.19
432.512	417.19
432.734	443.19
432.956	426.19
433.178	431.19
433.4	453.19
433.622	450.19
433.844	432.19
434.066	436.19
434.287	434.19
434.509	451.19
434.731	432.19
434.953	436.19
435.175	452.19
435.397	481.19
435.618	482.19
435.84	535.19
436.062	633.19
436.284	722.19
436.505	584.19
436.727	545.19
436.949	487.19
437.17	473.19
437.392	482.19
437.614	473.19
437.835	517.19
438.057	628.19
438.278	716.19
438.5	701.19
438.721	772.19
438.943	733.19
439.165	600.19
439.386	522.19
439.608	520.19
439.829	534.19
440.05	549.19
440.272	603.19
440.493	568.19
440.715	511.19
440.936	463.19
441.158	453.19
441.379	474.19
441.6	465.19
441.822	526.19
442.043	545.19
442.264	612.19
442.486	687.19
442.707	559.19
442.928	532.19
443.149	541.19
443.371	532.19
443.592	595.19
443.813	671.19
444.034	712.19
444.255	600.19
444.476	520.19
444.698	519.19
444.919	490.19
445.14	579.19
445.361	529.19
445.582	540.19
445.803	596.19
446.024	735.19
446.245	720.19
446.466	647.19
446.687	560.19
446.908	523.19
447.129	491.19
447.35	483.19
447.571	491.19
447.792	463.19
448.013	482.19
448.234	492.19
448.455	563.19
448.675	642.19
448.896	753.19
449.117	649.19
449.338	604.19
449.559	723.19
449.779	797.19
450	646.19
450.221	561.19
450.442	469.19
450.662	459.19
450.883	483.19
451.104	506.19
451.324	492.19
451.545	478.19
451.766	445.19
451.986	423.19
452.207	446.19
452.428	420.19
452.648	419.19
452.869	441.19
453.089	422.19
453.31	418.19
453.53	430.19
453.751	437.19
453.971	438.19
454.192	457.19
454.412	451.19
454.633	425.19
454.853	417.19
455.073	425.19
455.294	439.19
455.514	510.19
455.734	522.19
455.955	436.19
456.175	397.19
456.395	409.19
456.616	400.19
456.836	363.19
457.056	394.19
457.276	389.19
457.497	387.19
457.717	377.19
457.937	400.19
458.157	404.19
458.377	402.19
458.598	422.19
458.818	482.19
459.038	572.19
459.258	578.19
459.478	484.19
459.698	453.19
459.918	410.19
460.138	421.19
460.358	418.19
460.578	410.19
460.798	436.19
461.018	427.19
461.238	410.19
461.458	412.19
461.678	411.19
461.898	412.19
462.118	424.19
462.338	420.19
462.558	426.19
462.777	438.19
462.997	416.19
463.217	455.19
463.437	426.19
463.657	420.19
463.876	429.19
464.096	415.19
464.316	423.19
464.536	437.19
464.755	444.19
464.975	449.19
465.195	513.19
465.414	618.19
465.634	520.19
465.854	480.19
466.073	449.19
466.293	434.19
466.512	431.19
466.732	403.19
466.951	415.19
467.171	411.19
467.391	420.19
467.61	457.19
467.829	437.19
468.049	460.19
468.268	473.19
468.488	447.19
468.707	418.19
468.927	415.19
469.146	418.19
469.365	419.19
469.585	422.19
469.804	402.19
470.023	448.19
470.243	441.19
470.462	428.19
470.681	443.19
470.901	451.19
471.12	437.19
471.339	439.19
471.558	427.19
471.777	457.19
471.997	457.19
472.216	491.19
472.435	583.19
472.654	539.19
472.873	471.19
473.092	451.19
473.311	446.19
473.53	445.19
473.749	441.19
473.968	499.19
474.187	593.19
474.406	624.19
474.625	527.19
474.844	455.19
475.063	441.19
475.282	444.19
475.501	441.19
475.72	454.19
475.939	458.19
476.158	452.19
476.377	456.19
476.596	434.19
476.814	491.19
477.033	469.19
477.252	453.19
477.471	457.19
477.69	457.19
477.908	455.19
478.127	490.19
478.346	481.19
478.564	488.19
478.783	469.19
479.002	482.19
479.22	484.19
479.439	503.19
479.658	537.19
479.876	552.19
480.095	541.19
480.313	562.19
480.532	565.19
480.751	552.19
480.969	605.19
481.188	752.19
481.406	915.19
481.624	677.19
481.843	604.19
482.061	560.19
482.28	537.19
482.498	526.19
482.717	531.19
482.935	529.19
483.153	523.19
483.372	523.19
483.59	523.19
483.808	545.19
484.027	540.19
484.245	515.19
484.463	530.19
484.681	526.19
484.9	522.19
485.118	492.19
485.336	541.19
485.554	519.19
485.772	550.19
485.99	546.19
486.209	533.19
486.427	550.19
486.645	561.19
486.863	571.19
487.081	571.19
487.299	566.19
487.517	575.19
487.735	546.19
487.953	561.19
488.171	564.19
488.389	555.19
488.607	545.19
488.825	577.19
489.043	580.19
489.261	578.19
489.479	553.19
489.696	586.19
489.914	589.19
490.132	597.19
490.35	599.19
490.568	631.19
490.786	614.19
491.003	639.19
491.221	647.19
491.439	653.19
491.657	645.19
491.874	670.19
492.092	681.19
492.31	672.19
492.527	666.19
492.745	649.19
492.963	683.19
493.18	700.19
493.398	691.19
493.615	688.19
493.833	680.19
494.05	689.19
494.268	681.19
494.485	696.19
494.703	669.19
494.92	666.19
495.138	687.19
495.355	675.19
495.573	706.19
495.79	715.19
496.008	700.19
496.225	692.19
496.442	698.19
496.66	675.19
496.877	675.19
497.094	707.19
497.312	668.19
497.529	684.19
497.746	682.19
497.963	672.19
498.181	736.19
498.398	700.19
498.615	716.19
498.832	724.19
499.049	718.19
499.267	727.19
499.484	704.19
499.701	767.19
499.918	752.19
500.135	758.19
500.352	793.19
500.569	834.19
500.786	820.19
501.003	788.19
501.22	794.19
501.437	802.19
501.654	797.19
501.871	805.19
