Data from 1986.PennyLincolnUp.Lamp.En5.5.200Scan.071819.P2_HRD10591_17-11-53-972.txt Node
Date: Thu Jul 18 17:11:53 EDT 2019
User: cochatt
Spectrometer: HR+D1059
Trigger mode: 1
Integration Time (sec): 1.000000E-1
Scans to average: 1
Electric dark correction enabled: true
Nonlinearity correction enabled: false
Boxcar width: 0
XAxis mode: Wavelengths
Number of Pixels in Spectrum: 2048
>>>>>Begin Spectral Data<<<<<
223.165	-23.38
223.4	-23.38
223.635	-23.38
223.869	-20.38
224.104	-20.38
224.338	-6.38
224.573	-4.38
224.808	-11.38
225.042	-19.38
225.277	2.62
225.511	-1.38
225.746	6.62
225.98	5.62
226.215	14.62
226.449	7.62
226.683	13.62
226.918	31.62
227.152	24.62
227.387	35.62
227.621	44.62
227.856	33.62
228.09	44.62
228.324	44.62
228.559	60.62
228.793	61.62
229.027	87.62
229.262	108.62
229.496	116.62
229.73	127.62
229.964	160.62
230.199	140.62
230.433	107.62
230.667	118.62
230.901	114.62
231.136	106.62
231.37	107.62
231.604	119.62
231.838	115.62
232.072	134.62
232.306	123.62
232.541	122.62
232.775	106.62
233.009	114.62
233.243	107.62
233.477	126.62
233.711	122.62
233.945	121.62
234.179	125.62
234.413	116.62
234.647	119.62
234.881	105.62
235.115	118.62
235.349	114.62
235.583	134.62
235.817	131.62
236.051	144.62
236.285	130.62
236.519	136.62
236.753	150.62
236.987	157.62
237.221	199.62
237.455	255.62
237.689	196.62
237.922	154.62
238.156	142.62
238.39	118.62
238.624	130.62
238.858	138.62
239.091	130.62
239.325	159.62
239.559	150.62
239.793	143.62
240.027	135.62
240.26	151.62
240.494	170.62
240.728	153.62
240.961	170.62
241.195	152.62
241.429	146.62
241.662	135.62
241.896	148.62
242.13	162.62
242.363	130.62
242.597	131.62
242.83	136.62
243.064	157.62
243.298	142.62
243.531	141.62
243.765	142.62
243.998	146.62
244.232	140.62
244.465	162.62
244.699	152.62
244.932	142.62
245.166	143.62
245.399	164.62
245.633	157.62
245.866	142.62
246.099	157.62
246.333	160.62
246.566	167.62
246.8	150.62
247.033	160.62
247.266	181.62
247.5	179.62
247.733	165.62
247.966	192.62
248.2	181.62
248.433	197.62
248.666	185.62
248.899	198.62
249.133	212.62
249.366	223.62
249.599	222.62
249.832	208.62
250.066	208.62
250.299	205.62
250.532	221.62
250.765	242.62
250.998	260.62
251.231	282.62
251.465	239.62
251.698	222.62
251.931	218.62
252.164	212.62
252.397	230.62
252.63	228.62
252.863	216.62
253.096	227.62
253.329	259.62
253.562	250.62
253.795	251.62
254.028	259.62
254.261	256.62
254.494	258.62
254.727	290.62
254.96	307.62
255.193	317.62
255.426	268.62
255.659	290.62
255.892	295.62
256.124	291.62
256.357	334.62
256.59	314.62
256.823	299.62
257.056	246.62
257.289	235.62
257.521	247.62
257.754	258.62
257.987	246.62
258.22	244.62
258.452	220.62
258.685	232.62
258.918	221.62
259.151	234.62
259.383	241.62
259.616	239.62
259.849	249.62
260.081	252.62
260.314	259.62
260.547	278.62
260.779	295.62
261.012	269.62
261.244	244.62
261.477	251.62
261.71	245.62
261.942	243.62
262.175	268.62
262.407	268.62
262.64	215.62
262.872	209.62
263.105	233.62
263.337	229.62
263.57	228.62
263.802	221.62
264.035	230.62
264.267	214.62
264.499	222.62
264.732	220.62
264.964	219.62
265.197	227.62
265.429	217.62
265.661	239.62
265.894	218.62
266.126	233.62
266.358	232.62
266.591	217.62
266.823	241.62
267.055	234.62
267.287	237.62
267.52	227.62
267.752	232.62
267.984	239.62
268.216	227.62
268.448	224.62
268.681	263.62
268.913	268.62
269.145	260.62
269.377	285.62
269.609	290.62
269.841	285.62
270.073	293.62
270.306	291.62
270.538	312.62
270.77	325.62
271.002	331.62
271.234	321.62
271.466	312.62
271.698	347.62
271.93	332.62
272.162	336.62
272.394	329.62
272.626	327.62
272.858	298.62
273.09	294.62
273.322	294.62
273.553	283.62
273.785	287.62
274.017	280.62
274.249	299.62
274.481	282.62
274.713	285.62
274.945	291.62
275.176	286.62
275.408	273.62
275.64	286.62
275.872	288.62
276.104	282.62
276.335	272.62
276.567	299.62
276.799	294.62
277.031	332.62
277.262	339.62
277.494	337.62
277.726	319.62
277.957	308.62
278.189	317.62
278.421	284.62
278.652	300.62
278.884	293.62
279.115	290.62
279.347	274.62
279.579	282.62
279.81	274.62
280.042	270.62
280.273	281.62
280.505	280.62
280.736	264.62
280.968	284.62
281.199	279.62
281.431	294.62
281.662	278.62
281.894	291.62
282.125	286.62
282.356	283.62
282.588	303.62
282.819	304.62
283.051	285.62
283.282	280.62
283.513	270.62
283.745	286.62
283.976	292.62
284.207	288.62
284.439	286.62
284.67	281.62
284.901	290.62
285.132	271.62
285.364	266.62
285.595	270.62
285.826	277.62
286.057	299.62
286.288	298.62
286.52	289.62
286.751	266.62
286.982	287.62
287.213	278.62
287.444	280.62
287.675	281.62
287.906	310.62
288.138	314.62
288.369	300.62
288.6	299.62
288.831	303.62
289.062	307.62
289.293	303.62
289.524	287.62
289.755	288.62
289.986	292.62
290.217	286.62
290.448	300.62
290.679	282.62
290.91	294.62
291.141	290.62
291.371	280.62
291.602	284.62
291.833	296.62
292.064	278.62
292.295	290.62
292.526	268.62
292.757	275.62
292.987	287.62
293.218	298.62
293.449	296.62
293.68	286.62
293.91	269.62
294.141	271.62
294.372	285.62
294.603	270.62
294.833	286.62
295.064	286.62
295.295	306.62
295.525	295.62
295.756	286.62
295.987	288.62
296.217	335.62
296.448	337.62
296.679	313.62
296.909	298.62
297.14	287.62
297.37	287.62
297.601	316.62
297.831	300.62
298.062	283.62
298.292	302.62
298.523	298.62
298.753	306.62
298.984	294.62
299.214	302.62
299.445	296.62
299.675	324.62
299.905	322.62
300.136	303.62
300.366	322.62
300.597	302.62
300.827	300.62
301.057	335.62
301.288	338.62
301.518	323.62
301.748	326.62
301.979	317.62
302.209	310.62
302.439	312.62
302.669	323.62
302.9	310.62
303.13	339.62
303.36	322.62
303.59	317.62
303.82	338.62
304.051	338.62
304.281	317.62
304.511	323.62
304.741	306.62
304.971	317.62
305.201	308.62
305.431	329.62
305.661	331.62
305.891	317.62
306.121	326.62
306.352	329.62
306.582	334.62
306.812	317.62
307.042	324.62
307.272	330.62
307.502	313.62
307.731	329.62
307.961	331.62
308.191	339.62
308.421	333.62
308.651	342.62
308.881	335.62
309.111	338.62
309.341	348.62
309.571	355.62
309.8	354.62
310.03	374.62
310.26	384.62
310.49	392.62
310.72	383.62
310.949	406.62
311.179	439.62
311.409	390.62
311.639	386.62
311.868	378.62
312.098	396.62
312.328	382.62
312.557	398.62
312.787	432.62
313.017	435.62
313.246	406.62
313.476	394.62
313.706	377.62
313.935	387.62
314.165	400.62
314.394	390.62
314.624	391.62
314.853	404.62
315.083	399.62
315.312	383.62
315.542	363.62
315.771	363.62
316.001	391.62
316.23	373.62
316.46	379.62
316.689	367.62
316.919	380.62
317.148	389.62
317.377	398.62
317.607	388.62
317.836	395.62
318.065	383.62
318.295	371.62
318.524	387.62
318.753	379.62
318.983	376.62
319.212	380.62
319.441	399.62
319.67	412.62
319.9	395.62
320.129	386.62
320.358	357.62
320.587	374.62
320.816	423.62
321.046	428.62
321.275	429.62
321.504	393.62
321.733	386.62
321.962	426.62
322.191	432.62
322.42	452.62
322.649	485.62
322.878	475.62
323.108	480.62
323.337	534.62
323.566	562.62
323.795	584.62
324.024	652.62
324.253	788.62
324.482	1143.62
324.71	1746.62
324.939	2449.62
325.168	2183.62
325.397	1168.62
325.626	770.62
325.855	618.62
326.084	604.62
326.313	563.62
326.542	558.62
326.77	612.62
326.999	728.62
327.228	993.62
327.457	1540.62
327.686	1914.62
327.914	1328.62
328.143	873.62
328.372	789.62
328.6	714.62
328.829	664.62
329.058	670.62
329.287	667.62
329.515	643.62
329.744	598.62
329.972	646.62
330.201	710.62
330.43	817.62
330.658	798.62
330.887	739.62
331.115	694.62
331.344	591.62
331.572	550.62
331.801	548.62
332.03	566.62
332.258	536.62
332.486	481.62
332.715	475.62
332.943	479.62
333.172	489.62
333.4	507.62
333.629	498.62
333.857	556.62
334.085	604.62
334.314	689.62
334.542	808.62
334.771	857.62
334.999	690.62
335.227	556.62
335.455	490.62
335.684	487.62
335.912	471.62
336.14	450.62
336.369	464.62
336.597	473.62
336.825	462.62
337.053	442.62
337.281	438.62
337.51	431.62
337.738	436.62
337.966	446.62
338.194	454.62
338.422	464.62
338.65	454.62
338.878	420.62
339.106	412.62
339.334	407.62
339.562	419.62
339.79	440.62
340.018	411.62
340.246	420.62
340.474	426.62
340.702	409.62
340.93	425.62
341.158	406.62
341.386	418.62
341.614	424.62
341.842	415.62
342.07	420.62
342.298	420.62
342.526	414.62
342.754	391.62
342.981	408.62
343.209	402.62
343.437	407.62
343.665	407.62
343.893	406.62
344.12	406.62
344.348	400.62
344.576	443.62
344.804	436.62
345.031	434.62
345.259	448.62
345.487	448.62
345.714	408.62
345.942	426.62
346.17	415.62
346.397	403.62
346.625	404.62
346.853	386.62
347.08	415.62
347.308	408.62
347.535	410.62
347.763	426.62
347.99	404.62
348.218	435.62
348.445	426.62
348.673	418.62
348.9	422.62
349.128	398.62
349.355	383.62
349.583	403.62
349.81	399.62
350.037	396.62
350.265	393.62
350.492	402.62
350.72	391.62
350.947	399.62
351.174	417.62
351.402	426.62
351.629	406.62
351.856	406.62
352.083	426.62
352.311	456.62
352.538	418.62
352.765	443.62
352.992	430.62
353.22	413.62
353.447	423.62
353.674	394.62
353.901	374.62
354.128	390.62
354.355	389.62
354.583	382.62
354.81	365.62
355.037	371.62
355.264	369.62
355.491	376.62
355.718	350.62
355.945	374.62
356.172	375.62
356.399	363.62
356.626	351.62
356.853	370.62
357.08	342.62
357.307	361.62
357.534	363.62
357.761	365.62
357.988	379.62
358.215	354.62
358.441	362.62
358.668	387.62
358.895	391.62
359.122	399.62
359.349	398.62
359.576	408.62
359.802	421.62
360.029	446.62
360.256	466.62
360.483	455.62
360.709	416.62
360.936	407.62
361.163	405.62
361.39	408.62
361.616	414.62
361.843	396.62
362.07	407.62
362.296	410.62
362.523	398.62
362.749	388.62
362.976	388.62
363.203	384.62
363.429	397.62
363.656	371.62
363.882	388.62
364.109	383.62
364.335	382.62
364.562	377.62
364.788	379.62
365.015	390.62
365.241	388.62
365.468	393.62
365.694	383.62
365.92	404.62
366.147	366.62
366.373	382.62
366.599	385.62
366.826	367.62
367.052	379.62
367.278	380.62
367.505	382.62
367.731	382.62
367.957	380.62
368.184	359.62
368.41	383.62
368.636	402.62
368.862	400.62
369.089	375.62
369.315	363.62
369.541	386.62
369.767	370.62
369.993	366.62
370.219	378.62
370.445	365.62
370.672	356.62
370.898	365.62
371.124	382.62
371.35	354.62
371.576	373.62
371.802	378.62
372.028	367.62
372.254	370.62
372.48	359.62
372.706	371.62
372.932	362.62
373.158	365.62
373.384	377.62
373.61	365.62
373.835	384.62
374.061	354.62
374.287	364.62
374.513	365.62
374.739	366.62
374.965	364.62
375.191	368.62
375.416	373.62
375.642	377.62
375.868	356.62
376.094	368.62
376.319	362.62
376.545	349.62
376.771	341.62
376.997	352.62
377.222	350.62
377.448	358.62
377.674	362.62
377.899	357.62
378.125	364.62
378.35	349.62
378.576	372.62
378.802	346.62
379.027	366.62
379.253	343.62
379.478	356.62
379.704	351.62
379.929	353.62
380.155	376.62
380.38	376.62
380.606	353.62
380.831	348.62
381.057	370.62
381.282	363.62
381.507	364.62
381.733	363.62
381.958	378.62
382.184	364.62
382.409	360.62
382.634	355.62
382.86	356.62
383.085	376.62
383.31	338.62
383.535	372.62
383.761	378.62
383.986	379.62
384.211	368.62
384.436	380.62
384.662	375.62
384.887	374.62
385.112	363.62
385.337	375.62
385.562	370.62
385.787	377.62
386.013	397.62
386.238	362.62
386.463	378.62
386.688	366.62
386.913	374.62
387.138	382.62
387.363	381.62
387.588	371.62
387.813	380.62
388.038	379.62
388.263	378.62
388.488	370.62
388.713	373.62
388.938	386.62
389.163	389.62
389.387	380.62
389.612	369.62
389.837	361.62
390.062	390.62
390.287	386.62
390.512	391.62
390.736	365.62
390.961	370.62
391.186	380.62
391.411	373.62
391.636	358.62
391.86	377.62
392.085	382.62
392.31	365.62
392.534	382.62
392.759	386.62
392.984	402.62
393.208	382.62
393.433	349.62
393.658	370.62
393.882	371.62
394.107	365.62
394.331	372.62
394.556	377.62
394.78	364.62
395.005	375.62
395.229	358.62
395.454	386.62
395.678	383.62
395.903	398.62
396.127	420.62
396.352	419.62
396.576	399.62
396.801	398.62
397.025	382.62
397.249	397.62
397.474	382.62
397.698	406.62
397.922	413.62
398.147	422.62
398.371	435.62
398.595	428.62
398.82	411.62
399.044	428.62
399.268	439.62
399.492	436.62
399.717	480.62
399.941	496.62
400.165	516.62
400.389	518.62
400.613	474.62
400.837	461.62
401.062	442.62
401.286	421.62
401.51	416.62
401.734	401.62
401.958	431.62
402.182	428.62
402.406	446.62
402.63	446.62
402.854	443.62
403.078	423.62
403.302	432.62
403.526	448.62
403.75	446.62
403.974	451.62
404.198	440.62
404.422	467.62
404.645	482.62
404.869	482.62
405.093	536.62
405.317	568.62
405.541	620.62
405.765	556.62
405.988	499.62
406.212	501.62
406.436	524.62
406.66	531.62
406.883	488.62
407.107	518.62
407.331	548.62
407.555	602.62
407.778	624.62
408.002	529.62
408.226	490.62
408.449	477.62
408.673	490.62
408.896	525.62
409.12	562.62
409.344	538.62
409.567	474.62
409.791	479.62
410.014	459.62
410.238	445.62
410.461	479.62
410.685	444.62
410.908	460.62
411.132	502.62
411.355	550.62
411.578	521.62
411.802	480.62
412.025	462.62
412.249	498.62
412.472	530.62
412.695	584.62
412.919	589.62
413.142	499.62
413.365	500.62
413.589	480.62
413.812	458.62
414.035	456.62
414.258	440.62
414.482	448.62
414.705	432.62
414.928	439.62
415.151	418.62
415.374	406.62
415.597	431.62
415.821	428.62
416.044	432.62
416.267	441.62
416.49	416.62
416.713	424.62
416.936	430.62
417.159	415.62
417.382	453.62
417.605	451.62
417.828	454.62
418.051	452.62
418.274	442.62
418.497	427.62
418.72	431.62
418.943	448.62
419.166	423.62
419.389	471.62
419.611	462.62
419.834	452.62
420.057	476.62
420.28	479.62
420.503	489.62
420.726	492.62
420.948	488.62
421.171	544.62
421.394	558.62
421.617	479.62
421.839	450.62
422.062	475.62
422.285	462.62
422.507	555.62
422.73	619.62
422.953	615.62
423.175	507.62
423.398	472.62
423.621	469.62
423.843	508.62
424.066	494.62
424.288	488.62
424.511	506.62
424.733	552.62
424.956	647.62
425.178	618.62
425.401	626.62
425.623	618.62
425.846	546.62
426.068	501.62
426.291	490.62
426.513	511.62
426.735	520.62
426.958	558.62
427.18	628.62
427.402	729.62
427.625	863.62
427.847	777.62
428.069	708.62
428.292	619.62
428.514	521.62
428.736	500.62
428.958	489.62
429.181	475.62
429.403	463.62
429.625	502.62
429.847	508.62
430.069	596.62
430.292	601.62
430.514	496.62
430.736	464.62
430.958	465.62
431.18	441.62
431.402	440.62
431.624	428.62
431.846	428.62
432.068	435.62
432.29	422.62
432.512	428.62
432.734	430.62
432.956	441.62
433.178	442.62
433.4	466.62
433.622	447.62
433.844	426.62
434.066	450.62
434.287	430.62
434.509	430.62
434.731	431.62
434.953	434.62
435.175	447.62
435.397	468.62
435.618	504.62
435.84	535.62
436.062	638.62
436.284	698.62
436.505	591.62
436.727	548.62
436.949	504.62
437.17	475.62
437.392	447.62
437.614	502.62
437.835	523.62
438.057	628.62
438.278	724.62
438.5	707.62
438.721	778.62
438.943	741.62
439.165	582.62
439.386	556.62
439.608	534.62
439.829	534.62
440.05	558.62
440.272	587.62
440.493	556.62
440.715	541.62
440.936	518.62
441.158	499.62
441.379	467.62
441.6	496.62
441.822	518.62
442.043	521.62
442.264	628.62
442.486	677.62
442.707	540.62
442.928	523.62
443.149	535.62
443.371	538.62
443.592	595.62
443.813	666.62
444.034	724.62
444.255	611.62
444.476	548.62
444.698	522.62
444.919	478.62
445.14	568.62
445.361	531.62
445.582	537.62
445.803	623.62
446.024	740.62
446.245	751.62
446.466	677.62
446.687	575.62
446.908	523.62
447.129	497.62
447.35	466.62
447.571	472.62
447.792	468.62
448.013	471.62
448.234	506.62
448.455	552.62
448.675	644.62
448.896	752.62
449.117	640.62
449.338	611.62
449.559	716.62
449.779	793.62
450	674.62
450.221	542.62
450.442	488.62
450.662	453.62
450.883	470.62
451.104	520.62
451.324	470.62
451.545	466.62
451.766	438.62
451.986	425.62
452.207	426.62
452.428	420.62
452.648	412.62
452.869	425.62
453.089	422.62
453.31	464.62
453.53	441.62
453.751	432.62
453.971	467.62
454.192	453.62
454.412	459.62
454.633	412.62
454.853	431.62
455.073	440.62
455.294	462.62
455.514	526.62
455.734	519.62
455.955	434.62
456.175	403.62
456.395	406.62
456.616	382.62
456.836	406.62
457.056	394.62
457.276	356.62
457.497	394.62
457.717	394.62
457.937	401.62
458.157	392.62
458.377	391.62
458.598	425.62
458.818	494.62
459.038	606.62
459.258	597.62
459.478	491.62
459.698	435.62
459.918	452.62
460.138	403.62
460.358	410.62
460.578	409.62
460.798	426.62
461.018	430.62
461.238	418.62
461.458	443.62
461.678	395.62
461.898	423.62
462.118	422.62
462.338	424.62
462.558	431.62
462.777	422.62
462.997	424.62
463.217	441.62
463.437	482.62
463.657	443.62
463.876	438.62
464.096	459.62
464.316	442.62
464.536	447.62
464.755	459.62
464.975	445.62
465.195	512.62
465.414	616.62
465.634	513.62
465.854	473.62
466.073	453.62
466.293	422.62
466.512	446.62
466.732	428.62
466.951	421.62
467.171	422.62
467.391	424.62
467.61	440.62
467.829	456.62
468.049	454.62
468.268	471.62
468.488	461.62
468.707	426.62
468.927	435.62
469.146	407.62
469.365	410.62
469.585	405.62
469.804	454.62
470.023	446.62
470.243	421.62
470.462	429.62
470.681	473.62
470.901	458.62
471.12	432.62
471.339	447.62
471.558	430.62
471.777	444.62
471.997	436.62
472.216	489.62
472.435	624.62
472.654	590.62
472.873	500.62
473.092	482.62
473.311	458.62
473.53	467.62
473.749	464.62
473.968	510.62
474.187	616.62
474.406	620.62
474.625	521.62
474.844	450.62
475.063	448.62
475.282	438.62
475.501	441.62
475.72	443.62
475.939	450.62
476.158	437.62
476.377	460.62
476.596	466.62
476.814	457.62
477.033	456.62
477.252	444.62
477.471	479.62
477.69	469.62
477.908	485.62
478.127	467.62
478.346	455.62
478.564	476.62
478.783	475.62
479.002	488.62
479.22	489.62
479.439	482.62
479.658	510.62
479.876	528.62
480.095	543.62
480.313	574.62
480.532	548.62
480.751	550.62
480.969	611.62
481.188	835.62
481.406	1005.62
481.624	744.62
481.843	623.62
482.061	588.62
482.28	574.62
482.498	552.62
482.717	578.62
482.935	558.62
483.153	543.62
483.372	517.62
483.59	534.62
483.808	523.62
484.027	507.62
484.245	522.62
484.463	548.62
484.681	552.62
484.9	532.62
485.118	505.62
485.336	528.62
485.554	530.62
485.772	546.62
485.99	550.62
486.209	563.62
486.427	551.62
486.645	581.62
486.863	557.62
487.081	574.62
487.299	560.62
487.517	564.62
487.735	559.62
487.953	589.62
488.171	554.62
488.389	569.62
488.607	579.62
488.825	588.62
489.043	570.62
489.261	592.62
489.479	590.62
489.696	613.62
489.914	592.62
490.132	589.62
490.35	609.62
490.568	617.62
490.786	627.62
491.003	612.62
491.221	655.62
491.439	664.62
491.657	674.62
491.874	694.62
492.092	670.62
492.31	707.62
492.527	701.62
492.745	693.62
492.963	716.62
493.18	727.62
493.398	702.62
493.615	714.62
493.833	698.62
494.05	709.62
494.268	691.62
494.485	712.62
494.703	695.62
494.92	707.62
495.138	695.62
495.355	701.62
495.573	688.62
495.79	673.62
496.008	691.62
496.225	694.62
496.442	701.62
496.66	693.62
496.877	684.62
497.094	692.62
497.312	690.62
497.529	701.62
497.746	704.62
497.963	710.62
498.181	723.62
498.398	714.62
498.615	704.62
498.832	723.62
499.049	719.62
499.267	717.62
499.484	739.62
499.701	728.62
499.918	769.62
500.135	790.62
500.352	762.62
500.569	808.62
500.786	822.62
501.003	840.62
501.22	795.62
501.437	811.62
501.654	782.62
501.871	792.62
