Data from 1986.PennyLincolnUp.Lamp.En5.5.200Scan.071819.P2_HRD10591_17-12-18-972.txt Node
Date: Thu Jul 18 17:12:18 EDT 2019
User: cochatt
Spectrometer: HR+D1059
Trigger mode: 1
Integration Time (sec): 1.000000E-1
Scans to average: 1
Electric dark correction enabled: true
Nonlinearity correction enabled: false
Boxcar width: 0
XAxis mode: Wavelengths
Number of Pixels in Spectrum: 2048
>>>>>Begin Spectral Data<<<<<
223.165	-15.19
223.4	-15.19
223.635	-15.19
223.869	-15.19
224.104	-21.19
224.338	-7.19
224.573	-12.19
224.808	-16.19
225.042	-19.19
225.277	1.81
225.511	4.81
225.746	5.81
225.98	1.81
226.215	-0.19
226.449	19.81
226.683	27.81
226.918	18.81
227.152	25.81
227.387	23.81
227.621	40.81
227.856	50.81
228.09	49.81
228.324	50.81
228.559	64.81
228.793	66.81
229.027	96.81
229.262	114.81
229.496	117.81
229.73	132.81
229.964	164.81
230.199	129.81
230.433	119.81
230.667	125.81
230.901	116.81
231.136	127.81
231.37	115.81
231.604	112.81
231.838	111.81
232.072	119.81
232.306	121.81
232.541	105.81
232.775	98.81
233.009	121.81
233.243	127.81
233.477	118.81
233.711	128.81
233.945	109.81
234.179	121.81
234.413	118.81
234.647	117.81
234.881	114.81
235.115	122.81
235.349	119.81
235.583	124.81
235.817	137.81
236.051	140.81
236.285	131.81
236.519	132.81
236.753	122.81
236.987	163.81
237.221	210.81
237.455	250.81
237.689	210.81
237.922	151.81
238.156	139.81
238.39	133.81
238.624	149.81
238.858	125.81
239.091	127.81
239.325	122.81
239.559	124.81
239.793	127.81
240.027	138.81
240.26	144.81
240.494	168.81
240.728	168.81
240.961	156.81
241.195	153.81
241.429	136.81
241.662	146.81
241.896	135.81
242.13	151.81
242.363	132.81
242.597	142.81
242.83	133.81
243.064	161.81
243.298	134.81
243.531	131.81
243.765	137.81
243.998	144.81
244.232	146.81
244.465	156.81
244.699	148.81
244.932	152.81
245.166	153.81
245.399	153.81
245.633	162.81
245.866	158.81
246.099	153.81
246.333	160.81
246.566	162.81
246.8	184.81
247.033	175.81
247.266	182.81
247.5	167.81
247.733	163.81
247.966	181.81
248.2	192.81
248.433	166.81
248.666	191.81
248.899	202.81
249.133	213.81
249.366	226.81
249.599	218.81
249.832	210.81
250.066	202.81
250.299	219.81
250.532	228.81
250.765	245.81
250.998	270.81
251.231	288.81
251.465	250.81
251.698	236.81
251.931	217.81
252.164	218.81
252.397	214.81
252.63	228.81
252.863	239.81
253.096	234.81
253.329	268.81
253.562	258.81
253.795	241.81
254.028	231.81
254.261	246.81
254.494	233.81
254.727	282.81
254.96	313.81
255.193	318.81
255.426	275.81
255.659	287.81
255.892	316.81
256.124	326.81
256.357	362.81
256.59	346.81
256.823	314.81
257.056	271.81
257.289	271.81
257.521	242.81
257.754	263.81
257.987	259.81
258.22	242.81
258.452	246.81
258.685	244.81
258.918	242.81
259.151	239.81
259.383	233.81
259.616	249.81
259.849	260.81
260.081	262.81
260.314	281.81
260.547	283.81
260.779	265.81
261.012	246.81
261.244	250.81
261.477	251.81
261.71	260.81
261.942	243.81
262.175	287.81
262.407	242.81
262.64	235.81
262.872	238.81
263.105	231.81
263.337	233.81
263.57	231.81
263.802	229.81
264.035	229.81
264.267	238.81
264.499	234.81
264.732	237.81
264.964	236.81
265.197	236.81
265.429	242.81
265.661	241.81
265.894	211.81
266.126	230.81
266.358	235.81
266.591	237.81
266.823	235.81
267.055	260.81
267.287	252.81
267.52	256.81
267.752	251.81
267.984	243.81
268.216	247.81
268.448	243.81
268.681	234.81
268.913	241.81
269.145	279.81
269.377	293.81
269.609	297.81
269.841	297.81
270.073	288.81
270.306	303.81
270.538	334.81
270.77	334.81
271.002	353.81
271.234	324.81
271.466	333.81
271.698	330.81
271.93	321.81
272.162	318.81
272.394	345.81
272.626	331.81
272.858	306.81
273.09	310.81
273.322	296.81
273.553	286.81
273.785	286.81
274.017	272.81
274.249	281.81
274.481	288.81
274.713	289.81
274.945	283.81
275.176	287.81
275.408	307.81
275.64	287.81
275.872	287.81
276.104	285.81
276.335	298.81
276.567	277.81
276.799	308.81
277.031	337.81
277.262	349.81
277.494	349.81
277.726	325.81
277.957	321.81
278.189	293.81
278.421	312.81
278.652	288.81
278.884	270.81
279.115	294.81
279.347	295.81
279.579	286.81
279.81	288.81
280.042	295.81
280.273	295.81
280.505	317.81
280.736	293.81
280.968	291.81
281.199	296.81
281.431	274.81
281.662	286.81
281.894	272.81
282.125	270.81
282.356	284.81
282.588	337.81
282.819	324.81
283.051	291.81
283.282	277.81
283.513	297.81
283.745	287.81
283.976	289.81
284.207	309.81
284.439	281.81
284.67	310.81
284.901	269.81
285.132	285.81
285.364	293.81
285.595	295.81
285.826	282.81
286.057	291.81
286.288	279.81
286.52	277.81
286.751	273.81
286.982	291.81
287.213	301.81
287.444	279.81
287.675	299.81
287.906	308.81
288.138	310.81
288.369	323.81
288.6	315.81
288.831	321.81
289.062	326.81
289.293	276.81
289.524	301.81
289.755	326.81
289.986	285.81
290.217	309.81
290.448	303.81
290.679	307.81
290.91	295.81
291.141	296.81
291.371	311.81
291.602	301.81
291.833	299.81
292.064	277.81
292.295	290.81
292.526	295.81
292.757	293.81
292.987	281.81
293.218	285.81
293.449	293.81
293.68	294.81
293.91	290.81
294.141	292.81
294.372	299.81
294.603	311.81
294.833	293.81
295.064	279.81
295.295	292.81
295.525	289.81
295.756	298.81
295.987	304.81
296.217	323.81
296.448	347.81
296.679	316.81
296.909	297.81
297.14	297.81
297.37	319.81
297.601	309.81
297.831	313.81
298.062	305.81
298.292	293.81
298.523	285.81
298.753	287.81
298.984	300.81
299.214	308.81
299.445	316.81
299.675	304.81
299.905	343.81
300.136	327.81
300.366	307.81
300.597	323.81
300.827	331.81
301.057	332.81
301.288	329.81
301.518	331.81
301.748	333.81
301.979	336.81
302.209	337.81
302.439	338.81
302.669	326.81
302.9	325.81
303.13	328.81
303.36	319.81
303.59	335.81
303.82	348.81
304.051	344.81
304.281	324.81
304.511	320.81
304.741	326.81
304.971	321.81
305.201	325.81
305.431	334.81
305.661	333.81
305.891	340.81
306.121	324.81
306.352	322.81
306.582	332.81
306.812	339.81
307.042	338.81
307.272	324.81
307.502	329.81
307.731	345.81
307.961	347.81
308.191	346.81
308.421	346.81
308.651	342.81
308.881	342.81
309.111	346.81
309.341	353.81
309.571	373.81
309.8	379.81
310.03	378.81
310.26	377.81
310.49	375.81
310.72	402.81
310.949	397.81
311.179	416.81
311.409	412.81
311.639	385.81
311.868	393.81
312.098	410.81
312.328	391.81
312.557	420.81
312.787	408.81
313.017	422.81
313.246	429.81
313.476	375.81
313.706	381.81
313.935	383.81
314.165	401.81
314.394	409.81
314.624	416.81
314.853	421.81
315.083	397.81
315.312	369.81
315.542	359.81
315.771	375.81
316.001	373.81
316.23	377.81
316.46	391.81
316.689	373.81
316.919	410.81
317.148	409.81
317.377	415.81
317.607	404.81
317.836	389.81
318.065	359.81
318.295	385.81
318.524	389.81
318.753	379.81
318.983	388.81
319.212	387.81
319.441	391.81
319.67	392.81
319.9	391.81
320.129	380.81
320.358	393.81
320.587	409.81
320.816	419.81
321.046	415.81
321.275	419.81
321.504	417.81
321.733	425.81
321.962	423.81
322.191	445.81
322.42	467.81
322.649	466.81
322.878	484.81
323.108	510.81
323.337	508.81
323.566	566.81
323.795	576.81
324.024	634.81
324.253	763.81
324.482	1156.81
324.71	1753.81
324.939	2503.81
325.168	2236.81
325.397	1181.81
325.626	755.81
325.855	663.81
326.084	556.81
326.313	591.81
326.542	594.81
326.77	644.81
326.999	724.81
327.228	1034.81
327.457	1583.81
327.686	1930.81
327.914	1336.81
328.143	943.81
328.372	826.81
328.6	770.81
328.829	688.81
329.058	677.81
329.287	708.81
329.515	695.81
329.744	658.81
329.972	689.81
330.201	775.81
330.43	903.81
330.658	883.81
330.887	786.81
331.115	728.81
331.344	651.81
331.572	581.81
331.801	565.81
332.03	581.81
332.258	546.81
332.486	507.81
332.715	519.81
332.943	515.81
333.172	514.81
333.4	519.81
333.629	563.81
333.857	583.81
334.085	652.81
334.314	771.81
334.542	940.81
334.771	992.81
334.999	772.81
335.227	613.81
335.455	586.81
335.684	533.81
335.912	505.81
336.14	483.81
336.369	467.81
336.597	494.81
336.825	488.81
337.053	469.81
337.281	452.81
337.51	448.81
337.738	459.81
337.966	468.81
338.194	461.81
338.422	463.81
338.65	438.81
338.878	434.81
339.106	437.81
339.334	428.81
339.562	434.81
339.79	437.81
340.018	420.81
340.246	410.81
340.474	434.81
340.702	427.81
340.93	441.81
341.158	438.81
341.386	423.81
341.614	420.81
341.842	438.81
342.07	438.81
342.298	420.81
342.526	425.81
342.754	409.81
342.981	422.81
343.209	400.81
343.437	420.81
343.665	396.81
343.893	401.81
344.12	398.81
344.348	441.81
344.576	433.81
344.804	417.81
345.031	447.81
345.259	460.81
345.487	446.81
345.714	435.81
345.942	409.81
346.17	431.81
346.397	401.81
346.625	409.81
346.853	418.81
347.08	428.81
347.308	426.81
347.535	443.81
347.763	421.81
347.99	429.81
348.218	427.81
348.445	424.81
348.673	457.81
348.9	408.81
349.128	395.81
349.355	410.81
349.583	403.81
349.81	395.81
350.037	395.81
350.265	410.81
350.492	368.81
350.72	394.81
350.947	415.81
351.174	458.81
351.402	442.81
351.629	435.81
351.856	416.81
352.083	417.81
352.311	431.81
352.538	439.81
352.765	441.81
352.992	452.81
353.22	426.81
353.447	413.81
353.674	407.81
353.901	398.81
354.128	405.81
354.355	404.81
354.583	389.81
354.81	357.81
355.037	379.81
355.264	381.81
355.491	367.81
355.718	363.81
355.945	345.81
356.172	371.81
356.399	389.81
356.626	375.81
356.853	376.81
357.08	356.81
357.307	373.81
357.534	369.81
357.761	372.81
357.988	378.81
358.215	392.81
358.441	377.81
358.668	384.81
358.895	393.81
359.122	402.81
359.349	405.81
359.576	427.81
359.802	413.81
360.029	460.81
360.256	498.81
360.483	457.81
360.709	425.81
360.936	441.81
361.163	412.81
361.39	431.81
361.616	414.81
361.843	409.81
362.07	403.81
362.296	434.81
362.523	406.81
362.749	404.81
362.976	416.81
363.203	409.81
363.429	402.81
363.656	393.81
363.882	395.81
364.109	392.81
364.335	411.81
364.562	384.81
364.788	391.81
365.015	383.81
365.241	398.81
365.468	388.81
365.694	387.81
365.92	392.81
366.147	419.81
366.373	391.81
366.599	381.81
366.826	375.81
367.052	383.81
367.278	378.81
367.505	388.81
367.731	370.81
367.957	376.81
368.184	380.81
368.41	409.81
368.636	401.81
368.862	402.81
369.089	383.81
369.315	367.81
369.541	379.81
369.767	384.81
369.993	374.81
370.219	394.81
370.445	394.81
370.672	384.81
370.898	373.81
371.124	362.81
371.35	389.81
371.576	373.81
371.802	363.81
372.028	355.81
372.254	358.81
372.48	383.81
372.706	376.81
372.932	370.81
373.158	398.81
373.384	368.81
373.61	363.81
373.835	385.81
374.061	376.81
374.287	367.81
374.513	382.81
374.739	375.81
374.965	371.81
375.191	382.81
375.416	389.81
375.642	367.81
375.868	396.81
376.094	377.81
376.319	380.81
376.545	363.81
376.771	360.81
376.997	369.81
377.222	383.81
377.448	361.81
377.674	358.81
377.899	362.81
378.125	362.81
378.35	367.81
378.576	359.81
378.802	369.81
379.027	354.81
379.253	356.81
379.478	368.81
379.704	379.81
379.929	379.81
380.155	378.81
380.38	368.81
380.606	371.81
380.831	337.81
381.057	373.81
381.282	373.81
381.507	368.81
381.733	393.81
381.958	355.81
382.184	367.81
382.409	383.81
382.634	388.81
382.86	374.81
383.085	372.81
383.31	375.81
383.535	380.81
383.761	368.81
383.986	370.81
384.211	375.81
384.436	384.81
384.662	375.81
384.887	382.81
385.112	376.81
385.337	378.81
385.562	391.81
385.787	401.81
386.013	384.81
386.238	400.81
386.463	383.81
386.688	393.81
386.913	409.81
387.138	387.81
387.363	375.81
387.588	395.81
387.813	400.81
388.038	384.81
388.263	394.81
388.488	394.81
388.713	377.81
388.938	397.81
389.163	408.81
389.387	392.81
389.612	414.81
389.837	385.81
390.062	396.81
390.287	381.81
390.512	386.81
390.736	389.81
390.961	402.81
391.186	386.81
391.411	399.81
391.636	405.81
391.86	388.81
392.085	383.81
392.31	408.81
392.534	379.81
392.759	371.81
392.984	378.81
393.208	385.81
393.433	380.81
393.658	382.81
393.882	386.81
394.107	372.81
394.331	380.81
394.556	356.81
394.78	383.81
395.005	395.81
395.229	391.81
395.454	407.81
395.678	376.81
395.903	406.81
396.127	435.81
396.352	456.81
396.576	419.81
396.801	404.81
397.025	391.81
397.249	381.81
397.474	402.81
397.698	406.81
397.922	415.81
398.147	456.81
398.371	443.81
398.595	431.81
398.82	433.81
399.044	431.81
399.268	441.81
399.492	454.81
399.717	491.81
399.941	499.81
400.165	525.81
400.389	520.81
400.613	497.81
400.837	460.81
401.062	469.81
401.286	428.81
401.51	445.81
401.734	437.81
401.958	436.81
402.182	430.81
402.406	461.81
402.63	442.81
402.854	426.81
403.078	453.81
403.302	427.81
403.526	451.81
403.75	468.81
403.974	458.81
404.198	466.81
404.422	473.81
404.645	491.81
404.869	517.81
405.093	550.81
405.317	587.81
405.541	632.81
405.765	614.81
405.988	529.81
406.212	523.81
406.436	538.81
406.66	531.81
406.883	537.81
407.107	527.81
407.331	550.81
407.555	621.81
407.778	631.81
408.002	569.81
408.226	517.81
408.449	518.81
408.673	531.81
408.896	535.81
409.12	547.81
409.344	550.81
409.567	492.81
409.791	503.81
410.014	475.81
410.238	482.81
410.461	474.81
410.685	484.81
410.908	509.81
411.132	527.81
411.355	549.81
411.578	543.81
411.802	483.81
412.025	490.81
412.249	512.81
412.472	540.81
412.695	649.81
412.919	635.81
413.142	538.81
413.365	520.81
413.589	512.81
413.812	488.81
414.035	469.81
414.258	456.81
414.482	451.81
414.705	459.81
414.928	448.81
415.151	461.81
415.374	440.81
415.597	439.81
415.821	435.81
416.044	459.81
416.267	465.81
416.49	448.81
416.713	433.81
416.936	424.81
417.159	448.81
417.382	471.81
417.605	472.81
417.828	479.81
418.051	500.81
418.274	472.81
418.497	480.81
418.72	448.81
418.943	455.81
419.166	460.81
419.389	464.81
419.611	485.81
419.834	474.81
420.057	502.81
420.28	508.81
420.503	523.81
420.726	523.81
420.948	516.81
421.171	551.81
421.394	580.81
421.617	499.81
421.839	501.81
422.062	481.81
422.285	489.81
422.507	549.81
422.73	623.81
422.953	605.81
423.175	514.81
423.398	496.81
423.621	511.81
423.843	516.81
424.066	520.81
424.288	497.81
424.511	517.81
424.733	590.81
424.956	677.81
425.178	620.81
425.401	620.81
425.623	659.81
425.846	543.81
426.068	501.81
426.291	513.81
426.513	501.81
426.735	521.81
426.958	569.81
427.18	642.81
427.402	781.81
427.625	841.81
427.847	782.81
428.069	739.81
428.292	645.81
428.514	566.81
428.736	527.81
428.958	509.81
429.181	490.81
429.403	483.81
429.625	476.81
429.847	539.81
430.069	586.81
430.292	566.81
430.514	512.81
430.736	501.81
430.958	469.81
431.18	469.81
431.402	429.81
431.624	431.81
431.846	436.81
432.068	435.81
432.29	450.81
432.512	424.81
432.734	439.81
432.956	444.81
433.178	472.81
433.4	467.81
433.622	436.81
433.844	459.81
434.066	454.81
434.287	431.81
434.509	431.81
434.731	442.81
434.953	453.81
435.175	488.81
435.397	498.81
435.618	535.81
435.84	564.81
436.062	641.81
436.284	709.81
436.505	577.81
436.727	554.81
436.949	488.81
437.17	495.81
437.392	475.81
437.614	511.81
437.835	511.81
438.057	636.81
438.278	748.81
438.5	716.81
438.721	780.81
438.943	736.81
439.165	601.81
439.386	556.81
439.608	537.81
439.829	554.81
440.05	598.81
440.272	630.81
440.493	565.81
440.715	530.81
440.936	520.81
441.158	470.81
441.379	497.81
441.6	503.81
441.822	503.81
442.043	545.81
442.264	636.81
442.486	666.81
442.707	587.81
442.928	559.81
443.149	540.81
443.371	563.81
443.592	605.81
443.813	710.81
444.034	720.81
444.255	624.81
444.476	524.81
444.698	529.81
444.919	519.81
445.14	605.81
445.361	561.81
445.582	557.81
445.803	640.81
446.024	738.81
446.245	727.81
446.466	680.81
446.687	586.81
446.908	527.81
447.129	515.81
447.35	495.81
447.571	486.81
447.792	479.81
448.013	467.81
448.234	487.81
448.455	563.81
448.675	670.81
448.896	785.81
449.117	671.81
449.338	638.81
449.559	702.81
449.779	807.81
450	614.81
450.221	522.81
450.442	499.81
450.662	475.81
450.883	489.81
451.104	499.81
451.324	483.81
451.545	481.81
451.766	461.81
451.986	441.81
452.207	424.81
452.428	416.81
452.648	430.81
452.869	435.81
453.089	432.81
453.31	457.81
453.53	464.81
453.751	452.81
453.971	435.81
454.192	451.81
454.412	434.81
454.633	448.81
454.853	445.81
455.073	448.81
455.294	449.81
455.514	527.81
455.734	496.81
455.955	442.81
456.175	391.81
456.395	400.81
456.616	394.81
456.836	396.81
457.056	415.81
457.276	369.81
457.497	399.81
457.717	406.81
457.937	424.81
458.157	410.81
458.377	417.81
458.598	451.81
458.818	496.81
459.038	570.81
459.258	594.81
459.478	497.81
459.698	448.81
459.918	415.81
460.138	453.81
460.358	447.81
460.578	443.81
460.798	421.81
461.018	441.81
461.238	437.81
461.458	431.81
461.678	446.81
461.898	425.81
462.118	439.81
462.338	431.81
462.558	436.81
462.777	431.81
462.997	454.81
463.217	445.81
463.437	452.81
463.657	448.81
463.876	433.81
464.096	467.81
464.316	471.81
464.536	467.81
464.755	461.81
464.975	470.81
465.195	497.81
465.414	614.81
465.634	528.81
465.854	465.81
466.073	451.81
466.293	436.81
466.512	433.81
466.732	448.81
466.951	431.81
467.171	414.81
467.391	433.81
467.61	455.81
467.829	463.81
468.049	475.81
468.268	523.81
468.488	499.81
468.707	455.81
468.927	454.81
469.146	423.81
469.365	414.81
469.585	424.81
469.804	449.81
470.023	449.81
470.243	438.81
470.462	463.81
470.681	481.81
470.901	455.81
471.12	473.81
471.339	452.81
471.558	446.81
471.777	480.81
471.997	475.81
472.216	517.81
472.435	727.81
472.654	651.81
472.873	546.81
473.092	496.81
473.311	474.81
473.53	470.81
473.749	491.81
473.968	515.81
474.187	631.81
474.406	650.81
474.625	526.81
474.844	498.81
475.063	475.81
475.282	447.81
475.501	462.81
475.72	451.81
475.939	459.81
476.158	466.81
476.377	472.81
476.596	452.81
476.814	475.81
477.033	462.81
477.252	469.81
477.471	475.81
477.69	472.81
477.908	483.81
478.127	477.81
478.346	486.81
478.564	515.81
478.783	480.81
479.002	495.81
479.22	493.81
479.439	533.81
479.658	533.81
479.876	555.81
480.095	556.81
480.313	581.81
480.532	567.81
480.751	570.81
480.969	649.81
481.188	909.81
481.406	1141.81
481.624	839.81
481.843	691.81
482.061	636.81
482.28	623.81
482.498	587.81
482.717	577.81
482.935	571.81
483.153	564.81
483.372	548.81
483.59	542.81
483.808	572.81
484.027	549.81
484.245	546.81
484.463	552.81
484.681	556.81
484.9	562.81
485.118	579.81
485.336	570.81
485.554	577.81
485.772	553.81
485.99	557.81
486.209	580.81
486.427	577.81
486.645	596.81
486.863	608.81
487.081	615.81
487.299	605.81
487.517	583.81
487.735	580.81
487.953	587.81
488.171	586.81
488.389	608.81
488.607	599.81
488.825	595.81
489.043	596.81
489.261	607.81
489.479	611.81
489.696	597.81
489.914	619.81
490.132	627.81
490.35	639.81
490.568	650.81
490.786	649.81
491.003	657.81
491.221	695.81
491.439	683.81
491.657	705.81
491.874	711.81
492.092	724.81
492.31	729.81
492.527	715.81
492.745	744.81
492.963	724.81
493.18	736.81
493.398	741.81
493.615	739.81
493.833	746.81
494.05	743.81
494.268	730.81
494.485	733.81
494.703	725.81
494.92	732.81
495.138	730.81
495.355	708.81
495.573	732.81
495.79	733.81
496.008	701.81
496.225	716.81
496.442	715.81
496.66	732.81
496.877	717.81
497.094	704.81
497.312	709.81
497.529	711.81
497.746	744.81
497.963	714.81
498.181	743.81
498.398	731.81
498.615	724.81
498.832	759.81
499.049	730.81
499.267	762.81
499.484	759.81
499.701	778.81
499.918	797.81
500.135	807.81
500.352	838.81
500.569	841.81
500.786	849.81
501.003	850.81
501.22	832.81
501.437	819.81
501.654	853.81
501.871	825.81
