Data from 1986.PennyLincolnUp.Lamp.En5.5.200Scan.071819.P2_HRD10591_17-10-53-973.txt Node
Date: Thu Jul 18 17:10:53 EDT 2019
User: cochatt
Spectrometer: HR+D1059
Trigger mode: 1
Integration Time (sec): 1.000000E-1
Scans to average: 1
Electric dark correction enabled: true
Nonlinearity correction enabled: false
Boxcar width: 0
XAxis mode: Wavelengths
Number of Pixels in Spectrum: 2048
>>>>>Begin Spectral Data<<<<<
223.165	-5.06
223.4	-5.06
223.635	-5.06
223.869	-11.06
224.104	-16.06
224.338	-16.06
224.573	-16.06
224.808	-26.06
225.042	0.94
225.277	-7.06
225.511	-15.06
225.746	12.94
225.98	8.94
226.215	-7.06
226.449	9.94
226.683	11.94
226.918	32.94
227.152	41.94
227.387	33.94
227.621	24.94
227.856	40.94
228.09	38.94
228.324	58.94
228.559	63.94
228.793	80.94
229.027	100.94
229.262	104.94
229.496	122.94
229.73	142.94
229.964	170.94
230.199	133.94
230.433	130.94
230.667	112.94
230.901	128.94
231.136	106.94
231.37	109.94
231.604	116.94
231.838	107.94
232.072	126.94
232.306	111.94
232.541	123.94
232.775	112.94
233.009	117.94
233.243	134.94
233.477	111.94
233.711	119.94
233.945	119.94
234.179	115.94
234.413	117.94
234.647	120.94
234.881	129.94
235.115	109.94
235.349	138.94
235.583	122.94
235.817	121.94
236.051	133.94
236.285	123.94
236.519	134.94
236.753	154.94
236.987	148.94
237.221	186.94
237.455	233.94
237.689	204.94
237.922	143.94
238.156	143.94
238.39	126.94
238.624	133.94
238.858	135.94
239.091	128.94
239.325	128.94
239.559	128.94
239.793	119.94
240.027	126.94
240.26	147.94
240.494	165.94
240.728	140.94
240.961	161.94
241.195	141.94
241.429	142.94
241.662	137.94
241.896	132.94
242.13	119.94
242.363	109.94
242.597	133.94
242.83	149.94
243.064	137.94
243.298	116.94
243.531	130.94
243.765	133.94
243.998	125.94
244.232	142.94
244.465	125.94
244.699	163.94
244.932	155.94
245.166	144.94
245.399	144.94
245.633	128.94
245.866	148.94
246.099	162.94
246.333	135.94
246.566	151.94
246.8	142.94
247.033	162.94
247.266	169.94
247.5	167.94
247.733	165.94
247.966	189.94
248.2	169.94
248.433	179.94
248.666	180.94
248.899	187.94
249.133	202.94
249.366	231.94
249.599	205.94
249.832	196.94
250.066	175.94
250.299	194.94
250.532	196.94
250.765	223.94
250.998	239.94
251.231	251.94
251.465	244.94
251.698	208.94
251.931	220.94
252.164	213.94
252.397	205.94
252.63	210.94
252.863	221.94
253.096	231.94
253.329	220.94
253.562	228.94
253.795	235.94
254.028	240.94
254.261	244.94
254.494	239.94
254.727	278.94
254.96	295.94
255.193	297.94
255.426	277.94
255.659	275.94
255.892	274.94
256.124	262.94
256.357	258.94
256.59	259.94
256.823	247.94
257.056	237.94
257.289	235.94
257.521	233.94
257.754	229.94
257.987	225.94
258.22	219.94
258.452	189.94
258.685	226.94
258.918	211.94
259.151	222.94
259.383	238.94
259.616	232.94
259.849	226.94
260.081	240.94
260.314	266.94
260.547	272.94
260.779	267.94
261.012	247.94
261.244	237.94
261.477	224.94
261.71	234.94
261.942	232.94
262.175	250.94
262.407	244.94
262.64	244.94
262.872	206.94
263.105	204.94
263.337	221.94
263.57	220.94
263.802	223.94
264.035	226.94
264.267	224.94
264.499	214.94
264.732	228.94
264.964	209.94
265.197	233.94
265.429	203.94
265.661	196.94
265.894	212.94
266.126	213.94
266.358	210.94
266.591	205.94
266.823	226.94
267.055	228.94
267.287	230.94
267.52	209.94
267.752	222.94
267.984	230.94
268.216	233.94
268.448	232.94
268.681	245.94
268.913	252.94
269.145	265.94
269.377	283.94
269.609	271.94
269.841	270.94
270.073	274.94
270.306	284.94
270.538	336.94
270.77	344.94
271.002	324.94
271.234	319.94
271.466	306.94
271.698	312.94
271.93	341.94
272.162	318.94
272.394	317.94
272.626	284.94
272.858	302.94
273.09	287.94
273.322	298.94
273.553	282.94
273.785	247.94
274.017	279.94
274.249	284.94
274.481	262.94
274.713	262.94
274.945	282.94
275.176	258.94
275.408	271.94
275.64	262.94
275.872	276.94
276.104	270.94
276.335	262.94
276.567	258.94
276.799	309.94
277.031	295.94
277.262	345.94
277.494	334.94
277.726	316.94
277.957	292.94
278.189	285.94
278.421	270.94
278.652	256.94
278.884	267.94
279.115	270.94
279.347	247.94
279.579	262.94
279.81	255.94
280.042	260.94
280.273	267.94
280.505	256.94
280.736	259.94
280.968	272.94
281.199	251.94
281.431	253.94
281.662	250.94
281.894	262.94
282.125	253.94
282.356	294.94
282.588	303.94
282.819	295.94
283.051	276.94
283.282	276.94
283.513	247.94
283.745	265.94
283.976	270.94
284.207	277.94
284.439	290.94
284.67	285.94
284.901	286.94
285.132	265.94
285.364	249.94
285.595	272.94
285.826	251.94
286.057	270.94
286.288	269.94
286.52	262.94
286.751	273.94
286.982	270.94
287.213	282.94
287.444	266.94
287.675	267.94
287.906	283.94
288.138	280.94
288.369	291.94
288.6	293.94
288.831	277.94
289.062	284.94
289.293	274.94
289.524	276.94
289.755	272.94
289.986	271.94
290.217	273.94
290.448	262.94
290.679	271.94
290.91	261.94
291.141	298.94
291.371	271.94
291.602	290.94
291.833	255.94
292.064	274.94
292.295	272.94
292.526	278.94
292.757	268.94
292.987	291.94
293.218	266.94
293.449	278.94
293.68	290.94
293.91	271.94
294.141	280.94
294.372	272.94
294.603	282.94
294.833	273.94
295.064	282.94
295.295	266.94
295.525	283.94
295.756	294.94
295.987	312.94
296.217	320.94
296.448	328.94
296.679	289.94
296.909	291.94
297.14	268.94
297.37	281.94
297.601	291.94
297.831	280.94
298.062	276.94
298.292	279.94
298.523	275.94
298.753	295.94
298.984	263.94
299.214	266.94
299.445	289.94
299.675	293.94
299.905	291.94
300.136	307.94
300.366	283.94
300.597	289.94
300.827	302.94
301.057	282.94
301.288	293.94
301.518	306.94
301.748	312.94
301.979	294.94
302.209	303.94
302.439	290.94
302.669	299.94
302.9	295.94
303.13	296.94
303.36	296.94
303.59	307.94
303.82	329.94
304.051	325.94
304.281	303.94
304.511	308.94
304.741	324.94
304.971	302.94
305.201	289.94
305.431	290.94
305.661	305.94
305.891	292.94
306.121	317.94
306.352	319.94
306.582	325.94
306.812	318.94
307.042	322.94
307.272	320.94
307.502	312.94
307.731	311.94
307.961	294.94
308.191	304.94
308.421	304.94
308.651	315.94
308.881	302.94
309.111	320.94
309.341	333.94
309.571	338.94
309.8	347.94
310.03	342.94
310.26	359.94
310.49	373.94
310.72	374.94
310.949	389.94
311.179	391.94
311.409	378.94
311.639	377.94
311.868	360.94
312.098	360.94
312.328	387.94
312.557	369.94
312.787	410.94
313.017	410.94
313.246	383.94
313.476	378.94
313.706	358.94
313.935	347.94
314.165	380.94
314.394	393.94
314.624	378.94
314.853	382.94
315.083	372.94
315.312	363.94
315.542	358.94
315.771	370.94
316.001	361.94
316.23	360.94
316.46	347.94
316.689	360.94
316.919	367.94
317.148	377.94
317.377	367.94
317.607	354.94
317.836	372.94
318.065	367.94
318.295	354.94
318.524	370.94
318.753	360.94
318.983	377.94
319.212	360.94
319.441	368.94
319.67	374.94
319.9	334.94
320.129	364.94
320.358	366.94
320.587	389.94
320.816	382.94
321.046	388.94
321.275	377.94
321.504	380.94
321.733	400.94
321.962	402.94
322.191	428.94
322.42	433.94
322.649	442.94
322.878	455.94
323.108	459.94
323.337	492.94
323.566	521.94
323.795	568.94
324.024	624.94
324.253	747.94
324.482	1068.94
324.71	1680.94
324.939	2358.94
325.168	2082.94
325.397	1088.94
325.626	712.94
325.855	610.94
326.084	539.94
326.313	534.94
326.542	533.94
326.77	589.94
326.999	702.94
327.228	976.94
327.457	1436.94
327.686	1821.94
327.914	1220.94
328.143	807.94
328.372	688.94
328.6	635.94
328.829	602.94
329.058	603.94
329.287	635.94
329.515	577.94
329.744	540.94
329.972	555.94
330.201	544.94
330.43	628.94
330.658	662.94
330.887	655.94
331.115	639.94
331.344	509.94
331.572	498.94
331.801	516.94
332.03	484.94
332.258	476.94
332.486	454.94
332.715	425.94
332.943	428.94
333.172	430.94
333.4	450.94
333.629	430.94
333.857	468.94
334.085	501.94
334.314	499.94
334.542	556.94
334.771	565.94
334.999	506.94
335.227	449.94
335.455	429.94
335.684	446.94
335.912	400.94
336.14	414.94
336.369	427.94
336.597	406.94
336.825	401.94
337.053	406.94
337.281	443.94
337.51	419.94
337.738	403.94
337.966	401.94
338.194	428.94
338.422	414.94
338.65	397.94
338.878	398.94
339.106	407.94
339.334	406.94
339.562	392.94
339.79	404.94
340.018	403.94
340.246	388.94
340.474	407.94
340.702	410.94
340.93	391.94
341.158	390.94
341.386	392.94
341.614	388.94
341.842	414.94
342.07	389.94
342.298	410.94
342.526	401.94
342.754	373.94
342.981	389.94
343.209	371.94
343.437	366.94
343.665	380.94
343.893	395.94
344.12	401.94
344.348	379.94
344.576	401.94
344.804	428.94
345.031	413.94
345.259	420.94
345.487	435.94
345.714	399.94
345.942	383.94
346.17	407.94
346.397	394.94
346.625	378.94
346.853	379.94
347.08	385.94
347.308	395.94
347.535	386.94
347.763	417.94
347.99	409.94
348.218	409.94
348.445	424.94
348.673	428.94
348.9	411.94
349.128	395.94
349.355	391.94
349.583	384.94
349.81	374.94
350.037	382.94
350.265	397.94
350.492	377.94
350.72	375.94
350.947	396.94
351.174	389.94
351.402	418.94
351.629	411.94
351.856	415.94
352.083	391.94
352.311	415.94
352.538	444.94
352.765	411.94
352.992	401.94
353.22	408.94
353.447	395.94
353.674	391.94
353.901	363.94
354.128	361.94
354.355	356.94
354.583	362.94
354.81	356.94
355.037	386.94
355.264	358.94
355.491	360.94
355.718	335.94
355.945	347.94
356.172	363.94
356.399	363.94
356.626	359.94
356.853	360.94
357.08	344.94
357.307	335.94
357.534	332.94
357.761	348.94
357.988	340.94
358.215	351.94
358.441	343.94
358.668	367.94
358.895	362.94
359.122	377.94
359.349	382.94
359.576	393.94
359.802	414.94
360.029	432.94
360.256	464.94
360.483	444.94
360.709	390.94
360.936	391.94
361.163	402.94
361.39	393.94
361.616	404.94
361.843	396.94
362.07	375.94
362.296	380.94
362.523	401.94
362.749	377.94
362.976	379.94
363.203	363.94
363.429	376.94
363.656	381.94
363.882	369.94
364.109	375.94
364.335	355.94
364.562	352.94
364.788	328.94
365.015	381.94
365.241	380.94
365.468	387.94
365.694	367.94
365.92	363.94
366.147	376.94
366.373	388.94
366.599	344.94
366.826	340.94
367.052	352.94
367.278	370.94
367.505	367.94
367.731	370.94
367.957	355.94
368.184	366.94
368.41	364.94
368.636	372.94
368.862	393.94
369.089	375.94
369.315	353.94
369.541	348.94
369.767	366.94
369.993	355.94
370.219	345.94
370.445	343.94
370.672	357.94
370.898	342.94
371.124	352.94
371.35	330.94
371.576	346.94
371.802	341.94
372.028	364.94
372.254	373.94
372.48	349.94
372.706	351.94
372.932	356.94
373.158	328.94
373.384	354.94
373.61	342.94
373.835	341.94
374.061	355.94
374.287	358.94
374.513	354.94
374.739	360.94
374.965	344.94
375.191	356.94
375.416	347.94
375.642	362.94
375.868	341.94
376.094	348.94
376.319	348.94
376.545	366.94
376.771	333.94
376.997	357.94
377.222	363.94
377.448	356.94
377.674	348.94
377.899	343.94
378.125	347.94
378.35	337.94
378.576	347.94
378.802	353.94
379.027	351.94
379.253	341.94
379.478	328.94
379.704	329.94
379.929	356.94
380.155	355.94
380.38	345.94
380.606	359.94
380.831	351.94
381.057	367.94
381.282	339.94
381.507	344.94
381.733	363.94
381.958	348.94
382.184	346.94
382.409	359.94
382.634	365.94
382.86	357.94
383.085	366.94
383.31	350.94
383.535	348.94
383.761	339.94
383.986	380.94
384.211	350.94
384.436	343.94
384.662	345.94
384.887	375.94
385.112	358.94
385.337	370.94
385.562	383.94
385.787	374.94
386.013	369.94
386.238	373.94
386.463	378.94
386.688	365.94
386.913	366.94
387.138	353.94
387.363	368.94
387.588	362.94
387.813	375.94
388.038	354.94
388.263	369.94
388.488	344.94
388.713	357.94
388.938	370.94
389.163	374.94
389.387	367.94
389.612	393.94
389.837	361.94
390.062	353.94
390.287	382.94
390.512	364.94
390.736	372.94
390.961	370.94
391.186	376.94
391.411	373.94
391.636	375.94
391.86	380.94
392.085	366.94
392.31	358.94
392.534	371.94
392.759	360.94
392.984	356.94
393.208	363.94
393.433	358.94
393.658	356.94
393.882	353.94
394.107	376.94
394.331	370.94
394.556	363.94
394.78	377.94
395.005	378.94
395.229	378.94
395.454	376.94
395.678	384.94
395.903	376.94
396.127	407.94
396.352	418.94
396.576	406.94
396.801	374.94
397.025	386.94
397.249	365.94
397.474	377.94
397.698	371.94
397.922	400.94
398.147	409.94
398.371	416.94
398.595	400.94
398.82	395.94
399.044	387.94
399.268	404.94
399.492	428.94
399.717	446.94
399.941	482.94
400.165	488.94
400.389	513.94
400.613	484.94
400.837	446.94
401.062	435.94
401.286	429.94
401.51	418.94
401.734	396.94
401.958	405.94
402.182	401.94
402.406	430.94
402.63	422.94
402.854	434.94
403.078	435.94
403.302	419.94
403.526	412.94
403.75	427.94
403.974	421.94
404.198	423.94
404.422	455.94
404.645	471.94
404.869	443.94
405.093	476.94
405.317	499.94
405.541	538.94
405.765	476.94
405.988	468.94
406.212	472.94
406.436	480.94
406.66	501.94
406.883	475.94
407.107	509.94
407.331	520.94
407.555	592.94
407.778	578.94
408.002	535.94
408.226	479.94
408.449	480.94
408.673	487.94
408.896	489.94
409.12	525.94
409.344	512.94
409.567	472.94
409.791	438.94
410.014	442.94
410.238	438.94
410.461	431.94
410.685	426.94
410.908	463.94
411.132	481.94
411.355	526.94
411.578	493.94
411.802	440.94
412.025	440.94
412.249	440.94
412.472	448.94
412.695	503.94
412.919	531.94
413.142	453.94
413.365	444.94
413.589	416.94
413.812	429.94
414.035	416.94
414.258	404.94
414.482	437.94
414.705	410.94
414.928	412.94
415.151	391.94
415.374	400.94
415.597	377.94
415.821	398.94
416.044	412.94
416.267	437.94
416.49	397.94
416.713	378.94
416.936	391.94
417.159	394.94
417.382	417.94
417.605	427.94
417.828	424.94
418.051	438.94
418.274	420.94
418.497	421.94
418.72	401.94
418.943	412.94
419.166	438.94
419.389	445.94
419.611	435.94
419.834	421.94
420.057	434.94
420.28	439.94
420.503	459.94
420.726	443.94
420.948	466.94
421.171	487.94
421.394	518.94
421.617	442.94
421.839	422.94
422.062	442.94
422.285	461.94
422.507	513.94
422.73	568.94
422.953	544.94
423.175	479.94
423.398	462.94
423.621	461.94
423.843	499.94
424.066	472.94
424.288	500.94
424.511	491.94
424.733	544.94
424.956	627.94
425.178	598.94
425.401	588.94
425.623	642.94
425.846	549.94
426.068	510.94
426.291	484.94
426.513	505.94
426.735	515.94
426.958	533.94
427.18	611.94
427.402	748.94
427.625	813.94
427.847	741.94
428.069	646.94
428.292	589.94
428.514	502.94
428.736	471.94
428.958	479.94
429.181	445.94
429.403	445.94
429.625	484.94
429.847	504.94
430.069	570.94
430.292	579.94
430.514	465.94
430.736	470.94
430.958	453.94
431.18	420.94
431.402	426.94
431.624	410.94
431.846	409.94
432.068	434.94
432.29	415.94
432.512	442.94
432.734	431.94
432.956	446.94
433.178	434.94
433.4	436.94
433.622	429.94
433.844	425.94
434.066	429.94
434.287	407.94
434.509	412.94
434.731	419.94
434.953	422.94
435.175	443.94
435.397	477.94
435.618	483.94
435.84	527.94
436.062	620.94
436.284	655.94
436.505	562.94
436.727	522.94
436.949	484.94
437.17	473.94
437.392	475.94
437.614	457.94
437.835	528.94
438.057	604.94
438.278	731.94
438.5	690.94
438.721	748.94
438.943	721.94
439.165	603.94
439.386	525.94
439.608	514.94
439.829	487.94
440.05	542.94
440.272	572.94
440.493	549.94
440.715	505.94
440.936	477.94
441.158	455.94
441.379	442.94
441.6	446.94
441.822	468.94
442.043	519.94
442.264	611.94
442.486	647.94
442.707	554.94
442.928	491.94
443.149	495.94
443.371	523.94
443.592	580.94
443.813	642.94
444.034	700.94
444.255	591.94
444.476	501.94
444.698	487.94
444.919	479.94
445.14	567.94
445.361	536.94
445.582	528.94
445.803	605.94
446.024	698.94
446.245	686.94
446.466	635.94
446.687	551.94
446.908	519.94
447.129	484.94
447.35	460.94
447.571	464.94
447.792	451.94
448.013	457.94
448.234	490.94
448.455	547.94
448.675	614.94
448.896	726.94
449.117	618.94
449.338	602.94
449.559	707.94
449.779	788.94
450	640.94
450.221	510.94
450.442	493.94
450.662	463.94
450.883	475.94
451.104	492.94
451.324	475.94
451.545	431.94
451.766	425.94
451.986	410.94
452.207	412.94
452.428	424.94
452.648	405.94
452.869	401.94
453.089	412.94
453.31	429.94
453.53	436.94
453.751	423.94
453.971	424.94
454.192	427.94
454.412	432.94
454.633	413.94
454.853	404.94
455.073	409.94
455.294	448.94
455.514	519.94
455.734	456.94
455.955	404.94
456.175	394.94
456.395	396.94
456.616	387.94
456.836	386.94
457.056	378.94
457.276	371.94
457.497	376.94
457.717	378.94
457.937	371.94
458.157	382.94
458.377	378.94
458.598	416.94
458.818	464.94
459.038	579.94
459.258	582.94
459.478	468.94
459.698	452.94
459.918	431.94
460.138	400.94
460.358	409.94
460.578	414.94
460.798	400.94
461.018	417.94
461.238	396.94
461.458	382.94
461.678	402.94
461.898	395.94
462.118	396.94
462.338	403.94
462.558	409.94
462.777	417.94
462.997	434.94
463.217	408.94
463.437	429.94
463.657	437.94
463.876	421.94
464.096	414.94
464.316	411.94
464.536	443.94
464.755	443.94
464.975	447.94
465.195	500.94
465.414	582.94
465.634	527.94
465.854	456.94
466.073	435.94
466.293	444.94
466.512	410.94
466.732	411.94
466.951	414.94
467.171	400.94
467.391	404.94
467.61	406.94
467.829	424.94
468.049	427.94
468.268	430.94
468.488	412.94
468.707	397.94
468.927	424.94
469.146	395.94
469.365	421.94
469.585	386.94
469.804	412.94
470.023	427.94
470.243	414.94
470.462	436.94
470.681	416.94
470.901	446.94
471.12	420.94
471.339	400.94
471.558	419.94
471.777	414.94
471.997	414.94
472.216	422.94
472.435	481.94
472.654	468.94
472.873	434.94
473.092	427.94
473.311	411.94
473.53	430.94
473.749	418.94
473.968	477.94
474.187	590.94
474.406	631.94
474.625	506.94
474.844	440.94
475.063	432.94
475.282	422.94
475.501	424.94
475.72	425.94
475.939	417.94
476.158	432.94
476.377	429.94
476.596	422.94
476.814	434.94
477.033	454.94
477.252	436.94
477.471	439.94
477.69	431.94
477.908	444.94
478.127	452.94
478.346	464.94
478.564	444.94
478.783	435.94
479.002	457.94
479.22	455.94
479.439	474.94
479.658	512.94
479.876	484.94
480.095	509.94
480.313	519.94
480.532	530.94
480.751	518.94
480.969	514.94
481.188	612.94
481.406	669.94
481.624	572.94
481.843	502.94
482.061	493.94
482.28	509.94
482.498	499.94
482.717	499.94
482.935	492.94
483.153	501.94
483.372	466.94
483.59	495.94
483.808	504.94
484.027	476.94
484.245	469.94
484.463	504.94
484.681	499.94
484.9	489.94
485.118	514.94
485.336	509.94
485.554	508.94
485.772	492.94
485.99	489.94
486.209	526.94
486.427	512.94
486.645	531.94
486.863	544.94
487.081	524.94
487.299	548.94
487.517	541.94
487.735	539.94
487.953	525.94
488.171	530.94
488.389	510.94
488.607	523.94
488.825	534.94
489.043	528.94
489.261	540.94
489.479	546.94
489.696	551.94
489.914	552.94
490.132	562.94
490.35	536.94
490.568	567.94
490.786	578.94
491.003	605.94
491.221	598.94
491.439	575.94
491.657	609.94
491.874	606.94
492.092	600.94
492.31	628.94
492.527	648.94
492.745	620.94
492.963	616.94
493.18	637.94
493.398	666.94
493.615	634.94
493.833	666.94
494.05	623.94
494.268	662.94
494.485	629.94
494.703	628.94
494.92	622.94
495.138	642.94
495.355	641.94
495.573	645.94
495.79	651.94
496.008	646.94
496.225	653.94
496.442	649.94
496.66	646.94
496.877	617.94
497.094	649.94
497.312	646.94
497.529	669.94
497.746	668.94
497.963	663.94
498.181	666.94
498.398	679.94
498.615	677.94
498.832	672.94
499.049	694.94
499.267	713.94
499.484	712.94
499.701	698.94
499.918	699.94
500.135	728.94
500.352	744.94
500.569	771.94
500.786	779.94
501.003	751.94
501.22	765.94
501.437	728.94
501.654	743.94
501.871	767.94
