Data from 1986.PennyLincolnUp.Lamp.En5.5.200Scan.071819.P2_HRD10591_17-12-16-972.txt Node
Date: Thu Jul 18 17:12:16 EDT 2019
User: cochatt
Spectrometer: HR+D1059
Trigger mode: 1
Integration Time (sec): 1.000000E-1
Scans to average: 1
Electric dark correction enabled: true
Nonlinearity correction enabled: false
Boxcar width: 0
XAxis mode: Wavelengths
Number of Pixels in Spectrum: 2048
>>>>>Begin Spectral Data<<<<<
223.165	-30.38
223.4	-30.38
223.635	-30.38
223.869	-10.38
224.104	-9.38
224.338	-11.38
224.573	-10.38
224.808	-15.38
225.042	-6.38
225.277	-14.38
225.511	-10.38
225.746	-3.38
225.98	9.62
226.215	8.62
226.449	18.62
226.683	30.62
226.918	23.62
227.152	30.62
227.387	29.62
227.621	33.62
227.856	37.62
228.09	61.62
228.324	54.62
228.559	54.62
228.793	88.62
229.027	94.62
229.262	108.62
229.496	119.62
229.73	136.62
229.964	153.62
230.199	132.62
230.433	122.62
230.667	124.62
230.901	130.62
231.136	112.62
231.37	102.62
231.604	106.62
231.838	104.62
232.072	109.62
232.306	121.62
232.541	125.62
232.775	101.62
233.009	114.62
233.243	118.62
233.477	105.62
233.711	115.62
233.945	122.62
234.179	114.62
234.413	109.62
234.647	105.62
234.881	130.62
235.115	130.62
235.349	116.62
235.583	114.62
235.817	122.62
236.051	132.62
236.285	124.62
236.519	127.62
236.753	142.62
236.987	146.62
237.221	181.62
237.455	261.62
237.689	188.62
237.922	152.62
238.156	148.62
238.39	159.62
238.624	134.62
238.858	137.62
239.091	120.62
239.325	120.62
239.559	135.62
239.793	124.62
240.027	140.62
240.26	150.62
240.494	163.62
240.728	155.62
240.961	150.62
241.195	143.62
241.429	146.62
241.662	134.62
241.896	133.62
242.13	126.62
242.363	137.62
242.597	130.62
242.83	150.62
243.064	147.62
243.298	156.62
243.531	138.62
243.765	137.62
243.998	138.62
244.232	140.62
244.465	138.62
244.699	137.62
244.932	146.62
245.166	153.62
245.399	150.62
245.633	151.62
245.866	142.62
246.099	154.62
246.333	162.62
246.566	164.62
246.8	147.62
247.033	165.62
247.266	162.62
247.5	189.62
247.733	178.62
247.966	190.62
248.2	184.62
248.433	188.62
248.666	184.62
248.899	202.62
249.133	207.62
249.366	237.62
249.599	224.62
249.832	226.62
250.066	202.62
250.299	219.62
250.532	228.62
250.765	276.62
250.998	268.62
251.231	287.62
251.465	243.62
251.698	236.62
251.931	220.62
252.164	230.62
252.397	206.62
252.63	214.62
252.863	214.62
253.096	248.62
253.329	245.62
253.562	244.62
253.795	243.62
254.028	248.62
254.261	252.62
254.494	271.62
254.727	279.62
254.96	314.62
255.193	312.62
255.426	298.62
255.659	274.62
255.892	292.62
256.124	330.62
256.357	350.62
256.59	338.62
256.823	308.62
257.056	278.62
257.289	257.62
257.521	248.62
257.754	258.62
257.987	245.62
258.22	250.62
258.452	249.62
258.685	232.62
258.918	243.62
259.151	249.62
259.383	240.62
259.616	240.62
259.849	252.62
260.081	270.62
260.314	270.62
260.547	273.62
260.779	277.62
261.012	253.62
261.244	232.62
261.477	250.62
261.71	249.62
261.942	252.62
262.175	243.62
262.407	245.62
262.64	244.62
262.872	238.62
263.105	229.62
263.337	234.62
263.57	231.62
263.802	228.62
264.035	228.62
264.267	208.62
264.499	224.62
264.732	233.62
264.964	225.62
265.197	222.62
265.429	225.62
265.661	226.62
265.894	232.62
266.126	225.62
266.358	228.62
266.591	228.62
266.823	219.62
267.055	225.62
267.287	235.62
267.52	225.62
267.752	225.62
267.984	230.62
268.216	243.62
268.448	239.62
268.681	231.62
268.913	219.62
269.145	260.62
269.377	294.62
269.609	275.62
269.841	279.62
270.073	284.62
270.306	309.62
270.538	335.62
270.77	342.62
271.002	330.62
271.234	307.62
271.466	328.62
271.698	346.62
271.93	327.62
272.162	348.62
272.394	326.62
272.626	327.62
272.858	298.62
273.09	304.62
273.322	292.62
273.553	272.62
273.785	282.62
274.017	277.62
274.249	268.62
274.481	274.62
274.713	274.62
274.945	299.62
275.176	293.62
275.408	283.62
275.64	300.62
275.872	276.62
276.104	293.62
276.335	293.62
276.567	290.62
276.799	317.62
277.031	326.62
277.262	352.62
277.494	365.62
277.726	341.62
277.957	296.62
278.189	318.62
278.421	304.62
278.652	283.62
278.884	278.62
279.115	277.62
279.347	285.62
279.579	260.62
279.81	298.62
280.042	274.62
280.273	293.62
280.505	300.62
280.736	272.62
280.968	282.62
281.199	267.62
281.431	284.62
281.662	285.62
281.894	272.62
282.125	269.62
282.356	300.62
282.588	329.62
282.819	327.62
283.051	305.62
283.282	273.62
283.513	293.62
283.745	264.62
283.976	276.62
284.207	304.62
284.439	289.62
284.67	291.62
284.901	281.62
285.132	297.62
285.364	274.62
285.595	289.62
285.826	304.62
286.057	262.62
286.288	287.62
286.52	298.62
286.751	285.62
286.982	294.62
287.213	278.62
287.444	312.62
287.675	309.62
287.906	317.62
288.138	308.62
288.369	300.62
288.6	305.62
288.831	296.62
289.062	320.62
289.293	289.62
289.524	301.62
289.755	292.62
289.986	298.62
290.217	279.62
290.448	308.62
290.679	315.62
290.91	291.62
291.141	288.62
291.371	289.62
291.602	273.62
291.833	282.62
292.064	290.62
292.295	283.62
292.526	278.62
292.757	291.62
292.987	294.62
293.218	286.62
293.449	307.62
293.68	279.62
293.91	284.62
294.141	300.62
294.372	285.62
294.603	291.62
294.833	286.62
295.064	312.62
295.295	289.62
295.525	304.62
295.756	285.62
295.987	324.62
296.217	333.62
296.448	341.62
296.679	313.62
296.909	300.62
297.14	281.62
297.37	301.62
297.601	313.62
297.831	288.62
298.062	301.62
298.292	293.62
298.523	309.62
298.753	307.62
298.984	303.62
299.214	284.62
299.445	302.62
299.675	305.62
299.905	323.62
300.136	324.62
300.366	295.62
300.597	303.62
300.827	322.62
301.057	312.62
301.288	323.62
301.518	336.62
301.748	333.62
301.979	332.62
302.209	315.62
302.439	336.62
302.669	318.62
302.9	324.62
303.13	320.62
303.36	331.62
303.59	323.62
303.82	336.62
304.051	340.62
304.281	344.62
304.511	308.62
304.741	302.62
304.971	304.62
305.201	307.62
305.431	325.62
305.661	325.62
305.891	328.62
306.121	330.62
306.352	311.62
306.582	355.62
306.812	336.62
307.042	324.62
307.272	351.62
307.502	334.62
307.731	340.62
307.961	334.62
308.191	337.62
308.421	337.62
308.651	340.62
308.881	336.62
309.111	343.62
309.341	336.62
309.571	348.62
309.8	362.62
310.03	371.62
310.26	374.62
310.49	375.62
310.72	376.62
310.949	408.62
311.179	399.62
311.409	396.62
311.639	388.62
311.868	401.62
312.098	397.62
312.328	402.62
312.557	426.62
312.787	411.62
313.017	404.62
313.246	389.62
313.476	390.62
313.706	355.62
313.935	407.62
314.165	404.62
314.394	403.62
314.624	411.62
314.853	398.62
315.083	393.62
315.312	377.62
315.542	394.62
315.771	379.62
316.001	387.62
316.23	371.62
316.46	387.62
316.689	387.62
316.919	388.62
317.148	408.62
317.377	404.62
317.607	389.62
317.836	395.62
318.065	387.62
318.295	380.62
318.524	384.62
318.753	362.62
318.983	382.62
319.212	368.62
319.441	380.62
319.67	398.62
319.9	392.62
320.129	399.62
320.358	394.62
320.587	405.62
320.816	398.62
321.046	414.62
321.275	427.62
321.504	396.62
321.733	426.62
321.962	434.62
322.191	419.62
322.42	450.62
322.649	459.62
322.878	472.62
323.108	487.62
323.337	509.62
323.566	556.62
323.795	587.62
324.024	646.62
324.253	814.62
324.482	1145.62
324.71	1668.62
324.939	2388.62
325.168	2163.62
325.397	1146.62
325.626	763.62
325.855	640.62
326.084	572.62
326.313	554.62
326.542	580.62
326.77	629.62
326.999	744.62
327.228	966.62
327.457	1475.62
327.686	1875.62
327.914	1285.62
328.143	872.62
328.372	788.62
328.6	753.62
328.829	654.62
329.058	670.62
329.287	679.62
329.515	658.62
329.744	638.62
329.972	697.62
330.201	776.62
330.43	885.62
330.658	888.62
330.887	774.62
331.115	672.62
331.344	581.62
331.572	568.62
331.801	555.62
332.03	557.62
332.258	532.62
332.486	500.62
332.715	495.62
332.943	517.62
333.172	525.62
333.4	526.62
333.629	528.62
333.857	587.62
334.085	616.62
334.314	748.62
334.542	908.62
334.771	967.62
334.999	757.62
335.227	608.62
335.455	538.62
335.684	506.62
335.912	498.62
336.14	466.62
336.369	468.62
336.597	489.62
336.825	472.62
337.053	470.62
337.281	450.62
337.51	450.62
337.738	449.62
337.966	451.62
338.194	456.62
338.422	448.62
338.65	457.62
338.878	432.62
339.106	432.62
339.334	434.62
339.562	418.62
339.79	426.62
340.018	424.62
340.246	430.62
340.474	442.62
340.702	436.62
340.93	448.62
341.158	422.62
341.386	398.62
341.614	437.62
341.842	427.62
342.07	425.62
342.298	429.62
342.526	426.62
342.754	412.62
342.981	399.62
343.209	412.62
343.437	414.62
343.665	427.62
343.893	419.62
344.12	433.62
344.348	416.62
344.576	432.62
344.804	432.62
345.031	428.62
345.259	438.62
345.487	446.62
345.714	437.62
345.942	413.62
346.17	411.62
346.397	412.62
346.625	409.62
346.853	410.62
347.08	409.62
347.308	415.62
347.535	429.62
347.763	410.62
347.99	423.62
348.218	422.62
348.445	417.62
348.673	450.62
348.9	421.62
349.128	388.62
349.355	411.62
349.583	404.62
349.81	392.62
350.037	394.62
350.265	405.62
350.492	406.62
350.72	412.62
350.947	401.62
351.174	414.62
351.402	412.62
351.629	440.62
351.856	428.62
352.083	418.62
352.311	435.62
352.538	429.62
352.765	434.62
352.992	450.62
353.22	438.62
353.447	396.62
353.674	404.62
353.901	400.62
354.128	369.62
354.355	380.62
354.583	382.62
354.81	374.62
355.037	384.62
355.264	398.62
355.491	384.62
355.718	388.62
355.945	371.62
356.172	372.62
356.399	380.62
356.626	380.62
356.853	385.62
357.08	368.62
357.307	378.62
357.534	378.62
357.761	358.62
357.988	382.62
358.215	374.62
358.441	388.62
358.668	386.62
358.895	374.62
359.122	376.62
359.349	392.62
359.576	441.62
359.802	418.62
360.029	480.62
360.256	470.62
360.483	444.62
360.709	422.62
360.936	427.62
361.163	425.62
361.39	409.62
361.616	411.62
361.843	396.62
362.07	395.62
362.296	416.62
362.523	391.62
362.749	395.62
362.976	397.62
363.203	389.62
363.429	386.62
363.656	392.62
363.882	385.62
364.109	386.62
364.335	408.62
364.562	378.62
364.788	356.62
365.015	390.62
365.241	376.62
365.468	387.62
365.694	384.62
365.92	402.62
366.147	381.62
366.373	369.62
366.599	373.62
366.826	389.62
367.052	371.62
367.278	372.62
367.505	370.62
367.731	397.62
367.957	374.62
368.184	380.62
368.41	384.62
368.636	386.62
368.862	397.62
369.089	402.62
369.315	390.62
369.541	383.62
369.767	392.62
369.993	376.62
370.219	373.62
370.445	375.62
370.672	387.62
370.898	379.62
371.124	377.62
371.35	380.62
371.576	382.62
371.802	395.62
372.028	351.62
372.254	377.62
372.48	355.62
372.706	372.62
372.932	365.62
373.158	384.62
373.384	375.62
373.61	369.62
373.835	349.62
374.061	380.62
374.287	384.62
374.513	369.62
374.739	357.62
374.965	357.62
375.191	386.62
375.416	401.62
375.642	371.62
375.868	378.62
376.094	375.62
376.319	363.62
376.545	364.62
376.771	360.62
376.997	349.62
377.222	388.62
377.448	387.62
377.674	334.62
377.899	362.62
378.125	380.62
378.35	368.62
378.576	364.62
378.802	356.62
379.027	365.62
379.253	361.62
379.478	370.62
379.704	380.62
379.929	362.62
380.155	372.62
380.38	376.62
380.606	386.62
380.831	377.62
381.057	377.62
381.282	363.62
381.507	361.62
381.733	368.62
381.958	381.62
382.184	374.62
382.409	358.62
382.634	380.62
382.86	382.62
383.085	369.62
383.31	379.62
383.535	381.62
383.761	390.62
383.986	380.62
384.211	377.62
384.436	385.62
384.662	381.62
384.887	396.62
385.112	373.62
385.337	387.62
385.562	382.62
385.787	397.62
386.013	412.62
386.238	386.62
386.463	373.62
386.688	387.62
386.913	381.62
387.138	373.62
387.363	407.62
387.588	393.62
387.813	397.62
388.038	395.62
388.263	375.62
388.488	387.62
388.713	398.62
388.938	392.62
389.163	385.62
389.387	377.62
389.612	373.62
389.837	386.62
390.062	382.62
390.287	382.62
390.512	381.62
390.736	380.62
390.961	380.62
391.186	390.62
391.411	386.62
391.636	398.62
391.86	374.62
392.085	385.62
392.31	412.62
392.534	398.62
392.759	400.62
392.984	405.62
393.208	382.62
393.433	381.62
393.658	380.62
393.882	372.62
394.107	393.62
394.331	406.62
394.556	382.62
394.78	385.62
395.005	390.62
395.229	376.62
395.454	390.62
395.678	395.62
395.903	406.62
396.127	433.62
396.352	436.62
396.576	426.62
396.801	417.62
397.025	404.62
397.249	396.62
397.474	429.62
397.698	419.62
397.922	417.62
398.147	435.62
398.371	422.62
398.595	406.62
398.82	416.62
399.044	424.62
399.268	455.62
399.492	460.62
399.717	467.62
399.941	477.62
400.165	519.62
400.389	534.62
400.613	481.62
400.837	460.62
401.062	461.62
401.286	425.62
401.51	434.62
401.734	429.62
401.958	444.62
402.182	432.62
402.406	445.62
402.63	465.62
402.854	434.62
403.078	441.62
403.302	461.62
403.526	466.62
403.75	462.62
403.974	468.62
404.198	449.62
404.422	493.62
404.645	492.62
404.869	520.62
405.093	541.62
405.317	612.62
405.541	637.62
405.765	586.62
405.988	517.62
406.212	525.62
406.436	541.62
406.66	543.62
406.883	508.62
407.107	512.62
407.331	569.62
407.555	611.62
407.778	591.62
408.002	549.62
408.226	514.62
408.449	499.62
408.673	494.62
408.896	532.62
409.12	576.62
409.344	562.62
409.567	492.62
409.791	481.62
410.014	459.62
410.238	471.62
410.461	435.62
410.685	475.62
410.908	479.62
411.132	512.62
411.355	550.62
411.578	533.62
411.802	481.62
412.025	485.62
412.249	511.62
412.472	555.62
412.695	633.62
412.919	625.62
413.142	576.62
413.365	504.62
413.589	494.62
413.812	469.62
414.035	455.62
414.258	472.62
414.482	445.62
414.705	453.62
414.928	443.62
415.151	429.62
415.374	423.62
415.597	419.62
415.821	442.62
416.044	444.62
416.267	451.62
416.49	463.62
416.713	454.62
416.936	426.62
417.159	443.62
417.382	462.62
417.605	452.62
417.828	454.62
418.051	469.62
418.274	450.62
418.497	463.62
418.72	439.62
418.943	430.62
419.166	452.62
419.389	460.62
419.611	470.62
419.834	482.62
420.057	502.62
420.28	495.62
420.503	554.62
420.726	508.62
420.948	504.62
421.171	541.62
421.394	556.62
421.617	494.62
421.839	465.62
422.062	472.62
422.285	485.62
422.507	546.62
422.73	602.62
422.953	579.62
423.175	516.62
423.398	490.62
423.621	491.62
423.843	492.62
424.066	492.62
424.288	526.62
424.511	522.62
424.733	567.62
424.956	666.62
425.178	626.62
425.401	620.62
425.623	638.62
425.846	554.62
426.068	503.62
426.291	514.62
426.513	501.62
426.735	506.62
426.958	561.62
427.18	643.62
427.402	749.62
427.625	834.62
427.847	781.62
428.069	723.62
428.292	619.62
428.514	566.62
428.736	510.62
428.958	504.62
429.181	469.62
429.403	484.62
429.625	515.62
429.847	512.62
430.069	588.62
430.292	580.62
430.514	490.62
430.736	480.62
430.958	468.62
431.18	447.62
431.402	474.62
431.624	432.62
431.846	425.62
432.068	427.62
432.29	450.62
432.512	438.62
432.734	440.62
432.956	450.62
433.178	459.62
433.4	447.62
433.622	457.62
433.844	427.62
434.066	445.62
434.287	448.62
434.509	427.62
434.731	449.62
434.953	460.62
435.175	455.62
435.397	474.62
435.618	509.62
435.84	548.62
436.062	641.62
436.284	691.62
436.505	610.62
436.727	534.62
436.949	506.62
437.17	480.62
437.392	495.62
437.614	488.62
437.835	540.62
438.057	603.62
438.278	670.62
438.5	713.62
438.721	740.62
438.943	738.62
439.165	591.62
439.386	556.62
439.608	538.62
439.829	524.62
440.05	578.62
440.272	616.62
440.493	557.62
440.715	501.62
440.936	488.62
441.158	481.62
441.379	470.62
441.6	477.62
441.822	513.62
442.043	552.62
442.264	634.62
442.486	673.62
442.707	563.62
442.928	514.62
443.149	529.62
443.371	562.62
443.592	581.62
443.813	673.62
444.034	742.62
444.255	604.62
444.476	530.62
444.698	526.62
444.919	514.62
445.14	599.62
445.361	569.62
445.582	561.62
445.803	603.62
446.024	716.62
446.245	743.62
446.466	708.62
446.687	581.62
446.908	521.62
447.129	482.62
447.35	467.62
447.571	458.62
447.792	452.62
448.013	496.62
448.234	520.62
448.455	540.62
448.675	646.62
448.896	784.62
449.117	666.62
449.338	621.62
449.559	723.62
449.779	791.62
450	646.62
450.221	537.62
450.442	510.62
450.662	496.62
450.883	484.62
451.104	489.62
451.324	479.62
451.545	462.62
451.766	436.62
451.986	415.62
452.207	443.62
452.428	435.62
452.648	415.62
452.869	423.62
453.089	453.62
453.31	448.62
453.53	424.62
453.751	420.62
453.971	429.62
454.192	457.62
454.412	451.62
454.633	440.62
454.853	414.62
455.073	410.62
455.294	457.62
455.514	542.62
455.734	536.62
455.955	456.62
456.175	435.62
456.395	407.62
456.616	405.62
456.836	414.62
457.056	400.62
457.276	384.62
457.497	399.62
457.717	391.62
457.937	407.62
458.157	404.62
458.377	434.62
458.598	439.62
458.818	496.62
459.038	574.62
459.258	579.62
459.478	482.62
459.698	434.62
459.918	425.62
460.138	429.62
460.358	435.62
460.578	436.62
460.798	433.62
461.018	432.62
461.238	420.62
461.458	419.62
461.678	424.62
461.898	402.62
462.118	419.62
462.338	433.62
462.558	433.62
462.777	436.62
462.997	456.62
463.217	450.62
463.437	444.62
463.657	431.62
463.876	441.62
464.096	428.62
464.316	413.62
464.536	444.62
464.755	447.62
464.975	449.62
465.195	526.62
465.414	612.62
465.634	548.62
465.854	495.62
466.073	449.62
466.293	447.62
466.512	406.62
466.732	432.62
466.951	445.62
467.171	426.62
467.391	451.62
467.61	450.62
467.829	437.62
468.049	468.62
468.268	525.62
468.488	491.62
468.707	450.62
468.927	440.62
469.146	401.62
469.365	420.62
469.585	420.62
469.804	414.62
470.023	452.62
470.243	442.62
470.462	441.62
470.681	462.62
470.901	468.62
471.12	475.62
471.339	438.62
471.558	459.62
471.777	450.62
471.997	463.62
472.216	521.62
472.435	702.62
472.654	656.62
472.873	508.62
473.092	506.62
473.311	498.62
473.53	474.62
473.749	477.62
473.968	501.62
474.187	622.62
474.406	648.62
474.625	531.62
474.844	490.62
475.063	475.62
475.282	471.62
475.501	472.62
475.72	471.62
475.939	467.62
476.158	454.62
476.377	461.62
476.596	492.62
476.814	452.62
477.033	471.62
477.252	469.62
477.471	496.62
477.69	485.62
477.908	451.62
478.127	474.62
478.346	488.62
478.564	501.62
478.783	499.62
479.002	489.62
479.22	501.62
479.439	525.62
479.658	536.62
479.876	553.62
480.095	549.62
480.313	573.62
480.532	573.62
480.751	572.62
480.969	630.62
481.188	877.62
481.406	1132.62
481.624	816.62
481.843	712.62
482.061	672.62
482.28	604.62
482.498	585.62
482.717	579.62
482.935	555.62
483.153	540.62
483.372	564.62
483.59	516.62
483.808	551.62
484.027	537.62
484.245	552.62
484.463	548.62
484.681	566.62
484.9	566.62
485.118	555.62
485.336	562.62
485.554	548.62
485.772	558.62
485.99	586.62
486.209	577.62
486.427	572.62
486.645	574.62
486.863	586.62
487.081	584.62
487.299	562.62
487.517	584.62
487.735	545.62
487.953	557.62
488.171	602.62
488.389	601.62
488.607	593.62
488.825	589.62
489.043	590.62
489.261	600.62
489.479	604.62
489.696	598.62
489.914	601.62
490.132	625.62
490.35	624.62
490.568	636.62
490.786	653.62
491.003	657.62
491.221	651.62
491.439	676.62
491.657	686.62
491.874	703.62
492.092	726.62
492.31	715.62
492.527	713.62
492.745	733.62
492.963	723.62
493.18	745.62
493.398	742.62
493.615	722.62
493.833	719.62
494.05	717.62
494.268	713.62
494.485	717.62
494.703	708.62
494.92	718.62
495.138	724.62
495.355	702.62
495.573	722.62
495.79	707.62
496.008	709.62
496.225	716.62
496.442	704.62
496.66	727.62
496.877	697.62
497.094	705.62
497.312	717.62
497.529	702.62
497.746	721.62
497.963	713.62
498.181	733.62
498.398	716.62
498.615	710.62
498.832	737.62
499.049	744.62
499.267	753.62
499.484	768.62
499.701	761.62
499.918	772.62
500.135	796.62
500.352	792.62
500.569	813.62
500.786	840.62
501.003	844.62
501.22	836.62
501.437	791.62
501.654	813.62
501.871	810.62
