Data from 1986.PennyLincolnUp.Lamp.En5.5.200Scan.071819.P1_HRD10591_17-08-36-975.txt Node
Date: Thu Jul 18 17:08:36 EDT 2019
User: cochatt
Spectrometer: HR+D1059
Trigger mode: 1
Integration Time (sec): 1.000000E-1
Scans to average: 1
Electric dark correction enabled: true
Nonlinearity correction enabled: false
Boxcar width: 0
XAxis mode: Wavelengths
Number of Pixels in Spectrum: 2048
>>>>>Begin Spectral Data<<<<<
223.165	-17.44
223.4	-17.44
223.635	-17.44
223.869	-26.44
224.104	-25.44
224.338	-3.44
224.573	-22.44
224.808	-10.44
225.042	-4.44
225.277	-1.44
225.511	-12.44
225.746	2.56
225.98	-0.44
226.215	11.56
226.449	17.56
226.683	26.56
226.918	26.56
227.152	39.56
227.387	30.56
227.621	41.56
227.856	54.56
228.09	27.56
228.324	49.56
228.559	40.56
228.793	62.56
229.027	95.56
229.262	80.56
229.496	95.56
229.73	112.56
229.964	112.56
230.199	96.56
230.433	89.56
230.667	106.56
230.901	88.56
231.136	108.56
231.37	105.56
231.604	95.56
231.838	109.56
232.072	95.56
232.306	111.56
232.541	98.56
232.775	102.56
233.009	96.56
233.243	99.56
233.477	100.56
233.711	107.56
233.945	106.56
234.179	116.56
234.413	96.56
234.647	98.56
234.881	109.56
235.115	104.56
235.349	102.56
235.583	101.56
235.817	92.56
236.051	82.56
236.285	107.56
236.519	107.56
236.753	112.56
236.987	118.56
237.221	140.56
237.455	171.56
237.689	135.56
237.922	113.56
238.156	108.56
238.39	109.56
238.624	96.56
238.858	106.56
239.091	111.56
239.325	99.56
239.559	102.56
239.793	109.56
240.027	121.56
240.26	120.56
240.494	127.56
240.728	109.56
240.961	119.56
241.195	123.56
241.429	109.56
241.662	97.56
241.896	105.56
242.13	115.56
242.363	113.56
242.597	125.56
242.83	133.56
243.064	130.56
243.298	124.56
243.531	115.56
243.765	122.56
243.998	123.56
244.232	110.56
244.465	138.56
244.699	120.56
244.932	127.56
245.166	120.56
245.399	135.56
245.633	131.56
245.866	126.56
246.099	144.56
246.333	119.56
246.566	130.56
246.8	138.56
247.033	135.56
247.266	136.56
247.5	118.56
247.733	124.56
247.966	137.56
248.2	139.56
248.433	149.56
248.666	129.56
248.899	144.56
249.133	152.56
249.366	159.56
249.599	150.56
249.832	146.56
250.066	146.56
250.299	141.56
250.532	143.56
250.765	148.56
250.998	171.56
251.231	178.56
251.465	177.56
251.698	157.56
251.931	152.56
252.164	171.56
252.397	169.56
252.63	177.56
252.863	170.56
253.096	177.56
253.329	177.56
253.562	179.56
253.795	170.56
254.028	173.56
254.261	171.56
254.494	175.56
254.727	201.56
254.96	199.56
255.193	197.56
255.426	195.56
255.659	188.56
255.892	175.56
256.124	168.56
256.357	181.56
256.59	184.56
256.823	178.56
257.056	169.56
257.289	160.56
257.521	157.56
257.754	161.56
257.987	174.56
258.22	180.56
258.452	167.56
258.685	170.56
258.918	159.56
259.151	163.56
259.383	184.56
259.616	178.56
259.849	175.56
260.081	181.56
260.314	201.56
260.547	204.56
260.779	190.56
261.012	192.56
261.244	196.56
261.477	164.56
261.71	160.56
261.942	177.56
262.175	198.56
262.407	179.56
262.64	162.56
262.872	169.56
263.105	191.56
263.337	178.56
263.57	166.56
263.802	160.56
264.035	169.56
264.267	166.56
264.499	165.56
264.732	160.56
264.964	171.56
265.197	167.56
265.429	177.56
265.661	154.56
265.894	165.56
266.126	183.56
266.358	169.56
266.591	177.56
266.823	179.56
267.055	174.56
267.287	190.56
267.52	173.56
267.752	184.56
267.984	189.56
268.216	179.56
268.448	197.56
268.681	193.56
268.913	198.56
269.145	208.56
269.377	195.56
269.609	208.56
269.841	193.56
270.073	196.56
270.306	237.56
270.538	235.56
270.77	239.56
271.002	230.56
271.234	230.56
271.466	214.56
271.698	232.56
271.93	246.56
272.162	231.56
272.394	257.56
272.626	244.56
272.858	222.56
273.09	194.56
273.322	219.56
273.553	202.56
273.785	194.56
274.017	222.56
274.249	194.56
274.481	199.56
274.713	199.56
274.945	203.56
275.176	216.56
275.408	209.56
275.64	209.56
275.872	207.56
276.104	206.56
276.335	216.56
276.567	215.56
276.799	215.56
277.031	236.56
277.262	253.56
277.494	241.56
277.726	229.56
277.957	231.56
278.189	229.56
278.421	216.56
278.652	207.56
278.884	209.56
279.115	225.56
279.347	215.56
279.579	221.56
279.81	213.56
280.042	225.56
280.273	228.56
280.505	221.56
280.736	195.56
280.968	197.56
281.199	226.56
281.431	217.56
281.662	226.56
281.894	226.56
282.125	206.56
282.356	244.56
282.588	250.56
282.819	239.56
283.051	214.56
283.282	209.56
283.513	215.56
283.745	224.56
283.976	215.56
284.207	225.56
284.439	214.56
284.67	222.56
284.901	229.56
285.132	229.56
285.364	221.56
285.595	219.56
285.826	225.56
286.057	238.56
286.288	213.56
286.52	214.56
286.751	235.56
286.982	242.56
287.213	222.56
287.444	225.56
287.675	251.56
287.906	244.56
288.138	221.56
288.369	233.56
288.6	242.56
288.831	224.56
289.062	229.56
289.293	228.56
289.524	226.56
289.755	239.56
289.986	230.56
290.217	217.56
290.448	254.56
290.679	223.56
290.91	227.56
291.141	219.56
291.371	233.56
291.602	221.56
291.833	230.56
292.064	228.56
292.295	229.56
292.526	240.56
292.757	228.56
292.987	239.56
293.218	253.56
293.449	239.56
293.68	234.56
293.91	248.56
294.141	235.56
294.372	225.56
294.603	243.56
294.833	243.56
295.064	241.56
295.295	231.56
295.525	245.56
295.756	236.56
295.987	246.56
296.217	258.56
296.448	258.56
296.679	241.56
296.909	223.56
297.14	234.56
297.37	248.56
297.601	233.56
297.831	243.56
298.062	253.56
298.292	257.56
298.523	251.56
298.753	251.56
298.984	254.56
299.214	241.56
299.445	263.56
299.675	265.56
299.905	253.56
300.136	262.56
300.366	240.56
300.597	258.56
300.827	273.56
301.057	272.56
301.288	273.56
301.518	237.56
301.748	265.56
301.979	256.56
302.209	271.56
302.439	260.56
302.669	278.56
302.9	281.56
303.13	266.56
303.36	250.56
303.59	269.56
303.82	267.56
304.051	268.56
304.281	273.56
304.511	263.56
304.741	242.56
304.971	266.56
305.201	273.56
305.431	287.56
305.661	265.56
305.891	271.56
306.121	267.56
306.352	292.56
306.582	283.56
306.812	273.56
307.042	260.56
307.272	269.56
307.502	273.56
307.731	275.56
307.961	263.56
308.191	263.56
308.421	267.56
308.651	267.56
308.881	275.56
309.111	286.56
309.341	275.56
309.571	301.56
309.8	277.56
310.03	283.56
310.26	301.56
310.49	287.56
310.72	281.56
310.949	296.56
311.179	301.56
311.409	293.56
311.639	318.56
311.868	296.56
312.098	294.56
312.328	304.56
312.557	305.56
312.787	330.56
313.017	329.56
313.246	310.56
313.476	299.56
313.706	303.56
313.935	300.56
314.165	312.56
314.394	313.56
314.624	297.56
314.853	310.56
315.083	301.56
315.312	291.56
315.542	296.56
315.771	311.56
316.001	287.56
316.23	310.56
316.46	312.56
316.689	314.56
316.919	326.56
317.148	285.56
317.377	318.56
317.607	311.56
317.836	281.56
318.065	275.56
318.295	305.56
318.524	303.56
318.753	296.56
318.983	318.56
319.212	295.56
319.441	318.56
319.67	305.56
319.9	312.56
320.129	301.56
320.358	307.56
320.587	309.56
320.816	311.56
321.046	318.56
321.275	320.56
321.504	327.56
321.733	335.56
321.962	315.56
322.191	320.56
322.42	325.56
322.649	353.56
322.878	332.56
323.108	350.56
323.337	354.56
323.566	370.56
323.795	389.56
324.024	411.56
324.253	471.56
324.482	695.56
324.71	982.56
324.939	1372.56
325.168	1128.56
325.397	616.56
325.626	461.56
325.855	416.56
326.084	399.56
326.313	358.56
326.542	377.56
326.77	400.56
326.999	479.56
327.228	633.56
327.457	899.56
327.686	1039.56
327.914	690.56
328.143	498.56
328.372	453.56
328.6	426.56
328.829	393.56
329.058	415.56
329.287	403.56
329.515	385.56
329.744	401.56
329.972	387.56
330.201	420.56
330.43	442.56
330.658	449.56
330.887	456.56
331.115	418.56
331.344	387.56
331.572	368.56
331.801	385.56
332.03	369.56
332.258	369.56
332.486	362.56
332.715	362.56
332.943	383.56
333.172	397.56
333.4	370.56
333.629	374.56
333.857	372.56
334.085	410.56
334.314	419.56
334.542	446.56
334.771	447.56
334.999	425.56
335.227	389.56
335.455	373.56
335.684	367.56
335.912	347.56
336.14	369.56
336.369	355.56
336.597	366.56
336.825	339.56
337.053	360.56
337.281	362.56
337.51	349.56
337.738	344.56
337.966	347.56
338.194	356.56
338.422	351.56
338.65	346.56
338.878	341.56
339.106	333.56
339.334	341.56
339.562	331.56
339.79	318.56
340.018	327.56
340.246	325.56
340.474	327.56
340.702	347.56
340.93	341.56
341.158	333.56
341.386	326.56
341.614	335.56
341.842	346.56
342.07	338.56
342.298	338.56
342.526	313.56
342.754	331.56
342.981	325.56
343.209	336.56
343.437	322.56
343.665	340.56
343.893	363.56
344.12	371.56
344.348	352.56
344.576	349.56
344.804	347.56
345.031	344.56
345.259	350.56
345.487	349.56
345.714	338.56
345.942	330.56
346.17	336.56
346.397	311.56
346.625	333.56
346.853	322.56
347.08	321.56
347.308	317.56
347.535	315.56
347.763	327.56
347.99	333.56
348.218	340.56
348.445	331.56
348.673	343.56
348.9	329.56
349.128	328.56
349.355	302.56
349.583	310.56
349.81	336.56
350.037	315.56
350.265	327.56
350.492	307.56
350.72	320.56
350.947	328.56
351.174	341.56
351.402	336.56
351.629	330.56
351.856	325.56
352.083	339.56
352.311	328.56
352.538	324.56
352.765	311.56
352.992	329.56
353.22	312.56
353.447	324.56
353.674	324.56
353.901	306.56
354.128	318.56
354.355	307.56
354.583	314.56
354.81	312.56
355.037	307.56
355.264	307.56
355.491	314.56
355.718	311.56
355.945	270.56
356.172	290.56
356.399	310.56
356.626	317.56
356.853	319.56
357.08	304.56
357.307	298.56
357.534	292.56
357.761	303.56
357.988	321.56
358.215	309.56
358.441	301.56
358.668	317.56
358.895	313.56
359.122	317.56
359.349	315.56
359.576	325.56
359.802	334.56
360.029	353.56
360.256	356.56
360.483	329.56
360.709	305.56
360.936	327.56
361.163	336.56
361.39	318.56
361.616	311.56
361.843	309.56
362.07	314.56
362.296	320.56
362.523	308.56
362.749	328.56
362.976	311.56
363.203	307.56
363.429	310.56
363.656	297.56
363.882	295.56
364.109	304.56
364.335	295.56
364.562	300.56
364.788	308.56
365.015	314.56
365.241	301.56
365.468	328.56
365.694	309.56
365.92	310.56
366.147	311.56
366.373	321.56
366.599	282.56
366.826	308.56
367.052	297.56
367.278	303.56
367.505	309.56
367.731	313.56
367.957	317.56
368.184	289.56
368.41	322.56
368.636	311.56
368.862	338.56
369.089	314.56
369.315	313.56
369.541	306.56
369.767	287.56
369.993	314.56
370.219	288.56
370.445	309.56
370.672	322.56
370.898	296.56
371.124	312.56
371.35	289.56
371.576	327.56
371.802	315.56
372.028	328.56
372.254	306.56
372.48	310.56
372.706	297.56
372.932	292.56
373.158	305.56
373.384	332.56
373.61	309.56
373.835	321.56
374.061	321.56
374.287	307.56
374.513	319.56
374.739	340.56
374.965	322.56
375.191	309.56
375.416	328.56
375.642	319.56
375.868	315.56
376.094	324.56
376.319	294.56
376.545	317.56
376.771	319.56
376.997	313.56
377.222	309.56
377.448	324.56
377.674	317.56
377.899	292.56
378.125	313.56
378.35	313.56
378.576	319.56
378.802	310.56
379.027	314.56
379.253	310.56
379.478	313.56
379.704	310.56
379.929	320.56
380.155	310.56
380.38	319.56
380.606	315.56
380.831	299.56
381.057	314.56
381.282	315.56
381.507	316.56
381.733	305.56
381.958	311.56
382.184	315.56
382.409	312.56
382.634	323.56
382.86	297.56
383.085	324.56
383.31	323.56
383.535	308.56
383.761	310.56
383.986	305.56
384.211	323.56
384.436	309.56
384.662	326.56
384.887	337.56
385.112	335.56
385.337	332.56
385.562	338.56
385.787	344.56
386.013	342.56
386.238	336.56
386.463	343.56
386.688	339.56
386.913	335.56
387.138	306.56
387.363	350.56
387.588	352.56
387.813	353.56
388.038	347.56
388.263	342.56
388.488	346.56
388.713	328.56
388.938	339.56
389.163	351.56
389.387	343.56
389.612	313.56
389.837	320.56
390.062	349.56
390.287	322.56
390.512	330.56
390.736	343.56
390.961	326.56
391.186	351.56
391.411	344.56
391.636	315.56
391.86	342.56
392.085	351.56
392.31	349.56
392.534	358.56
392.759	354.56
392.984	360.56
393.208	351.56
393.433	349.56
393.658	329.56
393.882	351.56
394.107	354.56
394.331	332.56
394.556	344.56
394.78	334.56
395.005	344.56
395.229	352.56
395.454	359.56
395.678	355.56
395.903	366.56
396.127	371.56
396.352	375.56
396.576	366.56
396.801	352.56
397.025	368.56
397.249	367.56
397.474	367.56
397.698	363.56
397.922	371.56
398.147	381.56
398.371	395.56
398.595	391.56
398.82	391.56
399.044	391.56
399.268	435.56
399.492	447.56
399.717	462.56
399.941	505.56
400.165	480.56
400.389	471.56
400.613	441.56
400.837	423.56
401.062	394.56
401.286	404.56
401.51	391.56
401.734	412.56
401.958	399.56
402.182	408.56
402.406	422.56
402.63	423.56
402.854	392.56
403.078	422.56
403.302	408.56
403.526	428.56
403.75	424.56
403.974	425.56
404.198	425.56
404.422	420.56
404.645	406.56
404.869	415.56
405.093	430.56
405.317	453.56
405.541	467.56
405.765	438.56
405.988	440.56
406.212	433.56
406.436	457.56
406.66	468.56
406.883	452.56
407.107	463.56
407.331	509.56
407.555	525.56
407.778	534.56
408.002	510.56
408.226	474.56
408.449	446.56
408.673	442.56
408.896	465.56
409.12	486.56
409.344	456.56
409.567	438.56
409.791	418.56
410.014	419.56
410.238	417.56
410.461	413.56
410.685	415.56
410.908	445.56
411.132	471.56
411.355	452.56
411.578	444.56
411.802	429.56
412.025	428.56
412.249	415.56
412.472	434.56
412.695	433.56
412.919	420.56
413.142	436.56
413.365	409.56
413.589	411.56
413.812	399.56
414.035	410.56
414.258	406.56
414.482	403.56
414.705	431.56
414.928	390.56
415.151	411.56
415.374	403.56
415.597	420.56
415.821	402.56
416.044	388.56
416.267	410.56
416.49	389.56
416.713	389.56
416.936	405.56
417.159	367.56
417.382	390.56
417.605	400.56
417.828	414.56
418.051	424.56
418.274	431.56
418.497	415.56
418.72	407.56
418.943	400.56
419.166	395.56
419.389	444.56
419.611	427.56
419.834	431.56
420.057	426.56
420.28	417.56
420.503	409.56
420.726	414.56
420.948	415.56
421.171	433.56
421.394	460.56
421.617	439.56
421.839	415.56
422.062	425.56
422.285	450.56
422.507	469.56
422.73	480.56
422.953	506.56
423.175	436.56
423.398	456.56
423.621	436.56
423.843	442.56
424.066	460.56
424.288	447.56
424.511	449.56
424.733	488.56
424.956	531.56
425.178	520.56
425.401	506.56
425.623	507.56
425.846	443.56
426.068	436.56
426.291	447.56
426.513	450.56
426.735	459.56
426.958	438.56
427.18	514.56
427.402	591.56
427.625	637.56
427.847	541.56
428.069	499.56
428.292	474.56
428.514	432.56
428.736	433.56
428.958	418.56
429.181	409.56
429.403	391.56
429.625	402.56
429.847	446.56
430.069	458.56
430.292	472.56
430.514	414.56
430.736	416.56
430.958	407.56
431.18	381.56
431.402	392.56
431.624	377.56
431.846	379.56
432.068	400.56
432.29	381.56
432.512	406.56
432.734	408.56
432.956	382.56
433.178	413.56
433.4	394.56
433.622	385.56
433.844	408.56
434.066	381.56
434.287	360.56
434.509	391.56
434.731	387.56
434.953	410.56
435.175	433.56
435.397	431.56
435.618	439.56
435.84	462.56
436.062	513.56
436.284	535.56
436.505	458.56
436.727	453.56
436.949	401.56
437.17	399.56
437.392	410.56
437.614	431.56
437.835	435.56
438.057	500.56
438.278	515.56
438.5	553.56
438.721	585.56
438.943	571.56
439.165	475.56
439.386	448.56
439.608	442.56
439.829	424.56
440.05	454.56
440.272	466.56
440.493	439.56
440.715	431.56
440.936	417.56
441.158	414.56
441.379	424.56
441.6	398.56
441.822	438.56
442.043	456.56
442.264	494.56
442.486	527.56
442.707	467.56
442.928	441.56
443.149	444.56
443.371	452.56
443.592	479.56
443.813	537.56
444.034	572.56
444.255	498.56
444.476	478.56
444.698	450.56
444.919	456.56
445.14	545.56
445.361	499.56
445.582	459.56
445.803	497.56
446.024	531.56
446.245	539.56
446.466	513.56
446.687	459.56
446.908	413.56
447.129	428.56
447.35	402.56
447.571	419.56
447.792	394.56
448.013	393.56
448.234	430.56
448.455	425.56
448.675	517.56
448.896	568.56
449.117	469.56
449.338	479.56
449.559	533.56
449.779	613.56
450	487.56
450.221	420.56
450.442	406.56
450.662	387.56
450.883	392.56
451.104	399.56
451.324	410.56
451.545	385.56
451.766	377.56
451.986	356.56
452.207	365.56
452.428	361.56
452.648	372.56
452.869	361.56
453.089	383.56
453.31	387.56
453.53	365.56
453.751	365.56
453.971	372.56
454.192	365.56
454.412	358.56
454.633	375.56
454.853	367.56
455.073	368.56
455.294	363.56
455.514	418.56
455.734	411.56
455.955	371.56
456.175	350.56
456.395	330.56
456.616	362.56
456.836	344.56
457.056	352.56
457.276	338.56
457.497	347.56
457.717	345.56
457.937	369.56
458.157	361.56
458.377	365.56
458.598	387.56
458.818	398.56
459.038	467.56
459.258	459.56
459.478	401.56
459.698	405.56
459.918	401.56
460.138	392.56
460.358	410.56
460.578	401.56
460.798	403.56
461.018	404.56
461.238	424.56
461.458	414.56
461.678	414.56
461.898	424.56
462.118	409.56
462.338	440.56
462.558	415.56
462.777	431.56
462.997	473.56
463.217	456.56
463.437	467.56
463.657	429.56
463.876	442.56
464.096	437.56
464.316	433.56
464.536	461.56
464.755	440.56
464.975	409.56
465.195	447.56
465.414	499.56
465.634	441.56
465.854	409.56
466.073	409.56
466.293	393.56
466.512	386.56
466.732	408.56
466.951	393.56
467.171	377.56
467.391	386.56
467.61	401.56
467.829	417.56
468.049	395.56
468.268	399.56
468.488	416.56
468.707	383.56
468.927	385.56
469.146	370.56
469.365	372.56
469.585	374.56
469.804	382.56
470.023	381.56
470.243	382.56
470.462	389.56
470.681	391.56
470.901	382.56
471.12	390.56
471.339	387.56
471.558	392.56
471.777	376.56
471.997	391.56
472.216	410.56
472.435	432.56
472.654	414.56
472.873	401.56
473.092	386.56
473.311	385.56
473.53	392.56
473.749	399.56
473.968	417.56
474.187	448.56
474.406	506.56
474.625	425.56
474.844	389.56
475.063	378.56
475.282	360.56
475.501	385.56
475.72	391.56
475.939	395.56
476.158	403.56
476.377	404.56
476.596	385.56
476.814	403.56
477.033	402.56
477.252	416.56
477.471	408.56
477.69	412.56
477.908	416.56
478.127	439.56
478.346	414.56
478.564	423.56
478.783	442.56
479.002	432.56
479.22	425.56
479.439	437.56
479.658	454.56
479.876	457.56
480.095	463.56
480.313	474.56
480.532	472.56
480.751	471.56
480.969	483.56
481.188	578.56
481.406	616.56
481.624	515.56
481.843	460.56
482.061	429.56
482.28	450.56
482.498	431.56
482.717	432.56
482.935	425.56
483.153	441.56
483.372	472.56
483.59	442.56
483.808	459.56
484.027	436.56
484.245	443.56
484.463	463.56
484.681	455.56
484.9	452.56
485.118	457.56
485.336	463.56
485.554	454.56
485.772	450.56
485.99	465.56
486.209	459.56
486.427	459.56
486.645	467.56
486.863	474.56
487.081	476.56
487.299	474.56
487.517	481.56
487.735	480.56
487.953	470.56
488.171	471.56
488.389	463.56
488.607	476.56
488.825	474.56
489.043	451.56
489.261	467.56
489.479	464.56
489.696	487.56
489.914	478.56
490.132	473.56
490.35	479.56
490.568	494.56
490.786	497.56
491.003	511.56
491.221	499.56
491.439	525.56
491.657	508.56
491.874	541.56
492.092	545.56
492.31	542.56
492.527	521.56
492.745	522.56
492.963	517.56
493.18	527.56
493.398	546.56
493.615	575.56
493.833	545.56
494.05	578.56
494.268	545.56
494.485	540.56
494.703	551.56
494.92	559.56
495.138	568.56
495.355	552.56
495.573	554.56
495.79	563.56
496.008	565.56
496.225	565.56
496.442	529.56
496.66	565.56
496.877	548.56
497.094	554.56
497.312	578.56
497.529	537.56
497.746	559.56
497.963	606.56
498.181	589.56
498.398	611.56
498.615	610.56
498.832	625.56
499.049	643.56
499.267	670.56
499.484	698.56
499.701	726.56
499.918	746.56
500.135	792.56
500.352	832.56
500.569	842.56
500.786	879.56
501.003	809.56
501.22	775.56
501.437	766.56
501.654	737.56
501.871	717.56
502.088	696.56
