Data from 1986.PennyLincolnUp.Lamp.En5.5.200Scan.071819.P2_HRD10591_17-12-19-973.txt Node
Date: Thu Jul 18 17:12:19 EDT 2019
User: cochatt
Spectrometer: HR+D1059
Trigger mode: 1
Integration Time (sec): 1.000000E-1
Scans to average: 1
Electric dark correction enabled: true
Nonlinearity correction enabled: false
Boxcar width: 0
XAxis mode: Wavelengths
Number of Pixels in Spectrum: 2048
>>>>>Begin Spectral Data<<<<<
223.165	-22.44
223.4	-22.44
223.635	-22.44
223.869	-16.44
224.104	-25.44
224.338	-10.44
224.573	-11.44
224.808	-1.44
225.042	-10.44
225.277	-19.44
225.511	1.56
225.746	-1.44
225.98	7.56
226.215	13.56
226.449	5.56
226.683	18.56
226.918	47.56
227.152	24.56
227.387	28.56
227.621	25.56
227.856	35.56
228.09	40.56
228.324	55.56
228.559	70.56
228.793	78.56
229.027	107.56
229.262	115.56
229.496	112.56
229.73	143.56
229.964	161.56
230.199	122.56
230.433	103.56
230.667	104.56
230.901	111.56
231.136	108.56
231.37	98.56
231.604	105.56
231.838	106.56
232.072	121.56
232.306	131.56
232.541	115.56
232.775	95.56
233.009	106.56
233.243	99.56
233.477	123.56
233.711	113.56
233.945	120.56
234.179	105.56
234.413	134.56
234.647	129.56
234.881	116.56
235.115	134.56
235.349	120.56
235.583	125.56
235.817	122.56
236.051	134.56
236.285	121.56
236.519	118.56
236.753	134.56
236.987	155.56
237.221	183.56
237.455	254.56
237.689	188.56
237.922	146.56
238.156	125.56
238.39	136.56
238.624	130.56
238.858	134.56
239.091	110.56
239.325	139.56
239.559	142.56
239.793	136.56
240.027	123.56
240.26	136.56
240.494	155.56
240.728	145.56
240.961	154.56
241.195	139.56
241.429	144.56
241.662	138.56
241.896	144.56
242.13	141.56
242.363	153.56
242.597	138.56
242.83	146.56
243.064	138.56
243.298	147.56
243.531	130.56
243.765	152.56
243.998	151.56
244.232	148.56
244.465	140.56
244.699	166.56
244.932	162.56
245.166	135.56
245.399	146.56
245.633	141.56
245.866	152.56
246.099	144.56
246.333	164.56
246.566	160.56
246.8	171.56
247.033	162.56
247.266	174.56
247.5	165.56
247.733	191.56
247.966	169.56
248.2	178.56
248.433	187.56
248.666	183.56
248.899	209.56
249.133	197.56
249.366	208.56
249.599	224.56
249.832	210.56
250.066	210.56
250.299	211.56
250.532	246.56
250.765	282.56
250.998	278.56
251.231	275.56
251.465	244.56
251.698	250.56
251.931	229.56
252.164	229.56
252.397	227.56
252.63	235.56
252.863	233.56
253.096	231.56
253.329	256.56
253.562	262.56
253.795	246.56
254.028	246.56
254.261	255.56
254.494	251.56
254.727	273.56
254.96	312.56
255.193	298.56
255.426	298.56
255.659	278.56
255.892	294.56
256.124	319.56
256.357	371.56
256.59	347.56
256.823	303.56
257.056	300.56
257.289	272.56
257.521	279.56
257.754	256.56
257.987	244.56
258.22	235.56
258.452	252.56
258.685	233.56
258.918	247.56
259.151	228.56
259.383	239.56
259.616	257.56
259.849	254.56
260.081	273.56
260.314	258.56
260.547	263.56
260.779	295.56
261.012	241.56
261.244	256.56
261.477	241.56
261.71	228.56
261.942	246.56
262.175	251.56
262.407	260.56
262.64	226.56
262.872	231.56
263.105	226.56
263.337	230.56
263.57	220.56
263.802	241.56
264.035	224.56
264.267	206.56
264.499	223.56
264.732	218.56
264.964	231.56
265.197	222.56
265.429	231.56
265.661	224.56
265.894	211.56
266.126	227.56
266.358	211.56
266.591	231.56
266.823	236.56
267.055	242.56
267.287	227.56
267.52	240.56
267.752	228.56
267.984	253.56
268.216	238.56
268.448	246.56
268.681	230.56
268.913	260.56
269.145	292.56
269.377	294.56
269.609	293.56
269.841	299.56
270.073	300.56
270.306	319.56
270.538	336.56
270.77	349.56
271.002	314.56
271.234	296.56
271.466	325.56
271.698	331.56
271.93	353.56
272.162	339.56
272.394	336.56
272.626	311.56
272.858	308.56
273.09	309.56
273.322	283.56
273.553	298.56
273.785	279.56
274.017	296.56
274.249	278.56
274.481	282.56
274.713	286.56
274.945	288.56
275.176	263.56
275.408	252.56
275.64	284.56
275.872	282.56
276.104	280.56
276.335	293.56
276.567	283.56
276.799	296.56
277.031	347.56
277.262	347.56
277.494	341.56
277.726	319.56
277.957	302.56
278.189	289.56
278.421	286.56
278.652	279.56
278.884	296.56
279.115	284.56
279.347	301.56
279.579	291.56
279.81	293.56
280.042	302.56
280.273	280.56
280.505	287.56
280.736	286.56
280.968	291.56
281.199	283.56
281.431	280.56
281.662	301.56
281.894	286.56
282.125	282.56
282.356	300.56
282.588	336.56
282.819	332.56
283.051	286.56
283.282	292.56
283.513	299.56
283.745	290.56
283.976	292.56
284.207	282.56
284.439	280.56
284.67	290.56
284.901	285.56
285.132	295.56
285.364	283.56
285.595	293.56
285.826	291.56
286.057	281.56
286.288	279.56
286.52	287.56
286.751	282.56
286.982	268.56
287.213	286.56
287.444	288.56
287.675	296.56
287.906	306.56
288.138	302.56
288.369	312.56
288.6	307.56
288.831	319.56
289.062	304.56
289.293	298.56
289.524	307.56
289.755	280.56
289.986	293.56
290.217	295.56
290.448	298.56
290.679	280.56
290.91	280.56
291.141	288.56
291.371	271.56
291.602	294.56
291.833	289.56
292.064	305.56
292.295	286.56
292.526	284.56
292.757	275.56
292.987	298.56
293.218	286.56
293.449	288.56
293.68	305.56
293.91	300.56
294.141	289.56
294.372	288.56
294.603	282.56
294.833	271.56
295.064	293.56
295.295	303.56
295.525	302.56
295.756	298.56
295.987	315.56
296.217	339.56
296.448	340.56
296.679	328.56
296.909	299.56
297.14	277.56
297.37	309.56
297.601	300.56
297.831	288.56
298.062	294.56
298.292	312.56
298.523	334.56
298.753	299.56
298.984	288.56
299.214	308.56
299.445	291.56
299.675	321.56
299.905	314.56
300.136	320.56
300.366	313.56
300.597	295.56
300.827	308.56
301.057	321.56
301.288	339.56
301.518	323.56
301.748	314.56
301.979	323.56
302.209	316.56
302.439	324.56
302.669	338.56
302.9	307.56
303.13	318.56
303.36	339.56
303.59	324.56
303.82	350.56
304.051	351.56
304.281	324.56
304.511	321.56
304.741	310.56
304.971	322.56
305.201	329.56
305.431	308.56
305.661	324.56
305.891	320.56
306.121	312.56
306.352	325.56
306.582	322.56
306.812	328.56
307.042	346.56
307.272	343.56
307.502	331.56
307.731	345.56
307.961	330.56
308.191	320.56
308.421	338.56
308.651	350.56
308.881	337.56
309.111	359.56
309.341	344.56
309.571	364.56
309.8	370.56
310.03	373.56
310.26	391.56
310.49	365.56
310.72	394.56
310.949	392.56
311.179	425.56
311.409	400.56
311.639	396.56
311.868	388.56
312.098	371.56
312.328	395.56
312.557	389.56
312.787	406.56
313.017	404.56
313.246	388.56
313.476	360.56
313.706	384.56
313.935	396.56
314.165	391.56
314.394	401.56
314.624	400.56
314.853	390.56
315.083	374.56
315.312	374.56
315.542	369.56
315.771	377.56
316.001	363.56
316.23	375.56
316.46	388.56
316.689	373.56
316.919	374.56
317.148	410.56
317.377	397.56
317.607	387.56
317.836	384.56
318.065	392.56
318.295	367.56
318.524	379.56
318.753	382.56
318.983	390.56
319.212	410.56
319.441	394.56
319.67	411.56
319.9	364.56
320.129	353.56
320.358	404.56
320.587	418.56
320.816	401.56
321.046	431.56
321.275	428.56
321.504	414.56
321.733	421.56
321.962	443.56
322.191	436.56
322.42	463.56
322.649	446.56
322.878	475.56
323.108	511.56
323.337	546.56
323.566	554.56
323.795	582.56
324.024	657.56
324.253	795.56
324.482	1102.56
324.71	1693.56
324.939	2482.56
325.168	2196.56
325.397	1152.56
325.626	766.56
325.855	643.56
326.084	574.56
326.313	580.56
326.542	582.56
326.77	616.56
326.999	711.56
327.228	1008.56
327.457	1534.56
327.686	1896.56
327.914	1274.56
328.143	922.56
328.372	818.56
328.6	755.56
328.829	679.56
329.058	693.56
329.287	694.56
329.515	673.56
329.744	651.56
329.972	686.56
330.201	779.56
330.43	922.56
330.658	857.56
330.887	792.56
331.115	706.56
331.344	623.56
331.572	581.56
331.801	576.56
332.03	560.56
332.258	547.56
332.486	499.56
332.715	521.56
332.943	502.56
333.172	524.56
333.4	544.56
333.629	551.56
333.857	592.56
334.085	648.56
334.314	778.56
334.542	946.56
334.771	979.56
334.999	751.56
335.227	598.56
335.455	550.56
335.684	508.56
335.912	473.56
336.14	471.56
336.369	464.56
336.597	495.56
336.825	498.56
337.053	480.56
337.281	468.56
337.51	444.56
337.738	460.56
337.966	444.56
338.194	473.56
338.422	449.56
338.65	447.56
338.878	440.56
339.106	457.56
339.334	450.56
339.562	427.56
339.79	432.56
340.018	443.56
340.246	446.56
340.474	451.56
340.702	434.56
340.93	432.56
341.158	431.56
341.386	442.56
341.614	441.56
341.842	418.56
342.07	420.56
342.298	433.56
342.526	428.56
342.754	396.56
342.981	419.56
343.209	420.56
343.437	404.56
343.665	397.56
343.893	408.56
344.12	418.56
344.348	422.56
344.576	419.56
344.804	437.56
345.031	443.56
345.259	451.56
345.487	436.56
345.714	420.56
345.942	411.56
346.17	413.56
346.397	415.56
346.625	426.56
346.853	416.56
347.08	415.56
347.308	419.56
347.535	422.56
347.763	436.56
347.99	426.56
348.218	430.56
348.445	434.56
348.673	418.56
348.9	412.56
349.128	407.56
349.355	405.56
349.583	382.56
349.81	400.56
350.037	408.56
350.265	412.56
350.492	400.56
350.72	407.56
350.947	418.56
351.174	434.56
351.402	423.56
351.629	414.56
351.856	407.56
352.083	426.56
352.311	431.56
352.538	434.56
352.765	430.56
352.992	453.56
353.22	436.56
353.447	416.56
353.674	404.56
353.901	389.56
354.128	378.56
354.355	395.56
354.583	385.56
354.81	386.56
355.037	377.56
355.264	383.56
355.491	376.56
355.718	382.56
355.945	378.56
356.172	375.56
356.399	378.56
356.626	372.56
356.853	381.56
357.08	364.56
357.307	369.56
357.534	372.56
357.761	367.56
357.988	375.56
358.215	372.56
358.441	374.56
358.668	377.56
358.895	371.56
359.122	391.56
359.349	376.56
359.576	407.56
359.802	415.56
360.029	455.56
360.256	463.56
360.483	438.56
360.709	405.56
360.936	417.56
361.163	409.56
361.39	407.56
361.616	397.56
361.843	386.56
362.07	405.56
362.296	408.56
362.523	411.56
362.749	405.56
362.976	406.56
363.203	392.56
363.429	389.56
363.656	375.56
363.882	380.56
364.109	411.56
364.335	390.56
364.562	392.56
364.788	382.56
365.015	394.56
365.241	367.56
365.468	375.56
365.694	391.56
365.92	395.56
366.147	417.56
366.373	400.56
366.599	374.56
366.826	387.56
367.052	386.56
367.278	380.56
367.505	387.56
367.731	379.56
367.957	374.56
368.184	374.56
368.41	387.56
368.636	379.56
368.862	400.56
369.089	386.56
369.315	376.56
369.541	379.56
369.767	370.56
369.993	374.56
370.219	375.56
370.445	374.56
370.672	388.56
370.898	380.56
371.124	382.56
371.35	374.56
371.576	391.56
371.802	355.56
372.028	377.56
372.254	372.56
372.48	370.56
372.706	370.56
372.932	378.56
373.158	370.56
373.384	373.56
373.61	377.56
373.835	374.56
374.061	380.56
374.287	376.56
374.513	377.56
374.739	394.56
374.965	372.56
375.191	374.56
375.416	362.56
375.642	360.56
375.868	374.56
376.094	360.56
376.319	369.56
376.545	366.56
376.771	359.56
376.997	352.56
377.222	354.56
377.448	361.56
377.674	348.56
377.899	364.56
378.125	350.56
378.35	371.56
378.576	368.56
378.802	338.56
379.027	372.56
379.253	347.56
379.478	370.56
379.704	372.56
379.929	374.56
380.155	359.56
380.38	356.56
380.606	359.56
380.831	362.56
381.057	361.56
381.282	373.56
381.507	369.56
381.733	400.56
381.958	361.56
382.184	362.56
382.409	388.56
382.634	387.56
382.86	379.56
383.085	360.56
383.31	377.56
383.535	376.56
383.761	400.56
383.986	392.56
384.211	384.56
384.436	383.56
384.662	376.56
384.887	368.56
385.112	386.56
385.337	376.56
385.562	382.56
385.787	378.56
386.013	375.56
386.238	384.56
386.463	395.56
386.688	381.56
386.913	386.56
387.138	382.56
387.363	388.56
387.588	378.56
387.813	379.56
388.038	382.56
388.263	394.56
388.488	395.56
388.713	372.56
388.938	387.56
389.163	400.56
389.387	402.56
389.612	366.56
389.837	363.56
390.062	378.56
390.287	389.56
390.512	374.56
390.736	367.56
390.961	388.56
391.186	382.56
391.411	372.56
391.636	390.56
391.86	388.56
392.085	390.56
392.31	391.56
392.534	390.56
392.759	391.56
392.984	391.56
393.208	388.56
393.433	386.56
393.658	386.56
393.882	398.56
394.107	398.56
394.331	398.56
394.556	381.56
394.78	375.56
395.005	401.56
395.229	380.56
395.454	387.56
395.678	403.56
395.903	393.56
396.127	420.56
396.352	432.56
396.576	394.56
396.801	405.56
397.025	386.56
397.249	398.56
397.474	401.56
397.698	415.56
397.922	414.56
398.147	414.56
398.371	438.56
398.595	421.56
398.82	428.56
399.044	447.56
399.268	414.56
399.492	451.56
399.717	462.56
399.941	482.56
400.165	511.56
400.389	536.56
400.613	484.56
400.837	449.56
401.062	453.56
401.286	450.56
401.51	437.56
401.734	418.56
401.958	441.56
402.182	442.56
402.406	438.56
402.63	443.56
402.854	456.56
403.078	471.56
403.302	436.56
403.526	438.56
403.75	470.56
403.974	463.56
404.198	449.56
404.422	449.56
404.645	477.56
404.869	515.56
405.093	539.56
405.317	583.56
405.541	624.56
405.765	554.56
405.988	536.56
406.212	530.56
406.436	526.56
406.66	542.56
406.883	500.56
407.107	511.56
407.331	562.56
407.555	615.56
407.778	601.56
408.002	547.56
408.226	516.56
408.449	497.56
408.673	504.56
408.896	547.56
409.12	585.56
409.344	534.56
409.567	494.56
409.791	474.56
410.014	482.56
410.238	460.56
410.461	464.56
410.685	475.56
410.908	510.56
411.132	520.56
411.355	557.56
411.578	530.56
411.802	494.56
412.025	494.56
412.249	530.56
412.472	570.56
412.695	612.56
412.919	628.56
413.142	550.56
413.365	523.56
413.589	492.56
413.812	481.56
414.035	469.56
414.258	480.56
414.482	486.56
414.705	448.56
414.928	455.56
415.151	433.56
415.374	458.56
415.597	431.56
415.821	420.56
416.044	448.56
416.267	453.56
416.49	452.56
416.713	420.56
416.936	451.56
417.159	447.56
417.382	431.56
417.605	442.56
417.828	454.56
418.051	470.56
418.274	458.56
418.497	433.56
418.72	444.56
418.943	444.56
419.166	432.56
419.389	475.56
419.611	482.56
419.834	482.56
420.057	475.56
420.28	516.56
420.503	523.56
420.726	509.56
420.948	517.56
421.171	551.56
421.394	570.56
421.617	507.56
421.839	462.56
422.062	479.56
422.285	496.56
422.507	532.56
422.73	604.56
422.953	609.56
423.175	543.56
423.398	485.56
423.621	495.56
423.843	498.56
424.066	491.56
424.288	518.56
424.511	509.56
424.733	564.56
424.956	616.56
425.178	626.56
425.401	632.56
425.623	672.56
425.846	556.56
426.068	521.56
426.291	522.56
426.513	522.56
426.735	533.56
426.958	562.56
427.18	638.56
427.402	770.56
427.625	880.56
427.847	791.56
428.069	729.56
428.292	642.56
428.514	551.56
428.736	520.56
428.958	504.56
429.181	467.56
429.403	487.56
429.625	487.56
429.847	531.56
430.069	591.56
430.292	595.56
430.514	513.56
430.736	478.56
430.958	473.56
431.18	458.56
431.402	449.56
431.624	427.56
431.846	434.56
432.068	426.56
432.29	423.56
432.512	432.56
432.734	457.56
432.956	435.56
433.178	464.56
433.4	455.56
433.622	452.56
433.844	440.56
434.066	436.56
434.287	438.56
434.509	448.56
434.731	445.56
434.953	435.56
435.175	472.56
435.397	483.56
435.618	512.56
435.84	551.56
436.062	647.56
436.284	710.56
436.505	587.56
436.727	546.56
436.949	500.56
437.17	473.56
437.392	478.56
437.614	502.56
437.835	515.56
438.057	648.56
438.278	693.56
438.5	734.56
438.721	783.56
438.943	777.56
439.165	593.56
439.386	540.56
439.608	544.56
439.829	556.56
440.05	551.56
440.272	617.56
440.493	577.56
440.715	538.56
440.936	497.56
441.158	481.56
441.379	497.56
441.6	481.56
441.822	510.56
442.043	559.56
442.264	639.56
442.486	692.56
442.707	567.56
442.928	539.56
443.149	551.56
443.371	570.56
443.592	596.56
443.813	696.56
444.034	743.56
444.255	620.56
444.476	526.56
444.698	515.56
444.919	503.56
445.14	609.56
445.361	561.56
445.582	553.56
445.803	643.56
446.024	738.56
446.245	742.56
446.466	668.56
446.687	604.56
446.908	521.56
447.129	502.56
447.35	483.56
447.571	457.56
447.792	468.56
448.013	498.56
448.234	472.56
448.455	554.56
448.675	668.56
448.896	746.56
449.117	640.56
449.338	638.56
449.559	723.56
449.779	846.56
450	674.56
450.221	556.56
450.442	526.56
450.662	506.56
450.883	484.56
451.104	514.56
451.324	491.56
451.545	462.56
451.766	459.56
451.986	439.56
452.207	431.56
452.428	422.56
452.648	442.56
452.869	444.56
453.089	446.56
453.31	447.56
453.53	438.56
453.751	443.56
453.971	432.56
454.192	463.56
454.412	446.56
454.633	424.56
454.853	424.56
455.073	422.56
455.294	475.56
455.514	515.56
455.734	514.56
455.955	450.56
456.175	439.56
456.395	409.56
456.616	388.56
456.836	393.56
457.056	394.56
457.276	391.56
457.497	404.56
457.717	390.56
457.937	427.56
458.157	402.56
458.377	424.56
458.598	441.56
458.818	507.56
459.038	580.56
459.258	612.56
459.478	505.56
459.698	452.56
459.918	431.56
460.138	439.56
460.358	426.56
460.578	406.56
460.798	413.56
461.018	402.56
461.238	433.56
461.458	422.56
461.678	410.56
461.898	419.56
462.118	406.56
462.338	402.56
462.558	435.56
462.777	441.56
462.997	441.56
463.217	455.56
463.437	457.56
463.657	450.56
463.876	434.56
464.096	436.56
464.316	450.56
464.536	454.56
464.755	452.56
464.975	443.56
465.195	510.56
465.414	595.56
465.634	532.56
465.854	487.56
466.073	467.56
466.293	464.56
466.512	433.56
466.732	434.56
466.951	392.56
467.171	422.56
467.391	431.56
467.61	447.56
467.829	475.56
468.049	489.56
468.268	540.56
468.488	495.56
468.707	460.56
468.927	436.56
469.146	425.56
469.365	417.56
469.585	427.56
469.804	432.56
470.023	425.56
470.243	471.56
470.462	447.56
470.681	472.56
470.901	473.56
471.12	449.56
471.339	448.56
471.558	465.56
471.777	448.56
471.997	471.56
472.216	522.56
472.435	680.56
472.654	665.56
472.873	571.56
473.092	503.56
473.311	502.56
473.53	492.56
473.749	490.56
473.968	521.56
474.187	630.56
474.406	644.56
474.625	520.56
474.844	471.56
475.063	455.56
475.282	453.56
475.501	442.56
475.72	449.56
475.939	492.56
476.158	489.56
476.377	466.56
476.596	472.56
476.814	465.56
477.033	475.56
477.252	491.56
477.471	455.56
477.69	479.56
477.908	473.56
478.127	484.56
478.346	482.56
478.564	497.56
478.783	490.56
479.002	492.56
479.22	523.56
479.439	505.56
479.658	553.56
479.876	555.56
480.095	551.56
480.313	574.56
480.532	583.56
480.751	578.56
480.969	616.56
481.188	892.56
481.406	1098.56
481.624	821.56
481.843	698.56
482.061	630.56
482.28	620.56
482.498	592.56
482.717	587.56
482.935	577.56
483.153	560.56
483.372	561.56
483.59	540.56
483.808	561.56
484.027	549.56
484.245	555.56
484.463	559.56
484.681	564.56
484.9	568.56
485.118	556.56
485.336	558.56
485.554	570.56
485.772	565.56
485.99	556.56
486.209	558.56
486.427	542.56
486.645	565.56
486.863	582.56
487.081	592.56
487.299	582.56
487.517	591.56
487.735	602.56
487.953	562.56
488.171	598.56
488.389	563.56
488.607	600.56
488.825	566.56
489.043	576.56
489.261	603.56
489.479	598.56
489.696	610.56
489.914	600.56
490.132	627.56
490.35	642.56
490.568	623.56
490.786	631.56
491.003	638.56
491.221	690.56
491.439	691.56
491.657	703.56
491.874	713.56
492.092	728.56
492.31	727.56
492.527	739.56
492.745	715.56
492.963	699.56
493.18	756.56
493.398	740.56
493.615	740.56
493.833	759.56
494.05	750.56
494.268	723.56
494.485	710.56
494.703	715.56
494.92	709.56
495.138	726.56
495.355	724.56
495.573	730.56
495.79	724.56
496.008	742.56
496.225	720.56
496.442	698.56
496.66	722.56
496.877	704.56
497.094	692.56
497.312	700.56
497.529	680.56
497.746	731.56
497.963	724.56
498.181	747.56
498.398	737.56
498.615	722.56
498.832	733.56
499.049	736.56
499.267	750.56
499.484	784.56
499.701	778.56
499.918	794.56
500.135	839.56
500.352	811.56
500.569	840.56
500.786	832.56
501.003	862.56
501.22	854.56
501.437	838.56
501.654	802.56
501.871	820.56
