Data from 1986.PennyLincolnUp.Lamp.En5.5.200Scan.071819.P2_HRD10591_17-12-31-973.txt Node
Date: Thu Jul 18 17:12:31 EDT 2019
User: cochatt
Spectrometer: HR+D1059
Trigger mode: 1
Integration Time (sec): 1.000000E-1
Scans to average: 1
Electric dark correction enabled: true
Nonlinearity correction enabled: false
Boxcar width: 0
XAxis mode: Wavelengths
Number of Pixels in Spectrum: 2048
>>>>>Begin Spectral Data<<<<<
223.165	-9.38
223.4	-9.38
223.635	-9.38
223.869	-26.38
224.104	-15.38
224.338	-16.38
224.573	-27.38
224.808	-13.38
225.042	-7.38
225.277	-18.38
225.511	-1.38
225.746	6.62
225.98	16.62
226.215	13.62
226.449	15.62
226.683	23.62
226.918	27.62
227.152	31.62
227.387	37.62
227.621	32.62
227.856	40.62
228.09	36.62
228.324	34.62
228.559	58.62
228.793	66.62
229.027	91.62
229.262	105.62
229.496	117.62
229.73	146.62
229.964	137.62
230.199	136.62
230.433	124.62
230.667	132.62
230.901	112.62
231.136	125.62
231.37	122.62
231.604	113.62
231.838	122.62
232.072	117.62
232.306	126.62
232.541	108.62
232.775	124.62
233.009	120.62
233.243	107.62
233.477	115.62
233.711	117.62
233.945	115.62
234.179	119.62
234.413	124.62
234.647	120.62
234.881	111.62
235.115	131.62
235.349	126.62
235.583	114.62
235.817	119.62
236.051	127.62
236.285	127.62
236.519	121.62
236.753	143.62
236.987	155.62
237.221	196.62
237.455	252.62
237.689	196.62
237.922	143.62
238.156	145.62
238.39	143.62
238.624	121.62
238.858	136.62
239.091	131.62
239.325	123.62
239.559	136.62
239.793	136.62
240.027	146.62
240.26	129.62
240.494	152.62
240.728	168.62
240.961	159.62
241.195	144.62
241.429	147.62
241.662	139.62
241.896	139.62
242.13	140.62
242.363	143.62
242.597	158.62
242.83	149.62
243.064	143.62
243.298	160.62
243.531	138.62
243.765	139.62
243.998	156.62
244.232	141.62
244.465	140.62
244.699	150.62
244.932	169.62
245.166	160.62
245.399	156.62
245.633	144.62
245.866	147.62
246.099	152.62
246.333	159.62
246.566	161.62
246.8	151.62
247.033	176.62
247.266	166.62
247.5	175.62
247.733	172.62
247.966	170.62
248.2	178.62
248.433	189.62
248.666	179.62
248.899	201.62
249.133	210.62
249.366	213.62
249.599	225.62
249.832	201.62
250.066	219.62
250.299	209.62
250.532	237.62
250.765	270.62
250.998	290.62
251.231	270.62
251.465	241.62
251.698	240.62
251.931	234.62
252.164	234.62
252.397	231.62
252.63	232.62
252.863	232.62
253.096	240.62
253.329	258.62
253.562	242.62
253.795	250.62
254.028	246.62
254.261	245.62
254.494	263.62
254.727	274.62
254.96	312.62
255.193	308.62
255.426	284.62
255.659	280.62
255.892	322.62
256.124	356.62
256.357	377.62
256.59	372.62
256.823	316.62
257.056	292.62
257.289	266.62
257.521	266.62
257.754	263.62
257.987	264.62
258.22	244.62
258.452	243.62
258.685	253.62
258.918	226.62
259.151	253.62
259.383	244.62
259.616	230.62
259.849	260.62
260.081	264.62
260.314	267.62
260.547	270.62
260.779	274.62
261.012	261.62
261.244	259.62
261.477	252.62
261.71	236.62
261.942	258.62
262.175	259.62
262.407	248.62
262.64	233.62
262.872	218.62
263.105	225.62
263.337	221.62
263.57	231.62
263.802	230.62
264.035	220.62
264.267	204.62
264.499	237.62
264.732	222.62
264.964	233.62
265.197	220.62
265.429	224.62
265.661	235.62
265.894	227.62
266.126	231.62
266.358	239.62
266.591	228.62
266.823	228.62
267.055	249.62
267.287	260.62
267.52	254.62
267.752	241.62
267.984	246.62
268.216	253.62
268.448	247.62
268.681	263.62
268.913	247.62
269.145	280.62
269.377	302.62
269.609	304.62
269.841	294.62
270.073	290.62
270.306	331.62
270.538	339.62
270.77	347.62
271.002	325.62
271.234	300.62
271.466	330.62
271.698	333.62
271.93	339.62
272.162	336.62
272.394	324.62
272.626	318.62
272.858	313.62
273.09	306.62
273.322	306.62
273.553	301.62
273.785	284.62
274.017	294.62
274.249	287.62
274.481	284.62
274.713	286.62
274.945	277.62
275.176	295.62
275.408	270.62
275.64	282.62
275.872	286.62
276.104	288.62
276.335	286.62
276.567	285.62
276.799	319.62
277.031	344.62
277.262	344.62
277.494	354.62
277.726	335.62
277.957	339.62
278.189	309.62
278.421	299.62
278.652	319.62
278.884	305.62
279.115	286.62
279.347	288.62
279.579	300.62
279.81	285.62
280.042	295.62
280.273	290.62
280.505	305.62
280.736	288.62
280.968	300.62
281.199	303.62
281.431	286.62
281.662	265.62
281.894	289.62
282.125	300.62
282.356	322.62
282.588	317.62
282.819	313.62
283.051	304.62
283.282	278.62
283.513	285.62
283.745	257.62
283.976	300.62
284.207	288.62
284.439	290.62
284.67	294.62
284.901	287.62
285.132	308.62
285.364	280.62
285.595	286.62
285.826	286.62
286.057	305.62
286.288	285.62
286.52	272.62
286.751	286.62
286.982	279.62
287.213	304.62
287.444	292.62
287.675	291.62
287.906	295.62
288.138	332.62
288.369	320.62
288.6	328.62
288.831	325.62
289.062	310.62
289.293	299.62
289.524	287.62
289.755	309.62
289.986	299.62
290.217	302.62
290.448	301.62
290.679	286.62
290.91	300.62
291.141	283.62
291.371	300.62
291.602	291.62
291.833	293.62
292.064	286.62
292.295	315.62
292.526	284.62
292.757	289.62
292.987	300.62
293.218	304.62
293.449	289.62
293.68	310.62
293.91	296.62
294.141	301.62
294.372	298.62
294.603	310.62
294.833	298.62
295.064	293.62
295.295	290.62
295.525	284.62
295.756	302.62
295.987	315.62
296.217	341.62
296.448	354.62
296.679	320.62
296.909	311.62
297.14	291.62
297.37	301.62
297.601	282.62
297.831	288.62
298.062	310.62
298.292	304.62
298.523	298.62
298.753	301.62
298.984	299.62
299.214	323.62
299.445	309.62
299.675	318.62
299.905	344.62
300.136	316.62
300.366	312.62
300.597	301.62
300.827	321.62
301.057	340.62
301.288	340.62
301.518	316.62
301.748	330.62
301.979	341.62
302.209	347.62
302.439	334.62
302.669	347.62
302.9	324.62
303.13	325.62
303.36	323.62
303.59	321.62
303.82	360.62
304.051	338.62
304.281	323.62
304.511	330.62
304.741	324.62
304.971	340.62
305.201	329.62
305.431	320.62
305.661	333.62
305.891	340.62
306.121	337.62
306.352	348.62
306.582	346.62
306.812	348.62
307.042	338.62
307.272	340.62
307.502	353.62
307.731	357.62
307.961	336.62
308.191	329.62
308.421	353.62
308.651	352.62
308.881	354.62
309.111	340.62
309.341	353.62
309.571	358.62
309.8	357.62
310.03	381.62
310.26	394.62
310.49	398.62
310.72	394.62
310.949	383.62
311.179	412.62
311.409	389.62
311.639	384.62
311.868	405.62
312.098	411.62
312.328	407.62
312.557	397.62
312.787	429.62
313.017	422.62
313.246	397.62
313.476	380.62
313.706	389.62
313.935	387.62
314.165	410.62
314.394	405.62
314.624	421.62
314.853	416.62
315.083	368.62
315.312	385.62
315.542	396.62
315.771	364.62
316.001	379.62
316.23	389.62
316.46	381.62
316.689	414.62
316.919	408.62
317.148	405.62
317.377	401.62
317.607	404.62
317.836	394.62
318.065	394.62
318.295	389.62
318.524	372.62
318.753	391.62
318.983	397.62
319.212	390.62
319.441	396.62
319.67	410.62
319.9	384.62
320.129	396.62
320.358	405.62
320.587	410.62
320.816	420.62
321.046	424.62
321.275	417.62
321.504	409.62
321.733	413.62
321.962	445.62
322.191	457.62
322.42	461.62
322.649	476.62
322.878	476.62
323.108	514.62
323.337	539.62
323.566	547.62
323.795	587.62
324.024	650.62
324.253	800.62
324.482	1133.62
324.71	1701.62
324.939	2487.62
325.168	2170.62
325.397	1174.62
325.626	746.62
325.855	628.62
326.084	587.62
326.313	572.62
326.542	598.62
326.77	634.62
326.999	741.62
327.228	1028.62
327.457	1553.62
327.686	1876.62
327.914	1340.62
328.143	908.62
328.372	846.62
328.6	803.62
328.829	701.62
329.058	661.62
329.287	704.62
329.515	667.62
329.744	668.62
329.972	722.62
330.201	813.62
330.43	927.62
330.658	896.62
330.887	812.62
331.115	714.62
331.344	632.62
331.572	605.62
331.801	573.62
332.03	568.62
332.258	568.62
332.486	517.62
332.715	519.62
332.943	528.62
333.172	544.62
333.4	540.62
333.629	578.62
333.857	618.62
334.085	705.62
334.314	837.62
334.542	984.62
334.771	1070.62
334.999	818.62
335.227	614.62
335.455	562.62
335.684	506.62
335.912	482.62
336.14	514.62
336.369	492.62
336.597	490.62
336.825	480.62
337.053	475.62
337.281	472.62
337.51	468.62
337.738	457.62
337.966	451.62
338.194	470.62
338.422	458.62
338.65	468.62
338.878	436.62
339.106	436.62
339.334	427.62
339.562	433.62
339.79	418.62
340.018	449.62
340.246	453.62
340.474	432.62
340.702	444.62
340.93	438.62
341.158	423.62
341.386	445.62
341.614	443.62
341.842	448.62
342.07	440.62
342.298	427.62
342.526	424.62
342.754	391.62
342.981	404.62
343.209	394.62
343.437	405.62
343.665	406.62
343.893	428.62
344.12	397.62
344.348	408.62
344.576	431.62
344.804	426.62
345.031	458.62
345.259	452.62
345.487	429.62
345.714	440.62
345.942	408.62
346.17	424.62
346.397	438.62
346.625	417.62
346.853	426.62
347.08	404.62
347.308	430.62
347.535	439.62
347.763	420.62
347.99	413.62
348.218	448.62
348.445	429.62
348.673	424.62
348.9	420.62
349.128	411.62
349.355	390.62
349.583	392.62
349.81	402.62
350.037	382.62
350.265	391.62
350.492	392.62
350.72	396.62
350.947	428.62
351.174	420.62
351.402	433.62
351.629	423.62
351.856	426.62
352.083	449.62
352.311	448.62
352.538	456.62
352.765	423.62
352.992	410.62
353.22	410.62
353.447	404.62
353.674	396.62
353.901	397.62
354.128	386.62
354.355	374.62
354.583	389.62
354.81	386.62
355.037	389.62
355.264	401.62
355.491	408.62
355.718	398.62
355.945	384.62
356.172	382.62
356.399	384.62
356.626	360.62
356.853	382.62
357.08	376.62
357.307	368.62
357.534	391.62
357.761	379.62
357.988	395.62
358.215	379.62
358.441	360.62
358.668	384.62
358.895	392.62
359.122	390.62
359.349	403.62
359.576	410.62
359.802	426.62
360.029	468.62
360.256	477.62
360.483	448.62
360.709	418.62
360.936	418.62
361.163	424.62
361.39	428.62
361.616	442.62
361.843	418.62
362.07	402.62
362.296	408.62
362.523	401.62
362.749	393.62
362.976	404.62
363.203	406.62
363.429	395.62
363.656	394.62
363.882	396.62
364.109	377.62
364.335	393.62
364.562	393.62
364.788	385.62
365.015	363.62
365.241	404.62
365.468	399.62
365.694	401.62
365.92	409.62
366.147	366.62
366.373	381.62
366.599	402.62
366.826	390.62
367.052	379.62
367.278	373.62
367.505	365.62
367.731	404.62
367.957	386.62
368.184	377.62
368.41	396.62
368.636	390.62
368.862	404.62
369.089	377.62
369.315	388.62
369.541	382.62
369.767	389.62
369.993	385.62
370.219	400.62
370.445	380.62
370.672	386.62
370.898	382.62
371.124	377.62
371.35	374.62
371.576	386.62
371.802	378.62
372.028	376.62
372.254	365.62
372.48	368.62
372.706	374.62
372.932	374.62
373.158	391.62
373.384	373.62
373.61	384.62
373.835	384.62
374.061	356.62
374.287	372.62
374.513	379.62
374.739	397.62
374.965	363.62
375.191	376.62
375.416	366.62
375.642	388.62
375.868	374.62
376.094	355.62
376.319	364.62
376.545	372.62
376.771	369.62
376.997	389.62
377.222	369.62
377.448	373.62
377.674	365.62
377.899	378.62
378.125	375.62
378.35	364.62
378.576	354.62
378.802	346.62
379.027	365.62
379.253	361.62
379.478	354.62
379.704	360.62
379.929	366.62
380.155	372.62
380.38	362.62
380.606	368.62
380.831	356.62
381.057	374.62
381.282	374.62
381.507	345.62
381.733	386.62
381.958	375.62
382.184	390.62
382.409	370.62
382.634	378.62
382.86	355.62
383.085	375.62
383.31	353.62
383.535	375.62
383.761	356.62
383.986	376.62
384.211	350.62
384.436	378.62
384.662	384.62
384.887	389.62
385.112	386.62
385.337	381.62
385.562	375.62
385.787	376.62
386.013	399.62
386.238	393.62
386.463	404.62
386.688	384.62
386.913	375.62
387.138	382.62
387.363	387.62
387.588	384.62
387.813	380.62
388.038	386.62
388.263	383.62
388.488	401.62
388.713	373.62
388.938	398.62
389.163	402.62
389.387	396.62
389.612	384.62
389.837	377.62
390.062	378.62
390.287	371.62
390.512	396.62
390.736	392.62
390.961	370.62
391.186	392.62
391.411	382.62
391.636	380.62
391.86	392.62
392.085	399.62
392.31	394.62
392.534	387.62
392.759	382.62
392.984	376.62
393.208	384.62
393.433	388.62
393.658	398.62
393.882	420.62
394.107	386.62
394.331	389.62
394.556	392.62
394.78	390.62
395.005	374.62
395.229	389.62
395.454	377.62
395.678	395.62
395.903	417.62
396.127	442.62
396.352	444.62
396.576	403.62
396.801	399.62
397.025	407.62
397.249	389.62
397.474	396.62
397.698	421.62
397.922	426.62
398.147	425.62
398.371	461.62
398.595	425.62
398.82	449.62
399.044	438.62
399.268	434.62
399.492	429.62
399.717	466.62
399.941	506.62
400.165	492.62
400.389	538.62
400.613	498.62
400.837	461.62
401.062	447.62
401.286	447.62
401.51	447.62
401.734	420.62
401.958	432.62
402.182	437.62
402.406	445.62
402.63	460.62
402.854	426.62
403.078	451.62
403.302	468.62
403.526	456.62
403.75	466.62
403.974	436.62
404.198	445.62
404.422	469.62
404.645	477.62
404.869	497.62
405.093	546.62
405.317	626.62
405.541	634.62
405.765	596.62
405.988	548.62
406.212	536.62
406.436	531.62
406.66	568.62
406.883	499.62
407.107	523.62
407.331	563.62
407.555	630.62
407.778	616.62
408.002	568.62
408.226	524.62
408.449	523.62
408.673	530.62
408.896	552.62
409.12	587.62
409.344	549.62
409.567	478.62
409.791	475.62
410.014	462.62
410.238	466.62
410.461	463.62
410.685	484.62
410.908	489.62
411.132	529.62
411.355	556.62
411.578	518.62
411.802	497.62
412.025	522.62
412.249	499.62
412.472	545.62
412.695	629.62
412.919	610.62
413.142	570.62
413.365	545.62
413.589	486.62
413.812	472.62
414.035	468.62
414.258	461.62
414.482	471.62
414.705	451.62
414.928	443.62
415.151	434.62
415.374	466.62
415.597	437.62
415.821	450.62
416.044	459.62
416.267	455.62
416.49	437.62
416.713	437.62
416.936	446.62
417.159	453.62
417.382	453.62
417.605	492.62
417.828	454.62
418.051	482.62
418.274	491.62
418.497	457.62
418.72	459.62
418.943	446.62
419.166	447.62
419.389	468.62
419.611	488.62
419.834	506.62
420.057	512.62
420.28	537.62
420.503	532.62
420.726	529.62
420.948	543.62
421.171	572.62
421.394	583.62
421.617	514.62
421.839	490.62
422.062	476.62
422.285	476.62
422.507	549.62
422.73	632.62
422.953	589.62
423.175	533.62
423.398	486.62
423.621	519.62
423.843	504.62
424.066	540.62
424.288	516.62
424.511	519.62
424.733	571.62
424.956	628.62
425.178	629.62
425.401	620.62
425.623	636.62
425.846	545.62
426.068	520.62
426.291	520.62
426.513	522.62
426.735	529.62
426.958	556.62
427.18	660.62
427.402	770.62
427.625	854.62
427.847	780.62
428.069	716.62
428.292	630.62
428.514	565.62
428.736	516.62
428.958	519.62
429.181	501.62
429.403	480.62
429.625	491.62
429.847	524.62
430.069	562.62
430.292	596.62
430.514	498.62
430.736	468.62
430.958	473.62
431.18	444.62
431.402	472.62
431.624	422.62
431.846	425.62
432.068	433.62
432.29	457.62
432.512	453.62
432.734	459.62
432.956	461.62
433.178	436.62
433.4	442.62
433.622	451.62
433.844	452.62
434.066	427.62
434.287	443.62
434.509	444.62
434.731	436.62
434.953	465.62
435.175	469.62
435.397	484.62
435.618	496.62
435.84	547.62
436.062	635.62
436.284	724.62
436.505	607.62
436.727	525.62
436.949	488.62
437.17	506.62
437.392	499.62
437.614	487.62
437.835	530.62
438.057	605.62
438.278	727.62
438.5	721.62
438.721	780.62
438.943	774.62
439.165	605.62
439.386	578.62
439.608	560.62
439.829	532.62
440.05	557.62
440.272	595.62
440.493	591.62
440.715	527.62
440.936	493.62
441.158	500.62
441.379	468.62
441.6	468.62
441.822	519.62
442.043	532.62
442.264	630.62
442.486	652.62
442.707	575.62
442.928	528.62
443.149	546.62
443.371	565.62
443.592	582.62
443.813	651.62
444.034	756.62
444.255	632.62
444.476	550.62
444.698	525.62
444.919	503.62
445.14	586.62
445.361	565.62
445.582	564.62
445.803	617.62
446.024	713.62
446.245	771.62
446.466	683.62
446.687	561.62
446.908	536.62
447.129	494.62
447.35	461.62
447.571	481.62
447.792	479.62
448.013	484.62
448.234	533.62
448.455	530.62
448.675	662.62
448.896	756.62
449.117	642.62
449.338	643.62
449.559	717.62
449.779	814.62
450	661.62
450.221	567.62
450.442	474.62
450.662	472.62
450.883	482.62
451.104	502.62
451.324	475.62
451.545	451.62
451.766	452.62
451.986	434.62
452.207	426.62
452.428	424.62
452.648	424.62
452.869	438.62
453.089	428.62
453.31	437.62
453.53	440.62
453.751	429.62
453.971	440.62
454.192	454.62
454.412	445.62
454.633	442.62
454.853	425.62
455.073	417.62
455.294	472.62
455.514	512.62
455.734	512.62
455.955	442.62
456.175	423.62
456.395	398.62
456.616	408.62
456.836	386.62
457.056	380.62
457.276	372.62
457.497	395.62
457.717	386.62
457.937	398.62
458.157	416.62
458.377	422.62
458.598	449.62
458.818	501.62
459.038	568.62
459.258	589.62
459.478	492.62
459.698	429.62
459.918	442.62
460.138	424.62
460.358	421.62
460.578	430.62
460.798	444.62
461.018	438.62
461.238	448.62
461.458	432.62
461.678	417.62
461.898	438.62
462.118	432.62
462.338	425.62
462.558	438.62
462.777	444.62
462.997	449.62
463.217	440.62
463.437	455.62
463.657	451.62
463.876	443.62
464.096	423.62
464.316	425.62
464.536	458.62
464.755	472.62
464.975	452.62
465.195	506.62
465.414	612.62
465.634	526.62
465.854	482.62
466.073	458.62
466.293	430.62
466.512	438.62
466.732	427.62
466.951	418.62
467.171	436.62
467.391	428.62
467.61	463.62
467.829	466.62
468.049	491.62
468.268	516.62
468.488	499.62
468.707	456.62
468.927	446.62
469.146	433.62
469.365	426.62
469.585	452.62
469.804	429.62
470.023	447.62
470.243	451.62
470.462	463.62
470.681	480.62
470.901	470.62
471.12	452.62
471.339	435.62
471.558	481.62
471.777	461.62
471.997	462.62
472.216	539.62
472.435	761.62
472.654	675.62
472.873	574.62
473.092	521.62
473.311	499.62
473.53	504.62
473.749	490.62
473.968	532.62
474.187	629.62
474.406	654.62
474.625	542.62
474.844	477.62
475.063	455.62
475.282	458.62
475.501	473.62
475.72	477.62
475.939	464.62
476.158	454.62
476.377	476.62
476.596	448.62
476.814	463.62
477.033	470.62
477.252	475.62
477.471	476.62
477.69	489.62
477.908	487.62
478.127	478.62
478.346	489.62
478.564	513.62
478.783	517.62
479.002	512.62
479.22	509.62
479.439	491.62
479.658	535.62
479.876	552.62
480.095	566.62
480.313	580.62
480.532	576.62
480.751	577.62
480.969	668.62
481.188	947.62
481.406	1194.62
481.624	889.62
481.843	723.62
482.061	664.62
482.28	633.62
482.498	599.62
482.717	578.62
482.935	589.62
483.153	570.62
483.372	576.62
483.59	583.62
483.808	576.62
484.027	563.62
484.245	564.62
484.463	549.62
484.681	585.62
484.9	569.62
485.118	584.62
485.336	572.62
485.554	569.62
485.772	574.62
485.99	564.62
486.209	549.62
486.427	554.62
486.645	581.62
486.863	583.62
487.081	594.62
487.299	612.62
487.517	615.62
487.735	583.62
487.953	581.62
488.171	571.62
488.389	606.62
488.607	624.62
488.825	610.62
489.043	602.62
489.261	598.62
489.479	622.62
489.696	619.62
489.914	618.62
490.132	608.62
490.35	642.62
490.568	653.62
490.786	670.62
491.003	648.62
491.221	674.62
491.439	709.62
491.657	713.62
491.874	728.62
492.092	707.62
492.31	703.62
492.527	715.62
492.745	741.62
492.963	742.62
493.18	723.62
493.398	762.62
493.615	738.62
493.833	744.62
494.05	761.62
494.268	735.62
494.485	748.62
494.703	731.62
494.92	700.62
495.138	739.62
495.355	744.62
495.573	723.62
495.79	712.62
496.008	708.62
496.225	713.62
496.442	700.62
496.66	726.62
496.877	706.62
497.094	718.62
497.312	727.62
497.529	719.62
497.746	710.62
497.963	727.62
498.181	724.62
498.398	756.62
498.615	755.62
498.832	750.62
499.049	737.62
499.267	733.62
499.484	795.62
499.701	756.62
499.918	782.62
500.135	792.62
500.352	821.62
500.569	812.62
500.786	850.62
501.003	852.62
501.22	830.62
501.437	804.62
501.654	836.62
501.871	828.62
