Data from 1986.PennyLincolnUp.Lamp.En5.5.200Scan.071819.P2_HRD10591_17-10-16-974.txt Node
Date: Thu Jul 18 17:10:16 EDT 2019
User: cochatt
Spectrometer: HR+D1059
Trigger mode: 1
Integration Time (sec): 1.000000E-1
Scans to average: 1
Electric dark correction enabled: true
Nonlinearity correction enabled: false
Boxcar width: 0
XAxis mode: Wavelengths
Number of Pixels in Spectrum: 2048
>>>>>Begin Spectral Data<<<<<
223.165	-2.62
223.4	-2.62
223.635	-2.62
223.869	-8.62
224.104	-24.62
224.338	-14.62
224.573	-5.62
224.808	-13.62
225.042	-10.62
225.277	-6.62
225.511	-2.62
225.746	-16.62
225.98	16.38
226.215	22.38
226.449	11.38
226.683	20.38
226.918	10.38
227.152	25.38
227.387	43.38
227.621	29.38
227.856	52.38
228.09	35.38
228.324	47.38
228.559	55.38
228.793	78.38
229.027	104.38
229.262	119.38
229.496	123.38
229.73	132.38
229.964	156.38
230.199	133.38
230.433	124.38
230.667	124.38
230.901	122.38
231.136	95.38
231.37	108.38
231.604	97.38
231.838	116.38
232.072	124.38
232.306	120.38
232.541	100.38
232.775	105.38
233.009	116.38
233.243	122.38
233.477	111.38
233.711	124.38
233.945	112.38
234.179	128.38
234.413	110.38
234.647	113.38
234.881	125.38
235.115	111.38
235.349	116.38
235.583	105.38
235.817	108.38
236.051	132.38
236.285	141.38
236.519	129.38
236.753	115.38
236.987	136.38
237.221	174.38
237.455	247.38
237.689	193.38
237.922	130.38
238.156	135.38
238.39	124.38
238.624	123.38
238.858	136.38
239.091	136.38
239.325	114.38
239.559	114.38
239.793	127.38
240.027	128.38
240.26	155.38
240.494	164.38
240.728	150.38
240.961	144.38
241.195	166.38
241.429	142.38
241.662	132.38
241.896	122.38
242.13	134.38
242.363	124.38
242.597	127.38
242.83	141.38
243.064	133.38
243.298	153.38
243.531	138.38
243.765	120.38
243.998	135.38
244.232	147.38
244.465	143.38
244.699	152.38
244.932	148.38
245.166	137.38
245.399	149.38
245.633	144.38
245.866	156.38
246.099	136.38
246.333	146.38
246.566	158.38
246.8	159.38
247.033	167.38
247.266	160.38
247.5	143.38
247.733	166.38
247.966	171.38
248.2	170.38
248.433	168.38
248.666	171.38
248.899	184.38
249.133	206.38
249.366	227.38
249.599	198.38
249.832	201.38
250.066	188.38
250.299	194.38
250.532	185.38
250.765	191.38
250.998	228.38
251.231	226.38
251.465	212.38
251.698	210.38
251.931	200.38
252.164	188.38
252.397	204.38
252.63	213.38
252.863	228.38
253.096	228.38
253.329	231.38
253.562	238.38
253.795	222.38
254.028	221.38
254.261	233.38
254.494	244.38
254.727	246.38
254.96	260.38
255.193	263.38
255.426	268.38
255.659	272.38
255.892	234.38
256.124	228.38
256.357	234.38
256.59	217.38
256.823	221.38
257.056	227.38
257.289	214.38
257.521	211.38
257.754	212.38
257.987	205.38
258.22	207.38
258.452	201.38
258.685	194.38
258.918	219.38
259.151	205.38
259.383	230.38
259.616	209.38
259.849	226.38
260.081	247.38
260.314	260.38
260.547	263.38
260.779	248.38
261.012	238.38
261.244	223.38
261.477	233.38
261.71	229.38
261.942	223.38
262.175	238.38
262.407	229.38
262.64	199.38
262.872	206.38
263.105	206.38
263.337	223.38
263.57	208.38
263.802	214.38
264.035	223.38
264.267	205.38
264.499	231.38
264.732	215.38
264.964	222.38
265.197	211.38
265.429	212.38
265.661	226.38
265.894	219.38
266.126	202.38
266.358	231.38
266.591	213.38
266.823	220.38
267.055	211.38
267.287	224.38
267.52	228.38
267.752	215.38
267.984	231.38
268.216	245.38
268.448	231.38
268.681	233.38
268.913	247.38
269.145	246.38
269.377	271.38
269.609	269.38
269.841	266.38
270.073	267.38
270.306	298.38
270.538	299.38
270.77	314.38
271.002	300.38
271.234	313.38
271.466	293.38
271.698	322.38
271.93	304.38
272.162	330.38
272.394	308.38
272.626	291.38
272.858	292.38
273.09	269.38
273.322	273.38
273.553	260.38
273.785	263.38
274.017	263.38
274.249	247.38
274.481	246.38
274.713	272.38
274.945	252.38
275.176	247.38
275.408	263.38
275.64	269.38
275.872	250.38
276.104	240.38
276.335	256.38
276.567	244.38
276.799	286.38
277.031	289.38
277.262	301.38
277.494	312.38
277.726	312.38
277.957	276.38
278.189	260.38
278.421	278.38
278.652	275.38
278.884	252.38
279.115	270.38
279.347	256.38
279.579	246.38
279.81	256.38
280.042	251.38
280.273	267.38
280.505	273.38
280.736	250.38
280.968	258.38
281.199	251.38
281.431	236.38
281.662	243.38
281.894	251.38
282.125	256.38
282.356	263.38
282.588	297.38
282.819	285.38
283.051	265.38
283.282	266.38
283.513	262.38
283.745	247.38
283.976	269.38
284.207	253.38
284.439	266.38
284.67	253.38
284.901	266.38
285.132	250.38
285.364	242.38
285.595	256.38
285.826	246.38
286.057	271.38
286.288	270.38
286.52	266.38
286.751	235.38
286.982	260.38
287.213	264.38
287.444	272.38
287.675	270.38
287.906	262.38
288.138	278.38
288.369	287.38
288.6	269.38
288.831	282.38
289.062	272.38
289.293	260.38
289.524	267.38
289.755	278.38
289.986	261.38
290.217	267.38
290.448	260.38
290.679	256.38
290.91	266.38
291.141	274.38
291.371	275.38
291.602	272.38
291.833	252.38
292.064	256.38
292.295	268.38
292.526	265.38
292.757	270.38
292.987	273.38
293.218	264.38
293.449	280.38
293.68	272.38
293.91	266.38
294.141	289.38
294.372	262.38
294.603	253.38
294.833	267.38
295.064	262.38
295.295	272.38
295.525	277.38
295.756	264.38
295.987	276.38
296.217	308.38
296.448	315.38
296.679	301.38
296.909	259.38
297.14	273.38
297.37	299.38
297.601	278.38
297.831	269.38
298.062	278.38
298.292	278.38
298.523	270.38
298.753	271.38
298.984	275.38
299.214	272.38
299.445	278.38
299.675	294.38
299.905	285.38
300.136	275.38
300.366	266.38
300.597	294.38
300.827	295.38
301.057	289.38
301.288	298.38
301.518	278.38
301.748	300.38
301.979	292.38
302.209	304.38
302.439	309.38
302.669	296.38
302.9	282.38
303.13	293.38
303.36	311.38
303.59	306.38
303.82	310.38
304.051	319.38
304.281	288.38
304.511	293.38
304.741	287.38
304.971	281.38
305.201	294.38
305.431	308.38
305.661	306.38
305.891	275.38
306.121	277.38
306.352	310.38
306.582	312.38
306.812	296.38
307.042	303.38
307.272	303.38
307.502	303.38
307.731	304.38
307.961	314.38
308.191	299.38
308.421	318.38
308.651	298.38
308.881	317.38
309.111	313.38
309.341	343.38
309.571	346.38
309.8	348.38
310.03	338.38
310.26	342.38
310.49	350.38
310.72	369.38
310.949	365.38
311.179	398.38
311.409	367.38
311.639	336.38
311.868	355.38
312.098	367.38
312.328	366.38
312.557	383.38
312.787	390.38
313.017	405.38
313.246	386.38
313.476	352.38
313.706	354.38
313.935	365.38
314.165	372.38
314.394	387.38
314.624	383.38
314.853	357.38
315.083	361.38
315.312	360.38
315.542	345.38
315.771	333.38
316.001	352.38
316.23	344.38
316.46	327.38
316.689	337.38
316.919	335.38
317.148	360.38
317.377	355.38
317.607	357.38
317.836	362.38
318.065	342.38
318.295	358.38
318.524	348.38
318.753	334.38
318.983	341.38
319.212	344.38
319.441	350.38
319.67	361.38
319.9	357.38
320.129	345.38
320.358	374.38
320.587	358.38
320.816	372.38
321.046	357.38
321.275	389.38
321.504	365.38
321.733	374.38
321.962	372.38
322.191	388.38
322.42	412.38
322.649	444.38
322.878	440.38
323.108	459.38
323.337	484.38
323.566	522.38
323.795	550.38
324.024	614.38
324.253	752.38
324.482	1085.38
324.71	1604.38
324.939	2251.38
325.168	1998.38
325.397	1062.38
325.626	702.38
325.855	574.38
326.084	529.38
326.313	508.38
326.542	527.38
326.77	557.38
326.999	671.38
327.228	919.38
327.457	1378.38
327.686	1744.38
327.914	1191.38
328.143	750.38
328.372	638.38
328.6	607.38
328.829	576.38
329.058	608.38
329.287	611.38
329.515	552.38
329.744	485.38
329.972	478.38
330.201	512.38
330.43	542.38
330.658	554.38
330.887	604.38
331.115	607.38
331.344	534.38
331.572	465.38
331.801	473.38
332.03	479.38
332.258	427.38
332.486	424.38
332.715	405.38
332.943	415.38
333.172	408.38
333.4	411.38
333.629	405.38
333.857	426.38
334.085	421.38
334.314	450.38
334.542	455.38
334.771	459.38
334.999	420.38
335.227	438.38
335.455	426.38
335.684	412.38
335.912	404.38
336.14	394.38
336.369	396.38
336.597	412.38
336.825	391.38
337.053	388.38
337.281	382.38
337.51	410.38
337.738	392.38
337.966	392.38
338.194	421.38
338.422	402.38
338.65	395.38
338.878	392.38
339.106	400.38
339.334	383.38
339.562	391.38
339.79	397.38
340.018	389.38
340.246	390.38
340.474	385.38
340.702	394.38
340.93	375.38
341.158	394.38
341.386	388.38
341.614	398.38
341.842	400.38
342.07	393.38
342.298	372.38
342.526	395.38
342.754	377.38
342.981	358.38
343.209	348.38
343.437	360.38
343.665	386.38
343.893	381.38
344.12	390.38
344.348	404.38
344.576	405.38
344.804	392.38
345.031	413.38
345.259	402.38
345.487	401.38
345.714	408.38
345.942	388.38
346.17	383.38
346.397	381.38
346.625	366.38
346.853	385.38
347.08	370.38
347.308	378.38
347.535	392.38
347.763	382.38
347.99	376.38
348.218	398.38
348.445	393.38
348.673	393.38
348.9	382.38
349.128	378.38
349.355	364.38
349.583	365.38
349.81	371.38
350.037	368.38
350.265	361.38
350.492	377.38
350.72	358.38
350.947	372.38
351.174	394.38
351.402	384.38
351.629	395.38
351.856	374.38
352.083	396.38
352.311	398.38
352.538	398.38
352.765	406.38
352.992	398.38
353.22	384.38
353.447	402.38
353.674	377.38
353.901	364.38
354.128	372.38
354.355	342.38
354.583	345.38
354.81	357.38
355.037	343.38
355.264	329.38
355.491	351.38
355.718	347.38
355.945	339.38
356.172	345.38
356.399	335.38
356.626	352.38
356.853	345.38
357.08	339.38
357.307	336.38
357.534	362.38
357.761	358.38
357.988	328.38
358.215	326.38
358.441	354.38
358.668	347.38
358.895	359.38
359.122	367.38
359.349	374.38
359.576	390.38
359.802	401.38
360.029	439.38
360.256	434.38
360.483	419.38
360.709	393.38
360.936	380.38
361.163	396.38
361.39	381.38
361.616	378.38
361.843	376.38
362.07	387.38
362.296	395.38
362.523	384.38
362.749	377.38
362.976	373.38
363.203	380.38
363.429	335.38
363.656	375.38
363.882	342.38
364.109	360.38
364.335	348.38
364.562	350.38
364.788	338.38
365.015	358.38
365.241	372.38
365.468	367.38
365.694	375.38
365.92	366.38
366.147	340.38
366.373	365.38
366.599	361.38
366.826	362.38
367.052	357.38
367.278	355.38
367.505	335.38
367.731	335.38
367.957	357.38
368.184	346.38
368.41	354.38
368.636	356.38
368.862	367.38
369.089	373.38
369.315	335.38
369.541	377.38
369.767	344.38
369.993	365.38
370.219	371.38
370.445	342.38
370.672	364.38
370.898	353.38
371.124	326.38
371.35	353.38
371.576	345.38
371.802	357.38
372.028	336.38
372.254	341.38
372.48	344.38
372.706	327.38
372.932	340.38
373.158	333.38
373.384	337.38
373.61	348.38
373.835	352.38
374.061	351.38
374.287	346.38
374.513	338.38
374.739	354.38
374.965	370.38
375.191	351.38
375.416	334.38
375.642	333.38
375.868	346.38
376.094	369.38
376.319	337.38
376.545	342.38
376.771	341.38
376.997	330.38
377.222	355.38
377.448	363.38
377.674	348.38
377.899	341.38
378.125	346.38
378.35	342.38
378.576	336.38
378.802	347.38
379.027	336.38
379.253	363.38
379.478	339.38
379.704	354.38
379.929	346.38
380.155	350.38
380.38	327.38
380.606	335.38
380.831	332.38
381.057	335.38
381.282	339.38
381.507	329.38
381.733	343.38
381.958	342.38
382.184	334.38
382.409	340.38
382.634	342.38
382.86	362.38
383.085	339.38
383.31	354.38
383.535	354.38
383.761	340.38
383.986	350.38
384.211	363.38
384.436	343.38
384.662	353.38
384.887	357.38
385.112	347.38
385.337	342.38
385.562	347.38
385.787	370.38
386.013	362.38
386.238	357.38
386.463	375.38
386.688	355.38
386.913	348.38
387.138	352.38
387.363	366.38
387.588	346.38
387.813	361.38
388.038	339.38
388.263	358.38
388.488	361.38
388.713	360.38
388.938	369.38
389.163	357.38
389.387	372.38
389.612	348.38
389.837	349.38
390.062	378.38
390.287	348.38
390.512	327.38
390.736	348.38
390.961	366.38
391.186	362.38
391.411	355.38
391.636	356.38
391.86	372.38
392.085	349.38
392.31	357.38
392.534	363.38
392.759	355.38
392.984	371.38
393.208	340.38
393.433	360.38
393.658	359.38
393.882	352.38
394.107	351.38
394.331	354.38
394.556	349.38
394.78	355.38
395.005	370.38
395.229	350.38
395.454	378.38
395.678	354.38
395.903	374.38
396.127	385.38
396.352	408.38
396.576	380.38
396.801	371.38
397.025	385.38
397.249	386.38
397.474	379.38
397.698	382.38
397.922	372.38
398.147	428.38
398.371	408.38
398.595	412.38
398.82	389.38
399.044	396.38
399.268	409.38
399.492	420.38
399.717	442.38
399.941	450.38
400.165	467.38
400.389	513.38
400.613	464.38
400.837	438.38
401.062	411.38
401.286	414.38
401.51	401.38
401.734	401.38
401.958	420.38
402.182	405.38
402.406	402.38
402.63	422.38
402.854	412.38
403.078	399.38
403.302	406.38
403.526	408.38
403.75	424.38
403.974	414.38
404.198	390.38
404.422	432.38
404.645	447.38
404.869	451.38
405.093	420.38
405.317	456.38
405.541	501.38
405.765	467.38
405.988	427.38
406.212	447.38
406.436	494.38
406.66	494.38
406.883	461.38
407.107	493.38
407.331	526.38
407.555	563.38
407.778	564.38
408.002	519.38
408.226	483.38
408.449	478.38
408.673	464.38
408.896	502.38
409.12	546.38
409.344	503.38
409.567	436.38
409.791	431.38
410.014	438.38
410.238	418.38
410.461	414.38
410.685	427.38
410.908	452.38
411.132	483.38
411.355	520.38
411.578	487.38
411.802	426.38
412.025	418.38
412.249	434.38
412.472	426.38
412.695	427.38
412.919	416.38
413.142	418.38
413.365	410.38
413.589	391.38
413.812	398.38
414.035	409.38
414.258	388.38
414.482	388.38
414.705	390.38
414.928	399.38
415.151	399.38
415.374	380.38
415.597	385.38
415.821	376.38
416.044	395.38
416.267	411.38
416.49	399.38
416.713	404.38
416.936	400.38
417.159	393.38
417.382	406.38
417.605	414.38
417.828	419.38
418.051	408.38
418.274	394.38
418.497	407.38
418.72	410.38
418.943	381.38
419.166	422.38
419.389	396.38
419.611	413.38
419.834	415.38
420.057	414.38
420.28	412.38
420.503	421.38
420.726	439.38
420.948	422.38
421.171	486.38
421.394	507.38
421.617	455.38
421.839	427.38
422.062	431.38
422.285	451.38
422.507	478.38
422.73	563.38
422.953	551.38
423.175	471.38
423.398	438.38
423.621	446.38
423.843	464.38
424.066	463.38
424.288	469.38
424.511	495.38
424.733	540.38
424.956	601.38
425.178	589.38
425.401	600.38
425.623	612.38
425.846	520.38
426.068	492.38
426.291	483.38
426.513	462.38
426.735	487.38
426.958	526.38
427.18	599.38
427.402	724.38
427.625	790.38
427.847	700.38
428.069	589.38
428.292	530.38
428.514	470.38
428.736	459.38
428.958	452.38
429.181	437.38
429.403	437.38
429.625	437.38
429.847	463.38
430.069	528.38
430.292	558.38
430.514	440.38
430.736	446.38
430.958	431.38
431.18	418.38
431.402	426.38
431.624	381.38
431.846	395.38
432.068	409.38
432.29	403.38
432.512	406.38
432.734	426.38
432.956	423.38
433.178	439.38
433.4	433.38
433.622	412.38
433.844	415.38
434.066	392.38
434.287	409.38
434.509	409.38
434.731	423.38
434.953	408.38
435.175	442.38
435.397	468.38
435.618	476.38
435.84	521.38
436.062	618.38
436.284	665.38
436.505	550.38
436.727	506.38
436.949	447.38
437.17	454.38
437.392	449.38
437.614	458.38
437.835	503.38
438.057	590.38
438.278	701.38
438.5	666.38
438.721	748.38
438.943	696.38
439.165	558.38
439.386	502.38
439.608	527.38
439.829	487.38
440.05	509.38
440.272	560.38
440.493	546.38
440.715	474.38
440.936	444.38
441.158	447.38
441.379	454.38
441.6	423.38
441.822	478.38
442.043	513.38
442.264	576.38
442.486	646.38
442.707	543.38
442.928	502.38
443.149	510.38
443.371	507.38
443.592	552.38
443.813	629.38
444.034	690.38
444.255	562.38
444.476	475.38
444.698	467.38
444.919	458.38
445.14	544.38
445.361	517.38
445.582	532.38
445.803	567.38
446.024	687.38
446.245	678.38
446.466	633.38
446.687	514.38
446.908	505.38
447.129	455.38
447.35	449.38
447.571	429.38
447.792	456.38
448.013	460.38
448.234	483.38
448.455	534.38
448.675	614.38
448.896	678.38
449.117	617.38
449.338	576.38
449.559	680.38
449.779	741.38
450	611.38
450.221	520.38
450.442	487.38
450.662	450.38
450.883	460.38
451.104	448.38
451.324	455.38
451.545	429.38
451.766	415.38
451.986	393.38
452.207	398.38
452.428	387.38
452.648	394.38
452.869	387.38
453.089	404.38
453.31	418.38
453.53	399.38
453.751	400.38
453.971	394.38
454.192	429.38
454.412	424.38
454.633	400.38
454.853	425.38
455.073	386.38
455.294	420.38
455.514	490.38
455.734	480.38
455.955	398.38
456.175	394.38
456.395	373.38
456.616	364.38
456.836	368.38
457.056	356.38
457.276	353.38
457.497	346.38
457.717	365.38
457.937	376.38
458.157	378.38
458.377	395.38
458.598	405.38
458.818	470.38
459.038	556.38
459.258	566.38
459.478	463.38
459.698	446.38
459.918	415.38
460.138	399.38
460.358	390.38
460.578	397.38
460.798	400.38
461.018	410.38
461.238	398.38
461.458	400.38
461.678	410.38
461.898	397.38
462.118	390.38
462.338	397.38
462.558	398.38
462.777	393.38
462.997	393.38
463.217	415.38
463.437	418.38
463.657	414.38
463.876	412.38
464.096	415.38
464.316	406.38
464.536	434.38
464.755	434.38
464.975	444.38
465.195	475.38
465.414	603.38
465.634	495.38
465.854	466.38
466.073	422.38
466.293	411.38
466.512	412.38
466.732	399.38
466.951	386.38
467.171	397.38
467.391	394.38
467.61	396.38
467.829	413.38
468.049	404.38
468.268	401.38
468.488	401.38
468.707	405.38
468.927	389.38
469.146	386.38
469.365	391.38
469.585	388.38
469.804	387.38
470.023	419.38
470.243	399.38
470.462	410.38
470.681	448.38
470.901	420.38
471.12	406.38
471.339	406.38
471.558	410.38
471.777	430.38
471.997	387.38
472.216	367.38
472.435	411.38
472.654	415.38
472.873	398.38
473.092	412.38
473.311	406.38
473.53	418.38
473.749	403.38
473.968	467.38
474.187	573.38
474.406	581.38
474.625	473.38
474.844	431.38
475.063	404.38
475.282	396.38
475.501	404.38
475.72	409.38
475.939	396.38
476.158	427.38
476.377	409.38
476.596	420.38
476.814	409.38
477.033	431.38
477.252	427.38
477.471	420.38
477.69	412.38
477.908	412.38
478.127	430.38
478.346	429.38
478.564	431.38
478.783	419.38
479.002	450.38
479.22	437.38
479.439	454.38
479.658	476.38
479.876	477.38
480.095	499.38
480.313	522.38
480.532	484.38
480.751	473.38
480.969	465.38
481.188	539.38
481.406	545.38
481.624	521.38
481.843	483.38
482.061	478.38
482.28	455.38
482.498	474.38
482.717	449.38
482.935	480.38
483.153	471.38
483.372	463.38
483.59	471.38
483.808	464.38
484.027	467.38
484.245	462.38
484.463	482.38
484.681	508.38
484.9	485.38
485.118	493.38
485.336	467.38
485.554	496.38
485.772	465.38
485.99	511.38
486.209	504.38
486.427	508.38
486.645	507.38
486.863	529.38
487.081	530.38
487.299	496.38
487.517	493.38
487.735	493.38
487.953	522.38
488.171	520.38
488.389	521.38
488.607	501.38
488.825	512.38
489.043	519.38
489.261	506.38
489.479	502.38
489.696	530.38
489.914	518.38
490.132	529.38
490.35	546.38
490.568	540.38
490.786	552.38
491.003	543.38
491.221	565.38
491.439	557.38
491.657	587.38
491.874	594.38
492.092	593.38
492.31	604.38
492.527	567.38
492.745	580.38
492.963	593.38
493.18	603.38
493.398	617.38
493.615	597.38
493.833	598.38
494.05	593.38
494.268	611.38
494.485	620.38
494.703	614.38
494.92	599.38
495.138	619.38
495.355	616.38
495.573	603.38
495.79	639.38
496.008	614.38
496.225	608.38
496.442	605.38
496.66	629.38
496.877	607.38
497.094	614.38
497.312	611.38
497.529	624.38
497.746	647.38
497.963	626.38
498.181	650.38
498.398	634.38
498.615	662.38
498.832	659.38
499.049	663.38
499.267	678.38
499.484	694.38
499.701	694.38
499.918	686.38
500.135	719.38
500.352	758.38
500.569	774.38
500.786	767.38
501.003	764.38
501.22	742.38
501.437	750.38
501.654	735.38
501.871	742.38
