Data from 1986.PennyLincolnUp.Lamp.En5.5.200Scan.071819.P2_HRD10591_17-10-22-973.txt Node
Date: Thu Jul 18 17:10:22 EDT 2019
User: cochatt
Spectrometer: HR+D1059
Trigger mode: 1
Integration Time (sec): 1.000000E-1
Scans to average: 1
Electric dark correction enabled: true
Nonlinearity correction enabled: false
Boxcar width: 0
XAxis mode: Wavelengths
Number of Pixels in Spectrum: 2048
>>>>>Begin Spectral Data<<<<<
223.165	-19.5
223.4	-19.5
223.635	-19.5
223.869	-18.5
224.104	-20.5
224.338	-10.5
224.573	-7.5
224.808	1.5
225.042	-3.5
225.277	-1.5
225.511	-1.5
225.746	-6.5
225.98	7.5
226.215	6.5
226.449	14.5
226.683	13.5
226.918	19.5
227.152	26.5
227.387	41.5
227.621	35.5
227.856	51.5
228.09	40.5
228.324	49.5
228.559	54.5
228.793	72.5
229.027	101.5
229.262	108.5
229.496	124.5
229.73	139.5
229.964	167.5
230.199	130.5
230.433	105.5
230.667	109.5
230.901	108.5
231.136	97.5
231.37	108.5
231.604	110.5
231.838	115.5
232.072	103.5
232.306	100.5
232.541	116.5
232.775	109.5
233.009	118.5
233.243	109.5
233.477	122.5
233.711	101.5
233.945	95.5
234.179	113.5
234.413	109.5
234.647	103.5
234.881	120.5
235.115	116.5
235.349	112.5
235.583	120.5
235.817	107.5
236.051	132.5
236.285	120.5
236.519	121.5
236.753	126.5
236.987	140.5
237.221	190.5
237.455	216.5
237.689	178.5
237.922	145.5
238.156	124.5
238.39	128.5
238.624	130.5
238.858	135.5
239.091	132.5
239.325	116.5
239.559	120.5
239.793	105.5
240.027	136.5
240.26	136.5
240.494	163.5
240.728	157.5
240.961	147.5
241.195	146.5
241.429	150.5
241.662	145.5
241.896	136.5
242.13	144.5
242.363	136.5
242.597	137.5
242.83	129.5
243.064	134.5
243.298	147.5
243.531	139.5
243.765	154.5
243.998	148.5
244.232	139.5
244.465	134.5
244.699	138.5
244.932	138.5
245.166	141.5
245.399	150.5
245.633	138.5
245.866	124.5
246.099	126.5
246.333	141.5
246.566	148.5
246.8	147.5
247.033	149.5
247.266	145.5
247.5	175.5
247.733	166.5
247.966	168.5
248.2	152.5
248.433	169.5
248.666	169.5
248.899	190.5
249.133	192.5
249.366	221.5
249.599	200.5
249.832	178.5
250.066	173.5
250.299	192.5
250.532	187.5
250.765	184.5
250.998	222.5
251.231	222.5
251.465	231.5
251.698	213.5
251.931	212.5
252.164	201.5
252.397	199.5
252.63	209.5
252.863	218.5
253.096	211.5
253.329	250.5
253.562	222.5
253.795	210.5
254.028	221.5
254.261	212.5
254.494	233.5
254.727	260.5
254.96	276.5
255.193	290.5
255.426	252.5
255.659	248.5
255.892	232.5
256.124	238.5
256.357	212.5
256.59	211.5
256.823	203.5
257.056	220.5
257.289	230.5
257.521	227.5
257.754	202.5
257.987	213.5
258.22	211.5
258.452	205.5
258.685	211.5
258.918	192.5
259.151	207.5
259.383	226.5
259.616	222.5
259.849	227.5
260.081	225.5
260.314	250.5
260.547	264.5
260.779	259.5
261.012	242.5
261.244	236.5
261.477	222.5
261.71	226.5
261.942	212.5
262.175	260.5
262.407	236.5
262.64	231.5
262.872	211.5
263.105	202.5
263.337	208.5
263.57	207.5
263.802	204.5
264.035	206.5
264.267	200.5
264.499	184.5
264.732	205.5
264.964	205.5
265.197	203.5
265.429	202.5
265.661	201.5
265.894	221.5
266.126	205.5
266.358	201.5
266.591	209.5
266.823	209.5
267.055	212.5
267.287	214.5
267.52	198.5
267.752	213.5
267.984	222.5
268.216	198.5
268.448	212.5
268.681	231.5
268.913	238.5
269.145	257.5
269.377	274.5
269.609	264.5
269.841	262.5
270.073	270.5
270.306	289.5
270.538	301.5
270.77	301.5
271.002	302.5
271.234	297.5
271.466	310.5
271.698	311.5
271.93	314.5
272.162	321.5
272.394	307.5
272.626	298.5
272.858	308.5
273.09	288.5
273.322	275.5
273.553	259.5
273.785	252.5
274.017	259.5
274.249	256.5
274.481	237.5
274.713	252.5
274.945	258.5
275.176	257.5
275.408	261.5
275.64	248.5
275.872	253.5
276.104	256.5
276.335	256.5
276.567	263.5
276.799	293.5
277.031	284.5
277.262	306.5
277.494	309.5
277.726	293.5
277.957	284.5
278.189	272.5
278.421	260.5
278.652	256.5
278.884	255.5
279.115	245.5
279.347	250.5
279.579	245.5
279.81	244.5
280.042	232.5
280.273	248.5
280.505	237.5
280.736	236.5
280.968	254.5
281.199	241.5
281.431	245.5
281.662	234.5
281.894	244.5
282.125	266.5
282.356	260.5
282.588	304.5
282.819	291.5
283.051	265.5
283.282	250.5
283.513	258.5
283.745	257.5
283.976	257.5
284.207	238.5
284.439	257.5
284.67	258.5
284.901	275.5
285.132	259.5
285.364	261.5
285.595	264.5
285.826	251.5
286.057	255.5
286.288	246.5
286.52	252.5
286.751	271.5
286.982	270.5
287.213	281.5
287.444	270.5
287.675	272.5
287.906	272.5
288.138	292.5
288.369	306.5
288.6	280.5
288.831	289.5
289.062	262.5
289.293	269.5
289.524	265.5
289.755	276.5
289.986	274.5
290.217	269.5
290.448	281.5
290.679	270.5
290.91	270.5
291.141	258.5
291.371	282.5
291.602	239.5
291.833	250.5
292.064	252.5
292.295	261.5
292.526	255.5
292.757	264.5
292.987	284.5
293.218	250.5
293.449	259.5
293.68	272.5
293.91	271.5
294.141	264.5
294.372	279.5
294.603	258.5
294.833	256.5
295.064	252.5
295.295	263.5
295.525	267.5
295.756	280.5
295.987	270.5
296.217	310.5
296.448	318.5
296.679	289.5
296.909	269.5
297.14	268.5
297.37	273.5
297.601	266.5
297.831	262.5
298.062	262.5
298.292	279.5
298.523	286.5
298.753	274.5
298.984	254.5
299.214	270.5
299.445	270.5
299.675	288.5
299.905	276.5
300.136	275.5
300.366	263.5
300.597	286.5
300.827	290.5
301.057	290.5
301.288	295.5
301.518	301.5
301.748	287.5
301.979	293.5
302.209	285.5
302.439	308.5
302.669	288.5
302.9	279.5
303.13	292.5
303.36	318.5
303.59	298.5
303.82	310.5
304.051	323.5
304.281	294.5
304.511	284.5
304.741	294.5
304.971	292.5
305.201	298.5
305.431	300.5
305.661	301.5
305.891	300.5
306.121	284.5
306.352	296.5
306.582	296.5
306.812	297.5
307.042	280.5
307.272	284.5
307.502	312.5
307.731	316.5
307.961	313.5
308.191	298.5
308.421	309.5
308.651	301.5
308.881	302.5
309.111	315.5
309.341	314.5
309.571	321.5
309.8	336.5
310.03	343.5
310.26	379.5
310.49	355.5
310.72	338.5
310.949	381.5
311.179	402.5
311.409	374.5
311.639	360.5
311.868	352.5
312.098	361.5
312.328	338.5
312.557	390.5
312.787	388.5
313.017	388.5
313.246	341.5
313.476	354.5
313.706	342.5
313.935	364.5
314.165	368.5
314.394	372.5
314.624	357.5
314.853	372.5
315.083	352.5
315.312	362.5
315.542	350.5
315.771	374.5
316.001	363.5
316.23	352.5
316.46	342.5
316.689	341.5
316.919	368.5
317.148	389.5
317.377	373.5
317.607	354.5
317.836	356.5
318.065	343.5
318.295	364.5
318.524	364.5
318.753	372.5
318.983	361.5
319.212	357.5
319.441	353.5
319.67	378.5
319.9	346.5
320.129	335.5
320.358	364.5
320.587	369.5
320.816	377.5
321.046	390.5
321.275	372.5
321.504	375.5
321.733	380.5
321.962	387.5
322.191	412.5
322.42	416.5
322.649	442.5
322.878	450.5
323.108	463.5
323.337	456.5
323.566	513.5
323.795	550.5
324.024	609.5
324.253	706.5
324.482	1059.5
324.71	1584.5
324.939	2245.5
325.168	1980.5
325.397	1051.5
325.626	698.5
325.855	569.5
326.084	544.5
326.313	517.5
326.542	506.5
326.77	555.5
326.999	678.5
327.228	926.5
327.457	1418.5
327.686	1735.5
327.914	1192.5
328.143	756.5
328.372	644.5
328.6	610.5
328.829	587.5
329.058	584.5
329.287	611.5
329.515	549.5
329.744	520.5
329.972	493.5
330.201	517.5
330.43	549.5
330.658	570.5
330.887	621.5
331.115	601.5
331.344	501.5
331.572	457.5
331.801	458.5
332.03	463.5
332.258	433.5
332.486	421.5
332.715	414.5
332.943	408.5
333.172	406.5
333.4	413.5
333.629	427.5
333.857	426.5
334.085	435.5
334.314	443.5
334.542	426.5
334.771	480.5
334.999	441.5
335.227	445.5
335.455	398.5
335.684	411.5
335.912	420.5
336.14	397.5
336.369	389.5
336.597	393.5
336.825	403.5
337.053	410.5
337.281	403.5
337.51	391.5
337.738	365.5
337.966	386.5
338.194	409.5
338.422	408.5
338.65	400.5
338.878	389.5
339.106	373.5
339.334	376.5
339.562	371.5
339.79	386.5
340.018	387.5
340.246	398.5
340.474	385.5
340.702	373.5
340.93	373.5
341.158	387.5
341.386	387.5
341.614	378.5
341.842	399.5
342.07	389.5
342.298	363.5
342.526	376.5
342.754	378.5
342.981	354.5
343.209	364.5
343.437	376.5
343.665	357.5
343.893	380.5
344.12	384.5
344.348	378.5
344.576	398.5
344.804	404.5
345.031	388.5
345.259	393.5
345.487	404.5
345.714	378.5
345.942	389.5
346.17	383.5
346.397	358.5
346.625	365.5
346.853	379.5
347.08	370.5
347.308	377.5
347.535	389.5
347.763	394.5
347.99	378.5
348.218	391.5
348.445	389.5
348.673	393.5
348.9	388.5
349.128	383.5
349.355	373.5
349.583	358.5
349.81	355.5
350.037	372.5
350.265	368.5
350.492	372.5
350.72	370.5
350.947	379.5
351.174	383.5
351.402	404.5
351.629	383.5
351.856	389.5
352.083	394.5
352.311	416.5
352.538	404.5
352.765	406.5
352.992	394.5
353.22	397.5
353.447	384.5
353.674	367.5
353.901	352.5
354.128	341.5
354.355	360.5
354.583	353.5
354.81	344.5
355.037	348.5
355.264	358.5
355.491	328.5
355.718	327.5
355.945	329.5
356.172	348.5
356.399	341.5
356.626	339.5
356.853	351.5
357.08	331.5
357.307	336.5
357.534	363.5
357.761	345.5
357.988	356.5
358.215	361.5
358.441	359.5
358.668	330.5
358.895	347.5
359.122	363.5
359.349	353.5
359.576	370.5
359.802	404.5
360.029	425.5
360.256	455.5
360.483	396.5
360.709	382.5
360.936	395.5
361.163	388.5
361.39	391.5
361.616	372.5
361.843	380.5
362.07	377.5
362.296	367.5
362.523	368.5
362.749	393.5
362.976	368.5
363.203	341.5
363.429	354.5
363.656	374.5
363.882	356.5
364.109	351.5
364.335	362.5
364.562	348.5
364.788	340.5
365.015	366.5
365.241	346.5
365.468	370.5
365.694	353.5
365.92	377.5
366.147	338.5
366.373	353.5
366.599	378.5
366.826	347.5
367.052	363.5
367.278	352.5
367.505	352.5
367.731	348.5
367.957	342.5
368.184	354.5
368.41	361.5
368.636	354.5
368.862	375.5
369.089	386.5
369.315	361.5
369.541	338.5
369.767	360.5
369.993	343.5
370.219	352.5
370.445	317.5
370.672	348.5
370.898	350.5
371.124	328.5
371.35	348.5
371.576	355.5
371.802	332.5
372.028	331.5
372.254	329.5
372.48	333.5
372.706	334.5
372.932	326.5
373.158	339.5
373.384	343.5
373.61	340.5
373.835	333.5
374.061	344.5
374.287	351.5
374.513	346.5
374.739	355.5
374.965	343.5
375.191	348.5
375.416	329.5
375.642	349.5
375.868	351.5
376.094	356.5
376.319	344.5
376.545	343.5
376.771	347.5
376.997	344.5
377.222	327.5
377.448	343.5
377.674	353.5
377.899	343.5
378.125	337.5
378.35	331.5
378.576	321.5
378.802	345.5
379.027	341.5
379.253	343.5
379.478	354.5
379.704	338.5
379.929	352.5
380.155	358.5
380.38	342.5
380.606	336.5
380.831	340.5
381.057	342.5
381.282	337.5
381.507	348.5
381.733	361.5
381.958	338.5
382.184	336.5
382.409	356.5
382.634	330.5
382.86	352.5
383.085	332.5
383.31	340.5
383.535	343.5
383.761	330.5
383.986	349.5
384.211	334.5
384.436	346.5
384.662	361.5
384.887	358.5
385.112	357.5
385.337	358.5
385.562	359.5
385.787	348.5
386.013	358.5
386.238	371.5
386.463	376.5
386.688	365.5
386.913	355.5
387.138	349.5
387.363	341.5
387.588	344.5
387.813	339.5
388.038	371.5
388.263	358.5
388.488	359.5
388.713	355.5
388.938	365.5
389.163	354.5
389.387	363.5
389.612	358.5
389.837	342.5
390.062	361.5
390.287	346.5
390.512	346.5
390.736	335.5
390.961	340.5
391.186	360.5
391.411	349.5
391.636	345.5
391.86	363.5
392.085	349.5
392.31	337.5
392.534	363.5
392.759	364.5
392.984	361.5
393.208	374.5
393.433	348.5
393.658	357.5
393.882	366.5
394.107	348.5
394.331	349.5
394.556	368.5
394.78	353.5
395.005	352.5
395.229	377.5
395.454	368.5
395.678	354.5
395.903	364.5
396.127	404.5
396.352	414.5
396.576	389.5
396.801	376.5
397.025	369.5
397.249	382.5
397.474	368.5
397.698	387.5
397.922	413.5
398.147	406.5
398.371	423.5
398.595	405.5
398.82	418.5
399.044	390.5
399.268	398.5
399.492	419.5
399.717	430.5
399.941	470.5
400.165	470.5
400.389	523.5
400.613	466.5
400.837	420.5
401.062	408.5
401.286	409.5
401.51	393.5
401.734	387.5
401.958	394.5
402.182	396.5
402.406	404.5
402.63	429.5
402.854	425.5
403.078	413.5
403.302	396.5
403.526	423.5
403.75	413.5
403.974	398.5
404.198	409.5
404.422	437.5
404.645	433.5
404.869	446.5
405.093	428.5
405.317	483.5
405.541	499.5
405.765	466.5
405.988	446.5
406.212	473.5
406.436	492.5
406.66	493.5
406.883	459.5
407.107	484.5
407.331	487.5
407.555	572.5
407.778	553.5
408.002	545.5
408.226	475.5
408.449	473.5
408.673	456.5
408.896	494.5
409.12	512.5
409.344	504.5
409.567	444.5
409.791	420.5
410.014	426.5
410.238	413.5
410.461	411.5
410.685	426.5
410.908	443.5
411.132	472.5
411.355	504.5
411.578	467.5
411.802	437.5
412.025	421.5
412.249	423.5
412.472	437.5
412.695	472.5
412.919	444.5
413.142	412.5
413.365	425.5
413.589	402.5
413.812	388.5
414.035	409.5
414.258	407.5
414.482	408.5
414.705	394.5
414.928	392.5
415.151	401.5
415.374	380.5
415.597	394.5
415.821	379.5
416.044	422.5
416.267	390.5
416.49	405.5
416.713	378.5
416.936	407.5
417.159	392.5
417.382	400.5
417.605	407.5
417.828	414.5
418.051	416.5
418.274	408.5
418.497	396.5
418.72	372.5
418.943	411.5
419.166	411.5
419.389	426.5
419.611	430.5
419.834	417.5
420.057	427.5
420.28	443.5
420.503	439.5
420.726	427.5
420.948	446.5
421.171	479.5
421.394	502.5
421.617	447.5
421.839	434.5
422.062	416.5
422.285	456.5
422.507	512.5
422.73	538.5
422.953	540.5
423.175	460.5
423.398	452.5
423.621	455.5
423.843	472.5
424.066	454.5
424.288	480.5
424.511	501.5
424.733	555.5
424.956	600.5
425.178	593.5
425.401	566.5
425.623	600.5
425.846	523.5
426.068	488.5
426.291	476.5
426.513	458.5
426.735	483.5
426.958	512.5
427.18	583.5
427.402	725.5
427.625	774.5
427.847	714.5
428.069	608.5
428.292	534.5
428.514	500.5
428.736	458.5
428.958	448.5
429.181	443.5
429.403	434.5
429.625	427.5
429.847	501.5
430.069	531.5
430.292	554.5
430.514	467.5
430.736	443.5
430.958	448.5
431.18	416.5
431.402	407.5
431.624	404.5
431.846	407.5
432.068	414.5
432.29	408.5
432.512	416.5
432.734	425.5
432.956	404.5
433.178	417.5
433.4	399.5
433.622	402.5
433.844	402.5
434.066	397.5
434.287	429.5
434.509	421.5
434.731	417.5
434.953	429.5
435.175	440.5
435.397	461.5
435.618	473.5
435.84	538.5
436.062	605.5
436.284	666.5
436.505	571.5
436.727	477.5
436.949	451.5
437.17	450.5
437.392	427.5
437.614	460.5
437.835	488.5
438.057	594.5
438.278	680.5
438.5	660.5
438.721	749.5
438.943	720.5
439.165	576.5
439.386	512.5
439.608	521.5
439.829	484.5
440.05	510.5
440.272	559.5
440.493	535.5
440.715	489.5
440.936	478.5
441.158	432.5
441.379	440.5
441.6	452.5
441.822	488.5
442.043	528.5
442.264	575.5
442.486	641.5
442.707	555.5
442.928	481.5
443.149	504.5
443.371	540.5
443.592	566.5
443.813	654.5
444.034	686.5
444.255	583.5
444.476	516.5
444.698	496.5
444.919	449.5
445.14	538.5
445.361	514.5
445.582	506.5
445.803	557.5
446.024	676.5
446.245	666.5
446.466	613.5
446.687	522.5
446.908	493.5
447.129	468.5
447.35	446.5
447.571	463.5
447.792	444.5
448.013	450.5
448.234	455.5
448.455	516.5
448.675	629.5
448.896	690.5
449.117	642.5
449.338	562.5
449.559	676.5
449.779	754.5
450	612.5
450.221	512.5
450.442	475.5
450.662	460.5
450.883	450.5
451.104	487.5
451.324	454.5
451.545	445.5
451.766	443.5
451.986	404.5
452.207	388.5
452.428	405.5
452.648	393.5
452.869	423.5
453.089	396.5
453.31	424.5
453.53	423.5
453.751	410.5
453.971	420.5
454.192	440.5
454.412	430.5
454.633	404.5
454.853	398.5
455.073	412.5
455.294	422.5
455.514	488.5
455.734	485.5
455.955	394.5
456.175	394.5
456.395	382.5
456.616	362.5
456.836	374.5
457.056	341.5
457.276	357.5
457.497	368.5
457.717	368.5
457.937	365.5
458.157	355.5
458.377	402.5
458.598	416.5
458.818	478.5
459.038	574.5
459.258	574.5
459.478	471.5
459.698	422.5
459.918	398.5
460.138	401.5
460.358	378.5
460.578	392.5
460.798	408.5
461.018	422.5
461.238	407.5
461.458	388.5
461.678	389.5
461.898	385.5
462.118	393.5
462.338	401.5
462.558	402.5
462.777	407.5
462.997	420.5
463.217	400.5
463.437	406.5
463.657	428.5
463.876	422.5
464.096	402.5
464.316	419.5
464.536	432.5
464.755	437.5
464.975	429.5
465.195	505.5
465.414	579.5
465.634	500.5
465.854	449.5
466.073	430.5
466.293	404.5
466.512	396.5
466.732	396.5
466.951	372.5
467.171	390.5
467.391	406.5
467.61	424.5
467.829	429.5
468.049	414.5
468.268	395.5
468.488	388.5
468.707	376.5
468.927	387.5
469.146	380.5
469.365	385.5
469.585	377.5
469.804	402.5
470.023	401.5
470.243	399.5
470.462	414.5
470.681	424.5
470.901	438.5
471.12	412.5
471.339	405.5
471.558	418.5
471.777	390.5
471.997	400.5
472.216	391.5
472.435	436.5
472.654	427.5
472.873	402.5
473.092	410.5
473.311	379.5
473.53	386.5
473.749	418.5
473.968	465.5
474.187	561.5
474.406	584.5
474.625	475.5
474.844	418.5
475.063	381.5
475.282	409.5
475.501	422.5
475.72	421.5
475.939	434.5
476.158	421.5
476.377	406.5
476.596	406.5
476.814	418.5
477.033	432.5
477.252	416.5
477.471	413.5
477.69	419.5
477.908	437.5
478.127	447.5
478.346	439.5
478.564	429.5
478.783	449.5
479.002	447.5
479.22	438.5
479.439	471.5
479.658	479.5
479.876	468.5
480.095	496.5
480.313	528.5
480.532	486.5
480.751	463.5
480.969	494.5
481.188	544.5
481.406	569.5
481.624	498.5
481.843	502.5
482.061	481.5
482.28	496.5
482.498	484.5
482.717	451.5
482.935	460.5
483.153	480.5
483.372	480.5
483.59	476.5
483.808	494.5
484.027	457.5
484.245	476.5
484.463	482.5
484.681	480.5
484.9	473.5
485.118	469.5
485.336	494.5
485.554	501.5
485.772	477.5
485.99	502.5
486.209	487.5
486.427	516.5
486.645	522.5
486.863	534.5
487.081	545.5
487.299	518.5
487.517	509.5
487.735	500.5
487.953	490.5
488.171	525.5
488.389	520.5
488.607	531.5
488.825	510.5
489.043	489.5
489.261	508.5
489.479	508.5
489.696	516.5
489.914	525.5
490.132	545.5
490.35	525.5
490.568	558.5
490.786	536.5
491.003	555.5
491.221	570.5
491.439	577.5
491.657	585.5
491.874	572.5
492.092	586.5
492.31	584.5
492.527	584.5
492.745	581.5
492.963	616.5
493.18	617.5
493.398	611.5
493.615	616.5
493.833	629.5
494.05	610.5
494.268	626.5
494.485	602.5
494.703	631.5
494.92	626.5
495.138	600.5
495.355	637.5
495.573	642.5
495.79	597.5
496.008	628.5
496.225	645.5
496.442	630.5
496.66	610.5
496.877	632.5
497.094	626.5
497.312	600.5
497.529	614.5
497.746	635.5
497.963	640.5
498.181	666.5
498.398	664.5
498.615	695.5
498.832	678.5
499.049	679.5
499.267	679.5
499.484	661.5
499.701	724.5
499.918	727.5
500.135	729.5
500.352	742.5
500.569	738.5
500.786	737.5
501.003	763.5
501.22	748.5
501.437	744.5
501.654	734.5
501.871	790.5
502.088	744.5
502.305	666.5
502.522	667.5
502.739	694.5
502.956	632.5
503.172	640.5
503.389	632.5
503.606	640.5
503.823	644.5
504.04	622.5
504.256	610.5
504.473	611.5
504.69	612.5
504.907	612.5
505.123	617.5
505.34	579.5
505.557	596.5
505.773	598.5
505.99	600.5
506.207	590.5
506.423	614.5
506.64	601.5
506.856	592.5
507.073	611.5
507.289	596.5
507.506	588.5
507.722	595.5
507.939	639.5
508.155	580.5
508.372	590.5
508.588	598.5
508.805	570.5
509.021	591.5
509.238	599.5
509.454	593.5
509.67	623.5
509.887	607.5
510.103	606.5
510.319	585.5
510.536	731.5
510.752	1293.5
510.968	1048.5
511.184	644.5
511.401	576.5
511.617	553.5
511.833	565.5
512.049	537.5
512.265	570.5
512.481	551.5
512.698	545.5
512.914	545.5
513.13	564.5
513.346	557.5
513.562	562.5
513.778	558.5
513.994	572.5
514.21	578.5
514.426	590.5
514.642	664.5
514.858	708.5
515.074	752.5
515.29	932.5
515.506	1470.5
515.721	1147.5
515.937	745.5
516.153	640.5
516.369	611.5
516.585	580.5
516.801	571.5
517.016	570.5
517.232	569.5
517.448	580.5
517.664	564.5
517.879	561.5
518.095	534.5
518.311	546.5
518.527	550.5
518.742	544.5
518.958	574.5
519.173	566.5
519.389	552.5
519.605	551.5
519.82	552.5
