Data from 1986.PennyLincolnUp.Lamp.En5.5.200Scan.071819.P2_HRD10591_17-11-12-974.txt Node
Date: Thu Jul 18 17:11:12 EDT 2019
User: cochatt
Spectrometer: HR+D1059
Trigger mode: 1
Integration Time (sec): 1.000000E-1
Scans to average: 1
Electric dark correction enabled: true
Nonlinearity correction enabled: false
Boxcar width: 0
XAxis mode: Wavelengths
Number of Pixels in Spectrum: 2048
>>>>>Begin Spectral Data<<<<<
223.165	-14.44
223.4	-14.44
223.635	-14.44
223.869	-3.44
224.104	-23.44
224.338	-12.44
224.573	-8.44
224.808	-18.44
225.042	-16.44
225.277	-5.44
225.511	1.56
225.746	6.56
225.98	15.56
226.215	8.56
226.449	5.56
226.683	14.56
226.918	27.56
227.152	22.56
227.387	16.56
227.621	31.56
227.856	52.56
228.09	47.56
228.324	44.56
228.559	67.56
228.793	67.56
229.027	91.56
229.262	98.56
229.496	115.56
229.73	136.56
229.964	150.56
230.199	144.56
230.433	110.56
230.667	105.56
230.901	125.56
231.136	116.56
231.37	112.56
231.604	101.56
231.838	115.56
232.072	114.56
232.306	95.56
232.541	113.56
232.775	111.56
233.009	112.56
233.243	127.56
233.477	105.56
233.711	117.56
233.945	116.56
234.179	119.56
234.413	107.56
234.647	105.56
234.881	106.56
235.115	118.56
235.349	126.56
235.583	108.56
235.817	109.56
236.051	128.56
236.285	131.56
236.519	119.56
236.753	134.56
236.987	162.56
237.221	196.56
237.455	255.56
237.689	186.56
237.922	146.56
238.156	136.56
238.39	130.56
238.624	121.56
238.858	119.56
239.091	111.56
239.325	124.56
239.559	122.56
239.793	133.56
240.027	141.56
240.26	141.56
240.494	179.56
240.728	159.56
240.961	154.56
241.195	147.56
241.429	123.56
241.662	138.56
241.896	123.56
242.13	128.56
242.363	139.56
242.597	133.56
242.83	145.56
243.064	141.56
243.298	145.56
243.531	137.56
243.765	148.56
243.998	133.56
244.232	158.56
244.465	145.56
244.699	149.56
244.932	157.56
245.166	154.56
245.399	149.56
245.633	147.56
245.866	148.56
246.099	154.56
246.333	147.56
246.566	157.56
246.8	160.56
247.033	151.56
247.266	160.56
247.5	163.56
247.733	176.56
247.966	179.56
248.2	161.56
248.433	189.56
248.666	184.56
248.899	195.56
249.133	215.56
249.366	216.56
249.599	193.56
249.832	178.56
250.066	189.56
250.299	184.56
250.532	210.56
250.765	207.56
250.998	236.56
251.231	255.56
251.465	234.56
251.698	220.56
251.931	216.56
252.164	205.56
252.397	216.56
252.63	211.56
252.863	215.56
253.096	240.56
253.329	245.56
253.562	223.56
253.795	224.56
254.028	249.56
254.261	236.56
254.494	227.56
254.727	272.56
254.96	300.56
255.193	296.56
255.426	282.56
255.659	252.56
255.892	264.56
256.124	271.56
256.357	283.56
256.59	267.56
256.823	264.56
257.056	255.56
257.289	250.56
257.521	232.56
257.754	228.56
257.987	216.56
258.22	218.56
258.452	214.56
258.685	232.56
258.918	220.56
259.151	225.56
259.383	219.56
259.616	220.56
259.849	233.56
260.081	237.56
260.314	267.56
260.547	268.56
260.779	262.56
261.012	243.56
261.244	245.56
261.477	224.56
261.71	234.56
261.942	243.56
262.175	242.56
262.407	255.56
262.64	236.56
262.872	229.56
263.105	214.56
263.337	217.56
263.57	226.56
263.802	224.56
264.035	212.56
264.267	203.56
264.499	211.56
264.732	216.56
264.964	211.56
265.197	214.56
265.429	216.56
265.661	217.56
265.894	221.56
266.126	224.56
266.358	222.56
266.591	229.56
266.823	244.56
267.055	230.56
267.287	228.56
267.52	220.56
267.752	227.56
267.984	225.56
268.216	217.56
268.448	236.56
268.681	241.56
268.913	264.56
269.145	245.56
269.377	296.56
269.609	282.56
269.841	257.56
270.073	283.56
270.306	297.56
270.538	324.56
270.77	345.56
271.002	319.56
271.234	319.56
271.466	330.56
271.698	356.56
271.93	317.56
272.162	335.56
272.394	339.56
272.626	309.56
272.858	316.56
273.09	287.56
273.322	295.56
273.553	282.56
273.785	275.56
274.017	261.56
274.249	273.56
274.481	255.56
274.713	264.56
274.945	273.56
275.176	287.56
275.408	268.56
275.64	276.56
275.872	281.56
276.104	279.56
276.335	278.56
276.567	274.56
276.799	292.56
277.031	305.56
277.262	320.56
277.494	322.56
277.726	294.56
277.957	283.56
278.189	293.56
278.421	279.56
278.652	287.56
278.884	269.56
279.115	272.56
279.347	273.56
279.579	268.56
279.81	283.56
280.042	271.56
280.273	273.56
280.505	275.56
280.736	273.56
280.968	263.56
281.199	265.56
281.431	267.56
281.662	252.56
281.894	276.56
282.125	275.56
282.356	277.56
282.588	312.56
282.819	310.56
283.051	276.56
283.282	266.56
283.513	279.56
283.745	253.56
283.976	261.56
284.207	262.56
284.439	268.56
284.67	286.56
284.901	284.56
285.132	262.56
285.364	262.56
285.595	285.56
285.826	270.56
286.057	283.56
286.288	279.56
286.52	292.56
286.751	259.56
286.982	279.56
287.213	260.56
287.444	273.56
287.675	277.56
287.906	292.56
288.138	283.56
288.369	273.56
288.6	293.56
288.831	309.56
289.062	292.56
289.293	281.56
289.524	286.56
289.755	274.56
289.986	273.56
290.217	288.56
290.448	267.56
290.679	285.56
290.91	277.56
291.141	271.56
291.371	264.56
291.602	268.56
291.833	295.56
292.064	285.56
292.295	280.56
292.526	276.56
292.757	285.56
292.987	278.56
293.218	267.56
293.449	277.56
293.68	275.56
293.91	297.56
294.141	276.56
294.372	275.56
294.603	274.56
294.833	281.56
295.064	270.56
295.295	284.56
295.525	265.56
295.756	260.56
295.987	280.56
296.217	300.56
296.448	327.56
296.679	307.56
296.909	289.56
297.14	287.56
297.37	268.56
297.601	285.56
297.831	286.56
298.062	280.56
298.292	289.56
298.523	300.56
298.753	297.56
298.984	292.56
299.214	299.56
299.445	294.56
299.675	276.56
299.905	278.56
300.136	286.56
300.366	280.56
300.597	293.56
300.827	306.56
301.057	307.56
301.288	316.56
301.518	305.56
301.748	294.56
301.979	314.56
302.209	317.56
302.439	306.56
302.669	305.56
302.9	311.56
303.13	303.56
303.36	318.56
303.59	328.56
303.82	317.56
304.051	340.56
304.281	312.56
304.511	306.56
304.741	309.56
304.971	305.56
305.201	300.56
305.431	291.56
305.661	306.56
305.891	329.56
306.121	328.56
306.352	321.56
306.582	320.56
306.812	313.56
307.042	308.56
307.272	312.56
307.502	307.56
307.731	314.56
307.961	339.56
308.191	321.56
308.421	323.56
308.651	323.56
308.881	322.56
309.111	337.56
309.341	325.56
309.571	346.56
309.8	356.56
310.03	381.56
310.26	357.56
310.49	373.56
310.72	367.56
310.949	385.56
311.179	395.56
311.409	381.56
311.639	368.56
311.868	360.56
312.098	362.56
312.328	375.56
312.557	405.56
312.787	420.56
313.017	411.56
313.246	389.56
313.476	373.56
313.706	381.56
313.935	387.56
314.165	378.56
314.394	382.56
314.624	396.56
314.853	377.56
315.083	390.56
315.312	373.56
315.542	377.56
315.771	377.56
316.001	366.56
316.23	362.56
316.46	334.56
316.689	385.56
316.919	389.56
317.148	370.56
317.377	401.56
317.607	380.56
317.836	378.56
318.065	357.56
318.295	372.56
318.524	351.56
318.753	354.56
318.983	363.56
319.212	372.56
319.441	385.56
319.67	368.56
319.9	370.56
320.129	370.56
320.358	363.56
320.587	357.56
320.816	381.56
321.046	400.56
321.275	393.56
321.504	415.56
321.733	396.56
321.962	415.56
322.191	415.56
322.42	414.56
322.649	451.56
322.878	477.56
323.108	479.56
323.337	497.56
323.566	517.56
323.795	568.56
324.024	628.56
324.253	777.56
324.482	1102.56
324.71	1681.56
324.939	2383.56
325.168	2146.56
325.397	1135.56
325.626	744.56
325.855	613.56
326.084	546.56
326.313	553.56
326.542	556.56
326.77	585.56
326.999	691.56
327.228	999.56
327.457	1455.56
327.686	1815.56
327.914	1245.56
328.143	815.56
328.372	689.56
328.6	644.56
328.829	632.56
329.058	653.56
329.287	635.56
329.515	620.56
329.744	572.56
329.972	553.56
330.201	615.56
330.43	652.56
330.658	706.56
330.887	700.56
331.115	641.56
331.344	570.56
331.572	525.56
331.801	532.56
332.03	499.56
332.258	479.56
332.486	458.56
332.715	448.56
332.943	455.56
333.172	472.56
333.4	467.56
333.629	498.56
333.857	492.56
334.085	521.56
334.314	542.56
334.542	617.56
334.771	641.56
334.999	545.56
335.227	470.56
335.455	455.56
335.684	444.56
335.912	434.56
336.14	433.56
336.369	423.56
336.597	452.56
336.825	445.56
337.053	406.56
337.281	420.56
337.51	412.56
337.738	422.56
337.966	418.56
338.194	427.56
338.422	432.56
338.65	432.56
338.878	418.56
339.106	408.56
339.334	411.56
339.562	414.56
339.79	393.56
340.018	419.56
340.246	408.56
340.474	415.56
340.702	417.56
340.93	411.56
341.158	399.56
341.386	416.56
341.614	409.56
341.842	409.56
342.07	404.56
342.298	422.56
342.526	401.56
342.754	408.56
342.981	373.56
343.209	397.56
343.437	373.56
343.665	392.56
343.893	379.56
344.12	409.56
344.348	411.56
344.576	417.56
344.804	403.56
345.031	431.56
345.259	437.56
345.487	413.56
345.714	422.56
345.942	410.56
346.17	427.56
346.397	405.56
346.625	386.56
346.853	398.56
347.08	388.56
347.308	392.56
347.535	415.56
347.763	442.56
347.99	413.56
348.218	411.56
348.445	422.56
348.673	422.56
348.9	427.56
349.128	400.56
349.355	383.56
349.583	381.56
349.81	375.56
350.037	398.56
350.265	387.56
350.492	381.56
350.72	408.56
350.947	397.56
351.174	417.56
351.402	403.56
351.629	419.56
351.856	404.56
352.083	412.56
352.311	422.56
352.538	414.56
352.765	442.56
352.992	419.56
353.22	406.56
353.447	410.56
353.674	397.56
353.901	367.56
354.128	346.56
354.355	389.56
354.583	381.56
354.81	361.56
355.037	362.56
355.264	356.56
355.491	376.56
355.718	335.56
355.945	356.56
356.172	371.56
356.399	361.56
356.626	342.56
356.853	370.56
357.08	362.56
357.307	352.56
357.534	362.56
357.761	378.56
357.988	377.56
358.215	352.56
358.441	375.56
358.668	361.56
358.895	377.56
359.122	380.56
359.349	388.56
359.576	380.56
359.802	410.56
360.029	434.56
360.256	464.56
360.483	452.56
360.709	394.56
360.936	403.56
361.163	395.56
361.39	401.56
361.616	397.56
361.843	392.56
362.07	403.56
362.296	385.56
362.523	414.56
362.749	398.56
362.976	375.56
363.203	360.56
363.429	379.56
363.656	358.56
363.882	381.56
364.109	374.56
364.335	369.56
364.562	387.56
364.788	368.56
365.015	377.56
365.241	383.56
365.468	387.56
365.694	382.56
365.92	370.56
366.147	363.56
366.373	389.56
366.599	363.56
366.826	370.56
367.052	360.56
367.278	361.56
367.505	377.56
367.731	371.56
367.957	359.56
368.184	364.56
368.41	358.56
368.636	373.56
368.862	382.56
369.089	360.56
369.315	379.56
369.541	378.56
369.767	375.56
369.993	373.56
370.219	371.56
370.445	379.56
370.672	349.56
370.898	357.56
371.124	360.56
371.35	364.56
371.576	361.56
371.802	367.56
372.028	361.56
372.254	352.56
372.48	351.56
372.706	353.56
372.932	347.56
373.158	347.56
373.384	355.56
373.61	364.56
373.835	358.56
374.061	348.56
374.287	350.56
374.513	364.56
374.739	363.56
374.965	375.56
375.191	374.56
375.416	383.56
375.642	361.56
375.868	367.56
376.094	360.56
376.319	351.56
376.545	354.56
376.771	364.56
376.997	359.56
377.222	335.56
377.448	330.56
377.674	356.56
377.899	343.56
378.125	337.56
378.35	352.56
378.576	346.56
378.802	370.56
379.027	365.56
379.253	356.56
379.478	363.56
379.704	364.56
379.929	353.56
380.155	364.56
380.38	356.56
380.606	349.56
380.831	363.56
381.057	352.56
381.282	350.56
381.507	336.56
381.733	369.56
381.958	343.56
382.184	360.56
382.409	369.56
382.634	374.56
382.86	336.56
383.085	355.56
383.31	358.56
383.535	364.56
383.761	377.56
383.986	359.56
384.211	367.56
384.436	360.56
384.662	367.56
384.887	374.56
385.112	359.56
385.337	385.56
385.562	373.56
385.787	392.56
386.013	382.56
386.238	378.56
386.463	370.56
386.688	374.56
386.913	367.56
387.138	391.56
387.363	384.56
387.588	369.56
387.813	369.56
388.038	371.56
388.263	383.56
388.488	376.56
388.713	383.56
388.938	372.56
389.163	391.56
389.387	385.56
389.612	368.56
389.837	352.56
390.062	367.56
390.287	362.56
390.512	387.56
390.736	375.56
390.961	354.56
391.186	382.56
391.411	364.56
391.636	381.56
391.86	377.56
392.085	389.56
392.31	387.56
392.534	378.56
392.759	374.56
392.984	351.56
393.208	383.56
393.433	367.56
393.658	383.56
393.882	370.56
394.107	356.56
394.331	383.56
394.556	367.56
394.78	373.56
395.005	375.56
395.229	379.56
395.454	384.56
395.678	386.56
395.903	396.56
396.127	411.56
396.352	418.56
396.576	396.56
396.801	378.56
397.025	397.56
397.249	374.56
397.474	377.56
397.698	401.56
397.922	401.56
398.147	425.56
398.371	423.56
398.595	401.56
398.82	393.56
399.044	413.56
399.268	419.56
399.492	412.56
399.717	468.56
399.941	471.56
400.165	526.56
400.389	522.56
400.613	473.56
400.837	452.56
401.062	442.56
401.286	425.56
401.51	411.56
401.734	417.56
401.958	411.56
402.182	434.56
402.406	431.56
402.63	427.56
402.854	427.56
403.078	461.56
403.302	425.56
403.526	453.56
403.75	443.56
403.974	445.56
404.198	429.56
404.422	440.56
404.645	480.56
404.869	461.56
405.093	507.56
405.317	563.56
405.541	580.56
405.765	509.56
405.988	485.56
406.212	498.56
406.436	503.56
406.66	525.56
406.883	510.56
407.107	507.56
407.331	515.56
407.555	604.56
407.778	601.56
408.002	574.56
408.226	503.56
408.449	495.56
408.673	482.56
408.896	511.56
409.12	543.56
409.344	520.56
409.567	456.56
409.791	459.56
410.014	469.56
410.238	452.56
410.461	437.56
410.685	441.56
410.908	464.56
411.132	497.56
411.355	512.56
411.578	506.56
411.802	474.56
412.025	458.56
412.249	475.56
412.472	486.56
412.695	551.56
412.919	539.56
413.142	483.56
413.365	471.56
413.589	453.56
413.812	463.56
414.035	447.56
414.258	417.56
414.482	416.56
414.705	410.56
414.928	431.56
415.151	413.56
415.374	418.56
415.597	414.56
415.821	418.56
416.044	410.56
416.267	415.56
416.49	408.56
416.713	410.56
416.936	412.56
417.159	417.56
417.382	407.56
417.605	409.56
417.828	435.56
418.051	439.56
418.274	447.56
418.497	426.56
418.72	425.56
418.943	418.56
419.166	434.56
419.389	457.56
419.611	456.56
419.834	432.56
420.057	427.56
420.28	466.56
420.503	445.56
420.726	477.56
420.948	493.56
421.171	516.56
421.394	561.56
421.617	481.56
421.839	467.56
422.062	444.56
422.285	469.56
422.507	516.56
422.73	586.56
422.953	565.56
423.175	520.56
423.398	481.56
423.621	456.56
423.843	492.56
424.066	482.56
424.288	497.56
424.511	481.56
424.733	571.56
424.956	654.56
425.178	619.56
425.401	627.56
425.623	634.56
425.846	546.56
426.068	519.56
426.291	486.56
426.513	491.56
426.735	489.56
426.958	570.56
427.18	623.56
427.402	761.56
427.625	840.56
427.847	781.56
428.069	675.56
428.292	595.56
428.514	537.56
428.736	485.56
428.958	479.56
429.181	451.56
429.403	451.56
429.625	465.56
429.847	484.56
430.069	587.56
430.292	551.56
430.514	476.56
430.736	474.56
430.958	467.56
431.18	428.56
431.402	439.56
431.624	423.56
431.846	421.56
432.068	414.56
432.29	416.56
432.512	421.56
432.734	453.56
432.956	427.56
433.178	427.56
433.4	450.56
433.622	419.56
433.844	440.56
434.066	427.56
434.287	411.56
434.509	417.56
434.731	423.56
434.953	440.56
435.175	469.56
435.397	487.56
435.618	484.56
435.84	546.56
436.062	608.56
436.284	701.56
436.505	597.56
436.727	522.56
436.949	492.56
437.17	468.56
437.392	464.56
437.614	470.56
437.835	518.56
438.057	625.56
438.278	707.56
438.5	691.56
438.721	771.56
438.943	740.56
439.165	598.56
439.386	538.56
439.608	538.56
439.829	519.56
440.05	545.56
440.272	595.56
440.493	569.56
440.715	527.56
440.936	491.56
441.158	473.56
441.379	464.56
441.6	447.56
441.822	482.56
442.043	529.56
442.264	641.56
442.486	652.56
442.707	553.56
442.928	519.56
443.149	517.56
443.371	535.56
443.592	583.56
443.813	675.56
444.034	700.56
444.255	572.56
444.476	511.56
444.698	513.56
444.919	500.56
445.14	596.56
445.361	518.56
445.582	539.56
445.803	625.56
446.024	721.56
446.245	717.56
446.466	679.56
446.687	576.56
446.908	539.56
447.129	495.56
447.35	464.56
447.571	444.56
447.792	458.56
448.013	465.56
448.234	499.56
448.455	538.56
448.675	651.56
448.896	749.56
449.117	665.56
449.338	603.56
449.559	695.56
449.779	793.56
450	655.56
450.221	553.56
450.442	475.56
450.662	478.56
450.883	474.56
451.104	490.56
451.324	466.56
451.545	476.56
451.766	427.56
451.986	413.56
452.207	414.56
452.428	419.56
452.648	441.56
452.869	417.56
453.089	432.56
453.31	437.56
453.53	441.56
453.751	437.56
453.971	431.56
454.192	444.56
454.412	439.56
454.633	415.56
454.853	411.56
455.073	406.56
455.294	438.56
455.514	523.56
455.734	506.56
455.955	437.56
456.175	406.56
456.395	403.56
456.616	391.56
456.836	394.56
457.056	388.56
457.276	369.56
457.497	371.56
457.717	361.56
457.937	381.56
458.157	397.56
458.377	392.56
458.598	425.56
458.818	474.56
459.038	571.56
459.258	603.56
459.478	491.56
459.698	460.56
459.918	435.56
460.138	405.56
460.358	398.56
460.578	384.56
460.798	437.56
461.018	435.56
461.238	399.56
461.458	420.56
461.678	408.56
461.898	427.56
462.118	412.56
462.338	428.56
462.558	414.56
462.777	435.56
462.997	431.56
463.217	437.56
463.437	435.56
463.657	441.56
463.876	426.56
464.096	421.56
464.316	434.56
464.536	447.56
464.755	454.56
464.975	435.56
465.195	515.56
465.414	594.56
465.634	515.56
465.854	481.56
466.073	453.56
466.293	443.56
466.512	416.56
466.732	408.56
466.951	399.56
467.171	389.56
467.391	412.56
467.61	421.56
467.829	433.56
468.049	423.56
468.268	457.56
468.488	436.56
468.707	413.56
468.927	396.56
469.146	401.56
469.365	422.56
469.585	396.56
469.804	423.56
470.023	441.56
470.243	401.56
470.462	429.56
470.681	452.56
470.901	459.56
471.12	426.56
471.339	427.56
471.558	442.56
471.777	433.56
471.997	440.56
472.216	432.56
472.435	546.56
472.654	523.56
472.873	447.56
473.092	441.56
473.311	439.56
473.53	436.56
473.749	448.56
473.968	496.56
474.187	629.56
474.406	616.56
474.625	502.56
474.844	457.56
475.063	461.56
475.282	431.56
475.501	423.56
475.72	439.56
475.939	441.56
476.158	468.56
476.377	439.56
476.596	427.56
476.814	442.56
477.033	445.56
477.252	465.56
477.471	454.56
477.69	458.56
477.908	451.56
478.127	464.56
478.346	454.56
478.564	468.56
478.783	459.56
479.002	467.56
479.22	460.56
479.439	485.56
479.658	519.56
479.876	523.56
480.095	502.56
480.313	563.56
480.532	568.56
480.751	532.56
480.969	540.56
481.188	680.56
481.406	799.56
481.624	633.56
481.843	563.56
482.061	538.56
482.28	517.56
482.498	514.56
482.717	520.56
482.935	528.56
483.153	522.56
483.372	520.56
483.59	537.56
483.808	500.56
484.027	507.56
484.245	509.56
484.463	501.56
484.681	530.56
484.9	523.56
485.118	537.56
485.336	524.56
485.554	517.56
485.772	533.56
485.99	527.56
486.209	507.56
486.427	557.56
486.645	554.56
486.863	577.56
487.081	548.56
487.299	553.56
487.517	554.56
487.735	535.56
487.953	562.56
488.171	531.56
488.389	552.56
488.607	556.56
488.825	547.56
489.043	573.56
489.261	561.56
489.479	564.56
489.696	547.56
489.914	559.56
490.132	552.56
490.35	594.56
490.568	582.56
490.786	572.56
491.003	647.56
491.221	651.56
491.439	637.56
491.657	648.56
491.874	643.56
492.092	647.56
492.31	645.56
492.527	652.56
492.745	666.56
492.963	684.56
493.18	638.56
493.398	664.56
493.615	680.56
493.833	668.56
494.05	663.56
494.268	672.56
494.485	645.56
494.703	653.56
494.92	671.56
495.138	660.56
495.355	660.56
495.573	687.56
495.79	677.56
496.008	663.56
496.225	670.56
496.442	692.56
496.66	665.56
496.877	673.56
497.094	654.56
497.312	661.56
497.529	684.56
497.746	669.56
497.963	675.56
498.181	705.56
498.398	717.56
498.615	694.56
498.832	712.56
499.049	722.56
499.267	728.56
499.484	731.56
499.701	738.56
499.918	755.56
500.135	757.56
500.352	771.56
500.569	799.56
500.786	788.56
501.003	818.56
501.22	788.56
501.437	787.56
501.654	794.56
501.871	791.56
