Data from 1986.PennyLincolnUp.Lamp.En5.5.200Scan.071819.P2_HRD10591_17-11-08-973.txt Node
Date: Thu Jul 18 17:11:08 EDT 2019
User: cochatt
Spectrometer: HR+D1059
Trigger mode: 1
Integration Time (sec): 1.000000E-1
Scans to average: 1
Electric dark correction enabled: true
Nonlinearity correction enabled: false
Boxcar width: 0
XAxis mode: Wavelengths
Number of Pixels in Spectrum: 2048
>>>>>Begin Spectral Data<<<<<
223.165	-1.06
223.4	-1.06
223.635	-1.06
223.869	-14.06
224.104	-21.06
224.338	-16.06
224.573	-22.06
224.808	-8.06
225.042	-8.06
225.277	-14.06
225.511	8.94
225.746	-0.06
225.98	-4.06
226.215	24.94
226.449	3.94
226.683	13.94
226.918	20.94
227.152	35.94
227.387	21.94
227.621	25.94
227.856	32.94
228.09	43.94
228.324	53.94
228.559	50.94
228.793	80.94
229.027	106.94
229.262	125.94
229.496	127.94
229.73	139.94
229.964	166.94
230.199	137.94
230.433	119.94
230.667	107.94
230.901	105.94
231.136	112.94
231.37	120.94
231.604	112.94
231.838	111.94
232.072	111.94
232.306	124.94
232.541	113.94
232.775	117.94
233.009	107.94
233.243	112.94
233.477	123.94
233.711	104.94
233.945	104.94
234.179	103.94
234.413	121.94
234.647	124.94
234.881	123.94
235.115	119.94
235.349	130.94
235.583	108.94
235.817	126.94
236.051	137.94
236.285	131.94
236.519	120.94
236.753	117.94
236.987	144.94
237.221	193.94
237.455	246.94
237.689	205.94
237.922	143.94
238.156	124.94
238.39	132.94
238.624	135.94
238.858	129.94
239.091	117.94
239.325	112.94
239.559	127.94
239.793	125.94
240.027	132.94
240.26	138.94
240.494	158.94
240.728	152.94
240.961	155.94
241.195	139.94
241.429	133.94
241.662	147.94
241.896	141.94
242.13	120.94
242.363	131.94
242.597	124.94
242.83	145.94
243.064	148.94
243.298	144.94
243.531	137.94
243.765	139.94
243.998	140.94
244.232	152.94
244.465	155.94
244.699	124.94
244.932	138.94
245.166	140.94
245.399	144.94
245.633	142.94
245.866	149.94
246.099	143.94
246.333	149.94
246.566	143.94
246.8	159.94
247.033	168.94
247.266	170.94
247.5	183.94
247.733	166.94
247.966	181.94
248.2	181.94
248.433	180.94
248.666	173.94
248.899	177.94
249.133	220.94
249.366	207.94
249.599	218.94
249.832	208.94
250.066	208.94
250.299	193.94
250.532	209.94
250.765	227.94
250.998	240.94
251.231	241.94
251.465	227.94
251.698	248.94
251.931	214.94
252.164	184.94
252.397	217.94
252.63	211.94
252.863	213.94
253.096	239.94
253.329	223.94
253.562	244.94
253.795	251.94
254.028	227.94
254.261	228.94
254.494	226.94
254.727	289.94
254.96	298.94
255.193	284.94
255.426	273.94
255.659	256.94
255.892	262.94
256.124	266.94
256.357	265.94
256.59	256.94
256.823	250.94
257.056	242.94
257.289	223.94
257.521	239.94
257.754	224.94
257.987	229.94
258.22	221.94
258.452	239.94
258.685	242.94
258.918	208.94
259.151	235.94
259.383	225.94
259.616	234.94
259.849	239.94
260.081	259.94
260.314	266.94
260.547	285.94
260.779	266.94
261.012	245.94
261.244	247.94
261.477	254.94
261.71	240.94
261.942	245.94
262.175	248.94
262.407	231.94
262.64	218.94
262.872	221.94
263.105	226.94
263.337	213.94
263.57	225.94
263.802	214.94
264.035	216.94
264.267	220.94
264.499	204.94
264.732	193.94
264.964	216.94
265.197	205.94
265.429	205.94
265.661	206.94
265.894	211.94
266.126	197.94
266.358	216.94
266.591	226.94
266.823	241.94
267.055	245.94
267.287	240.94
267.52	230.94
267.752	215.94
267.984	219.94
268.216	236.94
268.448	231.94
268.681	241.94
268.913	240.94
269.145	262.94
269.377	307.94
269.609	295.94
269.841	289.94
270.073	270.94
270.306	313.94
270.538	342.94
270.77	336.94
271.002	310.94
271.234	313.94
271.466	321.94
271.698	321.94
271.93	362.94
272.162	324.94
272.394	340.94
272.626	308.94
272.858	290.94
273.09	293.94
273.322	288.94
273.553	283.94
273.785	281.94
274.017	264.94
274.249	277.94
274.481	267.94
274.713	291.94
274.945	273.94
275.176	269.94
275.408	277.94
275.64	257.94
275.872	273.94
276.104	271.94
276.335	265.94
276.567	298.94
276.799	280.94
277.031	316.94
277.262	332.94
277.494	329.94
277.726	307.94
277.957	292.94
278.189	293.94
278.421	285.94
278.652	281.94
278.884	261.94
279.115	277.94
279.347	279.94
279.579	280.94
279.81	262.94
280.042	274.94
280.273	261.94
280.505	269.94
280.736	273.94
280.968	256.94
281.199	249.94
281.431	264.94
281.662	265.94
281.894	261.94
282.125	250.94
282.356	270.94
282.588	321.94
282.819	319.94
283.051	280.94
283.282	273.94
283.513	272.94
283.745	277.94
283.976	290.94
284.207	279.94
284.439	263.94
284.67	277.94
284.901	249.94
285.132	269.94
285.364	263.94
285.595	272.94
285.826	275.94
286.057	244.94
286.288	285.94
286.52	267.94
286.751	265.94
286.982	273.94
287.213	256.94
287.444	249.94
287.675	284.94
287.906	285.94
288.138	287.94
288.369	298.94
288.6	298.94
288.831	289.94
289.062	279.94
289.293	272.94
289.524	270.94
289.755	271.94
289.986	262.94
290.217	257.94
290.448	274.94
290.679	278.94
290.91	271.94
291.141	270.94
291.371	256.94
291.602	283.94
291.833	275.94
292.064	277.94
292.295	286.94
292.526	273.94
292.757	261.94
292.987	293.94
293.218	267.94
293.449	274.94
293.68	271.94
293.91	274.94
294.141	269.94
294.372	265.94
294.603	264.94
294.833	265.94
295.064	274.94
295.295	291.94
295.525	270.94
295.756	285.94
295.987	287.94
296.217	307.94
296.448	330.94
296.679	296.94
296.909	284.94
297.14	268.94
297.37	288.94
297.601	289.94
297.831	295.94
298.062	285.94
298.292	283.94
298.523	282.94
298.753	296.94
298.984	302.94
299.214	284.94
299.445	279.94
299.675	297.94
299.905	298.94
300.136	288.94
300.366	290.94
300.597	275.94
300.827	293.94
301.057	305.94
301.288	314.94
301.518	318.94
301.748	304.94
301.979	290.94
302.209	315.94
302.439	311.94
302.669	318.94
302.9	306.94
303.13	307.94
303.36	325.94
303.59	298.94
303.82	329.94
304.051	315.94
304.281	319.94
304.511	311.94
304.741	298.94
304.971	282.94
305.201	306.94
305.431	330.94
305.661	308.94
305.891	319.94
306.121	313.94
306.352	327.94
306.582	327.94
306.812	305.94
307.042	311.94
307.272	300.94
307.502	313.94
307.731	325.94
307.961	322.94
308.191	317.94
308.421	302.94
308.651	307.94
308.881	326.94
309.111	330.94
309.341	323.94
309.571	338.94
309.8	338.94
310.03	362.94
310.26	355.94
310.49	344.94
310.72	369.94
310.949	384.94
311.179	390.94
311.409	383.94
311.639	352.94
311.868	372.94
312.098	367.94
312.328	375.94
312.557	404.94
312.787	412.94
313.017	392.94
313.246	408.94
313.476	369.94
313.706	371.94
313.935	363.94
314.165	410.94
314.394	397.94
314.624	411.94
314.853	368.94
315.083	353.94
315.312	360.94
315.542	362.94
315.771	348.94
316.001	364.94
316.23	360.94
316.46	354.94
316.689	368.94
316.919	367.94
317.148	360.94
317.377	357.94
317.607	370.94
317.836	375.94
318.065	368.94
318.295	361.94
318.524	362.94
318.753	371.94
318.983	363.94
319.212	362.94
319.441	359.94
319.67	394.94
319.9	369.94
320.129	368.94
320.358	361.94
320.587	375.94
320.816	392.94
321.046	406.94
321.275	387.94
321.504	395.94
321.733	395.94
321.962	391.94
322.191	410.94
322.42	426.94
322.649	470.94
322.878	449.94
323.108	464.94
323.337	509.94
323.566	532.94
323.795	573.94
324.024	640.94
324.253	772.94
324.482	1106.94
324.71	1675.94
324.939	2429.94
325.168	2185.94
325.397	1145.94
325.626	748.94
325.855	614.94
326.084	552.94
326.313	529.94
326.542	568.94
326.77	603.94
326.999	681.94
327.228	964.94
327.457	1507.94
327.686	1840.94
327.914	1277.94
328.143	847.94
328.372	733.94
328.6	659.94
328.829	613.94
329.058	629.94
329.287	665.94
329.515	623.94
329.744	570.94
329.972	571.94
330.201	604.94
330.43	653.94
330.658	683.94
330.887	688.94
331.115	663.94
331.344	575.94
331.572	514.94
331.801	517.94
332.03	506.94
332.258	486.94
332.486	459.94
332.715	449.94
332.943	467.94
333.172	487.94
333.4	452.94
333.629	456.94
333.857	474.94
334.085	492.94
334.314	565.94
334.542	607.94
334.771	655.94
334.999	560.94
335.227	490.94
335.455	463.94
335.684	451.94
335.912	436.94
336.14	435.94
336.369	412.94
336.597	456.94
336.825	447.94
337.053	427.94
337.281	413.94
337.51	404.94
337.738	407.94
337.966	431.94
338.194	433.94
338.422	396.94
338.65	403.94
338.878	387.94
339.106	396.94
339.334	399.94
339.562	405.94
339.79	395.94
340.018	388.94
340.246	403.94
340.474	412.94
340.702	420.94
340.93	405.94
341.158	389.94
341.386	416.94
341.614	426.94
341.842	396.94
342.07	407.94
342.298	394.94
342.526	393.94
342.754	373.94
342.981	383.94
343.209	398.94
343.437	378.94
343.665	375.94
343.893	389.94
344.12	387.94
344.348	415.94
344.576	396.94
344.804	420.94
345.031	417.94
345.259	457.94
345.487	418.94
345.714	422.94
345.942	403.94
346.17	387.94
346.397	404.94
346.625	380.94
346.853	407.94
347.08	399.94
347.308	405.94
347.535	414.94
347.763	412.94
347.99	408.94
348.218	403.94
348.445	410.94
348.673	417.94
348.9	401.94
349.128	411.94
349.355	379.94
349.583	387.94
349.81	373.94
350.037	362.94
350.265	385.94
350.492	391.94
350.72	389.94
350.947	386.94
351.174	391.94
351.402	411.94
351.629	405.94
351.856	405.94
352.083	422.94
352.311	411.94
352.538	419.94
352.765	407.94
352.992	392.94
353.22	404.94
353.447	389.94
353.674	401.94
353.901	379.94
354.128	360.94
354.355	379.94
354.583	370.94
354.81	365.94
355.037	369.94
355.264	377.94
355.491	349.94
355.718	346.94
355.945	361.94
356.172	358.94
356.399	344.94
356.626	346.94
356.853	358.94
357.08	354.94
357.307	343.94
357.534	344.94
357.761	352.94
357.988	364.94
358.215	348.94
358.441	341.94
358.668	371.94
358.895	383.94
359.122	355.94
359.349	385.94
359.576	407.94
359.802	417.94
360.029	467.94
360.256	484.94
360.483	459.94
360.709	407.94
360.936	378.94
361.163	395.94
361.39	387.94
361.616	401.94
361.843	402.94
362.07	384.94
362.296	397.94
362.523	397.94
362.749	387.94
362.976	379.94
363.203	378.94
363.429	364.94
363.656	379.94
363.882	354.94
364.109	347.94
364.335	357.94
364.562	376.94
364.788	360.94
365.015	366.94
365.241	379.94
365.468	373.94
365.694	382.94
365.92	387.94
366.147	360.94
366.373	339.94
366.599	375.94
366.826	363.94
367.052	367.94
367.278	367.94
367.505	367.94
367.731	343.94
367.957	360.94
368.184	371.94
368.41	379.94
368.636	385.94
368.862	370.94
369.089	371.94
369.315	369.94
369.541	333.94
369.767	371.94
369.993	368.94
370.219	363.94
370.445	360.94
370.672	349.94
370.898	349.94
371.124	363.94
371.35	352.94
371.576	356.94
371.802	361.94
372.028	360.94
372.254	347.94
372.48	345.94
372.706	373.94
372.932	328.94
373.158	348.94
373.384	348.94
373.61	367.94
373.835	345.94
374.061	367.94
374.287	364.94
374.513	359.94
374.739	380.94
374.965	369.94
375.191	346.94
375.416	347.94
375.642	367.94
375.868	363.94
376.094	349.94
376.319	349.94
376.545	370.94
376.771	355.94
376.997	339.94
377.222	358.94
377.448	328.94
377.674	362.94
377.899	348.94
378.125	350.94
378.35	358.94
378.576	349.94
378.802	339.94
379.027	351.94
379.253	347.94
379.478	352.94
379.704	340.94
379.929	347.94
380.155	348.94
380.38	345.94
380.606	361.94
380.831	356.94
381.057	377.94
381.282	360.94
381.507	362.94
381.733	361.94
381.958	331.94
382.184	340.94
382.409	349.94
382.634	370.94
382.86	363.94
383.085	325.94
383.31	349.94
383.535	367.94
383.761	348.94
383.986	357.94
384.211	362.94
384.436	332.94
384.662	354.94
384.887	367.94
385.112	354.94
385.337	357.94
385.562	371.94
385.787	367.94
386.013	374.94
386.238	362.94
386.463	373.94
386.688	367.94
386.913	346.94
387.138	376.94
387.363	364.94
387.588	371.94
387.813	362.94
388.038	354.94
388.263	364.94
388.488	347.94
388.713	371.94
388.938	381.94
389.163	365.94
389.387	371.94
389.612	364.94
389.837	347.94
390.062	351.94
390.287	380.94
390.512	362.94
390.736	375.94
390.961	333.94
391.186	353.94
391.411	371.94
391.636	368.94
391.86	375.94
392.085	370.94
392.31	376.94
392.534	365.94
392.759	364.94
392.984	378.94
393.208	357.94
393.433	388.94
393.658	346.94
393.882	345.94
394.107	367.94
394.331	371.94
394.556	367.94
394.78	363.94
395.005	379.94
395.229	373.94
395.454	388.94
395.678	377.94
395.903	380.94
396.127	414.94
396.352	391.94
396.576	379.94
396.801	367.94
397.025	372.94
397.249	389.94
397.474	376.94
397.698	380.94
397.922	401.94
398.147	396.94
398.371	404.94
398.595	392.94
398.82	395.94
399.044	408.94
399.268	427.94
399.492	429.94
399.717	453.94
399.941	460.94
400.165	512.94
400.389	508.94
400.613	473.94
400.837	427.94
401.062	410.94
401.286	423.94
401.51	419.94
401.734	410.94
401.958	429.94
402.182	413.94
402.406	436.94
402.63	440.94
402.854	420.94
403.078	420.94
403.302	440.94
403.526	451.94
403.75	440.94
403.974	426.94
404.198	421.94
404.422	446.94
404.645	452.94
404.869	442.94
405.093	470.94
405.317	519.94
405.541	561.94
405.765	505.94
405.988	470.94
406.212	481.94
406.436	488.94
406.66	508.94
406.883	493.94
407.107	491.94
407.331	539.94
407.555	591.94
407.778	583.94
408.002	539.94
408.226	484.94
408.449	497.94
408.673	483.94
408.896	515.94
409.12	561.94
409.344	515.94
409.567	458.94
409.791	448.94
410.014	440.94
410.238	422.94
410.461	424.94
410.685	443.94
410.908	443.94
411.132	481.94
411.355	509.94
411.578	516.94
411.802	467.94
412.025	446.94
412.249	439.94
412.472	485.94
412.695	530.94
412.919	523.94
413.142	464.94
413.365	457.94
413.589	439.94
413.812	424.94
414.035	412.94
414.258	444.94
414.482	415.94
414.705	415.94
414.928	412.94
415.151	411.94
415.374	404.94
415.597	410.94
415.821	421.94
416.044	403.94
416.267	398.94
416.49	425.94
416.713	401.94
416.936	411.94
417.159	429.94
417.382	416.94
417.605	431.94
417.828	406.94
418.051	438.94
418.274	445.94
418.497	419.94
418.72	420.94
418.943	424.94
419.166	427.94
419.389	428.94
419.611	445.94
419.834	451.94
420.057	443.94
420.28	450.94
420.503	445.94
420.726	450.94
420.948	477.94
421.171	505.94
421.394	529.94
421.617	460.94
421.839	437.94
422.062	433.94
422.285	480.94
422.507	527.94
422.73	581.94
422.953	566.94
423.175	493.94
423.398	460.94
423.621	453.94
423.843	490.94
424.066	490.94
424.288	491.94
424.511	498.94
424.733	563.94
424.956	631.94
425.178	615.94
425.401	593.94
425.623	627.94
425.846	522.94
426.068	504.94
426.291	479.94
426.513	480.94
426.735	497.94
426.958	550.94
427.18	618.94
427.402	731.94
427.625	842.94
427.847	748.94
428.069	648.94
428.292	584.94
428.514	515.94
428.736	493.94
428.958	484.94
429.181	455.94
429.403	455.94
429.625	455.94
429.847	499.94
430.069	583.94
430.292	535.94
430.514	483.94
430.736	443.94
430.958	454.94
431.18	418.94
431.402	435.94
431.624	414.94
431.846	427.94
432.068	423.94
432.29	419.94
432.512	405.94
432.734	436.94
432.956	428.94
433.178	440.94
433.4	443.94
433.622	438.94
433.844	411.94
434.066	408.94
434.287	419.94
434.509	429.94
434.731	433.94
434.953	428.94
435.175	426.94
435.397	472.94
435.618	499.94
435.84	540.94
436.062	629.94
436.284	675.94
436.505	577.94
436.727	507.94
436.949	467.94
437.17	440.94
437.392	434.94
437.614	483.94
437.835	526.94
438.057	612.94
438.278	712.94
438.5	712.94
438.721	766.94
438.943	731.94
439.165	600.94
439.386	529.94
439.608	517.94
439.829	503.94
440.05	538.94
440.272	569.94
440.493	559.94
440.715	482.94
440.936	460.94
441.158	465.94
441.379	461.94
441.6	483.94
441.822	517.94
442.043	571.94
442.264	613.94
442.486	646.94
442.707	543.94
442.928	539.94
443.149	510.94
443.371	548.94
443.592	577.94
443.813	666.94
444.034	722.94
444.255	605.94
444.476	505.94
444.698	495.94
444.919	481.94
445.14	565.94
445.361	546.94
445.582	554.94
445.803	608.94
446.024	688.94
446.245	746.94
446.466	672.94
446.687	563.94
446.908	521.94
447.129	471.94
447.35	461.94
447.571	447.94
447.792	448.94
448.013	457.94
448.234	501.94
448.455	544.94
448.675	648.94
448.896	747.94
449.117	653.94
449.338	597.94
449.559	708.94
449.779	779.94
450	641.94
450.221	533.94
450.442	489.94
450.662	472.94
450.883	462.94
451.104	486.94
451.324	476.94
451.545	434.94
451.766	433.94
451.986	421.94
452.207	385.94
452.428	429.94
452.648	393.94
452.869	412.94
453.089	444.94
453.31	440.94
453.53	405.94
453.751	416.94
453.971	412.94
454.192	460.94
454.412	425.94
454.633	413.94
454.853	412.94
455.073	411.94
455.294	425.94
455.514	487.94
455.734	501.94
455.955	437.94
456.175	388.94
456.395	375.94
456.616	381.94
456.836	400.94
457.056	351.94
457.276	347.94
457.497	401.94
457.717	393.94
457.937	385.94
458.157	381.94
458.377	402.94
458.598	413.94
458.818	461.94
459.038	586.94
459.258	609.94
459.478	477.94
459.698	412.94
459.918	396.94
460.138	422.94
460.358	416.94
460.578	418.94
460.798	440.94
461.018	403.94
461.238	393.94
461.458	406.94
461.678	394.94
461.898	402.94
462.118	437.94
462.338	391.94
462.558	415.94
462.777	408.94
462.997	437.94
463.217	399.94
463.437	437.94
463.657	427.94
463.876	427.94
464.096	431.94
464.316	428.94
464.536	437.94
464.755	453.94
464.975	437.94
465.195	496.94
465.414	592.94
465.634	539.94
465.854	456.94
466.073	443.94
466.293	427.94
466.512	401.94
466.732	403.94
466.951	398.94
467.171	408.94
467.391	412.94
467.61	424.94
467.829	427.94
468.049	428.94
468.268	433.94
468.488	424.94
468.707	383.94
468.927	394.94
469.146	393.94
469.365	409.94
469.585	383.94
469.804	419.94
470.023	440.94
470.243	445.94
470.462	436.94
470.681	435.94
470.901	441.94
471.12	431.94
471.339	406.94
471.558	425.94
471.777	432.94
471.997	411.94
472.216	453.94
472.435	524.94
472.654	486.94
472.873	427.94
473.092	419.94
473.311	417.94
473.53	438.94
473.749	439.94
473.968	474.94
474.187	587.94
474.406	616.94
474.625	510.94
474.844	457.94
475.063	428.94
475.282	433.94
475.501	433.94
475.72	428.94
475.939	435.94
476.158	439.94
476.377	435.94
476.596	427.94
476.814	421.94
477.033	449.94
477.252	465.94
477.471	456.94
477.69	453.94
477.908	450.94
478.127	445.94
478.346	439.94
478.564	477.94
478.783	475.94
479.002	467.94
479.22	479.94
479.439	500.94
479.658	517.94
479.876	501.94
480.095	504.94
480.313	534.94
480.532	514.94
480.751	521.94
480.969	563.94
481.188	647.94
481.406	747.94
481.624	612.94
481.843	554.94
482.061	556.94
482.28	527.94
482.498	518.94
482.717	514.94
482.935	491.94
483.153	487.94
483.372	515.94
483.59	495.94
483.808	483.94
484.027	503.94
484.245	498.94
484.463	497.94
484.681	518.94
484.9	509.94
485.118	511.94
485.336	507.94
485.554	501.94
485.772	523.94
485.99	525.94
486.209	523.94
486.427	535.94
486.645	542.94
486.863	535.94
487.081	561.94
487.299	545.94
487.517	553.94
487.735	548.94
487.953	535.94
488.171	538.94
488.389	557.94
488.607	531.94
488.825	543.94
489.043	536.94
489.261	569.94
489.479	543.94
489.696	546.94
489.914	557.94
490.132	561.94
490.35	579.94
490.568	560.94
490.786	588.94
491.003	581.94
491.221	592.94
491.439	617.94
491.657	615.94
491.874	616.94
492.092	636.94
492.31	651.94
492.527	619.94
492.745	642.94
492.963	646.94
493.18	647.94
493.398	647.94
493.615	671.94
493.833	645.94
494.05	664.94
494.268	667.94
494.485	669.94
494.703	659.94
494.92	634.94
495.138	668.94
495.355	674.94
495.573	664.94
495.79	670.94
496.008	671.94
496.225	657.94
496.442	660.94
496.66	657.94
496.877	636.94
497.094	661.94
497.312	648.94
497.529	644.94
497.746	664.94
497.963	673.94
498.181	674.94
498.398	685.94
498.615	691.94
498.832	718.94
499.049	705.94
499.267	706.94
499.484	695.94
499.701	714.94
499.918	741.94
500.135	763.94
500.352	767.94
500.569	784.94
500.786	781.94
501.003	785.94
501.22	766.94
501.437	781.94
501.654	782.94
501.871	766.94
