Data from 1986.PennyLincolnUp.Lamp.En5.5.200Scan.071819.P2_HRD10591_17-10-12-975.txt Node
Date: Thu Jul 18 17:10:12 EDT 2019
User: cochatt
Spectrometer: HR+D1059
Trigger mode: 1
Integration Time (sec): 1.000000E-1
Scans to average: 1
Electric dark correction enabled: true
Nonlinearity correction enabled: false
Boxcar width: 0
XAxis mode: Wavelengths
Number of Pixels in Spectrum: 2048
>>>>>Begin Spectral Data<<<<<
223.165	-23.44
223.4	-23.44
223.635	-23.44
223.869	-24.44
224.104	-29.44
224.338	-13.44
224.573	-22.44
224.808	-5.44
225.042	-0.44
225.277	-7.44
225.511	-0.44
225.746	7.56
225.98	15.56
226.215	6.56
226.449	24.56
226.683	20.56
226.918	29.56
227.152	22.56
227.387	33.56
227.621	39.56
227.856	46.56
228.09	43.56
228.324	49.56
228.559	57.56
228.793	60.56
229.027	84.56
229.262	114.56
229.496	122.56
229.73	142.56
229.964	158.56
230.199	122.56
230.433	113.56
230.667	97.56
230.901	98.56
231.136	113.56
231.37	112.56
231.604	112.56
231.838	107.56
232.072	117.56
232.306	96.56
232.541	105.56
232.775	129.56
233.009	114.56
233.243	115.56
233.477	112.56
233.711	120.56
233.945	103.56
234.179	117.56
234.413	111.56
234.647	108.56
234.881	114.56
235.115	99.56
235.349	102.56
235.583	126.56
235.817	124.56
236.051	110.56
236.285	114.56
236.519	117.56
236.753	126.56
236.987	149.56
237.221	174.56
237.455	243.56
237.689	191.56
237.922	149.56
238.156	122.56
238.39	131.56
238.624	111.56
238.858	116.56
239.091	135.56
239.325	112.56
239.559	123.56
239.793	123.56
240.027	119.56
240.26	140.56
240.494	139.56
240.728	136.56
240.961	139.56
241.195	146.56
241.429	148.56
241.662	127.56
241.896	130.56
242.13	136.56
242.363	144.56
242.597	131.56
242.83	122.56
243.064	122.56
243.298	138.56
243.531	122.56
243.765	122.56
243.998	121.56
244.232	126.56
244.465	122.56
244.699	134.56
244.932	137.56
245.166	148.56
245.399	148.56
245.633	132.56
245.866	135.56
246.099	158.56
246.333	134.56
246.566	145.56
246.8	154.56
247.033	146.56
247.266	150.56
247.5	159.56
247.733	155.56
247.966	160.56
248.2	165.56
248.433	171.56
248.666	167.56
248.899	172.56
249.133	179.56
249.366	192.56
249.599	200.56
249.832	182.56
250.066	162.56
250.299	177.56
250.532	174.56
250.765	188.56
250.998	228.56
251.231	229.56
251.465	225.56
251.698	217.56
251.931	194.56
252.164	199.56
252.397	196.56
252.63	213.56
252.863	204.56
253.096	229.56
253.329	226.56
253.562	222.56
253.795	226.56
254.028	207.56
254.261	210.56
254.494	214.56
254.727	243.56
254.96	287.56
255.193	281.56
255.426	246.56
255.659	244.56
255.892	232.56
256.124	208.56
256.357	239.56
256.59	224.56
256.823	227.56
257.056	225.56
257.289	196.56
257.521	198.56
257.754	210.56
257.987	224.56
258.22	209.56
258.452	205.56
258.685	207.56
258.918	212.56
259.151	214.56
259.383	212.56
259.616	207.56
259.849	227.56
260.081	216.56
260.314	251.56
260.547	260.56
260.779	242.56
261.012	232.56
261.244	233.56
261.477	238.56
261.71	210.56
261.942	223.56
262.175	227.56
262.407	233.56
262.64	231.56
262.872	218.56
263.105	216.56
263.337	226.56
263.57	215.56
263.802	211.56
264.035	200.56
264.267	212.56
264.499	208.56
264.732	202.56
264.964	202.56
265.197	188.56
265.429	197.56
265.661	199.56
265.894	198.56
266.126	208.56
266.358	211.56
266.591	201.56
266.823	200.56
267.055	196.56
267.287	224.56
267.52	225.56
267.752	224.56
267.984	203.56
268.216	199.56
268.448	208.56
268.681	238.56
268.913	244.56
269.145	248.56
269.377	254.56
269.609	258.56
269.841	261.56
270.073	264.56
270.306	278.56
270.538	306.56
270.77	310.56
271.002	311.56
271.234	268.56
271.466	274.56
271.698	303.56
271.93	317.56
272.162	320.56
272.394	305.56
272.626	302.56
272.858	298.56
273.09	266.56
273.322	272.56
273.553	264.56
273.785	275.56
274.017	241.56
274.249	243.56
274.481	264.56
274.713	242.56
274.945	248.56
275.176	245.56
275.408	244.56
275.64	264.56
275.872	273.56
276.104	252.56
276.335	269.56
276.567	251.56
276.799	284.56
277.031	291.56
277.262	310.56
277.494	303.56
277.726	273.56
277.957	276.56
278.189	267.56
278.421	252.56
278.652	255.56
278.884	252.56
279.115	262.56
279.347	250.56
279.579	257.56
279.81	267.56
280.042	262.56
280.273	260.56
280.505	225.56
280.736	235.56
280.968	255.56
281.199	257.56
281.431	242.56
281.662	242.56
281.894	241.56
282.125	256.56
282.356	265.56
282.588	305.56
282.819	289.56
283.051	265.56
283.282	259.56
283.513	256.56
283.745	250.56
283.976	250.56
284.207	266.56
284.439	266.56
284.67	263.56
284.901	273.56
285.132	261.56
285.364	249.56
285.595	243.56
285.826	266.56
286.057	238.56
286.288	254.56
286.52	264.56
286.751	255.56
286.982	242.56
287.213	242.56
287.444	259.56
287.675	255.56
287.906	265.56
288.138	285.56
288.369	283.56
288.6	281.56
288.831	262.56
289.062	265.56
289.293	258.56
289.524	262.56
289.755	263.56
289.986	263.56
290.217	275.56
290.448	268.56
290.679	264.56
290.91	272.56
291.141	245.56
291.371	273.56
291.602	265.56
291.833	272.56
292.064	264.56
292.295	259.56
292.526	276.56
292.757	255.56
292.987	265.56
293.218	249.56
293.449	266.56
293.68	271.56
293.91	256.56
294.141	245.56
294.372	278.56
294.603	258.56
294.833	265.56
295.064	260.56
295.295	268.56
295.525	245.56
295.756	268.56
295.987	299.56
296.217	292.56
296.448	318.56
296.679	297.56
296.909	269.56
297.14	267.56
297.37	267.56
297.601	276.56
297.831	262.56
298.062	269.56
298.292	285.56
298.523	277.56
298.753	270.56
298.984	288.56
299.214	270.56
299.445	278.56
299.675	296.56
299.905	299.56
300.136	303.56
300.366	278.56
300.597	277.56
300.827	303.56
301.057	274.56
301.288	289.56
301.518	287.56
301.748	284.56
301.979	286.56
302.209	281.56
302.439	297.56
302.669	283.56
302.9	288.56
303.13	286.56
303.36	285.56
303.59	306.56
303.82	306.56
304.051	307.56
304.281	308.56
304.511	291.56
304.741	274.56
304.971	286.56
305.201	279.56
305.431	313.56
305.661	299.56
305.891	295.56
306.121	279.56
306.352	290.56
306.582	295.56
306.812	285.56
307.042	313.56
307.272	292.56
307.502	283.56
307.731	293.56
307.961	284.56
308.191	290.56
308.421	301.56
308.651	291.56
308.881	322.56
309.111	302.56
309.341	307.56
309.571	333.56
309.8	337.56
310.03	350.56
310.26	362.56
310.49	326.56
310.72	359.56
310.949	376.56
311.179	374.56
311.409	348.56
311.639	359.56
311.868	329.56
312.098	354.56
312.328	358.56
312.557	375.56
312.787	396.56
313.017	380.56
313.246	367.56
313.476	331.56
313.706	331.56
313.935	352.56
314.165	356.56
314.394	370.56
314.624	353.56
314.853	370.56
315.083	344.56
315.312	340.56
315.542	341.56
315.771	342.56
316.001	329.56
316.23	327.56
316.46	344.56
316.689	343.56
316.919	362.56
317.148	354.56
317.377	362.56
317.607	342.56
317.836	341.56
318.065	334.56
318.295	346.56
318.524	330.56
318.753	345.56
318.983	342.56
319.212	337.56
319.441	358.56
319.67	359.56
319.9	343.56
320.129	347.56
320.358	331.56
320.587	346.56
320.816	361.56
321.046	362.56
321.275	355.56
321.504	356.56
321.733	360.56
321.962	380.56
322.191	399.56
322.42	400.56
322.649	414.56
322.878	424.56
323.108	437.56
323.337	474.56
323.566	481.56
323.795	517.56
324.024	570.56
324.253	729.56
324.482	1026.56
324.71	1595.56
324.939	2251.56
325.168	1995.56
325.397	1046.56
325.626	718.56
325.855	559.56
326.084	504.56
326.313	491.56
326.542	494.56
326.77	554.56
326.999	650.56
327.228	934.56
327.457	1390.56
327.686	1700.56
327.914	1168.56
328.143	786.56
328.372	637.56
328.6	582.56
328.829	561.56
329.058	570.56
329.287	601.56
329.515	550.56
329.744	508.56
329.972	459.56
330.201	492.56
330.43	532.56
330.658	569.56
330.887	606.56
331.115	594.56
331.344	495.56
331.572	451.56
331.801	447.56
332.03	459.56
332.258	440.56
332.486	401.56
332.715	388.56
332.943	380.56
333.172	387.56
333.4	433.56
333.629	394.56
333.857	426.56
334.085	406.56
334.314	403.56
334.542	430.56
334.771	426.56
334.999	427.56
335.227	410.56
335.455	402.56
335.684	415.56
335.912	389.56
336.14	394.56
336.369	384.56
336.597	396.56
336.825	392.56
337.053	396.56
337.281	405.56
337.51	391.56
337.738	387.56
337.966	391.56
338.194	385.56
338.422	387.56
338.65	387.56
338.878	370.56
339.106	358.56
339.334	382.56
339.562	390.56
339.79	396.56
340.018	371.56
340.246	391.56
340.474	393.56
340.702	386.56
340.93	396.56
341.158	362.56
341.386	376.56
341.614	386.56
341.842	379.56
342.07	372.56
342.298	373.56
342.526	342.56
342.754	375.56
342.981	357.56
343.209	337.56
343.437	350.56
343.665	379.56
343.893	375.56
344.12	372.56
344.348	378.56
344.576	374.56
344.804	383.56
345.031	384.56
345.259	391.56
345.487	397.56
345.714	380.56
345.942	380.56
346.17	375.56
346.397	377.56
346.625	375.56
346.853	371.56
347.08	364.56
347.308	366.56
347.535	376.56
347.763	399.56
347.99	380.56
348.218	404.56
348.445	406.56
348.673	377.56
348.9	356.56
349.128	371.56
349.355	347.56
349.583	352.56
349.81	366.56
350.037	355.56
350.265	351.56
350.492	358.56
350.72	368.56
350.947	371.56
351.174	370.56
351.402	391.56
351.629	377.56
351.856	386.56
352.083	382.56
352.311	382.56
352.538	401.56
352.765	407.56
352.992	369.56
353.22	385.56
353.447	376.56
353.674	366.56
353.901	356.56
354.128	327.56
354.355	346.56
354.583	360.56
354.81	340.56
355.037	341.56
355.264	343.56
355.491	363.56
355.718	323.56
355.945	329.56
356.172	328.56
356.399	322.56
356.626	318.56
356.853	316.56
357.08	339.56
357.307	339.56
357.534	335.56
357.761	341.56
357.988	335.56
358.215	336.56
358.441	322.56
358.668	343.56
358.895	338.56
359.122	355.56
359.349	355.56
359.576	377.56
359.802	420.56
360.029	424.56
360.256	453.56
360.483	430.56
360.709	391.56
360.936	364.56
361.163	363.56
361.39	386.56
361.616	378.56
361.843	371.56
362.07	379.56
362.296	384.56
362.523	377.56
362.749	368.56
362.976	370.56
363.203	348.56
363.429	333.56
363.656	369.56
363.882	355.56
364.109	347.56
364.335	358.56
364.562	370.56
364.788	364.56
365.015	360.56
365.241	336.56
365.468	331.56
365.694	349.56
365.92	355.56
366.147	365.56
366.373	342.56
366.599	350.56
366.826	342.56
367.052	340.56
367.278	335.56
367.505	331.56
367.731	347.56
367.957	354.56
368.184	332.56
368.41	349.56
368.636	347.56
368.862	362.56
369.089	363.56
369.315	350.56
369.541	338.56
369.767	328.56
369.993	318.56
370.219	344.56
370.445	329.56
370.672	340.56
370.898	338.56
371.124	347.56
371.35	321.56
371.576	338.56
371.802	336.56
372.028	343.56
372.254	324.56
372.48	330.56
372.706	326.56
372.932	344.56
373.158	326.56
373.384	323.56
373.61	316.56
373.835	330.56
374.061	333.56
374.287	348.56
374.513	329.56
374.739	343.56
374.965	344.56
375.191	351.56
375.416	338.56
375.642	334.56
375.868	346.56
376.094	326.56
376.319	341.56
376.545	320.56
376.771	342.56
376.997	357.56
377.222	334.56
377.448	328.56
377.674	339.56
377.899	318.56
378.125	316.56
378.35	324.56
378.576	358.56
378.802	345.56
379.027	345.56
379.253	326.56
379.478	332.56
379.704	327.56
379.929	332.56
380.155	348.56
380.38	344.56
380.606	345.56
380.831	337.56
381.057	340.56
381.282	326.56
381.507	353.56
381.733	329.56
381.958	345.56
382.184	328.56
382.409	336.56
382.634	336.56
382.86	340.56
383.085	347.56
383.31	333.56
383.535	336.56
383.761	350.56
383.986	344.56
384.211	337.56
384.436	327.56
384.662	343.56
384.887	338.56
385.112	343.56
385.337	344.56
385.562	355.56
385.787	363.56
386.013	369.56
386.238	366.56
386.463	369.56
386.688	360.56
386.913	360.56
387.138	363.56
387.363	362.56
387.588	362.56
387.813	354.56
388.038	358.56
388.263	349.56
388.488	376.56
388.713	370.56
388.938	366.56
389.163	358.56
389.387	350.56
389.612	336.56
389.837	353.56
390.062	356.56
390.287	366.56
390.512	340.56
390.736	370.56
390.961	348.56
391.186	344.56
391.411	361.56
391.636	345.56
391.86	357.56
392.085	354.56
392.31	346.56
392.534	355.56
392.759	352.56
392.984	354.56
393.208	364.56
393.433	362.56
393.658	347.56
393.882	353.56
394.107	350.56
394.331	348.56
394.556	350.56
394.78	339.56
395.005	341.56
395.229	342.56
395.454	356.56
395.678	374.56
395.903	366.56
396.127	396.56
396.352	390.56
396.576	378.56
396.801	336.56
397.025	359.56
397.249	374.56
397.474	372.56
397.698	360.56
397.922	374.56
398.147	384.56
398.371	408.56
398.595	389.56
398.82	376.56
399.044	377.56
399.268	403.56
399.492	404.56
399.717	435.56
399.941	463.56
400.165	479.56
400.389	490.56
400.613	435.56
400.837	398.56
401.062	423.56
401.286	407.56
401.51	403.56
401.734	383.56
401.958	395.56
402.182	407.56
402.406	411.56
402.63	405.56
402.854	419.56
403.078	408.56
403.302	392.56
403.526	418.56
403.75	400.56
403.974	409.56
404.198	394.56
404.422	408.56
404.645	430.56
404.869	434.56
405.093	427.56
405.317	466.56
405.541	478.56
405.765	439.56
405.988	441.56
406.212	445.56
406.436	463.56
406.66	503.56
406.883	456.56
407.107	482.56
407.331	519.56
407.555	584.56
407.778	555.56
408.002	536.56
408.226	474.56
408.449	470.56
408.673	487.56
408.896	490.56
409.12	518.56
409.344	486.56
409.567	446.56
409.791	452.56
410.014	394.56
410.238	404.56
410.461	441.56
410.685	416.56
410.908	426.56
411.132	454.56
411.355	488.56
411.578	478.56
411.802	416.56
412.025	412.56
412.249	406.56
412.472	409.56
412.695	426.56
412.919	438.56
413.142	393.56
413.365	391.56
413.589	411.56
413.812	390.56
414.035	390.56
414.258	375.56
414.482	392.56
414.705	376.56
414.928	374.56
415.151	379.56
415.374	392.56
415.597	378.56
415.821	385.56
416.044	379.56
416.267	385.56
416.49	402.56
416.713	392.56
416.936	389.56
417.159	391.56
417.382	384.56
417.605	377.56
417.828	393.56
418.051	431.56
418.274	420.56
418.497	416.56
418.72	390.56
418.943	375.56
419.166	404.56
419.389	429.56
419.611	408.56
419.834	407.56
420.057	423.56
420.28	434.56
420.503	405.56
420.726	400.56
420.948	442.56
421.171	483.56
421.394	481.56
421.617	436.56
421.839	431.56
422.062	408.56
422.285	434.56
422.507	472.56
422.73	558.56
422.953	543.56
423.175	471.56
423.398	443.56
423.621	439.56
423.843	448.56
424.066	455.56
424.288	473.56
424.511	469.56
424.733	532.56
424.956	603.56
425.178	592.56
425.401	548.56
425.623	617.56
425.846	522.56
426.068	506.56
426.291	485.56
426.513	482.56
426.735	486.56
426.958	510.56
427.18	582.56
427.402	688.56
427.625	789.56
427.847	714.56
428.069	604.56
428.292	531.56
428.514	475.56
428.736	462.56
428.958	440.56
429.181	445.56
429.403	441.56
429.625	439.56
429.847	464.56
430.069	515.56
430.292	536.56
430.514	460.56
430.736	432.56
430.958	408.56
431.18	400.56
431.402	403.56
431.624	431.56
431.846	407.56
432.068	396.56
432.29	392.56
432.512	404.56
432.734	406.56
432.956	390.56
433.178	425.56
433.4	437.56
433.622	397.56
433.844	410.56
434.066	410.56
434.287	398.56
434.509	401.56
434.731	400.56
434.953	386.56
435.175	407.56
435.397	452.56
435.618	454.56
435.84	515.56
436.062	597.56
436.284	646.56
436.505	565.56
436.727	491.56
436.949	464.56
437.17	448.56
437.392	433.56
437.614	437.56
437.835	491.56
438.057	586.56
438.278	658.56
438.5	682.56
438.721	745.56
438.943	662.56
439.165	543.56
439.386	522.56
439.608	508.56
439.829	483.56
440.05	521.56
440.272	548.56
440.493	520.56
440.715	459.56
440.936	440.56
441.158	444.56
441.379	438.56
441.6	467.56
441.822	478.56
442.043	524.56
442.264	578.56
442.486	607.56
442.707	541.56
442.928	495.56
443.149	483.56
443.371	523.56
443.592	535.56
443.813	643.56
444.034	682.56
444.255	578.56
444.476	494.56
444.698	448.56
444.919	459.56
445.14	558.56
445.361	539.56
445.582	500.56
445.803	573.56
446.024	652.56
446.245	682.56
446.466	608.56
446.687	538.56
446.908	470.56
447.129	469.56
447.35	427.56
447.571	450.56
447.792	430.56
448.013	436.56
448.234	438.56
448.455	504.56
448.675	625.56
448.896	691.56
449.117	611.56
449.338	580.56
449.559	690.56
449.779	740.56
450	611.56
450.221	491.56
450.442	468.56
450.662	446.56
450.883	468.56
451.104	469.56
451.324	449.56
451.545	430.56
451.766	409.56
451.986	380.56
452.207	410.56
452.428	379.56
452.648	389.56
452.869	388.56
453.089	414.56
453.31	436.56
453.53	400.56
453.751	407.56
453.971	409.56
454.192	409.56
454.412	420.56
454.633	408.56
454.853	403.56
455.073	391.56
455.294	414.56
455.514	467.56
455.734	466.56
455.955	401.56
456.175	391.56
456.395	352.56
456.616	362.56
456.836	369.56
457.056	345.56
457.276	351.56
457.497	363.56
457.717	355.56
457.937	378.56
458.157	386.56
458.377	379.56
458.598	406.56
458.818	455.56
459.038	555.56
459.258	563.56
459.478	463.56
459.698	399.56
459.918	415.56
460.138	392.56
460.358	382.56
460.578	389.56
460.798	404.56
461.018	409.56
461.238	385.56
461.458	395.56
461.678	383.56
461.898	391.56
462.118	382.56
462.338	395.56
462.558	384.56
462.777	394.56
462.997	405.56
463.217	413.56
463.437	403.56
463.657	434.56
463.876	420.56
464.096	412.56
464.316	403.56
464.536	411.56
464.755	417.56
464.975	422.56
465.195	498.56
465.414	597.56
465.634	489.56
465.854	437.56
466.073	424.56
466.293	406.56
466.512	404.56
466.732	409.56
466.951	398.56
467.171	378.56
467.391	388.56
467.61	403.56
467.829	408.56
468.049	412.56
468.268	385.56
468.488	378.56
468.707	393.56
468.927	366.56
469.146	384.56
469.365	377.56
469.585	392.56
469.804	400.56
470.023	417.56
470.243	390.56
470.462	404.56
470.681	436.56
470.901	440.56
471.12	404.56
471.339	391.56
471.558	393.56
471.777	411.56
471.997	379.56
472.216	382.56
472.435	406.56
472.654	398.56
472.873	390.56
473.092	378.56
473.311	377.56
473.53	403.56
473.749	390.56
473.968	443.56
474.187	544.56
474.406	578.56
474.625	473.56
474.844	427.56
475.063	406.56
475.282	389.56
475.501	405.56
475.72	416.56
475.939	423.56
476.158	425.56
476.377	417.56
476.596	404.56
476.814	424.56
477.033	419.56
477.252	431.56
477.471	443.56
477.69	432.56
477.908	416.56
478.127	417.56
478.346	433.56
478.564	460.56
478.783	421.56
479.002	436.56
479.22	454.56
479.439	466.56
479.658	479.56
479.876	455.56
480.095	488.56
480.313	501.56
480.532	501.56
480.751	481.56
480.969	510.56
481.188	524.56
481.406	524.56
481.624	490.56
481.843	475.56
482.061	472.56
482.28	473.56
482.498	477.56
482.717	448.56
482.935	452.56
483.153	477.56
483.372	461.56
483.59	471.56
483.808	478.56
484.027	449.56
484.245	445.56
484.463	463.56
484.681	470.56
484.9	462.56
485.118	457.56
485.336	481.56
485.554	483.56
485.772	486.56
485.99	507.56
486.209	491.56
486.427	483.56
486.645	510.56
486.863	549.56
487.081	524.56
487.299	490.56
487.517	520.56
487.735	512.56
487.953	524.56
488.171	521.56
488.389	501.56
488.607	496.56
488.825	514.56
489.043	512.56
489.261	524.56
489.479	501.56
489.696	514.56
489.914	517.56
490.132	544.56
490.35	537.56
490.568	538.56
490.786	584.56
491.003	550.56
491.221	566.56
491.439	562.56
491.657	568.56
491.874	594.56
492.092	583.56
492.31	590.56
492.527	574.56
492.745	582.56
492.963	573.56
493.18	598.56
493.398	603.56
493.615	617.56
493.833	577.56
494.05	622.56
494.268	607.56
494.485	609.56
494.703	595.56
494.92	602.56
495.138	614.56
495.355	625.56
495.573	619.56
495.79	614.56
496.008	624.56
496.225	628.56
496.442	604.56
496.66	606.56
496.877	597.56
497.094	597.56
497.312	615.56
497.529	613.56
497.746	626.56
497.963	631.56
498.181	664.56
498.398	667.56
498.615	687.56
498.832	649.56
499.049	650.56
499.267	670.56
499.484	678.56
499.701	697.56
499.918	698.56
500.135	744.56
500.352	732.56
500.569	723.56
500.786	744.56
501.003	721.56
501.22	724.56
501.437	720.56
501.654	720.56
501.871	725.56
