Data from 1986.PennyLincolnUp.Lamp.En5.5.200Scan.071819.P2_HRD10591_17-10-11-974.txt Node
Date: Thu Jul 18 17:10:11 EDT 2019
User: cochatt
Spectrometer: HR+D1059
Trigger mode: 1
Integration Time (sec): 1.000000E-1
Scans to average: 1
Electric dark correction enabled: true
Nonlinearity correction enabled: false
Boxcar width: 0
XAxis mode: Wavelengths
Number of Pixels in Spectrum: 2048
>>>>>Begin Spectral Data<<<<<
223.165	-4.25
223.4	-4.25
223.635	-4.25
223.869	-1.25
224.104	-10.25
224.338	-15.25
224.573	-29.25
224.808	-17.25
225.042	-6.25
225.277	-5.25
225.511	-4.25
225.746	-4.25
225.98	12.75
226.215	15.75
226.449	18.75
226.683	6.75
226.918	11.75
227.152	31.75
227.387	24.75
227.621	27.75
227.856	45.75
228.09	31.75
228.324	42.75
228.559	51.75
228.793	65.75
229.027	103.75
229.262	98.75
229.496	103.75
229.73	132.75
229.964	139.75
230.199	127.75
230.433	113.75
230.667	116.75
230.901	110.75
231.136	110.75
231.37	108.75
231.604	107.75
231.838	99.75
232.072	113.75
232.306	110.75
232.541	110.75
232.775	98.75
233.009	113.75
233.243	104.75
233.477	109.75
233.711	106.75
233.945	105.75
234.179	108.75
234.413	97.75
234.647	106.75
234.881	119.75
235.115	104.75
235.349	115.75
235.583	129.75
235.817	114.75
236.051	110.75
236.285	118.75
236.519	122.75
236.753	117.75
236.987	131.75
237.221	155.75
237.455	220.75
237.689	170.75
237.922	166.75
238.156	144.75
238.39	132.75
238.624	121.75
238.858	110.75
239.091	110.75
239.325	123.75
239.559	122.75
239.793	125.75
240.027	129.75
240.26	140.75
240.494	139.75
240.728	139.75
240.961	139.75
241.195	143.75
241.429	123.75
241.662	138.75
241.896	133.75
242.13	132.75
242.363	127.75
242.597	124.75
242.83	139.75
243.064	136.75
243.298	133.75
243.531	136.75
243.765	133.75
243.998	134.75
244.232	135.75
244.465	129.75
244.699	135.75
244.932	126.75
245.166	134.75
245.399	135.75
245.633	112.75
245.866	133.75
246.099	137.75
246.333	142.75
246.566	145.75
246.8	143.75
247.033	133.75
247.266	154.75
247.5	150.75
247.733	159.75
247.966	167.75
248.2	168.75
248.433	175.75
248.666	150.75
248.899	167.75
249.133	183.75
249.366	200.75
249.599	190.75
249.832	176.75
250.066	184.75
250.299	183.75
250.532	177.75
250.765	184.75
250.998	217.75
251.231	226.75
251.465	208.75
251.698	203.75
251.931	200.75
252.164	197.75
252.397	184.75
252.63	185.75
252.863	196.75
253.096	222.75
253.329	214.75
253.562	224.75
253.795	210.75
254.028	204.75
254.261	212.75
254.494	227.75
254.727	254.75
254.96	262.75
255.193	266.75
255.426	244.75
255.659	208.75
255.892	227.75
256.124	223.75
256.357	218.75
256.59	194.75
256.823	203.75
257.056	189.75
257.289	200.75
257.521	198.75
257.754	183.75
257.987	212.75
258.22	198.75
258.452	204.75
258.685	195.75
258.918	196.75
259.151	216.75
259.383	212.75
259.616	204.75
259.849	210.75
260.081	200.75
260.314	242.75
260.547	245.75
260.779	243.75
261.012	231.75
261.244	211.75
261.477	210.75
261.71	222.75
261.942	222.75
262.175	213.75
262.407	226.75
262.64	190.75
262.872	193.75
263.105	207.75
263.337	210.75
263.57	218.75
263.802	207.75
264.035	202.75
264.267	195.75
264.499	185.75
264.732	209.75
264.964	196.75
265.197	206.75
265.429	198.75
265.661	200.75
265.894	195.75
266.126	194.75
266.358	202.75
266.591	209.75
266.823	190.75
267.055	210.75
267.287	215.75
267.52	211.75
267.752	204.75
267.984	204.75
268.216	212.75
268.448	204.75
268.681	209.75
268.913	234.75
269.145	236.75
269.377	268.75
269.609	248.75
269.841	263.75
270.073	264.75
270.306	277.75
270.538	298.75
270.77	303.75
271.002	294.75
271.234	275.75
271.466	290.75
271.698	306.75
271.93	300.75
272.162	310.75
272.394	316.75
272.626	304.75
272.858	280.75
273.09	279.75
273.322	263.75
273.553	247.75
273.785	257.75
274.017	258.75
274.249	243.75
274.481	271.75
274.713	250.75
274.945	240.75
275.176	243.75
275.408	218.75
275.64	243.75
275.872	254.75
276.104	242.75
276.335	255.75
276.567	254.75
276.799	260.75
277.031	267.75
277.262	309.75
277.494	300.75
277.726	276.75
277.957	280.75
278.189	273.75
278.421	261.75
278.652	266.75
278.884	241.75
279.115	253.75
279.347	255.75
279.579	266.75
279.81	257.75
280.042	220.75
280.273	244.75
280.505	243.75
280.736	256.75
280.968	231.75
281.199	236.75
281.431	240.75
281.662	236.75
281.894	240.75
282.125	235.75
282.356	267.75
282.588	272.75
282.819	281.75
283.051	268.75
283.282	245.75
283.513	253.75
283.745	242.75
283.976	264.75
284.207	257.75
284.439	254.75
284.67	250.75
284.901	262.75
285.132	231.75
285.364	236.75
285.595	244.75
285.826	256.75
286.057	258.75
286.288	238.75
286.52	256.75
286.751	250.75
286.982	241.75
287.213	246.75
287.444	259.75
287.675	248.75
287.906	264.75
288.138	262.75
288.369	263.75
288.6	258.75
288.831	264.75
289.062	274.75
289.293	258.75
289.524	250.75
289.755	260.75
289.986	245.75
290.217	274.75
290.448	240.75
290.679	267.75
290.91	257.75
291.141	243.75
291.371	260.75
291.602	244.75
291.833	250.75
292.064	266.75
292.295	263.75
292.526	270.75
292.757	259.75
292.987	267.75
293.218	257.75
293.449	255.75
293.68	256.75
293.91	257.75
294.141	263.75
294.372	254.75
294.603	258.75
294.833	257.75
295.064	269.75
295.295	251.75
295.525	265.75
295.756	265.75
295.987	256.75
296.217	286.75
296.448	300.75
296.679	260.75
296.909	261.75
297.14	262.75
297.37	273.75
297.601	254.75
297.831	258.75
298.062	259.75
298.292	275.75
298.523	271.75
298.753	281.75
298.984	281.75
299.214	259.75
299.445	277.75
299.675	282.75
299.905	290.75
300.136	293.75
300.366	262.75
300.597	277.75
300.827	265.75
301.057	283.75
301.288	283.75
301.518	282.75
301.748	276.75
301.979	287.75
302.209	280.75
302.439	290.75
302.669	270.75
302.9	288.75
303.13	306.75
303.36	291.75
303.59	293.75
303.82	303.75
304.051	306.75
304.281	262.75
304.511	298.75
304.741	285.75
304.971	275.75
305.201	283.75
305.431	285.75
305.661	284.75
305.891	297.75
306.121	284.75
306.352	292.75
306.582	313.75
306.812	288.75
307.042	275.75
307.272	290.75
307.502	289.75
307.731	295.75
307.961	299.75
308.191	294.75
308.421	271.75
308.651	293.75
308.881	304.75
309.111	314.75
309.341	309.75
309.571	326.75
309.8	328.75
310.03	326.75
310.26	328.75
310.49	343.75
310.72	346.75
310.949	365.75
311.179	366.75
311.409	344.75
311.639	342.75
311.868	341.75
312.098	359.75
312.328	352.75
312.557	374.75
312.787	367.75
313.017	377.75
313.246	336.75
313.476	343.75
313.706	332.75
313.935	359.75
314.165	346.75
314.394	339.75
314.624	364.75
314.853	358.75
315.083	344.75
315.312	328.75
315.542	329.75
315.771	317.75
316.001	320.75
316.23	324.75
316.46	315.75
316.689	317.75
316.919	340.75
317.148	354.75
317.377	359.75
317.607	374.75
317.836	353.75
318.065	322.75
318.295	326.75
318.524	313.75
318.753	312.75
318.983	330.75
319.212	340.75
319.441	350.75
319.67	353.75
319.9	354.75
320.129	343.75
320.358	320.75
320.587	331.75
320.816	347.75
321.046	353.75
321.275	356.75
321.504	358.75
321.733	377.75
321.962	366.75
322.191	388.75
322.42	378.75
322.649	399.75
322.878	402.75
323.108	454.75
323.337	463.75
323.566	492.75
323.795	530.75
324.024	563.75
324.253	699.75
324.482	984.75
324.71	1483.75
324.939	2112.75
325.168	1899.75
325.397	1015.75
325.626	672.75
325.855	538.75
326.084	520.75
326.313	473.75
326.542	497.75
326.77	542.75
326.999	643.75
327.228	861.75
327.457	1319.75
327.686	1632.75
327.914	1124.75
328.143	732.75
328.372	597.75
328.6	587.75
328.829	512.75
329.058	572.75
329.287	552.75
329.515	536.75
329.744	504.75
329.972	460.75
330.201	504.75
330.43	503.75
330.658	522.75
330.887	562.75
331.115	582.75
331.344	497.75
331.572	450.75
331.801	438.75
332.03	438.75
332.258	415.75
332.486	420.75
332.715	392.75
332.943	384.75
333.172	382.75
333.4	406.75
333.629	398.75
333.857	416.75
334.085	392.75
334.314	401.75
334.542	411.75
334.771	432.75
334.999	416.75
335.227	393.75
335.455	378.75
335.684	381.75
335.912	377.75
336.14	402.75
336.369	397.75
336.597	380.75
336.825	384.75
337.053	371.75
337.281	375.75
337.51	384.75
337.738	380.75
337.966	385.75
338.194	361.75
338.422	388.75
338.65	371.75
338.878	377.75
339.106	355.75
339.334	370.75
339.562	363.75
339.79	363.75
340.018	371.75
340.246	376.75
340.474	382.75
340.702	372.75
340.93	356.75
341.158	372.75
341.386	370.75
341.614	357.75
341.842	360.75
342.07	362.75
342.298	365.75
342.526	358.75
342.754	354.75
342.981	341.75
343.209	367.75
343.437	356.75
343.665	355.75
343.893	379.75
344.12	372.75
344.348	369.75
344.576	367.75
344.804	385.75
345.031	370.75
345.259	393.75
345.487	380.75
345.714	377.75
345.942	367.75
346.17	360.75
346.397	364.75
346.625	354.75
346.853	364.75
347.08	359.75
347.308	379.75
347.535	360.75
347.763	388.75
347.99	380.75
348.218	381.75
348.445	380.75
348.673	382.75
348.9	364.75
349.128	359.75
349.355	356.75
349.583	351.75
349.81	370.75
350.037	332.75
350.265	338.75
350.492	358.75
350.72	339.75
350.947	366.75
351.174	364.75
351.402	376.75
351.629	372.75
351.856	376.75
352.083	376.75
352.311	391.75
352.538	384.75
352.765	356.75
352.992	361.75
353.22	377.75
353.447	380.75
353.674	350.75
353.901	334.75
354.128	327.75
354.355	338.75
354.583	334.75
354.81	340.75
355.037	328.75
355.264	330.75
355.491	333.75
355.718	324.75
355.945	333.75
356.172	326.75
356.399	313.75
356.626	319.75
356.853	326.75
357.08	320.75
357.307	326.75
357.534	313.75
357.761	350.75
357.988	315.75
358.215	327.75
358.441	330.75
358.668	324.75
358.895	337.75
359.122	351.75
359.349	352.75
359.576	366.75
359.802	392.75
360.029	406.75
360.256	424.75
360.483	414.75
360.709	389.75
360.936	370.75
361.163	352.75
361.39	377.75
361.616	355.75
361.843	348.75
362.07	368.75
362.296	366.75
362.523	362.75
362.749	363.75
362.976	352.75
363.203	343.75
363.429	337.75
363.656	349.75
363.882	358.75
364.109	346.75
364.335	333.75
364.562	326.75
364.788	345.75
365.015	335.75
365.241	342.75
365.468	335.75
365.694	342.75
365.92	342.75
366.147	342.75
366.373	335.75
366.599	333.75
366.826	352.75
367.052	342.75
367.278	331.75
367.505	347.75
367.731	357.75
367.957	338.75
368.184	354.75
368.41	337.75
368.636	354.75
368.862	354.75
369.089	331.75
369.315	340.75
369.541	335.75
369.767	328.75
369.993	347.75
370.219	325.75
370.445	327.75
370.672	335.75
370.898	344.75
371.124	322.75
371.35	310.75
371.576	345.75
371.802	334.75
372.028	341.75
372.254	325.75
372.48	330.75
372.706	334.75
372.932	320.75
373.158	327.75
373.384	338.75
373.61	331.75
373.835	347.75
374.061	333.75
374.287	337.75
374.513	352.75
374.739	334.75
374.965	352.75
375.191	343.75
375.416	351.75
375.642	339.75
375.868	342.75
376.094	336.75
376.319	325.75
376.545	333.75
376.771	334.75
376.997	323.75
377.222	342.75
377.448	324.75
377.674	346.75
377.899	342.75
378.125	325.75
378.35	330.75
378.576	317.75
378.802	289.75
379.027	329.75
379.253	326.75
379.478	325.75
379.704	345.75
379.929	329.75
380.155	330.75
380.38	326.75
380.606	313.75
380.831	337.75
381.057	347.75
381.282	337.75
381.507	317.75
381.733	333.75
381.958	331.75
382.184	338.75
382.409	346.75
382.634	339.75
382.86	335.75
383.085	335.75
383.31	331.75
383.535	344.75
383.761	347.75
383.986	316.75
384.211	328.75
384.436	330.75
384.662	340.75
384.887	339.75
385.112	329.75
385.337	354.75
385.562	363.75
385.787	330.75
386.013	333.75
386.238	358.75
386.463	353.75
386.688	346.75
386.913	331.75
387.138	333.75
387.363	349.75
387.588	346.75
387.813	341.75
388.038	343.75
388.263	340.75
388.488	352.75
388.713	346.75
388.938	332.75
389.163	339.75
389.387	343.75
389.612	336.75
389.837	355.75
390.062	357.75
390.287	330.75
390.512	361.75
390.736	329.75
390.961	352.75
391.186	352.75
391.411	342.75
391.636	354.75
391.86	350.75
392.085	354.75
392.31	347.75
392.534	352.75
392.759	359.75
392.984	344.75
393.208	362.75
393.433	363.75
393.658	348.75
393.882	341.75
394.107	347.75
394.331	349.75
394.556	339.75
394.78	360.75
395.005	359.75
395.229	344.75
395.454	346.75
395.678	362.75
395.903	351.75
396.127	393.75
396.352	368.75
396.576	370.75
396.801	354.75
397.025	372.75
397.249	372.75
397.474	371.75
397.698	351.75
397.922	365.75
398.147	386.75
398.371	407.75
398.595	381.75
398.82	386.75
399.044	393.75
399.268	386.75
399.492	417.75
399.717	453.75
399.941	441.75
400.165	468.75
400.389	472.75
400.613	454.75
400.837	417.75
401.062	403.75
401.286	405.75
401.51	386.75
401.734	392.75
401.958	386.75
402.182	387.75
402.406	379.75
402.63	407.75
402.854	393.75
403.078	416.75
403.302	401.75
403.526	404.75
403.75	392.75
403.974	396.75
404.198	402.75
404.422	401.75
404.645	397.75
404.869	396.75
405.093	426.75
405.317	442.75
405.541	480.75
405.765	427.75
405.988	448.75
406.212	448.75
406.436	449.75
406.66	486.75
406.883	435.75
407.107	467.75
407.331	505.75
407.555	553.75
407.778	554.75
408.002	507.75
408.226	454.75
408.449	451.75
408.673	464.75
408.896	458.75
409.12	504.75
409.344	497.75
409.567	423.75
409.791	424.75
410.014	411.75
410.238	400.75
410.461	403.75
410.685	408.75
410.908	419.75
411.132	447.75
411.355	476.75
411.578	459.75
411.802	426.75
412.025	411.75
412.249	394.75
412.472	427.75
412.695	432.75
412.919	401.75
413.142	418.75
413.365	389.75
413.589	379.75
413.812	384.75
414.035	374.75
414.258	375.75
414.482	393.75
414.705	382.75
414.928	386.75
415.151	378.75
415.374	387.75
415.597	374.75
415.821	384.75
416.044	377.75
416.267	393.75
416.49	403.75
416.713	378.75
416.936	386.75
417.159	387.75
417.382	390.75
417.605	403.75
417.828	393.75
418.051	414.75
418.274	411.75
418.497	376.75
418.72	395.75
418.943	372.75
419.166	387.75
419.389	422.75
419.611	406.75
419.834	418.75
420.057	395.75
420.28	424.75
420.503	408.75
420.726	416.75
420.948	422.75
421.171	455.75
421.394	479.75
421.617	435.75
421.839	402.75
422.062	416.75
422.285	424.75
422.507	488.75
422.73	552.75
422.953	517.75
423.175	467.75
423.398	455.75
423.621	425.75
423.843	456.75
424.066	462.75
424.288	433.75
424.511	477.75
424.733	528.75
424.956	595.75
425.178	555.75
425.401	568.75
425.623	582.75
425.846	507.75
426.068	441.75
426.291	460.75
426.513	464.75
426.735	462.75
426.958	510.75
427.18	564.75
427.402	672.75
427.625	746.75
427.847	672.75
428.069	571.75
428.292	506.75
428.514	476.75
428.736	446.75
428.958	442.75
429.181	438.75
429.403	409.75
429.625	436.75
429.847	478.75
430.069	526.75
430.292	510.75
430.514	442.75
430.736	420.75
430.958	426.75
431.18	400.75
431.402	397.75
431.624	403.75
431.846	416.75
432.068	380.75
432.29	408.75
432.512	402.75
432.734	400.75
432.956	397.75
433.178	418.75
433.4	413.75
433.622	389.75
433.844	381.75
434.066	382.75
434.287	393.75
434.509	406.75
434.731	401.75
434.953	405.75
435.175	420.75
435.397	430.75
435.618	471.75
435.84	522.75
436.062	604.75
436.284	634.75
436.505	535.75
436.727	474.75
436.949	450.75
437.17	429.75
437.392	433.75
437.614	438.75
437.835	473.75
438.057	555.75
438.278	656.75
438.5	648.75
438.721	708.75
438.943	679.75
439.165	538.75
439.386	490.75
439.608	487.75
439.829	476.75
440.05	516.75
440.272	548.75
440.493	496.75
440.715	438.75
440.936	450.75
441.158	410.75
441.379	423.75
441.6	425.75
441.822	457.75
442.043	516.75
442.264	584.75
442.486	608.75
442.707	536.75
442.928	482.75
443.149	478.75
443.371	517.75
443.592	564.75
443.813	640.75
444.034	646.75
444.255	554.75
444.476	494.75
444.698	452.75
444.919	458.75
445.14	540.75
445.361	522.75
445.582	494.75
445.803	562.75
446.024	629.75
446.245	652.75
446.466	581.75
446.687	526.75
446.908	478.75
447.129	466.75
447.35	436.75
447.571	439.75
447.792	398.75
448.013	432.75
448.234	456.75
448.455	482.75
448.675	619.75
448.896	704.75
449.117	622.75
449.338	555.75
449.559	652.75
449.779	724.75
450	582.75
450.221	482.75
450.442	458.75
450.662	439.75
450.883	450.75
451.104	447.75
451.324	439.75
451.545	415.75
451.766	372.75
451.986	383.75
452.207	396.75
452.428	386.75
452.648	398.75
452.869	404.75
453.089	404.75
453.31	409.75
453.53	378.75
453.751	363.75
453.971	402.75
454.192	432.75
454.412	396.75
454.633	383.75
454.853	370.75
455.073	394.75
455.294	406.75
455.514	468.75
455.734	451.75
455.955	385.75
456.175	370.75
456.395	355.75
456.616	349.75
456.836	336.75
457.056	352.75
457.276	347.75
457.497	370.75
457.717	363.75
457.937	357.75
458.157	362.75
458.377	364.75
458.598	374.75
458.818	440.75
459.038	539.75
459.258	544.75
459.478	442.75
459.698	402.75
459.918	378.75
460.138	381.75
460.358	397.75
460.578	367.75
460.798	373.75
461.018	384.75
461.238	389.75
461.458	384.75
461.678	386.75
461.898	392.75
462.118	378.75
462.338	383.75
462.558	374.75
462.777	395.75
462.997	390.75
463.217	383.75
463.437	420.75
463.657	398.75
463.876	394.75
464.096	394.75
464.316	392.75
464.536	401.75
464.755	409.75
464.975	424.75
465.195	472.75
465.414	582.75
465.634	494.75
465.854	416.75
466.073	409.75
466.293	397.75
466.512	394.75
466.732	398.75
466.951	380.75
467.171	376.75
467.391	379.75
467.61	400.75
467.829	384.75
468.049	388.75
468.268	378.75
468.488	388.75
468.707	367.75
468.927	364.75
469.146	373.75
469.365	377.75
469.585	367.75
469.804	396.75
470.023	382.75
470.243	381.75
470.462	395.75
470.681	393.75
470.901	427.75
471.12	387.75
471.339	386.75
471.558	389.75
471.777	388.75
471.997	361.75
472.216	380.75
472.435	384.75
472.654	384.75
472.873	368.75
473.092	387.75
473.311	385.75
473.53	388.75
473.749	395.75
473.968	423.75
474.187	552.75
474.406	550.75
474.625	468.75
474.844	414.75
475.063	395.75
475.282	390.75
475.501	383.75
475.72	406.75
475.939	390.75
476.158	411.75
476.377	410.75
476.596	408.75
476.814	390.75
477.033	412.75
477.252	426.75
477.471	415.75
477.69	422.75
477.908	427.75
478.127	424.75
478.346	417.75
478.564	406.75
478.783	417.75
479.002	415.75
479.22	444.75
479.439	453.75
479.658	466.75
479.876	460.75
480.095	480.75
480.313	491.75
480.532	474.75
480.751	481.75
480.969	479.75
481.188	472.75
481.406	510.75
481.624	484.75
481.843	445.75
482.061	469.75
482.28	463.75
482.498	435.75
482.717	436.75
482.935	434.75
483.153	449.75
483.372	469.75
483.59	456.75
483.808	456.75
484.027	455.75
484.245	450.75
484.463	470.75
484.681	477.75
484.9	468.75
485.118	471.75
485.336	444.75
485.554	475.75
485.772	475.75
485.99	461.75
486.209	486.75
486.427	489.75
486.645	488.75
486.863	512.75
487.081	490.75
487.299	508.75
487.517	478.75
487.735	514.75
487.953	504.75
488.171	498.75
488.389	479.75
488.607	502.75
488.825	481.75
489.043	474.75
489.261	496.75
489.479	489.75
489.696	487.75
489.914	499.75
490.132	510.75
490.35	517.75
490.568	553.75
490.786	541.75
491.003	527.75
491.221	560.75
491.439	563.75
491.657	546.75
491.874	567.75
492.092	574.75
492.31	563.75
492.527	576.75
492.745	572.75
492.963	565.75
493.18	570.75
493.398	594.75
493.615	575.75
493.833	607.75
494.05	588.75
494.268	584.75
494.485	594.75
494.703	589.75
494.92	590.75
495.138	587.75
495.355	625.75
495.573	612.75
495.79	568.75
496.008	596.75
496.225	594.75
496.442	608.75
496.66	569.75
496.877	580.75
497.094	619.75
497.312	617.75
497.529	618.75
497.746	619.75
497.963	627.75
498.181	619.75
498.398	614.75
498.615	642.75
498.832	634.75
499.049	646.75
499.267	667.75
499.484	660.75
499.701	675.75
499.918	701.75
500.135	707.75
500.352	723.75
500.569	706.75
500.786	734.75
501.003	752.75
501.22	728.75
501.437	707.75
501.654	715.75
501.871	693.75
502.088	706.75
