Data from 1986.PennyLincolnUp.Lamp.En5.5.200Scan.071819.P2_HRD10591_17-10-07-975.txt Node
Date: Thu Jul 18 17:10:07 EDT 2019
User: cochatt
Spectrometer: HR+D1059
Trigger mode: 1
Integration Time (sec): 1.000000E-1
Scans to average: 1
Electric dark correction enabled: true
Nonlinearity correction enabled: false
Boxcar width: 0
XAxis mode: Wavelengths
Number of Pixels in Spectrum: 2048
>>>>>Begin Spectral Data<<<<<
223.165	-20.56
223.4	-20.56
223.635	-20.56
223.869	-17.56
224.104	-11.56
224.338	-15.56
224.573	-13.56
224.808	-13.56
225.042	-2.56
225.277	-0.56
225.511	-7.56
225.746	9.44
225.98	10.44
226.215	15.44
226.449	9.44
226.683	17.44
226.918	14.44
227.152	26.44
227.387	37.44
227.621	51.44
227.856	54.44
228.09	40.44
228.324	74.44
228.559	57.44
228.793	77.44
229.027	102.44
229.262	122.44
229.496	130.44
229.73	131.44
229.964	144.44
230.199	140.44
230.433	118.44
230.667	118.44
230.901	114.44
231.136	114.44
231.37	118.44
231.604	123.44
231.838	108.44
232.072	110.44
232.306	113.44
232.541	106.44
232.775	105.44
233.009	103.44
233.243	126.44
233.477	109.44
233.711	106.44
233.945	114.44
234.179	107.44
234.413	127.44
234.647	109.44
234.881	118.44
235.115	122.44
235.349	127.44
235.583	131.44
235.817	123.44
236.051	138.44
236.285	146.44
236.519	120.44
236.753	127.44
236.987	130.44
237.221	194.44
237.455	236.44
237.689	180.44
237.922	148.44
238.156	147.44
238.39	133.44
238.624	132.44
238.858	128.44
239.091	136.44
239.325	127.44
239.559	122.44
239.793	132.44
240.027	130.44
240.26	141.44
240.494	153.44
240.728	148.44
240.961	142.44
241.195	152.44
241.429	144.44
241.662	142.44
241.896	127.44
242.13	142.44
242.363	145.44
242.597	138.44
242.83	131.44
243.064	144.44
243.298	143.44
243.531	144.44
243.765	128.44
243.998	145.44
244.232	141.44
244.465	143.44
244.699	151.44
244.932	152.44
245.166	157.44
245.399	152.44
245.633	144.44
245.866	138.44
246.099	142.44
246.333	155.44
246.566	146.44
246.8	155.44
247.033	149.44
247.266	158.44
247.5	172.44
247.733	179.44
247.966	166.44
248.2	184.44
248.433	165.44
248.666	176.44
248.899	195.44
249.133	198.44
249.366	199.44
249.599	202.44
249.832	195.44
250.066	187.44
250.299	205.44
250.532	199.44
250.765	215.44
250.998	210.44
251.231	230.44
251.465	220.44
251.698	205.44
251.931	201.44
252.164	212.44
252.397	202.44
252.63	192.44
252.863	214.44
253.096	216.44
253.329	237.44
253.562	235.44
253.795	224.44
254.028	227.44
254.261	212.44
254.494	220.44
254.727	268.44
254.96	295.44
255.193	289.44
255.426	262.44
255.659	253.44
255.892	226.44
256.124	209.44
256.357	220.44
256.59	233.44
256.823	210.44
257.056	229.44
257.289	214.44
257.521	209.44
257.754	208.44
257.987	206.44
258.22	222.44
258.452	217.44
258.685	220.44
258.918	210.44
259.151	213.44
259.383	221.44
259.616	227.44
259.849	219.44
260.081	238.44
260.314	251.44
260.547	267.44
260.779	264.44
261.012	239.44
261.244	227.44
261.477	217.44
261.71	227.44
261.942	226.44
262.175	242.44
262.407	230.44
262.64	226.44
262.872	207.44
263.105	218.44
263.337	218.44
263.57	219.44
263.802	204.44
264.035	221.44
264.267	209.44
264.499	216.44
264.732	223.44
264.964	209.44
265.197	205.44
265.429	216.44
265.661	208.44
265.894	198.44
266.126	194.44
266.358	219.44
266.591	206.44
266.823	234.44
267.055	234.44
267.287	219.44
267.52	230.44
267.752	222.44
267.984	226.44
268.216	228.44
268.448	223.44
268.681	228.44
268.913	250.44
269.145	270.44
269.377	272.44
269.609	270.44
269.841	259.44
270.073	272.44
270.306	276.44
270.538	319.44
270.77	316.44
271.002	297.44
271.234	294.44
271.466	306.44
271.698	312.44
271.93	340.44
272.162	336.44
272.394	333.44
272.626	297.44
272.858	304.44
273.09	290.44
273.322	272.44
273.553	267.44
273.785	271.44
274.017	256.44
274.249	249.44
274.481	251.44
274.713	253.44
274.945	274.44
275.176	280.44
275.408	266.44
275.64	262.44
275.872	258.44
276.104	269.44
276.335	261.44
276.567	259.44
276.799	266.44
277.031	301.44
277.262	304.44
277.494	308.44
277.726	294.44
277.957	275.44
278.189	264.44
278.421	268.44
278.652	253.44
278.884	266.44
279.115	268.44
279.347	259.44
279.579	254.44
279.81	252.44
280.042	269.44
280.273	235.44
280.505	234.44
280.736	260.44
280.968	266.44
281.199	246.44
281.431	252.44
281.662	251.44
281.894	255.44
282.125	253.44
282.356	284.44
282.588	306.44
282.819	275.44
283.051	273.44
283.282	253.44
283.513	249.44
283.745	236.44
283.976	255.44
284.207	261.44
284.439	276.44
284.67	264.44
284.901	279.44
285.132	279.44
285.364	240.44
285.595	280.44
285.826	259.44
286.057	277.44
286.288	270.44
286.52	272.44
286.751	269.44
286.982	258.44
287.213	275.44
287.444	266.44
287.675	268.44
287.906	276.44
288.138	266.44
288.369	270.44
288.6	294.44
288.831	286.44
289.062	297.44
289.293	281.44
289.524	271.44
289.755	265.44
289.986	256.44
290.217	271.44
290.448	265.44
290.679	259.44
290.91	256.44
291.141	275.44
291.371	267.44
291.602	281.44
291.833	266.44
292.064	270.44
292.295	274.44
292.526	265.44
292.757	267.44
292.987	276.44
293.218	267.44
293.449	268.44
293.68	267.44
293.91	274.44
294.141	268.44
294.372	273.44
294.603	267.44
294.833	273.44
295.064	267.44
295.295	269.44
295.525	266.44
295.756	270.44
295.987	280.44
296.217	280.44
296.448	315.44
296.679	280.44
296.909	270.44
297.14	285.44
297.37	282.44
297.601	279.44
297.831	262.44
298.062	267.44
298.292	294.44
298.523	280.44
298.753	261.44
298.984	280.44
299.214	302.44
299.445	275.44
299.675	284.44
299.905	299.44
300.136	285.44
300.366	284.44
300.597	276.44
300.827	283.44
301.057	289.44
301.288	320.44
301.518	300.44
301.748	282.44
301.979	282.44
302.209	299.44
302.439	304.44
302.669	303.44
302.9	301.44
303.13	315.44
303.36	317.44
303.59	294.44
303.82	314.44
304.051	308.44
304.281	302.44
304.511	312.44
304.741	285.44
304.971	304.44
305.201	310.44
305.431	320.44
305.661	315.44
305.891	303.44
306.121	324.44
306.352	324.44
306.582	307.44
306.812	308.44
307.042	301.44
307.272	300.44
307.502	323.44
307.731	306.44
307.961	330.44
308.191	310.44
308.421	295.44
308.651	319.44
308.881	316.44
309.111	326.44
309.341	301.44
309.571	323.44
309.8	337.44
310.03	354.44
310.26	386.44
310.49	370.44
310.72	360.44
310.949	370.44
311.179	370.44
311.409	369.44
311.639	348.44
311.868	342.44
312.098	356.44
312.328	372.44
312.557	374.44
312.787	366.44
313.017	363.44
313.246	390.44
313.476	366.44
313.706	352.44
313.935	353.44
314.165	362.44
314.394	385.44
314.624	379.44
314.853	362.44
315.083	366.44
315.312	335.44
315.542	356.44
315.771	351.44
316.001	340.44
316.23	335.44
316.46	340.44
316.689	326.44
316.919	347.44
317.148	382.44
317.377	349.44
317.607	357.44
317.836	357.44
318.065	355.44
318.295	346.44
318.524	344.44
318.753	331.44
318.983	354.44
319.212	358.44
319.441	362.44
319.67	382.44
319.9	351.44
320.129	360.44
320.358	362.44
320.587	367.44
320.816	361.44
321.046	380.44
321.275	378.44
321.504	348.44
321.733	369.44
321.962	374.44
322.191	403.44
322.42	402.44
322.649	430.44
322.878	453.44
323.108	456.44
323.337	470.44
323.566	487.44
323.795	543.44
324.024	591.44
324.253	701.44
324.482	974.44
324.71	1534.44
324.939	2164.44
325.168	1926.44
325.397	1042.44
325.626	672.44
325.855	572.44
326.084	527.44
326.313	513.44
326.542	497.44
326.77	543.44
326.999	653.44
327.228	866.44
327.457	1318.44
327.686	1680.44
327.914	1120.44
328.143	707.44
328.372	641.44
328.6	576.44
328.829	544.44
329.058	577.44
329.287	582.44
329.515	554.44
329.744	480.44
329.972	467.44
330.201	471.44
330.43	520.44
330.658	547.44
330.887	605.44
331.115	578.44
331.344	502.44
331.572	451.44
331.801	455.44
332.03	450.44
332.258	443.44
332.486	427.44
332.715	411.44
332.943	401.44
333.172	392.44
333.4	391.44
333.629	417.44
333.857	430.44
334.085	426.44
334.314	413.44
334.542	416.44
334.771	429.44
334.999	408.44
335.227	419.44
335.455	404.44
335.684	389.44
335.912	392.44
336.14	406.44
336.369	398.44
336.597	395.44
336.825	415.44
337.053	422.44
337.281	396.44
337.51	412.44
337.738	396.44
337.966	403.44
338.194	404.44
338.422	397.44
338.65	396.44
338.878	404.44
339.106	383.44
339.334	370.44
339.562	384.44
339.79	392.44
340.018	398.44
340.246	391.44
340.474	415.44
340.702	384.44
340.93	384.44
341.158	384.44
341.386	391.44
341.614	395.44
341.842	369.44
342.07	397.44
342.298	375.44
342.526	387.44
342.754	374.44
342.981	370.44
343.209	352.44
343.437	375.44
343.665	362.44
343.893	394.44
344.12	410.44
344.348	386.44
344.576	380.44
344.804	375.44
345.031	402.44
345.259	410.44
345.487	407.44
345.714	394.44
345.942	386.44
346.17	382.44
346.397	384.44
346.625	377.44
346.853	359.44
347.08	378.44
347.308	396.44
347.535	389.44
347.763	401.44
347.99	385.44
348.218	396.44
348.445	393.44
348.673	402.44
348.9	381.44
349.128	379.44
349.355	362.44
349.583	367.44
349.81	356.44
350.037	372.44
350.265	350.44
350.492	373.44
350.72	355.44
350.947	376.44
351.174	380.44
351.402	387.44
351.629	394.44
351.856	385.44
352.083	383.44
352.311	401.44
352.538	383.44
352.765	393.44
352.992	386.44
353.22	403.44
353.447	374.44
353.674	366.44
353.901	361.44
354.128	368.44
354.355	361.44
354.583	347.44
354.81	338.44
355.037	363.44
355.264	362.44
355.491	346.44
355.718	341.44
355.945	355.44
356.172	349.44
356.399	331.44
356.626	341.44
356.853	356.44
357.08	341.44
357.307	349.44
357.534	346.44
357.761	341.44
357.988	330.44
358.215	359.44
358.441	332.44
358.668	354.44
358.895	350.44
359.122	363.44
359.349	357.44
359.576	381.44
359.802	402.44
360.029	432.44
360.256	438.44
360.483	414.44
360.709	395.44
360.936	380.44
361.163	378.44
361.39	380.44
361.616	386.44
361.843	382.44
362.07	385.44
362.296	392.44
362.523	374.44
362.749	364.44
362.976	363.44
363.203	356.44
363.429	354.44
363.656	361.44
363.882	366.44
364.109	356.44
364.335	374.44
364.562	353.44
364.788	354.44
365.015	342.44
365.241	358.44
365.468	369.44
365.694	368.44
365.92	355.44
366.147	354.44
366.373	358.44
366.599	364.44
366.826	341.44
367.052	355.44
367.278	351.44
367.505	361.44
367.731	364.44
367.957	348.44
368.184	368.44
368.41	358.44
368.636	372.44
368.862	358.44
369.089	369.44
369.315	356.44
369.541	354.44
369.767	363.44
369.993	353.44
370.219	351.44
370.445	350.44
370.672	351.44
370.898	353.44
371.124	351.44
371.35	345.44
371.576	338.44
371.802	346.44
372.028	356.44
372.254	343.44
372.48	348.44
372.706	344.44
372.932	349.44
373.158	354.44
373.384	346.44
373.61	348.44
373.835	351.44
374.061	344.44
374.287	346.44
374.513	345.44
374.739	356.44
374.965	340.44
375.191	367.44
375.416	356.44
375.642	343.44
375.868	371.44
376.094	338.44
376.319	339.44
376.545	353.44
376.771	362.44
376.997	346.44
377.222	326.44
377.448	342.44
377.674	365.44
377.899	326.44
378.125	338.44
378.35	351.44
378.576	336.44
378.802	349.44
379.027	345.44
379.253	358.44
379.478	350.44
379.704	360.44
379.929	338.44
380.155	345.44
380.38	360.44
380.606	361.44
380.831	371.44
381.057	367.44
381.282	355.44
381.507	334.44
381.733	346.44
381.958	348.44
382.184	340.44
382.409	331.44
382.634	347.44
382.86	348.44
383.085	351.44
383.31	353.44
383.535	338.44
383.761	370.44
383.986	350.44
384.211	337.44
384.436	353.44
384.662	342.44
384.887	347.44
385.112	343.44
385.337	356.44
385.562	350.44
385.787	353.44
386.013	378.44
386.238	367.44
386.463	380.44
386.688	378.44
386.913	351.44
387.138	371.44
387.363	347.44
387.588	369.44
387.813	378.44
388.038	367.44
388.263	376.44
388.488	366.44
388.713	379.44
388.938	376.44
389.163	368.44
389.387	369.44
389.612	371.44
389.837	361.44
390.062	358.44
390.287	352.44
390.512	356.44
390.736	351.44
390.961	379.44
391.186	378.44
391.411	380.44
391.636	379.44
391.86	362.44
392.085	358.44
392.31	367.44
392.534	366.44
392.759	368.44
392.984	385.44
393.208	372.44
393.433	374.44
393.658	375.44
393.882	365.44
394.107	352.44
394.331	370.44
394.556	359.44
394.78	364.44
395.005	359.44
395.229	369.44
395.454	359.44
395.678	376.44
395.903	383.44
396.127	400.44
396.352	413.44
396.576	380.44
396.801	392.44
397.025	367.44
397.249	398.44
397.474	386.44
397.698	380.44
397.922	385.44
398.147	391.44
398.371	413.44
398.595	385.44
398.82	391.44
399.044	418.44
399.268	411.44
399.492	415.44
399.717	451.44
399.941	476.44
400.165	489.44
400.389	518.44
400.613	472.44
400.837	428.44
401.062	410.44
401.286	420.44
401.51	411.44
401.734	416.44
401.958	414.44
402.182	415.44
402.406	415.44
402.63	417.44
402.854	436.44
403.078	408.44
403.302	419.44
403.526	421.44
403.75	415.44
403.974	428.44
404.198	410.44
404.422	425.44
404.645	414.44
404.869	422.44
405.093	430.44
405.317	479.44
405.541	500.44
405.765	453.44
405.988	444.44
406.212	452.44
406.436	476.44
406.66	521.44
406.883	461.44
407.107	466.44
407.331	515.44
407.555	560.44
407.778	586.44
408.002	529.44
408.226	471.44
408.449	470.44
408.673	468.44
408.896	493.44
409.12	539.44
409.344	515.44
409.567	465.44
409.791	441.44
410.014	429.44
410.238	434.44
410.461	416.44
410.685	437.44
410.908	470.44
411.132	483.44
411.355	491.44
411.578	473.44
411.802	442.44
412.025	422.44
412.249	399.44
412.472	420.44
412.695	450.44
412.919	430.44
413.142	401.44
413.365	391.44
413.589	405.44
413.812	382.44
414.035	399.44
414.258	391.44
414.482	401.44
414.705	377.44
414.928	383.44
415.151	387.44
415.374	397.44
415.597	395.44
415.821	389.44
416.044	392.44
416.267	405.44
416.49	402.44
416.713	380.44
416.936	395.44
417.159	383.44
417.382	390.44
417.605	384.44
417.828	430.44
418.051	417.44
418.274	430.44
418.497	403.44
418.72	416.44
418.943	410.44
419.166	420.44
419.389	430.44
419.611	433.44
419.834	418.44
420.057	432.44
420.28	416.44
420.503	425.44
420.726	429.44
420.948	468.44
421.171	468.44
421.394	497.44
421.617	450.44
421.839	432.44
422.062	434.44
422.285	447.44
422.507	497.44
422.73	569.44
422.953	556.44
423.175	478.44
423.398	486.44
423.621	452.44
423.843	448.44
424.066	475.44
424.288	460.44
424.511	493.44
424.733	551.44
424.956	583.44
425.178	580.44
425.401	576.44
425.623	611.44
425.846	554.44
426.068	488.44
426.291	468.44
426.513	473.44
426.735	510.44
426.958	522.44
427.18	598.44
427.402	718.44
427.625	798.44
427.847	715.44
428.069	600.44
428.292	545.44
428.514	480.44
428.736	456.44
428.958	472.44
429.181	430.44
429.403	436.44
429.625	467.44
429.847	487.44
430.069	546.44
430.292	541.44
430.514	449.44
430.736	451.44
430.958	435.44
431.18	435.44
431.402	396.44
431.624	400.44
431.846	401.44
432.068	411.44
432.29	411.44
432.512	422.44
432.734	427.44
432.956	428.44
433.178	419.44
433.4	439.44
433.622	442.44
433.844	419.44
434.066	414.44
434.287	398.44
434.509	423.44
434.731	431.44
434.953	426.44
435.175	436.44
435.397	489.44
435.618	483.44
435.84	509.44
436.062	595.44
436.284	670.44
436.505	551.44
436.727	478.44
436.949	468.44
437.17	466.44
437.392	448.44
437.614	472.44
437.835	486.44
438.057	579.44
438.278	664.44
438.5	687.44
438.721	718.44
438.943	709.44
439.165	562.44
439.386	508.44
439.608	500.44
439.829	494.44
440.05	525.44
440.272	573.44
440.493	516.44
440.715	480.44
440.936	451.44
441.158	424.44
441.379	444.44
441.6	462.44
441.822	495.44
442.043	533.44
442.264	590.44
442.486	660.44
442.707	561.44
442.928	500.44
443.149	506.44
443.371	507.44
443.592	564.44
443.813	646.44
444.034	718.44
444.255	576.44
444.476	472.44
444.698	476.44
444.919	484.44
445.14	571.44
445.361	517.44
445.582	547.44
445.803	600.44
446.024	681.44
446.245	694.44
446.466	609.44
446.687	520.44
446.908	487.44
447.129	463.44
447.35	453.44
447.571	441.44
447.792	461.44
448.013	449.44
448.234	485.44
448.455	542.44
448.675	612.44
448.896	742.44
449.117	631.44
449.338	587.44
449.559	648.44
449.779	761.44
450	623.44
450.221	531.44
450.442	456.44
450.662	448.44
450.883	458.44
451.104	460.44
451.324	444.44
451.545	443.44
451.766	409.44
451.986	399.44
452.207	408.44
452.428	394.44
452.648	401.44
452.869	398.44
453.089	422.44
453.31	423.44
453.53	406.44
453.751	404.44
453.971	396.44
454.192	428.44
454.412	399.44
454.633	409.44
454.853	396.44
455.073	410.44
455.294	426.44
455.514	484.44
455.734	469.44
455.955	400.44
456.175	381.44
456.395	377.44
456.616	383.44
456.836	351.44
457.056	384.44
457.276	362.44
457.497	360.44
457.717	358.44
457.937	377.44
458.157	374.44
458.377	377.44
458.598	424.44
458.818	487.44
459.038	584.44
459.258	573.44
459.478	473.44
459.698	448.44
459.918	407.44
460.138	426.44
460.358	401.44
460.578	400.44
460.798	414.44
461.018	414.44
461.238	422.44
461.458	430.44
461.678	383.44
461.898	397.44
462.118	407.44
462.338	403.44
462.558	412.44
462.777	410.44
462.997	427.44
463.217	438.44
463.437	434.44
463.657	419.44
463.876	426.44
464.096	438.44
464.316	420.44
464.536	422.44
464.755	419.44
464.975	452.44
465.195	508.44
465.414	573.44
465.634	507.44
465.854	455.44
466.073	420.44
466.293	416.44
466.512	397.44
466.732	389.44
466.951	395.44
467.171	417.44
467.391	401.44
467.61	411.44
467.829	402.44
468.049	405.44
468.268	396.44
468.488	383.44
468.707	412.44
468.927	383.44
469.146	382.44
469.365	387.44
469.585	375.44
469.804	368.44
470.023	427.44
470.243	408.44
470.462	389.44
470.681	430.44
470.901	448.44
471.12	402.44
471.339	379.44
471.558	417.44
471.777	412.44
471.997	395.44
472.216	407.44
472.435	387.44
472.654	400.44
472.873	392.44
473.092	392.44
473.311	405.44
473.53	426.44
473.749	423.44
473.968	459.44
474.187	574.44
474.406	598.44
474.625	462.44
474.844	416.44
475.063	407.44
475.282	410.44
475.501	418.44
475.72	440.44
475.939	422.44
476.158	430.44
476.377	426.44
476.596	422.44
476.814	431.44
477.033	439.44
477.252	437.44
477.471	443.44
477.69	411.44
477.908	430.44
478.127	430.44
478.346	439.44
478.564	444.44
478.783	427.44
479.002	454.44
479.22	467.44
479.439	482.44
479.658	492.44
479.876	488.44
480.095	495.44
480.313	528.44
480.532	516.44
480.751	500.44
480.969	492.44
481.188	521.44
481.406	520.44
481.624	494.44
481.843	471.44
482.061	480.44
482.28	495.44
482.498	473.44
482.717	461.44
482.935	479.44
483.153	491.44
483.372	486.44
483.59	463.44
483.808	488.44
484.027	479.44
484.245	489.44
484.463	490.44
484.681	480.44
484.9	467.44
485.118	474.44
485.336	506.44
485.554	494.44
485.772	493.44
485.99	487.44
486.209	500.44
486.427	493.44
486.645	513.44
486.863	533.44
487.081	539.44
487.299	517.44
487.517	507.44
487.735	514.44
487.953	526.44
488.171	532.44
488.389	503.44
488.607	530.44
488.825	525.44
489.043	509.44
489.261	516.44
489.479	526.44
489.696	538.44
489.914	534.44
490.132	554.44
490.35	555.44
490.568	542.44
490.786	540.44
491.003	547.44
491.221	576.44
491.439	566.44
491.657	594.44
491.874	589.44
492.092	592.44
492.31	598.44
492.527	597.44
492.745	616.44
492.963	601.44
493.18	605.44
493.398	609.44
493.615	569.44
493.833	587.44
494.05	627.44
494.268	598.44
494.485	609.44
494.703	619.44
494.92	600.44
495.138	620.44
495.355	610.44
495.573	626.44
495.79	597.44
496.008	638.44
496.225	619.44
496.442	614.44
496.66	598.44
496.877	598.44
497.094	626.44
497.312	630.44
497.529	615.44
497.746	648.44
497.963	642.44
498.181	654.44
498.398	665.44
498.615	700.44
498.832	667.44
499.049	668.44
499.267	684.44
499.484	700.44
499.701	703.44
499.918	691.44
500.135	706.44
500.352	751.44
500.569	761.44
500.786	789.44
501.003	768.44
501.22	732.44
501.437	741.44
501.654	722.44
501.871	752.44
