Data from 1986.PennyLincolnUp.Lamp.En5.5.200Scan.071819.P2_HRD10591_17-10-59-973.txt Node
Date: Thu Jul 18 17:10:59 EDT 2019
User: cochatt
Spectrometer: HR+D1059
Trigger mode: 1
Integration Time (sec): 1.000000E-1
Scans to average: 1
Electric dark correction enabled: true
Nonlinearity correction enabled: false
Boxcar width: 0
XAxis mode: Wavelengths
Number of Pixels in Spectrum: 2048
>>>>>Begin Spectral Data<<<<<
223.165	-17.19
223.4	-17.19
223.635	-17.19
223.869	-7.19
224.104	-2.19
224.338	-21.19
224.573	-7.19
224.808	-13.19
225.042	-15.19
225.277	-1.19
225.511	-10.19
225.746	-10.19
225.98	8.81
226.215	12.81
226.449	20.81
226.683	12.81
226.918	24.81
227.152	24.81
227.387	25.81
227.621	32.81
227.856	45.81
228.09	53.81
228.324	51.81
228.559	48.81
228.793	64.81
229.027	97.81
229.262	116.81
229.496	108.81
229.73	140.81
229.964	177.81
230.199	119.81
230.433	110.81
230.667	112.81
230.901	102.81
231.136	114.81
231.37	97.81
231.604	105.81
231.838	102.81
232.072	105.81
232.306	113.81
232.541	107.81
232.775	108.81
233.009	107.81
233.243	116.81
233.477	114.81
233.711	129.81
233.945	104.81
234.179	112.81
234.413	100.81
234.647	109.81
234.881	125.81
235.115	112.81
235.349	128.81
235.583	123.81
235.817	124.81
236.051	128.81
236.285	124.81
236.519	126.81
236.753	140.81
236.987	147.81
237.221	210.81
237.455	242.81
237.689	202.81
237.922	147.81
238.156	142.81
238.39	129.81
238.624	136.81
238.858	125.81
239.091	109.81
239.325	126.81
239.559	130.81
239.793	130.81
240.027	133.81
240.26	142.81
240.494	161.81
240.728	156.81
240.961	142.81
241.195	150.81
241.429	144.81
241.662	131.81
241.896	127.81
242.13	134.81
242.363	137.81
242.597	140.81
242.83	125.81
243.064	132.81
243.298	125.81
243.531	138.81
243.765	145.81
243.998	146.81
244.232	140.81
244.465	133.81
244.699	139.81
244.932	151.81
245.166	137.81
245.399	157.81
245.633	143.81
245.866	141.81
246.099	152.81
246.333	160.81
246.566	159.81
246.8	153.81
247.033	144.81
247.266	164.81
247.5	163.81
247.733	189.81
247.966	173.81
248.2	189.81
248.433	178.81
248.666	172.81
248.899	202.81
249.133	200.81
249.366	228.81
249.599	198.81
249.832	192.81
250.066	193.81
250.299	199.81
250.532	203.81
250.765	230.81
250.998	230.81
251.231	244.81
251.465	231.81
251.698	225.81
251.931	205.81
252.164	209.81
252.397	197.81
252.63	208.81
252.863	224.81
253.096	231.81
253.329	249.81
253.562	228.81
253.795	224.81
254.028	235.81
254.261	230.81
254.494	229.81
254.727	272.81
254.96	306.81
255.193	284.81
255.426	265.81
255.659	265.81
255.892	263.81
256.124	272.81
256.357	253.81
256.59	248.81
256.823	237.81
257.056	228.81
257.289	232.81
257.521	211.81
257.754	233.81
257.987	224.81
258.22	219.81
258.452	207.81
258.685	223.81
258.918	205.81
259.151	233.81
259.383	219.81
259.616	242.81
259.849	250.81
260.081	248.81
260.314	253.81
260.547	284.81
260.779	251.81
261.012	252.81
261.244	249.81
261.477	234.81
261.71	232.81
261.942	236.81
262.175	230.81
262.407	219.81
262.64	219.81
262.872	214.81
263.105	209.81
263.337	211.81
263.57	225.81
263.802	213.81
264.035	201.81
264.267	203.81
264.499	198.81
264.732	209.81
264.964	215.81
265.197	193.81
265.429	207.81
265.661	209.81
265.894	209.81
266.126	226.81
266.358	207.81
266.591	205.81
266.823	210.81
267.055	227.81
267.287	223.81
267.52	215.81
267.752	231.81
267.984	216.81
268.216	217.81
268.448	219.81
268.681	215.81
268.913	262.81
269.145	248.81
269.377	286.81
269.609	280.81
269.841	273.81
270.073	290.81
270.306	287.81
270.538	326.81
270.77	327.81
271.002	317.81
271.234	312.81
271.466	281.81
271.698	316.81
271.93	317.81
272.162	315.81
272.394	336.81
272.626	314.81
272.858	304.81
273.09	288.81
273.322	289.81
273.553	246.81
273.785	276.81
274.017	276.81
274.249	261.81
274.481	270.81
274.713	271.81
274.945	259.81
275.176	284.81
275.408	268.81
275.64	260.81
275.872	256.81
276.104	259.81
276.335	265.81
276.567	276.81
276.799	293.81
277.031	321.81
277.262	320.81
277.494	340.81
277.726	299.81
277.957	310.81
278.189	278.81
278.421	291.81
278.652	277.81
278.884	255.81
279.115	275.81
279.347	261.81
279.579	245.81
279.81	256.81
280.042	266.81
280.273	264.81
280.505	292.81
280.736	259.81
280.968	240.81
281.199	268.81
281.431	242.81
281.662	252.81
281.894	258.81
282.125	267.81
282.356	295.81
282.588	315.81
282.819	294.81
283.051	271.81
283.282	254.81
283.513	269.81
283.745	275.81
283.976	278.81
284.207	272.81
284.439	302.81
284.67	276.81
284.901	278.81
285.132	252.81
285.364	264.81
285.595	267.81
285.826	261.81
286.057	255.81
286.288	264.81
286.52	260.81
286.751	257.81
286.982	260.81
287.213	259.81
287.444	273.81
287.675	270.81
287.906	283.81
288.138	280.81
288.369	292.81
288.6	304.81
288.831	289.81
289.062	286.81
289.293	281.81
289.524	276.81
289.755	283.81
289.986	279.81
290.217	264.81
290.448	268.81
290.679	273.81
290.91	267.81
291.141	276.81
291.371	260.81
291.602	277.81
291.833	288.81
292.064	276.81
292.295	254.81
292.526	267.81
292.757	278.81
292.987	280.81
293.218	259.81
293.449	270.81
293.68	265.81
293.91	263.81
294.141	270.81
294.372	260.81
294.603	260.81
294.833	257.81
295.064	268.81
295.295	280.81
295.525	280.81
295.756	279.81
295.987	304.81
296.217	298.81
296.448	308.81
296.679	289.81
296.909	291.81
297.14	274.81
297.37	270.81
297.601	290.81
297.831	290.81
298.062	285.81
298.292	278.81
298.523	291.81
298.753	301.81
298.984	290.81
299.214	279.81
299.445	276.81
299.675	290.81
299.905	289.81
300.136	291.81
300.366	285.81
300.597	305.81
300.827	297.81
301.057	291.81
301.288	317.81
301.518	302.81
301.748	294.81
301.979	305.81
302.209	300.81
302.439	304.81
302.669	308.81
302.9	306.81
303.13	290.81
303.36	299.81
303.59	298.81
303.82	308.81
304.051	304.81
304.281	298.81
304.511	308.81
304.741	282.81
304.971	305.81
305.201	295.81
305.431	297.81
305.661	297.81
305.891	304.81
306.121	302.81
306.352	300.81
306.582	319.81
306.812	314.81
307.042	311.81
307.272	315.81
307.502	311.81
307.731	304.81
307.961	305.81
308.191	316.81
308.421	343.81
308.651	312.81
308.881	329.81
309.111	339.81
309.341	330.81
309.571	357.81
309.8	356.81
310.03	369.81
310.26	359.81
310.49	357.81
310.72	374.81
310.949	388.81
311.179	397.81
311.409	383.81
311.639	384.81
311.868	377.81
312.098	372.81
312.328	364.81
312.557	378.81
312.787	418.81
313.017	391.81
313.246	380.81
313.476	346.81
313.706	360.81
313.935	361.81
314.165	364.81
314.394	402.81
314.624	388.81
314.853	376.81
315.083	371.81
315.312	366.81
315.542	373.81
315.771	363.81
316.001	353.81
316.23	357.81
316.46	354.81
316.689	375.81
316.919	370.81
317.148	380.81
317.377	376.81
317.607	378.81
317.836	359.81
318.065	351.81
318.295	356.81
318.524	372.81
318.753	369.81
318.983	366.81
319.212	343.81
319.441	373.81
319.67	360.81
319.9	338.81
320.129	387.81
320.358	365.81
320.587	366.81
320.816	378.81
321.046	378.81
321.275	391.81
321.504	396.81
321.733	380.81
321.962	410.81
322.191	426.81
322.42	428.81
322.649	436.81
322.878	469.81
323.108	468.81
323.337	481.81
323.566	538.81
323.795	564.81
324.024	613.81
324.253	804.81
324.482	1096.81
324.71	1662.81
324.939	2376.81
325.168	2101.81
325.397	1102.81
325.626	728.81
325.855	602.81
326.084	558.81
326.313	525.81
326.542	510.81
326.77	580.81
326.999	706.81
327.228	981.81
327.457	1467.81
327.686	1745.81
327.914	1251.81
328.143	820.81
328.372	692.81
328.6	663.81
328.829	615.81
329.058	629.81
329.287	640.81
329.515	611.81
329.744	549.81
329.972	545.81
330.201	598.81
330.43	624.81
330.658	658.81
330.887	672.81
331.115	632.81
331.344	559.81
331.572	517.81
331.801	494.81
332.03	493.81
332.258	493.81
332.486	450.81
332.715	442.81
332.943	451.81
333.172	432.81
333.4	458.81
333.629	460.81
333.857	468.81
334.085	494.81
334.314	499.81
334.542	577.81
334.771	591.81
334.999	516.81
335.227	459.81
335.455	429.81
335.684	419.81
335.912	409.81
336.14	390.81
336.369	422.81
336.597	428.81
336.825	421.81
337.053	424.81
337.281	428.81
337.51	414.81
337.738	404.81
337.966	419.81
338.194	429.81
338.422	408.81
338.65	409.81
338.878	383.81
339.106	390.81
339.334	410.81
339.562	398.81
339.79	392.81
340.018	404.81
340.246	390.81
340.474	410.81
340.702	396.81
340.93	401.81
341.158	409.81
341.386	404.81
341.614	403.81
341.842	398.81
342.07	390.81
342.298	397.81
342.526	378.81
342.754	391.81
342.981	376.81
343.209	372.81
343.437	382.81
343.665	381.81
343.893	420.81
344.12	402.81
344.348	391.81
344.576	378.81
344.804	412.81
345.031	409.81
345.259	423.81
345.487	426.81
345.714	401.81
345.942	410.81
346.17	374.81
346.397	380.81
346.625	391.81
346.853	380.81
347.08	402.81
347.308	396.81
347.535	416.81
347.763	416.81
347.99	391.81
348.218	406.81
348.445	415.81
348.673	403.81
348.9	407.81
349.128	402.81
349.355	362.81
349.583	370.81
349.81	384.81
350.037	359.81
350.265	394.81
350.492	388.81
350.72	360.81
350.947	370.81
351.174	406.81
351.402	381.81
351.629	389.81
351.856	382.81
352.083	396.81
352.311	408.81
352.538	413.81
352.765	416.81
352.992	402.81
353.22	381.81
353.447	377.81
353.674	391.81
353.901	387.81
354.128	373.81
354.355	362.81
354.583	355.81
354.81	361.81
355.037	356.81
355.264	352.81
355.491	350.81
355.718	351.81
355.945	347.81
356.172	344.81
356.399	357.81
356.626	363.81
356.853	336.81
357.08	341.81
357.307	354.81
357.534	342.81
357.761	346.81
357.988	336.81
358.215	359.81
358.441	365.81
358.668	360.81
358.895	343.81
359.122	358.81
359.349	373.81
359.576	374.81
359.802	401.81
360.029	441.81
360.256	474.81
360.483	436.81
360.709	409.81
360.936	391.81
361.163	394.81
361.39	389.81
361.616	376.81
361.843	373.81
362.07	359.81
362.296	378.81
362.523	390.81
362.749	370.81
362.976	382.81
363.203	392.81
363.429	376.81
363.656	375.81
363.882	374.81
364.109	351.81
364.335	358.81
364.562	374.81
364.788	365.81
365.015	350.81
365.241	379.81
365.468	367.81
365.694	374.81
365.92	386.81
366.147	372.81
366.373	351.81
366.599	370.81
366.826	358.81
367.052	330.81
367.278	353.81
367.505	364.81
367.731	368.81
367.957	363.81
368.184	362.81
368.41	370.81
368.636	373.81
368.862	380.81
369.089	356.81
369.315	358.81
369.541	346.81
369.767	351.81
369.993	358.81
370.219	373.81
370.445	358.81
370.672	360.81
370.898	348.81
371.124	343.81
371.35	353.81
371.576	337.81
371.802	353.81
372.028	361.81
372.254	344.81
372.48	342.81
372.706	374.81
372.932	343.81
373.158	362.81
373.384	351.81
373.61	355.81
373.835	347.81
374.061	331.81
374.287	348.81
374.513	377.81
374.739	355.81
374.965	343.81
375.191	357.81
375.416	341.81
375.642	352.81
375.868	352.81
376.094	369.81
376.319	352.81
376.545	344.81
376.771	355.81
376.997	349.81
377.222	354.81
377.448	365.81
377.674	352.81
377.899	340.81
378.125	347.81
378.35	352.81
378.576	362.81
378.802	342.81
379.027	360.81
379.253	342.81
379.478	347.81
379.704	341.81
379.929	337.81
380.155	352.81
380.38	362.81
380.606	346.81
380.831	350.81
381.057	367.81
381.282	340.81
381.507	356.81
381.733	323.81
381.958	341.81
382.184	348.81
382.409	349.81
382.634	355.81
382.86	345.81
383.085	330.81
383.31	359.81
383.535	360.81
383.761	342.81
383.986	357.81
384.211	326.81
384.436	350.81
384.662	343.81
384.887	362.81
385.112	359.81
385.337	359.81
385.562	353.81
385.787	357.81
386.013	377.81
386.238	373.81
386.463	360.81
386.688	370.81
386.913	374.81
387.138	370.81
387.363	358.81
387.588	358.81
387.813	371.81
388.038	357.81
388.263	376.81
388.488	346.81
388.713	362.81
388.938	346.81
389.163	360.81
389.387	375.81
389.612	363.81
389.837	360.81
390.062	361.81
390.287	361.81
390.512	344.81
390.736	358.81
390.961	352.81
391.186	346.81
391.411	363.81
391.636	355.81
391.86	353.81
392.085	373.81
392.31	374.81
392.534	368.81
392.759	364.81
392.984	362.81
393.208	362.81
393.433	349.81
393.658	363.81
393.882	362.81
394.107	354.81
394.331	374.81
394.556	358.81
394.78	348.81
395.005	363.81
395.229	381.81
395.454	357.81
395.678	370.81
395.903	385.81
396.127	404.81
396.352	394.81
396.576	398.81
396.801	380.81
397.025	376.81
397.249	387.81
397.474	366.81
397.698	366.81
397.922	402.81
398.147	394.81
398.371	395.81
398.595	397.81
398.82	399.81
399.044	406.81
399.268	386.81
399.492	420.81
399.717	442.81
399.941	469.81
400.165	515.81
400.389	512.81
400.613	476.81
400.837	440.81
401.062	427.81
401.286	414.81
401.51	398.81
401.734	421.81
401.958	411.81
402.182	405.81
402.406	444.81
402.63	432.81
402.854	426.81
403.078	414.81
403.302	434.81
403.526	449.81
403.75	432.81
403.974	419.81
404.198	404.81
404.422	406.81
404.645	438.81
404.869	440.81
405.093	483.81
405.317	518.81
405.541	550.81
405.765	491.81
405.988	448.81
406.212	472.81
406.436	484.81
406.66	512.81
406.883	484.81
407.107	476.81
407.331	532.81
407.555	584.81
407.778	568.81
408.002	537.81
408.226	496.81
408.449	480.81
408.673	466.81
408.896	511.81
409.12	532.81
409.344	512.81
409.567	470.81
409.791	437.81
410.014	432.81
410.238	432.81
410.461	419.81
410.685	432.81
410.908	454.81
411.132	491.81
411.355	523.81
411.578	488.81
411.802	438.81
412.025	440.81
412.249	432.81
412.472	476.81
412.695	494.81
412.919	501.81
413.142	481.81
413.365	454.81
413.589	423.81
413.812	417.81
414.035	401.81
414.258	420.81
414.482	407.81
414.705	398.81
414.928	399.81
415.151	394.81
415.374	394.81
415.597	406.81
415.821	397.81
416.044	397.81
416.267	391.81
416.49	401.81
416.713	416.81
416.936	418.81
417.159	404.81
417.382	413.81
417.605	438.81
417.828	430.81
418.051	450.81
418.274	447.81
418.497	436.81
418.72	404.81
418.943	418.81
419.166	423.81
419.389	453.81
419.611	450.81
419.834	422.81
420.057	439.81
420.28	434.81
420.503	437.81
420.726	428.81
420.948	482.81
421.171	501.81
421.394	539.81
421.617	457.81
421.839	424.81
422.062	412.81
422.285	454.81
422.507	499.81
422.73	568.81
422.953	574.81
423.175	498.81
423.398	436.81
423.621	464.81
423.843	466.81
424.066	490.81
424.288	464.81
424.511	490.81
424.733	566.81
424.956	611.81
425.178	600.81
425.401	587.81
425.623	634.81
425.846	528.81
426.068	482.81
426.291	503.81
426.513	492.81
426.735	505.81
426.958	550.81
427.18	625.81
427.402	721.81
427.625	778.81
427.847	731.81
428.069	664.81
428.292	564.81
428.514	521.81
428.736	476.81
428.958	466.81
429.181	445.81
429.403	454.81
429.625	473.81
429.847	505.81
430.069	558.81
430.292	536.81
430.514	472.81
430.736	459.81
430.958	439.81
431.18	419.81
431.402	414.81
431.624	414.81
431.846	392.81
432.068	400.81
432.29	419.81
432.512	414.81
432.734	427.81
432.956	427.81
433.178	408.81
433.4	452.81
433.622	432.81
433.844	425.81
434.066	402.81
434.287	405.81
434.509	426.81
434.731	430.81
434.953	448.81
435.175	440.81
435.397	473.81
435.618	478.81
435.84	517.81
436.062	602.81
436.284	677.81
436.505	570.81
436.727	499.81
436.949	487.81
437.17	444.81
437.392	457.81
437.614	446.81
437.835	504.81
438.057	599.81
438.278	681.81
438.5	708.81
438.721	729.81
438.943	744.81
439.165	595.81
439.386	520.81
439.608	510.81
439.829	524.81
440.05	532.81
440.272	580.81
440.493	540.81
440.715	466.81
440.936	484.81
441.158	470.81
441.379	467.81
441.6	471.81
441.822	501.81
442.043	516.81
442.264	624.81
442.486	665.81
442.707	566.81
442.928	509.81
443.149	504.81
443.371	538.81
443.592	568.81
443.813	658.81
444.034	706.81
444.255	589.81
444.476	516.81
444.698	476.81
444.919	507.81
445.14	549.81
445.361	538.81
445.582	537.81
445.803	596.81
446.024	673.81
446.245	709.81
446.466	638.81
446.687	527.81
446.908	488.81
447.129	468.81
447.35	474.81
447.571	456.81
447.792	447.81
448.013	462.81
448.234	469.81
448.455	546.81
448.675	632.81
448.896	731.81
449.117	652.81
449.338	598.81
449.559	698.81
449.779	780.81
450	633.81
450.221	497.81
450.442	480.81
450.662	468.81
450.883	470.81
451.104	467.81
451.324	477.81
451.545	448.81
451.766	419.81
451.986	412.81
452.207	396.81
452.428	381.81
452.648	402.81
452.869	417.81
453.089	419.81
453.31	451.81
453.53	420.81
453.751	406.81
453.971	404.81
454.192	412.81
454.412	430.81
454.633	413.81
454.853	424.81
455.073	410.81
455.294	417.81
455.514	479.81
455.734	484.81
455.955	408.81
456.175	384.81
456.395	364.81
456.616	380.81
456.836	374.81
457.056	373.81
457.276	374.81
457.497	368.81
457.717	389.81
457.937	387.81
458.157	388.81
458.377	399.81
458.598	419.81
458.818	465.81
459.038	595.81
459.258	576.81
459.478	475.81
459.698	457.81
459.918	405.81
460.138	399.81
460.358	413.81
460.578	404.81
460.798	412.81
461.018	410.81
461.238	410.81
461.458	405.81
461.678	404.81
461.898	398.81
462.118	408.81
462.338	426.81
462.558	421.81
462.777	414.81
462.997	428.81
463.217	418.81
463.437	423.81
463.657	408.81
463.876	430.81
464.096	426.81
464.316	411.81
464.536	432.81
464.755	436.81
464.975	457.81
465.195	496.81
465.414	601.81
465.634	505.81
465.854	451.81
466.073	440.81
466.293	432.81
466.512	422.81
466.732	404.81
466.951	403.81
467.171	380.81
467.391	422.81
467.61	410.81
467.829	446.81
468.049	430.81
468.268	406.81
468.488	415.81
468.707	406.81
468.927	379.81
469.146	407.81
469.365	378.81
469.585	374.81
469.804	404.81
470.023	422.81
470.243	394.81
470.462	438.81
470.681	434.81
470.901	433.81
471.12	407.81
471.339	419.81
471.558	434.81
471.777	426.81
471.997	397.81
472.216	438.81
472.435	502.81
472.654	490.81
472.873	445.81
473.092	430.81
473.311	413.81
473.53	427.81
473.749	441.81
473.968	482.81
474.187	546.81
474.406	596.81
474.625	475.81
474.844	447.81
475.063	414.81
475.282	421.81
475.501	407.81
475.72	421.81
475.939	423.81
476.158	435.81
476.377	439.81
476.596	445.81
476.814	455.81
477.033	434.81
477.252	425.81
477.471	438.81
477.69	437.81
477.908	433.81
478.127	438.81
478.346	440.81
478.564	468.81
478.783	429.81
479.002	470.81
479.22	474.81
479.439	461.81
479.658	482.81
479.876	488.81
480.095	521.81
480.313	537.81
480.532	521.81
480.751	507.81
480.969	535.81
481.188	637.81
481.406	749.81
481.624	582.81
481.843	549.81
482.061	500.81
482.28	499.81
482.498	494.81
482.717	468.81
482.935	501.81
483.153	506.81
483.372	470.81
483.59	474.81
483.808	500.81
484.027	480.81
484.245	493.81
484.463	488.81
484.681	499.81
484.9	482.81
485.118	512.81
485.336	511.81
485.554	478.81
485.772	506.81
485.99	519.81
486.209	489.81
486.427	518.81
486.645	538.81
486.863	528.81
487.081	550.81
487.299	552.81
487.517	530.81
487.735	532.81
487.953	531.81
488.171	524.81
488.389	541.81
488.607	556.81
488.825	527.81
489.043	536.81
489.261	539.81
489.479	545.81
489.696	542.81
489.914	530.81
490.132	548.81
490.35	547.81
490.568	563.81
490.786	574.81
491.003	576.81
491.221	596.81
491.439	603.81
491.657	619.81
491.874	614.81
492.092	634.81
492.31	628.81
492.527	650.81
492.745	635.81
492.963	631.81
493.18	650.81
493.398	614.81
493.615	647.81
493.833	636.81
494.05	658.81
494.268	638.81
494.485	642.81
494.703	643.81
494.92	619.81
495.138	625.81
495.355	654.81
495.573	668.81
495.79	662.81
496.008	656.81
496.225	638.81
496.442	617.81
496.66	644.81
496.877	632.81
497.094	626.81
497.312	644.81
497.529	649.81
497.746	645.81
497.963	680.81
498.181	704.81
498.398	694.81
498.615	688.81
498.832	664.81
499.049	701.81
499.267	692.81
499.484	722.81
499.701	689.81
499.918	722.81
500.135	747.81
500.352	759.81
500.569	780.81
500.786	753.81
501.003	798.81
501.22	763.81
501.437	770.81
501.654	761.81
501.871	753.81
