Data from 1986.PennyLincolnUp.Lamp.En5.5.200Scan.071819.P1_HRD10591_17-08-24-974.txt Node
Date: Thu Jul 18 17:08:24 EDT 2019
User: cochatt
Spectrometer: HR+D1059
Trigger mode: 1
Integration Time (sec): 1.000000E-1
Scans to average: 1
Electric dark correction enabled: true
Nonlinearity correction enabled: false
Boxcar width: 0
XAxis mode: Wavelengths
Number of Pixels in Spectrum: 2048
>>>>>Begin Spectral Data<<<<<
223.165	-11.5
223.4	-11.5
223.635	-11.5
223.869	-14.5
224.104	-26.5
224.338	-19.5
224.573	-15.5
224.808	-18.5
225.042	-18.5
225.277	-0.5
225.511	4.5
225.746	8.5
225.98	3.5
226.215	0.5
226.449	22.5
226.683	19.5
226.918	25.5
227.152	40.5
227.387	24.5
227.621	36.5
227.856	43.5
228.09	55.5
228.324	44.5
228.559	53.5
228.793	72.5
229.027	75.5
229.262	76.5
229.496	84.5
229.73	100.5
229.964	123.5
230.199	99.5
230.433	112.5
230.667	105.5
230.901	101.5
231.136	100.5
231.37	100.5
231.604	92.5
231.838	105.5
232.072	70.5
232.306	103.5
232.541	117.5
232.775	105.5
233.009	96.5
233.243	100.5
233.477	104.5
233.711	108.5
233.945	108.5
234.179	98.5
234.413	114.5
234.647	99.5
234.881	115.5
235.115	104.5
235.349	110.5
235.583	111.5
235.817	97.5
236.051	112.5
236.285	105.5
236.519	104.5
236.753	98.5
236.987	113.5
237.221	138.5
237.455	149.5
237.689	137.5
237.922	128.5
238.156	108.5
238.39	93.5
238.624	117.5
238.858	101.5
239.091	104.5
239.325	98.5
239.559	104.5
239.793	110.5
240.027	93.5
240.26	115.5
240.494	114.5
240.728	106.5
240.961	121.5
241.195	110.5
241.429	120.5
241.662	118.5
241.896	96.5
242.13	121.5
242.363	115.5
242.597	116.5
242.83	117.5
243.064	110.5
243.298	126.5
243.531	113.5
243.765	132.5
243.998	116.5
244.232	117.5
244.465	117.5
244.699	128.5
244.932	125.5
245.166	110.5
245.399	125.5
245.633	123.5
245.866	125.5
246.099	125.5
246.333	113.5
246.566	112.5
246.8	127.5
247.033	143.5
247.266	142.5
247.5	136.5
247.733	139.5
247.966	141.5
248.2	141.5
248.433	137.5
248.666	134.5
248.899	144.5
249.133	161.5
249.366	162.5
249.599	134.5
249.832	145.5
250.066	137.5
250.299	132.5
250.532	142.5
250.765	147.5
250.998	140.5
251.231	168.5
251.465	169.5
251.698	141.5
251.931	144.5
252.164	152.5
252.397	154.5
252.63	148.5
252.863	145.5
253.096	169.5
253.329	177.5
253.562	181.5
253.795	174.5
254.028	164.5
254.261	183.5
254.494	169.5
254.727	190.5
254.96	188.5
255.193	188.5
255.426	172.5
255.659	182.5
255.892	174.5
256.124	160.5
256.357	171.5
256.59	165.5
256.823	185.5
257.056	174.5
257.289	155.5
257.521	135.5
257.754	165.5
257.987	170.5
258.22	173.5
258.452	169.5
258.685	155.5
258.918	166.5
259.151	157.5
259.383	180.5
259.616	182.5
259.849	163.5
260.081	195.5
260.314	174.5
260.547	179.5
260.779	176.5
261.012	162.5
261.244	171.5
261.477	171.5
261.71	160.5
261.942	166.5
262.175	183.5
262.407	178.5
262.64	176.5
262.872	171.5
263.105	162.5
263.337	162.5
263.57	166.5
263.802	185.5
264.035	182.5
264.267	169.5
264.499	171.5
264.732	166.5
264.964	157.5
265.197	169.5
265.429	156.5
265.661	179.5
265.894	162.5
266.126	174.5
266.358	178.5
266.591	170.5
266.823	174.5
267.055	187.5
267.287	182.5
267.52	161.5
267.752	168.5
267.984	164.5
268.216	187.5
268.448	179.5
268.681	182.5
268.913	183.5
269.145	193.5
269.377	206.5
269.609	202.5
269.841	198.5
270.073	211.5
270.306	221.5
270.538	223.5
270.77	214.5
271.002	233.5
271.234	227.5
271.466	207.5
271.698	204.5
271.93	224.5
272.162	223.5
272.394	221.5
272.626	226.5
272.858	208.5
273.09	211.5
273.322	197.5
273.553	198.5
273.785	200.5
274.017	211.5
274.249	211.5
274.481	198.5
274.713	198.5
274.945	197.5
275.176	203.5
275.408	192.5
275.64	196.5
275.872	201.5
276.104	207.5
276.335	204.5
276.567	216.5
276.799	205.5
277.031	243.5
277.262	215.5
277.494	226.5
277.726	227.5
277.957	218.5
278.189	210.5
278.421	212.5
278.652	198.5
278.884	204.5
279.115	220.5
279.347	205.5
279.579	208.5
279.81	211.5
280.042	199.5
280.273	221.5
280.505	206.5
280.736	215.5
280.968	202.5
281.199	211.5
281.431	217.5
281.662	197.5
281.894	221.5
282.125	217.5
282.356	215.5
282.588	229.5
282.819	233.5
283.051	216.5
283.282	198.5
283.513	202.5
283.745	197.5
283.976	222.5
284.207	226.5
284.439	204.5
284.67	199.5
284.901	214.5
285.132	225.5
285.364	201.5
285.595	224.5
285.826	224.5
286.057	211.5
286.288	228.5
286.52	215.5
286.751	205.5
286.982	235.5
287.213	223.5
287.444	217.5
287.675	226.5
287.906	210.5
288.138	233.5
288.369	234.5
288.6	213.5
288.831	224.5
289.062	217.5
289.293	232.5
289.524	222.5
289.755	242.5
289.986	227.5
290.217	223.5
290.448	224.5
290.679	233.5
290.91	204.5
291.141	210.5
291.371	213.5
291.602	229.5
291.833	228.5
292.064	228.5
292.295	237.5
292.526	240.5
292.757	218.5
292.987	230.5
293.218	213.5
293.449	230.5
293.68	240.5
293.91	241.5
294.141	234.5
294.372	228.5
294.603	224.5
294.833	226.5
295.064	233.5
295.295	228.5
295.525	233.5
295.756	225.5
295.987	235.5
296.217	257.5
296.448	258.5
296.679	242.5
296.909	228.5
297.14	244.5
297.37	236.5
297.601	250.5
297.831	235.5
298.062	236.5
298.292	247.5
298.523	256.5
298.753	242.5
298.984	245.5
299.214	235.5
299.445	249.5
299.675	254.5
299.905	231.5
300.136	231.5
300.366	250.5
300.597	252.5
300.827	233.5
301.057	237.5
301.288	245.5
301.518	249.5
301.748	243.5
301.979	246.5
302.209	262.5
302.439	249.5
302.669	257.5
302.9	263.5
303.13	258.5
303.36	275.5
303.59	256.5
303.82	266.5
304.051	265.5
304.281	259.5
304.511	261.5
304.741	250.5
304.971	276.5
305.201	250.5
305.431	268.5
305.661	261.5
305.891	229.5
306.121	268.5
306.352	263.5
306.582	268.5
306.812	269.5
307.042	252.5
307.272	255.5
307.502	270.5
307.731	264.5
307.961	249.5
308.191	273.5
308.421	258.5
308.651	254.5
308.881	254.5
309.111	290.5
309.341	269.5
309.571	273.5
309.8	258.5
310.03	274.5
310.26	288.5
310.49	274.5
310.72	297.5
310.949	310.5
311.179	305.5
311.409	272.5
311.639	276.5
311.868	283.5
312.098	280.5
312.328	277.5
312.557	294.5
312.787	293.5
313.017	302.5
313.246	279.5
313.476	285.5
313.706	286.5
313.935	301.5
314.165	301.5
314.394	295.5
314.624	306.5
314.853	290.5
315.083	307.5
315.312	294.5
315.542	286.5
315.771	264.5
316.001	287.5
316.23	295.5
316.46	298.5
316.689	298.5
316.919	298.5
317.148	292.5
317.377	315.5
317.607	296.5
317.836	292.5
318.065	277.5
318.295	289.5
318.524	297.5
318.753	304.5
318.983	289.5
319.212	291.5
319.441	284.5
319.67	292.5
319.9	292.5
320.129	302.5
320.358	292.5
320.587	284.5
320.816	323.5
321.046	309.5
321.275	318.5
321.504	311.5
321.733	312.5
321.962	308.5
322.191	307.5
322.42	292.5
322.649	316.5
322.878	322.5
323.108	340.5
323.337	346.5
323.566	356.5
323.795	357.5
324.024	392.5
324.253	435.5
324.482	611.5
324.71	896.5
324.939	1229.5
325.168	1006.5
325.397	552.5
325.626	412.5
325.855	362.5
326.084	347.5
326.313	346.5
326.542	367.5
326.77	354.5
326.999	417.5
327.228	543.5
327.457	808.5
327.686	912.5
327.914	632.5
328.143	465.5
328.372	430.5
328.6	417.5
328.829	361.5
329.058	373.5
329.287	406.5
329.515	380.5
329.744	370.5
329.972	361.5
330.201	384.5
330.43	411.5
330.658	396.5
330.887	418.5
331.115	402.5
331.344	366.5
331.572	364.5
331.801	358.5
332.03	358.5
332.258	374.5
332.486	345.5
332.715	344.5
332.943	349.5
333.172	354.5
333.4	360.5
333.629	364.5
333.857	380.5
334.085	398.5
334.314	392.5
334.542	428.5
334.771	439.5
334.999	399.5
335.227	370.5
335.455	354.5
335.684	357.5
335.912	348.5
336.14	332.5
336.369	341.5
336.597	346.5
336.825	335.5
337.053	336.5
337.281	353.5
337.51	321.5
337.738	332.5
337.966	331.5
338.194	328.5
338.422	329.5
338.65	334.5
338.878	322.5
339.106	339.5
339.334	323.5
339.562	323.5
339.79	325.5
340.018	338.5
340.246	316.5
340.474	343.5
340.702	340.5
340.93	333.5
341.158	324.5
341.386	328.5
341.614	316.5
341.842	308.5
342.07	328.5
342.298	314.5
342.526	326.5
342.754	308.5
342.981	321.5
343.209	322.5
343.437	322.5
343.665	325.5
343.893	354.5
344.12	334.5
344.348	353.5
344.576	336.5
344.804	334.5
345.031	316.5
345.259	331.5
345.487	326.5
345.714	316.5
345.942	308.5
346.17	318.5
346.397	294.5
346.625	315.5
346.853	309.5
347.08	306.5
347.308	325.5
347.535	304.5
347.763	324.5
347.99	298.5
348.218	316.5
348.445	310.5
348.673	292.5
348.9	318.5
349.128	312.5
349.355	307.5
349.583	290.5
349.81	293.5
350.037	300.5
350.265	294.5
350.492	300.5
350.72	300.5
350.947	306.5
351.174	320.5
351.402	290.5
351.629	325.5
351.856	315.5
352.083	308.5
352.311	307.5
352.538	313.5
352.765	314.5
352.992	301.5
353.22	324.5
353.447	299.5
353.674	321.5
353.901	290.5
354.128	303.5
354.355	308.5
354.583	300.5
354.81	307.5
355.037	293.5
355.264	268.5
355.491	298.5
355.718	305.5
355.945	286.5
356.172	298.5
356.399	294.5
356.626	307.5
356.853	312.5
357.08	276.5
357.307	310.5
357.534	309.5
357.761	313.5
357.988	302.5
358.215	291.5
358.441	291.5
358.668	306.5
358.895	306.5
359.122	293.5
359.349	316.5
359.576	312.5
359.802	309.5
360.029	329.5
360.256	312.5
360.483	315.5
360.709	314.5
360.936	304.5
361.163	310.5
361.39	304.5
361.616	295.5
361.843	294.5
362.07	320.5
362.296	321.5
362.523	303.5
362.749	307.5
362.976	301.5
363.203	298.5
363.429	295.5
363.656	298.5
363.882	309.5
364.109	308.5
364.335	295.5
364.562	294.5
364.788	311.5
365.015	308.5
365.241	294.5
365.468	317.5
365.694	331.5
365.92	314.5
366.147	292.5
366.373	301.5
366.599	316.5
366.826	297.5
367.052	294.5
367.278	309.5
367.505	310.5
367.731	309.5
367.957	296.5
368.184	290.5
368.41	307.5
368.636	301.5
368.862	310.5
369.089	294.5
369.315	307.5
369.541	292.5
369.767	299.5
369.993	292.5
370.219	287.5
370.445	307.5
370.672	289.5
370.898	285.5
371.124	288.5
371.35	298.5
371.576	304.5
371.802	285.5
372.028	294.5
372.254	301.5
372.48	311.5
372.706	304.5
372.932	310.5
373.158	303.5
373.384	318.5
373.61	296.5
373.835	304.5
374.061	290.5
374.287	290.5
374.513	330.5
374.739	312.5
374.965	319.5
375.191	313.5
375.416	304.5
375.642	300.5
375.868	314.5
376.094	302.5
376.319	294.5
376.545	306.5
376.771	317.5
376.997	297.5
377.222	308.5
377.448	278.5
377.674	301.5
377.899	309.5
378.125	305.5
378.35	302.5
378.576	301.5
378.802	289.5
379.027	306.5
379.253	297.5
379.478	320.5
379.704	292.5
379.929	308.5
380.155	307.5
380.38	297.5
380.606	296.5
380.831	297.5
381.057	318.5
381.282	302.5
381.507	310.5
381.733	287.5
381.958	289.5
382.184	307.5
382.409	298.5
382.634	299.5
382.86	316.5
383.085	323.5
383.31	327.5
383.535	335.5
383.761	310.5
383.986	297.5
384.211	336.5
384.436	285.5
384.662	317.5
384.887	341.5
385.112	329.5
385.337	332.5
385.562	323.5
385.787	317.5
386.013	324.5
386.238	359.5
386.463	338.5
386.688	325.5
386.913	347.5
387.138	320.5
387.363	332.5
387.588	327.5
387.813	325.5
388.038	335.5
388.263	339.5
388.488	332.5
388.713	324.5
388.938	323.5
389.163	352.5
389.387	339.5
389.612	328.5
389.837	329.5
390.062	300.5
390.287	324.5
390.512	325.5
390.736	333.5
390.961	337.5
391.186	340.5
391.411	343.5
391.636	332.5
391.86	342.5
392.085	351.5
392.31	350.5
392.534	331.5
392.759	340.5
392.984	333.5
393.208	348.5
393.433	325.5
393.658	347.5
393.882	348.5
394.107	340.5
394.331	335.5
394.556	339.5
394.78	344.5
395.005	334.5
395.229	329.5
395.454	354.5
395.678	343.5
395.903	352.5
396.127	375.5
396.352	356.5
396.576	362.5
396.801	340.5
397.025	337.5
397.249	341.5
397.474	365.5
397.698	352.5
397.922	370.5
398.147	373.5
398.371	384.5
398.595	361.5
398.82	376.5
399.044	397.5
399.268	393.5
399.492	416.5
399.717	458.5
399.941	471.5
400.165	459.5
400.389	457.5
400.613	415.5
400.837	402.5
401.062	392.5
401.286	380.5
401.51	378.5
401.734	389.5
401.958	386.5
402.182	407.5
402.406	388.5
402.63	388.5
402.854	383.5
403.078	404.5
403.302	416.5
403.526	395.5
403.75	390.5
403.974	405.5
404.198	401.5
404.422	412.5
404.645	396.5
404.869	398.5
405.093	403.5
405.317	443.5
405.541	436.5
405.765	412.5
405.988	420.5
406.212	442.5
406.436	420.5
406.66	451.5
406.883	421.5
407.107	447.5
407.331	458.5
407.555	481.5
407.778	509.5
408.002	462.5
408.226	453.5
408.449	443.5
408.673	430.5
408.896	434.5
409.12	459.5
409.344	442.5
409.567	430.5
409.791	395.5
410.014	418.5
410.238	418.5
410.461	392.5
410.685	407.5
410.908	412.5
411.132	446.5
411.355	440.5
411.578	444.5
411.802	408.5
412.025	404.5
412.249	420.5
412.472	419.5
412.695	393.5
412.919	394.5
413.142	400.5
413.365	402.5
413.589	389.5
413.812	388.5
414.035	396.5
414.258	399.5
414.482	385.5
414.705	398.5
414.928	397.5
415.151	398.5
415.374	369.5
415.597	397.5
415.821	386.5
416.044	401.5
416.267	392.5
416.49	379.5
416.713	386.5
416.936	406.5
417.159	393.5
417.382	385.5
417.605	376.5
417.828	392.5
418.051	421.5
418.274	396.5
418.497	396.5
418.72	392.5
418.943	404.5
419.166	423.5
419.389	423.5
419.611	400.5
419.834	398.5
420.057	402.5
420.28	404.5
420.503	407.5
420.726	407.5
420.948	421.5
421.171	429.5
421.394	454.5
421.617	409.5
421.839	402.5
422.062	403.5
422.285	408.5
422.507	437.5
422.73	484.5
422.953	446.5
423.175	419.5
423.398	414.5
423.621	424.5
423.843	459.5
424.066	435.5
424.288	406.5
424.511	447.5
424.733	462.5
424.956	520.5
425.178	481.5
425.401	467.5
425.623	509.5
425.846	435.5
426.068	428.5
426.291	415.5
426.513	413.5
426.735	433.5
426.958	448.5
427.18	500.5
427.402	576.5
427.625	593.5
427.847	540.5
428.069	477.5
428.292	455.5
428.514	415.5
428.736	395.5
428.958	411.5
429.181	398.5
429.403	389.5
429.625	408.5
429.847	405.5
430.069	434.5
430.292	446.5
430.514	409.5
430.736	381.5
430.958	386.5
431.18	378.5
431.402	354.5
431.624	369.5
431.846	380.5
432.068	388.5
432.29	366.5
432.512	378.5
432.734	378.5
432.956	389.5
433.178	390.5
433.4	395.5
433.622	383.5
433.844	412.5
434.066	380.5
434.287	365.5
434.509	395.5
434.731	376.5
434.953	393.5
435.175	415.5
435.397	406.5
435.618	425.5
435.84	449.5
436.062	485.5
436.284	514.5
436.505	442.5
436.727	425.5
436.949	398.5
437.17	394.5
437.392	396.5
437.614	410.5
437.835	431.5
438.057	453.5
438.278	501.5
438.5	486.5
438.721	541.5
438.943	536.5
439.165	454.5
439.386	416.5
439.608	441.5
439.829	408.5
440.05	432.5
440.272	442.5
440.493	420.5
440.715	418.5
440.936	378.5
441.158	398.5
441.379	390.5
441.6	397.5
441.822	426.5
442.043	429.5
442.264	483.5
442.486	473.5
442.707	462.5
442.928	429.5
443.149	426.5
443.371	446.5
443.592	442.5
443.813	517.5
444.034	541.5
444.255	479.5
444.476	450.5
444.698	432.5
444.919	433.5
445.14	498.5
445.361	471.5
445.582	451.5
445.803	492.5
446.024	542.5
446.245	525.5
446.466	473.5
446.687	434.5
446.908	408.5
447.129	398.5
447.35	379.5
447.571	394.5
447.792	377.5
448.013	379.5
448.234	405.5
448.455	406.5
448.675	487.5
448.896	567.5
449.117	490.5
449.338	442.5
449.559	518.5
449.779	572.5
450	464.5
450.221	409.5
450.442	386.5
450.662	384.5
450.883	360.5
451.104	377.5
451.324	379.5
451.545	376.5
451.766	361.5
451.986	340.5
452.207	350.5
452.428	353.5
452.648	376.5
452.869	349.5
453.089	335.5
453.31	371.5
453.53	353.5
453.751	352.5
453.971	346.5
454.192	360.5
454.412	344.5
454.633	351.5
454.853	335.5
455.073	337.5
455.294	345.5
455.514	372.5
455.734	382.5
455.955	356.5
456.175	350.5
456.395	334.5
456.616	337.5
456.836	331.5
457.056	329.5
457.276	310.5
457.497	344.5
457.717	324.5
457.937	334.5
458.157	352.5
458.377	332.5
458.598	349.5
458.818	396.5
459.038	445.5
459.258	424.5
459.478	380.5
459.698	372.5
459.918	358.5
460.138	384.5
460.358	396.5
460.578	392.5
460.798	401.5
461.018	402.5
461.238	389.5
461.458	380.5
461.678	386.5
461.898	382.5
462.118	393.5
462.338	395.5
462.558	420.5
462.777	404.5
462.997	444.5
463.217	439.5
463.437	462.5
463.657	418.5
463.876	429.5
464.096	415.5
464.316	410.5
464.536	411.5
464.755	433.5
464.975	403.5
465.195	429.5
465.414	473.5
465.634	430.5
465.854	413.5
466.073	386.5
466.293	378.5
466.512	377.5
466.732	370.5
466.951	358.5
467.171	374.5
467.391	357.5
467.61	374.5
467.829	382.5
468.049	394.5
468.268	388.5
468.488	392.5
468.707	369.5
468.927	359.5
469.146	376.5
469.365	365.5
469.585	375.5
469.804	371.5
470.023	361.5
470.243	363.5
470.462	358.5
470.681	369.5
470.901	374.5
471.12	364.5
471.339	371.5
471.558	380.5
471.777	388.5
471.997	379.5
472.216	374.5
472.435	442.5
472.654	434.5
472.873	371.5
473.092	358.5
473.311	368.5
473.53	374.5
473.749	355.5
473.968	378.5
474.187	458.5
474.406	466.5
474.625	398.5
474.844	387.5
475.063	358.5
475.282	363.5
475.501	383.5
475.72	361.5
475.939	356.5
476.158	381.5
476.377	386.5
476.596	368.5
476.814	389.5
477.033	392.5
477.252	408.5
477.471	402.5
477.69	399.5
477.908	398.5
478.127	394.5
478.346	405.5
478.564	418.5
478.783	412.5
479.002	411.5
479.22	411.5
479.439	441.5
479.658	461.5
479.876	435.5
480.095	446.5
480.313	448.5
480.532	445.5
480.751	456.5
480.969	466.5
481.188	569.5
481.406	601.5
481.624	494.5
481.843	462.5
482.061	450.5
482.28	454.5
482.498	414.5
482.717	398.5
482.935	453.5
483.153	415.5
483.372	433.5
483.59	446.5
483.808	416.5
484.027	424.5
484.245	437.5
484.463	427.5
484.681	426.5
484.9	443.5
485.118	418.5
485.336	447.5
485.554	437.5
485.772	461.5
485.99	433.5
486.209	461.5
486.427	461.5
486.645	451.5
486.863	471.5
487.081	454.5
487.299	448.5
487.517	440.5
487.735	449.5
487.953	463.5
488.171	460.5
488.389	469.5
488.607	455.5
488.825	454.5
489.043	476.5
489.261	449.5
489.479	471.5
489.696	468.5
489.914	457.5
490.132	450.5
490.35	475.5
490.568	479.5
490.786	475.5
491.003	494.5
491.221	497.5
491.439	516.5
491.657	504.5
491.874	501.5
492.092	494.5
492.31	516.5
492.527	512.5
492.745	505.5
492.963	510.5
493.18	496.5
493.398	502.5
493.615	508.5
493.833	521.5
494.05	528.5
494.268	506.5
494.485	507.5
494.703	525.5
494.92	497.5
495.138	534.5
495.355	516.5
495.573	536.5
495.79	549.5
496.008	533.5
496.225	528.5
496.442	527.5
496.66	526.5
496.877	532.5
497.094	516.5
497.312	551.5
497.529	523.5
497.746	543.5
497.963	567.5
498.181	558.5
498.398	547.5
498.615	588.5
498.832	585.5
499.049	619.5
499.267	641.5
499.484	653.5
499.701	685.5
499.918	719.5
500.135	762.5
500.352	797.5
500.569	818.5
500.786	805.5
501.003	774.5
501.22	769.5
501.437	732.5
501.654	694.5
501.871	673.5
502.088	651.5
502.305	609.5
502.522	584.5
502.739	612.5
502.956	554.5
503.172	578.5
503.389	574.5
503.606	552.5
503.823	547.5
504.04	556.5
504.256	536.5
504.473	544.5
504.69	546.5
504.907	548.5
505.123	509.5
505.34	521.5
505.557	500.5
505.773	496.5
505.99	492.5
506.207	502.5
506.423	495.5
506.64	491.5
506.856	485.5
507.073	482.5
507.289	462.5
507.506	496.5
507.722	515.5
507.939	510.5
508.155	473.5
508.372	460.5
508.588	462.5
508.805	476.5
509.021	451.5
509.238	470.5
509.454	462.5
509.67	454.5
509.887	454.5
510.103	457.5
510.319	455.5
510.536	539.5
510.752	868.5
510.968	681.5
511.184	468.5
511.401	422.5
511.617	444.5
511.833	443.5
512.049	451.5
512.265	442.5
512.481	427.5
512.698	459.5
512.914	426.5
513.13	426.5
513.346	442.5
513.562	430.5
513.778	429.5
513.994	427.5
514.21	456.5
514.426	469.5
514.642	483.5
514.858	485.5
515.074	486.5
515.29	598.5
515.506	822.5
515.721	716.5
515.937	501.5
516.153	480.5
516.369	468.5
516.585	486.5
516.801	454.5
517.016	454.5
517.232	447.5
517.448	447.5
517.664	480.5
517.879	477.5
518.095	466.5
518.311	465.5
518.527	465.5
518.742	427.5
518.958	450.5
519.173	457.5
519.389	452.5
519.605	456.5
519.82	442.5
520.036	441.5
