Data from 1986.PennyLincolnUp.Lamp.En5.5.200Scan.071819.P2_HRD10591_17-11-45-973.txt Node
Date: Thu Jul 18 17:11:45 EDT 2019
User: cochatt
Spectrometer: HR+D1059
Trigger mode: 1
Integration Time (sec): 1.000000E-1
Scans to average: 1
Electric dark correction enabled: true
Nonlinearity correction enabled: false
Boxcar width: 0
XAxis mode: Wavelengths
Number of Pixels in Spectrum: 2048
>>>>>Begin Spectral Data<<<<<
223.165	-20.75
223.4	-20.75
223.635	-20.75
223.869	-21.75
224.104	-10.75
224.338	-10.75
224.573	-6.75
224.808	-2.75
225.042	-18.75
225.277	-13.75
225.511	-8.75
225.746	3.25
225.98	11.25
226.215	12.25
226.449	17.25
226.683	25.25
226.918	25.25
227.152	20.25
227.387	30.25
227.621	43.25
227.856	33.25
228.09	55.25
228.324	51.25
228.559	57.25
228.793	62.25
229.027	98.25
229.262	109.25
229.496	114.25
229.73	144.25
229.964	166.25
230.199	126.25
230.433	129.25
230.667	109.25
230.901	118.25
231.136	97.25
231.37	123.25
231.604	108.25
231.838	120.25
232.072	112.25
232.306	114.25
232.541	109.25
232.775	112.25
233.009	117.25
233.243	108.25
233.477	116.25
233.711	108.25
233.945	110.25
234.179	123.25
234.413	120.25
234.647	118.25
234.881	124.25
235.115	124.25
235.349	126.25
235.583	119.25
235.817	121.25
236.051	130.25
236.285	121.25
236.519	114.25
236.753	124.25
236.987	146.25
237.221	187.25
237.455	246.25
237.689	212.25
237.922	155.25
238.156	147.25
238.39	131.25
238.624	123.25
238.858	128.25
239.091	130.25
239.325	121.25
239.559	141.25
239.793	138.25
240.027	145.25
240.26	152.25
240.494	184.25
240.728	165.25
240.961	168.25
241.195	139.25
241.429	142.25
241.662	140.25
241.896	141.25
242.13	135.25
242.363	134.25
242.597	144.25
242.83	148.25
243.064	126.25
243.298	130.25
243.531	125.25
243.765	151.25
243.998	149.25
244.232	164.25
244.465	137.25
244.699	142.25
244.932	147.25
245.166	144.25
245.399	153.25
245.633	140.25
245.866	148.25
246.099	140.25
246.333	146.25
246.566	160.25
246.8	152.25
247.033	160.25
247.266	155.25
247.5	160.25
247.733	165.25
247.966	197.25
248.2	176.25
248.433	173.25
248.666	176.25
248.899	198.25
249.133	214.25
249.366	222.25
249.599	216.25
249.832	202.25
250.066	189.25
250.299	204.25
250.532	213.25
250.765	264.25
250.998	270.25
251.231	263.25
251.465	257.25
251.698	216.25
251.931	235.25
252.164	218.25
252.397	225.25
252.63	205.25
252.863	228.25
253.096	241.25
253.329	248.25
253.562	240.25
253.795	238.25
254.028	261.25
254.261	253.25
254.494	269.25
254.727	270.25
254.96	304.25
255.193	305.25
255.426	295.25
255.659	291.25
255.892	277.25
256.124	316.25
256.357	325.25
256.59	316.25
256.823	284.25
257.056	258.25
257.289	280.25
257.521	246.25
257.754	224.25
257.987	226.25
258.22	233.25
258.452	234.25
258.685	229.25
258.918	230.25
259.151	226.25
259.383	233.25
259.616	223.25
259.849	242.25
260.081	249.25
260.314	274.25
260.547	286.25
260.779	286.25
261.012	242.25
261.244	234.25
261.477	252.25
261.71	248.25
261.942	249.25
262.175	280.25
262.407	259.25
262.64	250.25
262.872	230.25
263.105	226.25
263.337	241.25
263.57	236.25
263.802	220.25
264.035	233.25
264.267	217.25
264.499	222.25
264.732	225.25
264.964	213.25
265.197	213.25
265.429	208.25
265.661	214.25
265.894	231.25
266.126	220.25
266.358	232.25
266.591	224.25
266.823	232.25
267.055	234.25
267.287	236.25
267.52	226.25
267.752	239.25
267.984	233.25
268.216	239.25
268.448	243.25
268.681	241.25
268.913	252.25
269.145	285.25
269.377	293.25
269.609	282.25
269.841	276.25
270.073	288.25
270.306	315.25
270.538	342.25
270.77	338.25
271.002	344.25
271.234	315.25
271.466	314.25
271.698	340.25
271.93	350.25
272.162	342.25
272.394	350.25
272.626	313.25
272.858	313.25
273.09	306.25
273.322	306.25
273.553	289.25
273.785	289.25
274.017	277.25
274.249	269.25
274.481	278.25
274.713	285.25
274.945	291.25
275.176	274.25
275.408	260.25
275.64	291.25
275.872	285.25
276.104	292.25
276.335	272.25
276.567	279.25
276.799	314.25
277.031	346.25
277.262	340.25
277.494	355.25
277.726	324.25
277.957	311.25
278.189	292.25
278.421	299.25
278.652	271.25
278.884	286.25
279.115	301.25
279.347	280.25
279.579	269.25
279.81	287.25
280.042	269.25
280.273	289.25
280.505	286.25
280.736	270.25
280.968	275.25
281.199	273.25
281.431	279.25
281.662	281.25
281.894	276.25
282.125	279.25
282.356	314.25
282.588	322.25
282.819	317.25
283.051	302.25
283.282	283.25
283.513	282.25
283.745	276.25
283.976	289.25
284.207	275.25
284.439	293.25
284.67	293.25
284.901	289.25
285.132	276.25
285.364	292.25
285.595	278.25
285.826	275.25
286.057	294.25
286.288	284.25
286.52	283.25
286.751	269.25
286.982	287.25
287.213	279.25
287.444	292.25
287.675	276.25
287.906	299.25
288.138	311.25
288.369	288.25
288.6	294.25
288.831	280.25
289.062	304.25
289.293	294.25
289.524	295.25
289.755	286.25
289.986	270.25
290.217	290.25
290.448	291.25
290.679	306.25
290.91	287.25
291.141	286.25
291.371	280.25
291.602	280.25
291.833	291.25
292.064	286.25
292.295	288.25
292.526	293.25
292.757	289.25
292.987	290.25
293.218	301.25
293.449	288.25
293.68	285.25
293.91	296.25
294.141	285.25
294.372	279.25
294.603	309.25
294.833	299.25
295.064	276.25
295.295	298.25
295.525	293.25
295.756	293.25
295.987	294.25
296.217	328.25
296.448	343.25
296.679	300.25
296.909	292.25
297.14	297.25
297.37	281.25
297.601	308.25
297.831	285.25
298.062	292.25
298.292	310.25
298.523	286.25
298.753	298.25
298.984	298.25
299.214	289.25
299.445	292.25
299.675	309.25
299.905	305.25
300.136	322.25
300.366	309.25
300.597	293.25
300.827	310.25
301.057	313.25
301.288	319.25
301.518	322.25
301.748	313.25
301.979	308.25
302.209	314.25
302.439	317.25
302.669	307.25
302.9	329.25
303.13	319.25
303.36	326.25
303.59	334.25
303.82	323.25
304.051	320.25
304.281	298.25
304.511	305.25
304.741	307.25
304.971	295.25
305.201	309.25
305.431	339.25
305.661	330.25
305.891	312.25
306.121	305.25
306.352	338.25
306.582	322.25
306.812	329.25
307.042	321.25
307.272	321.25
307.502	324.25
307.731	332.25
307.961	348.25
308.191	323.25
308.421	310.25
308.651	320.25
308.881	328.25
309.111	354.25
309.341	345.25
309.571	338.25
309.8	363.25
310.03	378.25
310.26	378.25
310.49	382.25
310.72	388.25
310.949	418.25
311.179	410.25
311.409	379.25
311.639	363.25
311.868	384.25
312.098	386.25
312.328	385.25
312.557	401.25
312.787	427.25
313.017	428.25
313.246	407.25
313.476	362.25
313.706	376.25
313.935	386.25
314.165	392.25
314.394	420.25
314.624	416.25
314.853	403.25
315.083	392.25
315.312	358.25
315.542	392.25
315.771	378.25
316.001	371.25
316.23	380.25
316.46	380.25
316.689	380.25
316.919	374.25
317.148	398.25
317.377	393.25
317.607	380.25
317.836	389.25
318.065	374.25
318.295	377.25
318.524	363.25
318.753	384.25
318.983	378.25
319.212	385.25
319.441	370.25
319.67	387.25
319.9	394.25
320.129	394.25
320.358	381.25
320.587	384.25
320.816	394.25
321.046	397.25
321.275	416.25
321.504	424.25
321.733	400.25
321.962	429.25
322.191	437.25
322.42	475.25
322.649	484.25
322.878	498.25
323.108	485.25
323.337	526.25
323.566	520.25
323.795	584.25
324.024	644.25
324.253	774.25
324.482	1106.25
324.71	1688.25
324.939	2464.25
325.168	2188.25
325.397	1154.25
325.626	748.25
325.855	609.25
326.084	605.25
326.313	536.25
326.542	557.25
326.77	597.25
326.999	727.25
327.228	1019.25
327.457	1507.25
327.686	1868.25
327.914	1303.25
328.143	860.25
328.372	753.25
328.6	720.25
328.829	664.25
329.058	663.25
329.287	686.25
329.515	649.25
329.744	640.25
329.972	625.25
330.201	700.25
330.43	788.25
330.658	776.25
330.887	730.25
331.115	685.25
331.344	568.25
331.572	544.25
331.801	546.25
332.03	532.25
332.258	500.25
332.486	481.25
332.715	470.25
332.943	489.25
333.172	476.25
333.4	492.25
333.629	518.25
333.857	528.25
334.085	582.25
334.314	662.25
334.542	770.25
334.771	819.25
334.999	672.25
335.227	564.25
335.455	502.25
335.684	496.25
335.912	474.25
336.14	454.25
336.369	472.25
336.597	467.25
336.825	460.25
337.053	455.25
337.281	474.25
337.51	420.25
337.738	450.25
337.966	438.25
338.194	446.25
338.422	439.25
338.65	435.25
338.878	427.25
339.106	400.25
339.334	414.25
339.562	423.25
339.79	436.25
340.018	415.25
340.246	419.25
340.474	428.25
340.702	440.25
340.93	423.25
341.158	398.25
341.386	428.25
341.614	421.25
341.842	420.25
342.07	426.25
342.298	418.25
342.526	419.25
342.754	409.25
342.981	404.25
343.209	387.25
343.437	397.25
343.665	407.25
343.893	422.25
344.12	402.25
344.348	402.25
344.576	398.25
344.804	418.25
345.031	437.25
345.259	453.25
345.487	433.25
345.714	414.25
345.942	420.25
346.17	414.25
346.397	398.25
346.625	423.25
346.853	399.25
347.08	413.25
347.308	418.25
347.535	449.25
347.763	434.25
347.99	432.25
348.218	428.25
348.445	440.25
348.673	423.25
348.9	414.25
349.128	393.25
349.355	389.25
349.583	395.25
349.81	405.25
350.037	394.25
350.265	414.25
350.492	383.25
350.72	402.25
350.947	418.25
351.174	413.25
351.402	428.25
351.629	416.25
351.856	411.25
352.083	442.25
352.311	437.25
352.538	438.25
352.765	426.25
352.992	410.25
353.22	422.25
353.447	426.25
353.674	405.25
353.901	394.25
354.128	379.25
354.355	384.25
354.583	372.25
354.81	385.25
355.037	368.25
355.264	358.25
355.491	365.25
355.718	371.25
355.945	380.25
356.172	362.25
356.399	378.25
356.626	384.25
356.853	362.25
357.08	373.25
357.307	379.25
357.534	387.25
357.761	384.25
357.988	386.25
358.215	381.25
358.441	362.25
358.668	356.25
358.895	371.25
359.122	382.25
359.349	388.25
359.576	412.25
359.802	433.25
360.029	456.25
360.256	491.25
360.483	465.25
360.709	435.25
360.936	403.25
361.163	416.25
361.39	406.25
361.616	427.25
361.843	409.25
362.07	387.25
362.296	398.25
362.523	406.25
362.749	388.25
362.976	408.25
363.203	380.25
363.429	388.25
363.656	392.25
363.882	388.25
364.109	369.25
364.335	384.25
364.562	389.25
364.788	383.25
365.015	389.25
365.241	393.25
365.468	405.25
365.694	388.25
365.92	391.25
366.147	386.25
366.373	360.25
366.599	341.25
366.826	389.25
367.052	376.25
367.278	374.25
367.505	375.25
367.731	396.25
367.957	390.25
368.184	390.25
368.41	374.25
368.636	398.25
368.862	398.25
369.089	383.25
369.315	389.25
369.541	374.25
369.767	375.25
369.993	371.25
370.219	376.25
370.445	371.25
370.672	372.25
370.898	369.25
371.124	368.25
371.35	367.25
371.576	353.25
371.802	375.25
372.028	382.25
372.254	345.25
372.48	368.25
372.706	368.25
372.932	372.25
373.158	371.25
373.384	375.25
373.61	374.25
373.835	376.25
374.061	370.25
374.287	388.25
374.513	371.25
374.739	381.25
374.965	363.25
375.191	378.25
375.416	366.25
375.642	376.25
375.868	349.25
376.094	371.25
376.319	361.25
376.545	352.25
376.771	379.25
376.997	353.25
377.222	361.25
377.448	358.25
377.674	364.25
377.899	348.25
378.125	374.25
378.35	367.25
378.576	358.25
378.802	357.25
379.027	372.25
379.253	358.25
379.478	362.25
379.704	345.25
379.929	372.25
380.155	361.25
380.38	388.25
380.606	352.25
380.831	355.25
381.057	363.25
381.282	363.25
381.507	356.25
381.733	359.25
381.958	348.25
382.184	366.25
382.409	357.25
382.634	374.25
382.86	365.25
383.085	352.25
383.31	355.25
383.535	358.25
383.761	373.25
383.986	357.25
384.211	369.25
384.436	379.25
384.662	369.25
384.887	370.25
385.112	364.25
385.337	400.25
385.562	380.25
385.787	386.25
386.013	372.25
386.238	378.25
386.463	388.25
386.688	382.25
386.913	375.25
387.138	376.25
387.363	374.25
387.588	381.25
387.813	395.25
388.038	386.25
388.263	357.25
388.488	373.25
388.713	378.25
388.938	387.25
389.163	386.25
389.387	396.25
389.612	364.25
389.837	361.25
390.062	380.25
390.287	379.25
390.512	368.25
390.736	368.25
390.961	353.25
391.186	359.25
391.411	385.25
391.636	378.25
391.86	378.25
392.085	368.25
392.31	387.25
392.534	385.25
392.759	390.25
392.984	390.25
393.208	382.25
393.433	377.25
393.658	394.25
393.882	371.25
394.107	365.25
394.331	398.25
394.556	380.25
394.78	385.25
395.005	384.25
395.229	369.25
395.454	378.25
395.678	380.25
395.903	406.25
396.127	431.25
396.352	425.25
396.576	416.25
396.801	418.25
397.025	399.25
397.249	388.25
397.474	391.25
397.698	408.25
397.922	395.25
398.147	438.25
398.371	424.25
398.595	404.25
398.82	425.25
399.044	399.25
399.268	412.25
399.492	441.25
399.717	443.25
399.941	496.25
400.165	510.25
400.389	531.25
400.613	478.25
400.837	442.25
401.062	452.25
401.286	432.25
401.51	428.25
401.734	424.25
401.958	425.25
402.182	431.25
402.406	445.25
402.63	465.25
402.854	452.25
403.078	442.25
403.302	458.25
403.526	438.25
403.75	455.25
403.974	443.25
404.198	445.25
404.422	466.25
404.645	460.25
404.869	514.25
405.093	528.25
405.317	564.25
405.541	576.25
405.765	557.25
405.988	530.25
406.212	504.25
406.436	526.25
406.66	516.25
406.883	494.25
407.107	518.25
407.331	533.25
407.555	618.25
407.778	612.25
408.002	536.25
408.226	500.25
408.449	495.25
408.673	486.25
408.896	535.25
409.12	580.25
409.344	540.25
409.567	504.25
409.791	476.25
410.014	464.25
410.238	433.25
410.461	478.25
410.685	459.25
410.908	483.25
411.132	507.25
411.355	569.25
411.578	530.25
411.802	469.25
412.025	478.25
412.249	503.25
412.472	544.25
412.695	572.25
412.919	572.25
413.142	524.25
413.365	481.25
413.589	476.25
413.812	464.25
414.035	450.25
414.258	459.25
414.482	439.25
414.705	450.25
414.928	451.25
415.151	446.25
415.374	422.25
415.597	427.25
415.821	426.25
416.044	419.25
416.267	443.25
416.49	441.25
416.713	418.25
416.936	459.25
417.159	443.25
417.382	445.25
417.605	449.25
417.828	467.25
418.051	466.25
418.274	466.25
418.497	454.25
418.72	441.25
418.943	435.25
419.166	450.25
419.389	460.25
419.611	452.25
419.834	469.25
420.057	467.25
420.28	490.25
420.503	477.25
420.726	500.25
420.948	510.25
421.171	537.25
421.394	562.25
421.617	497.25
421.839	471.25
422.062	465.25
422.285	473.25
422.507	538.25
422.73	611.25
422.953	602.25
423.175	519.25
423.398	501.25
423.621	451.25
423.843	500.25
424.066	502.25
424.288	516.25
424.511	534.25
424.733	562.25
424.956	658.25
425.178	622.25
425.401	621.25
425.623	642.25
425.846	572.25
426.068	513.25
426.291	472.25
426.513	497.25
426.735	512.25
426.958	576.25
427.18	645.25
427.402	768.25
427.625	854.25
427.847	778.25
428.069	696.25
428.292	628.25
428.514	540.25
428.736	497.25
428.958	483.25
429.181	486.25
429.403	475.25
429.625	503.25
429.847	522.25
430.069	584.25
430.292	570.25
430.514	505.25
430.736	469.25
430.958	468.25
431.18	452.25
431.402	458.25
431.624	413.25
431.846	444.25
432.068	422.25
432.29	419.25
432.512	448.25
432.734	460.25
432.956	445.25
433.178	461.25
433.4	451.25
433.622	461.25
433.844	419.25
434.066	444.25
434.287	428.25
434.509	420.25
434.731	446.25
434.953	459.25
435.175	485.25
435.397	493.25
435.618	523.25
435.84	568.25
436.062	645.25
436.284	717.25
436.505	603.25
436.727	528.25
436.949	481.25
437.17	482.25
437.392	478.25
437.614	490.25
437.835	543.25
438.057	625.25
438.278	722.25
438.5	733.25
438.721	744.25
438.943	743.25
439.165	596.25
439.386	563.25
439.608	527.25
439.829	530.25
440.05	556.25
440.272	610.25
440.493	563.25
440.715	506.25
440.936	494.25
441.158	460.25
441.379	448.25
441.6	500.25
441.822	530.25
442.043	573.25
442.264	637.25
442.486	680.25
442.707	584.25
442.928	546.25
443.149	524.25
443.371	550.25
443.592	615.25
443.813	693.25
444.034	720.25
444.255	617.25
444.476	523.25
444.698	515.25
444.919	506.25
445.14	593.25
445.361	538.25
445.582	559.25
445.803	622.25
446.024	713.25
446.245	728.25
446.466	717.25
446.687	585.25
446.908	532.25
447.129	495.25
447.35	480.25
447.571	457.25
447.792	467.25
448.013	474.25
448.234	518.25
448.455	570.25
448.675	676.25
448.896	763.25
449.117	644.25
449.338	616.25
449.559	717.25
449.779	780.25
450	657.25
450.221	516.25
450.442	501.25
450.662	459.25
450.883	488.25
451.104	496.25
451.324	507.25
451.545	467.25
451.766	450.25
451.986	406.25
452.207	424.25
452.428	424.25
452.648	426.25
452.869	441.25
453.089	441.25
453.31	455.25
453.53	422.25
453.751	434.25
453.971	434.25
454.192	444.25
454.412	444.25
454.633	424.25
454.853	422.25
455.073	436.25
455.294	456.25
455.514	523.25
455.734	497.25
455.955	432.25
456.175	405.25
456.395	410.25
456.616	389.25
456.836	416.25
457.056	386.25
457.276	392.25
457.497	381.25
457.717	398.25
457.937	386.25
458.157	399.25
458.377	398.25
458.598	453.25
458.818	503.25
459.038	591.25
459.258	611.25
459.478	500.25
459.698	437.25
459.918	442.25
460.138	442.25
460.358	420.25
460.578	420.25
460.798	405.25
461.018	443.25
461.238	424.25
461.458	438.25
461.678	415.25
461.898	409.25
462.118	444.25
462.338	424.25
462.558	420.25
462.777	439.25
462.997	453.25
463.217	450.25
463.437	444.25
463.657	451.25
463.876	452.25
464.096	429.25
464.316	432.25
464.536	447.25
464.755	449.25
464.975	454.25
465.195	522.25
465.414	599.25
465.634	552.25
465.854	477.25
466.073	452.25
466.293	442.25
466.512	436.25
466.732	396.25
466.951	435.25
467.171	422.25
467.391	416.25
467.61	439.25
467.829	453.25
468.049	470.25
468.268	506.25
468.488	483.25
468.707	434.25
468.927	418.25
469.146	394.25
469.365	399.25
469.585	397.25
469.804	446.25
470.023	427.25
470.243	444.25
470.462	448.25
470.681	458.25
470.901	439.25
471.12	427.25
471.339	446.25
471.558	444.25
471.777	438.25
471.997	453.25
472.216	491.25
472.435	606.25
472.654	568.25
472.873	502.25
473.092	458.25
473.311	454.25
473.53	458.25
473.749	458.25
473.968	511.25
474.187	631.25
474.406	626.25
474.625	516.25
474.844	462.25
475.063	451.25
475.282	450.25
475.501	440.25
475.72	450.25
475.939	446.25
476.158	462.25
476.377	486.25
476.596	464.25
476.814	469.25
477.033	482.25
477.252	473.25
477.471	469.25
477.69	459.25
477.908	472.25
478.127	471.25
478.346	454.25
478.564	494.25
478.783	484.25
479.002	492.25
479.22	477.25
479.439	525.25
479.658	545.25
479.876	534.25
480.095	531.25
480.313	579.25
480.532	564.25
480.751	553.25
480.969	594.25
481.188	826.25
481.406	928.25
481.624	722.25
481.843	644.25
482.061	594.25
482.28	571.25
482.498	573.25
482.717	526.25
482.935	547.25
483.153	553.25
483.372	525.25
483.59	539.25
483.808	541.25
484.027	538.25
484.245	541.25
484.463	514.25
484.681	540.25
484.9	554.25
485.118	533.25
485.336	540.25
485.554	542.25
485.772	540.25
485.99	541.25
486.209	551.25
486.427	573.25
486.645	569.25
486.863	604.25
487.081	596.25
487.299	575.25
487.517	569.25
487.735	566.25
487.953	590.25
488.171	581.25
488.389	585.25
488.607	592.25
488.825	578.25
489.043	582.25
489.261	569.25
489.479	567.25
489.696	589.25
489.914	600.25
490.132	624.25
490.35	609.25
490.568	612.25
490.786	616.25
491.003	642.25
491.221	646.25
491.439	672.25
491.657	668.25
491.874	690.25
492.092	694.25
492.31	689.25
492.527	702.25
492.745	690.25
492.963	704.25
493.18	703.25
493.398	735.25
493.615	670.25
493.833	673.25
494.05	698.25
494.268	708.25
494.485	710.25
494.703	677.25
494.92	685.25
495.138	677.25
495.355	706.25
495.573	714.25
495.79	698.25
496.008	708.25
496.225	690.25
496.442	679.25
496.66	697.25
496.877	673.25
497.094	686.25
497.312	677.25
497.529	697.25
497.746	703.25
497.963	701.25
498.181	708.25
498.398	724.25
498.615	729.25
498.832	709.25
499.049	724.25
499.267	723.25
499.484	730.25
499.701	770.25
499.918	744.25
500.135	792.25
500.352	821.25
500.569	821.25
500.786	840.25
501.003	808.25
501.22	816.25
501.437	828.25
501.654	793.25
501.871	794.25
