Data from 1986.PennyLincolnUp.Lamp.En5.5.200Scan.071819.P1_HRD10591_17-08-16-973.txt Node
Date: Thu Jul 18 17:08:16 EDT 2019
User: cochatt
Spectrometer: HR+D1059
Trigger mode: 1
Integration Time (sec): 1.000000E-1
Scans to average: 1
Electric dark correction enabled: true
Nonlinearity correction enabled: false
Boxcar width: 0
XAxis mode: Wavelengths
Number of Pixels in Spectrum: 2048
>>>>>Begin Spectral Data<<<<<
223.165	-16.25
223.4	-16.25
223.635	-16.25
223.869	-16.25
224.104	-9.25
224.338	-7.25
224.573	-22.25
224.808	-28.25
225.042	2.75
225.277	4.75
225.511	9.75
225.746	-1.25
225.98	-4.25
226.215	12.75
226.449	7.75
226.683	19.75
226.918	21.75
227.152	25.75
227.387	38.75
227.621	41.75
227.856	35.75
228.09	56.75
228.324	56.75
228.559	56.75
228.793	63.75
229.027	72.75
229.262	78.75
229.496	79.75
229.73	111.75
229.964	107.75
230.199	88.75
230.433	103.75
230.667	93.75
230.901	102.75
231.136	101.75
231.37	112.75
231.604	85.75
231.838	91.75
232.072	105.75
232.306	104.75
232.541	97.75
232.775	94.75
233.009	98.75
233.243	100.75
233.477	102.75
233.711	96.75
233.945	98.75
234.179	93.75
234.413	99.75
234.647	100.75
234.881	120.75
235.115	104.75
235.349	103.75
235.583	95.75
235.817	100.75
236.051	105.75
236.285	99.75
236.519	98.75
236.753	109.75
236.987	112.75
237.221	123.75
237.455	146.75
237.689	119.75
237.922	112.75
238.156	108.75
238.39	93.75
238.624	119.75
238.858	100.75
239.091	121.75
239.325	101.75
239.559	99.75
239.793	92.75
240.027	98.75
240.26	107.75
240.494	118.75
240.728	104.75
240.961	120.75
241.195	115.75
241.429	120.75
241.662	106.75
241.896	119.75
242.13	121.75
242.363	111.75
242.597	106.75
242.83	116.75
243.064	119.75
243.298	114.75
243.531	114.75
243.765	103.75
243.998	117.75
244.232	129.75
244.465	112.75
244.699	118.75
244.932	107.75
245.166	110.75
245.399	131.75
245.633	118.75
245.866	133.75
246.099	130.75
246.333	111.75
246.566	124.75
246.8	123.75
247.033	128.75
247.266	126.75
247.5	110.75
247.733	117.75
247.966	134.75
248.2	128.75
248.433	124.75
248.666	143.75
248.899	138.75
249.133	139.75
249.366	141.75
249.599	146.75
249.832	131.75
250.066	132.75
250.299	139.75
250.532	132.75
250.765	149.75
250.998	147.75
251.231	169.75
251.465	168.75
251.698	143.75
251.931	135.75
252.164	142.75
252.397	156.75
252.63	153.75
252.863	146.75
253.096	159.75
253.329	163.75
253.562	168.75
253.795	146.75
254.028	160.75
254.261	156.75
254.494	163.75
254.727	153.75
254.96	175.75
255.193	172.75
255.426	171.75
255.659	161.75
255.892	172.75
256.124	181.75
256.357	167.75
256.59	151.75
256.823	168.75
257.056	156.75
257.289	159.75
257.521	172.75
257.754	163.75
257.987	169.75
258.22	160.75
258.452	152.75
258.685	167.75
258.918	163.75
259.151	166.75
259.383	167.75
259.616	156.75
259.849	164.75
260.081	165.75
260.314	175.75
260.547	182.75
260.779	184.75
261.012	181.75
261.244	161.75
261.477	168.75
261.71	171.75
261.942	190.75
262.175	172.75
262.407	175.75
262.64	147.75
262.872	156.75
263.105	151.75
263.337	172.75
263.57	153.75
263.802	166.75
264.035	157.75
264.267	168.75
264.499	162.75
264.732	164.75
264.964	152.75
265.197	139.75
265.429	170.75
265.661	169.75
265.894	153.75
266.126	157.75
266.358	150.75
266.591	139.75
266.823	168.75
267.055	177.75
267.287	180.75
267.52	169.75
267.752	167.75
267.984	178.75
268.216	175.75
268.448	173.75
268.681	171.75
268.913	172.75
269.145	179.75
269.377	194.75
269.609	189.75
269.841	192.75
270.073	189.75
270.306	212.75
270.538	209.75
270.77	213.75
271.002	213.75
271.234	198.75
271.466	195.75
271.698	207.75
271.93	218.75
272.162	204.75
272.394	211.75
272.626	210.75
272.858	208.75
273.09	186.75
273.322	185.75
273.553	175.75
273.785	173.75
274.017	189.75
274.249	199.75
274.481	190.75
274.713	200.75
274.945	189.75
275.176	203.75
275.408	199.75
275.64	189.75
275.872	182.75
276.104	196.75
276.335	192.75
276.567	207.75
276.799	217.75
277.031	199.75
277.262	224.75
277.494	232.75
277.726	211.75
277.957	220.75
278.189	208.75
278.421	210.75
278.652	200.75
278.884	191.75
279.115	211.75
279.347	193.75
279.579	205.75
279.81	198.75
280.042	200.75
280.273	208.75
280.505	208.75
280.736	224.75
280.968	187.75
281.199	191.75
281.431	207.75
281.662	192.75
281.894	204.75
282.125	210.75
282.356	207.75
282.588	220.75
282.819	240.75
283.051	205.75
283.282	202.75
283.513	205.75
283.745	198.75
283.976	216.75
284.207	188.75
284.439	194.75
284.67	213.75
284.901	232.75
285.132	216.75
285.364	202.75
285.595	208.75
285.826	207.75
286.057	207.75
286.288	202.75
286.52	219.75
286.751	226.75
286.982	206.75
287.213	208.75
287.444	209.75
287.675	200.75
287.906	219.75
288.138	226.75
288.369	206.75
288.6	229.75
288.831	228.75
289.062	215.75
289.293	225.75
289.524	226.75
289.755	216.75
289.986	221.75
290.217	204.75
290.448	212.75
290.679	240.75
290.91	223.75
291.141	219.75
291.371	230.75
291.602	210.75
291.833	213.75
292.064	195.75
292.295	225.75
292.526	201.75
292.757	219.75
292.987	200.75
293.218	215.75
293.449	233.75
293.68	220.75
293.91	217.75
294.141	219.75
294.372	232.75
294.603	212.75
294.833	205.75
295.064	210.75
295.295	235.75
295.525	219.75
295.756	221.75
295.987	239.75
296.217	231.75
296.448	244.75
296.679	236.75
296.909	226.75
297.14	227.75
297.37	221.75
297.601	227.75
297.831	213.75
298.062	239.75
298.292	219.75
298.523	225.75
298.753	230.75
298.984	247.75
299.214	224.75
299.445	237.75
299.675	233.75
299.905	244.75
300.136	243.75
300.366	229.75
300.597	227.75
300.827	229.75
301.057	247.75
301.288	261.75
301.518	263.75
301.748	244.75
301.979	246.75
302.209	252.75
302.439	256.75
302.669	250.75
302.9	258.75
303.13	236.75
303.36	244.75
303.59	253.75
303.82	242.75
304.051	252.75
304.281	257.75
304.511	245.75
304.741	253.75
304.971	224.75
305.201	237.75
305.431	236.75
305.661	256.75
305.891	248.75
306.121	259.75
306.352	239.75
306.582	243.75
306.812	254.75
307.042	256.75
307.272	244.75
307.502	250.75
307.731	246.75
307.961	261.75
308.191	246.75
308.421	256.75
308.651	267.75
308.881	250.75
309.111	269.75
309.341	261.75
309.571	252.75
309.8	276.75
310.03	276.75
310.26	272.75
310.49	269.75
310.72	279.75
310.949	291.75
311.179	276.75
311.409	277.75
311.639	268.75
311.868	273.75
312.098	259.75
312.328	263.75
312.557	266.75
312.787	263.75
313.017	283.75
313.246	278.75
313.476	280.75
313.706	274.75
313.935	273.75
314.165	291.75
314.394	294.75
314.624	284.75
314.853	280.75
315.083	269.75
315.312	283.75
315.542	272.75
315.771	263.75
316.001	255.75
316.23	262.75
316.46	275.75
316.689	270.75
316.919	287.75
317.148	292.75
317.377	275.75
317.607	285.75
317.836	266.75
318.065	272.75
318.295	286.75
318.524	293.75
318.753	274.75
318.983	265.75
319.212	276.75
319.441	261.75
319.67	299.75
319.9	265.75
320.129	275.75
320.358	271.75
320.587	274.75
320.816	272.75
321.046	304.75
321.275	311.75
321.504	292.75
321.733	298.75
321.962	293.75
322.191	297.75
322.42	300.75
322.649	304.75
322.878	315.75
323.108	322.75
323.337	330.75
323.566	326.75
323.795	351.75
324.024	356.75
324.253	436.75
324.482	554.75
324.71	819.75
324.939	1087.75
325.168	931.75
325.397	519.75
325.626	393.75
325.855	344.75
326.084	328.75
326.313	338.75
326.542	340.75
326.77	377.75
326.999	403.75
327.228	519.75
327.457	734.75
327.686	870.75
327.914	601.75
328.143	431.75
328.372	420.75
328.6	379.75
328.829	354.75
329.058	348.75
329.287	372.75
329.515	361.75
329.744	362.75
329.972	363.75
330.201	388.75
330.43	448.75
330.658	398.75
330.887	416.75
331.115	390.75
331.344	354.75
331.572	370.75
331.801	325.75
332.03	343.75
332.258	351.75
332.486	333.75
332.715	337.75
332.943	349.75
333.172	321.75
333.4	362.75
333.629	360.75
333.857	379.75
334.085	385.75
334.314	427.75
334.542	464.75
334.771	507.75
334.999	426.75
335.227	371.75
335.455	365.75
335.684	353.75
335.912	344.75
336.14	341.75
336.369	335.75
336.597	335.75
336.825	323.75
337.053	328.75
337.281	316.75
337.51	325.75
337.738	328.75
337.966	331.75
338.194	332.75
338.422	313.75
338.65	303.75
338.878	314.75
339.106	317.75
339.334	325.75
339.562	310.75
339.79	323.75
340.018	316.75
340.246	333.75
340.474	301.75
340.702	319.75
340.93	314.75
341.158	306.75
341.386	311.75
341.614	315.75
341.842	318.75
342.07	317.75
342.298	309.75
342.526	307.75
342.754	324.75
342.981	307.75
343.209	299.75
343.437	307.75
343.665	330.75
343.893	323.75
344.12	338.75
344.348	316.75
344.576	339.75
344.804	321.75
345.031	338.75
345.259	319.75
345.487	312.75
345.714	307.75
345.942	294.75
346.17	287.75
346.397	284.75
346.625	309.75
346.853	296.75
347.08	298.75
347.308	285.75
347.535	296.75
347.763	307.75
347.99	304.75
348.218	294.75
348.445	300.75
348.673	303.75
348.9	309.75
349.128	327.75
349.355	272.75
349.583	300.75
349.81	274.75
350.037	283.75
350.265	293.75
350.492	285.75
350.72	276.75
350.947	291.75
351.174	291.75
351.402	301.75
351.629	290.75
351.856	294.75
352.083	291.75
352.311	310.75
352.538	292.75
352.765	296.75
352.992	288.75
353.22	294.75
353.447	294.75
353.674	297.75
353.901	273.75
354.128	268.75
354.355	288.75
354.583	292.75
354.81	285.75
355.037	289.75
355.264	264.75
355.491	286.75
355.718	279.75
355.945	283.75
356.172	285.75
356.399	269.75
356.626	287.75
356.853	289.75
357.08	290.75
357.307	276.75
357.534	279.75
357.761	286.75
357.988	295.75
358.215	281.75
358.441	276.75
358.668	305.75
358.895	298.75
359.122	270.75
359.349	293.75
359.576	315.75
359.802	299.75
360.029	305.75
360.256	312.75
360.483	301.75
360.709	291.75
360.936	293.75
361.163	288.75
361.39	287.75
361.616	289.75
361.843	281.75
362.07	298.75
362.296	297.75
362.523	269.75
362.749	302.75
362.976	298.75
363.203	303.75
363.429	287.75
363.656	276.75
363.882	283.75
364.109	273.75
364.335	293.75
364.562	303.75
364.788	277.75
365.015	283.75
365.241	305.75
365.468	275.75
365.694	287.75
365.92	292.75
366.147	295.75
366.373	284.75
366.599	281.75
366.826	264.75
367.052	289.75
367.278	295.75
367.505	287.75
367.731	293.75
367.957	292.75
368.184	281.75
368.41	289.75
368.636	272.75
368.862	299.75
369.089	279.75
369.315	286.75
369.541	285.75
369.767	285.75
369.993	296.75
370.219	286.75
370.445	291.75
370.672	293.75
370.898	282.75
371.124	305.75
371.35	297.75
371.576	285.75
371.802	290.75
372.028	300.75
372.254	283.75
372.48	271.75
372.706	312.75
372.932	306.75
373.158	287.75
373.384	301.75
373.61	281.75
373.835	300.75
374.061	295.75
374.287	280.75
374.513	294.75
374.739	284.75
374.965	292.75
375.191	306.75
375.416	297.75
375.642	285.75
375.868	282.75
376.094	293.75
376.319	295.75
376.545	301.75
376.771	289.75
376.997	274.75
377.222	303.75
377.448	299.75
377.674	286.75
377.899	283.75
378.125	300.75
378.35	291.75
378.576	286.75
378.802	301.75
379.027	305.75
379.253	299.75
379.478	286.75
379.704	295.75
379.929	300.75
380.155	279.75
380.38	287.75
380.606	300.75
380.831	288.75
381.057	308.75
381.282	292.75
381.507	320.75
381.733	312.75
381.958	309.75
382.184	312.75
382.409	280.75
382.634	300.75
382.86	314.75
383.085	299.75
383.31	306.75
383.535	307.75
383.761	300.75
383.986	295.75
384.211	320.75
384.436	323.75
384.662	318.75
384.887	326.75
385.112	317.75
385.337	339.75
385.562	340.75
385.787	335.75
386.013	327.75
386.238	331.75
386.463	349.75
386.688	317.75
386.913	303.75
387.138	310.75
387.363	339.75
387.588	325.75
387.813	336.75
388.038	310.75
388.263	326.75
388.488	332.75
388.713	321.75
388.938	300.75
389.163	325.75
389.387	310.75
389.612	328.75
389.837	301.75
390.062	314.75
390.287	311.75
390.512	305.75
390.736	331.75
390.961	316.75
391.186	332.75
391.411	321.75
391.636	333.75
391.86	346.75
392.085	347.75
392.31	331.75
392.534	320.75
392.759	332.75
392.984	309.75
393.208	311.75
393.433	327.75
393.658	355.75
393.882	316.75
394.107	327.75
394.331	319.75
394.556	327.75
394.78	329.75
395.005	337.75
395.229	343.75
395.454	333.75
395.678	345.75
395.903	349.75
396.127	353.75
396.352	359.75
396.576	336.75
396.801	337.75
397.025	344.75
397.249	346.75
397.474	344.75
397.698	342.75
397.922	339.75
398.147	350.75
398.371	360.75
398.595	355.75
398.82	362.75
399.044	385.75
399.268	397.75
399.492	428.75
399.717	459.75
399.941	470.75
400.165	467.75
400.389	421.75
400.613	416.75
400.837	404.75
401.062	378.75
401.286	357.75
401.51	371.75
401.734	369.75
401.958	357.75
402.182	385.75
402.406	375.75
402.63	379.75
402.854	375.75
403.078	377.75
403.302	393.75
403.526	381.75
403.75	384.75
403.974	391.75
404.198	387.75
404.422	380.75
404.645	376.75
404.869	388.75
405.093	408.75
405.317	432.75
405.541	432.75
405.765	420.75
405.988	394.75
406.212	416.75
406.436	415.75
406.66	448.75
406.883	419.75
407.107	433.75
407.331	452.75
407.555	498.75
407.778	485.75
408.002	464.75
408.226	421.75
408.449	417.75
408.673	431.75
408.896	411.75
409.12	445.75
409.344	436.75
409.567	387.75
409.791	404.75
410.014	394.75
410.238	403.75
410.461	394.75
410.685	416.75
410.908	398.75
411.132	411.75
411.355	443.75
411.578	441.75
411.802	404.75
412.025	379.75
412.249	393.75
412.472	403.75
412.695	391.75
412.919	402.75
413.142	387.75
413.365	407.75
413.589	394.75
413.812	370.75
414.035	374.75
414.258	385.75
414.482	398.75
414.705	391.75
414.928	377.75
415.151	382.75
415.374	386.75
415.597	362.75
415.821	388.75
416.044	407.75
416.267	375.75
416.49	365.75
416.713	379.75
416.936	376.75
417.159	385.75
417.382	376.75
417.605	375.75
417.828	407.75
418.051	376.75
418.274	381.75
418.497	388.75
418.72	387.75
418.943	369.75
419.166	414.75
419.389	421.75
419.611	401.75
419.834	397.75
420.057	402.75
420.28	391.75
420.503	393.75
420.726	378.75
420.948	395.75
421.171	408.75
421.394	431.75
421.617	397.75
421.839	383.75
422.062	385.75
422.285	388.75
422.507	409.75
422.73	458.75
422.953	445.75
423.175	407.75
423.398	401.75
423.621	404.75
423.843	424.75
424.066	437.75
424.288	409.75
424.511	408.75
424.733	453.75
424.956	493.75
425.178	464.75
425.401	451.75
425.623	463.75
425.846	410.75
426.068	407.75
426.291	404.75
426.513	407.75
426.735	407.75
426.958	425.75
427.18	477.75
427.402	532.75
427.625	587.75
427.847	490.75
428.069	415.75
428.292	429.75
428.514	415.75
428.736	388.75
428.958	401.75
429.181	379.75
429.403	381.75
429.625	396.75
429.847	417.75
430.069	434.75
430.292	419.75
430.514	393.75
430.736	377.75
430.958	367.75
431.18	380.75
431.402	368.75
431.624	365.75
431.846	373.75
432.068	369.75
432.29	363.75
432.512	359.75
432.734	387.75
432.956	374.75
433.178	381.75
433.4	377.75
433.622	378.75
433.844	372.75
434.066	362.75
434.287	369.75
434.509	383.75
434.731	377.75
434.953	380.75
435.175	416.75
435.397	415.75
435.618	408.75
435.84	429.75
436.062	476.75
436.284	487.75
436.505	435.75
436.727	397.75
436.949	395.75
437.17	382.75
437.392	383.75
437.614	393.75
437.835	401.75
438.057	440.75
438.278	479.75
438.5	483.75
438.721	514.75
438.943	484.75
439.165	417.75
439.386	393.75
439.608	385.75
439.829	404.75
440.05	413.75
440.272	431.75
440.493	418.75
440.715	409.75
440.936	391.75
441.158	377.75
441.379	363.75
441.6	403.75
441.822	406.75
442.043	435.75
442.264	481.75
442.486	469.75
442.707	429.75
442.928	407.75
443.149	427.75
443.371	426.75
443.592	447.75
443.813	486.75
444.034	511.75
444.255	459.75
444.476	423.75
444.698	466.75
444.919	423.75
445.14	552.75
445.361	481.75
445.582	440.75
445.803	477.75
446.024	507.75
446.245	514.75
446.466	460.75
446.687	407.75
446.908	397.75
447.129	387.75
447.35	371.75
447.571	372.75
447.792	371.75
448.013	351.75
448.234	365.75
448.455	401.75
448.675	465.75
448.896	500.75
449.117	450.75
449.338	426.75
449.559	475.75
449.779	535.75
450	454.75
450.221	375.75
450.442	377.75
450.662	368.75
450.883	363.75
451.104	375.75
451.324	366.75
451.545	351.75
451.766	344.75
451.986	353.75
452.207	346.75
452.428	327.75
452.648	341.75
452.869	344.75
453.089	348.75
453.31	345.75
453.53	328.75
453.751	329.75
453.971	319.75
454.192	347.75
454.412	331.75
454.633	339.75
454.853	317.75
455.073	337.75
455.294	346.75
455.514	379.75
455.734	373.75
455.955	346.75
456.175	342.75
456.395	341.75
456.616	317.75
456.836	308.75
457.056	329.75
457.276	320.75
457.497	323.75
457.717	321.75
457.937	336.75
458.157	324.75
458.377	337.75
458.598	327.75
458.818	368.75
459.038	423.75
459.258	415.75
459.478	370.75
459.698	367.75
459.918	366.75
460.138	378.75
460.358	383.75
460.578	385.75
460.798	377.75
461.018	381.75
461.238	408.75
461.458	379.75
461.678	393.75
461.898	386.75
462.118	374.75
462.338	393.75
462.558	387.75
462.777	406.75
462.997	433.75
463.217	425.75
463.437	421.75
463.657	421.75
463.876	412.75
464.096	429.75
464.316	413.75
464.536	403.75
464.755	404.75
464.975	409.75
465.195	416.75
465.414	441.75
465.634	412.75
465.854	385.75
466.073	378.75
466.293	364.75
466.512	363.75
466.732	361.75
466.951	366.75
467.171	359.75
467.391	345.75
467.61	365.75
467.829	358.75
468.049	384.75
468.268	397.75
468.488	367.75
468.707	362.75
468.927	334.75
469.146	353.75
469.365	343.75
469.585	349.75
469.804	345.75
470.023	363.75
470.243	356.75
470.462	357.75
470.681	370.75
470.901	359.75
471.12	355.75
471.339	358.75
471.558	352.75
471.777	350.75
471.997	368.75
472.216	409.75
472.435	469.75
472.654	458.75
472.873	383.75
473.092	364.75
473.311	363.75
473.53	360.75
473.749	355.75
473.968	378.75
474.187	408.75
474.406	445.75
474.625	386.75
474.844	365.75
475.063	355.75
475.282	372.75
475.501	371.75
475.72	378.75
475.939	348.75
476.158	387.75
476.377	373.75
476.596	343.75
476.814	383.75
477.033	377.75
477.252	381.75
477.471	378.75
477.69	377.75
477.908	394.75
478.127	395.75
478.346	406.75
478.564	415.75
478.783	408.75
479.002	405.75
479.22	399.75
479.439	413.75
479.658	432.75
479.876	448.75
480.095	417.75
480.313	460.75
480.532	451.75
480.751	451.75
480.969	484.75
481.188	621.75
481.406	681.75
481.624	508.75
481.843	452.75
482.061	449.75
482.28	447.75
482.498	423.75
482.717	417.75
482.935	412.75
483.153	420.75
483.372	420.75
483.59	432.75
483.808	427.75
484.027	441.75
484.245	415.75
484.463	413.75
484.681	438.75
484.9	405.75
485.118	429.75
485.336	409.75
485.554	423.75
485.772	444.75
485.99	437.75
486.209	426.75
486.427	428.75
486.645	439.75
486.863	441.75
487.081	436.75
487.299	458.75
487.517	433.75
487.735	439.75
487.953	435.75
488.171	450.75
488.389	444.75
488.607	445.75
488.825	459.75
489.043	419.75
489.261	465.75
489.479	445.75
489.696	456.75
489.914	453.75
490.132	455.75
490.35	444.75
490.568	437.75
490.786	451.75
491.003	465.75
491.221	472.75
491.439	464.75
491.657	482.75
491.874	492.75
492.092	486.75
492.31	481.75
492.527	483.75
492.745	497.75
492.963	496.75
493.18	499.75
493.398	484.75
493.615	501.75
493.833	488.75
494.05	499.75
494.268	486.75
494.485	501.75
494.703	493.75
494.92	511.75
495.138	509.75
495.355	497.75
495.573	487.75
495.79	495.75
496.008	512.75
496.225	511.75
496.442	526.75
496.66	507.75
496.877	478.75
497.094	519.75
497.312	523.75
497.529	509.75
497.746	524.75
497.963	516.75
498.181	547.75
498.398	557.75
498.615	571.75
498.832	590.75
499.049	596.75
499.267	632.75
499.484	652.75
499.701	683.75
499.918	711.75
500.135	739.75
500.352	780.75
500.569	819.75
500.786	791.75
501.003	773.75
501.22	729.75
501.437	707.75
501.654	700.75
501.871	682.75
502.088	631.75
502.305	623.75
