Data from 1986.PennyLincolnUp.Lamp.En5.5.200Scan.071819.P2_HRD10591_17-11-37-973.txt Node
Date: Thu Jul 18 17:11:37 EDT 2019
User: cochatt
Spectrometer: HR+D1059
Trigger mode: 1
Integration Time (sec): 1.000000E-1
Scans to average: 1
Electric dark correction enabled: true
Nonlinearity correction enabled: false
Boxcar width: 0
XAxis mode: Wavelengths
Number of Pixels in Spectrum: 2048
>>>>>Begin Spectral Data<<<<<
223.165	-3.25
223.4	-3.25
223.635	-3.25
223.869	-20.25
224.104	-15.25
224.338	-24.25
224.573	-14.25
224.808	-13.25
225.042	-1.25
225.277	-2.25
225.511	-2.25
225.746	2.75
225.98	-6.25
226.215	11.75
226.449	16.75
226.683	20.75
226.918	27.75
227.152	22.75
227.387	36.75
227.621	49.75
227.856	52.75
228.09	48.75
228.324	44.75
228.559	59.75
228.793	67.75
229.027	111.75
229.262	115.75
229.496	116.75
229.73	119.75
229.964	149.75
230.199	136.75
230.433	129.75
230.667	128.75
230.901	114.75
231.136	114.75
231.37	103.75
231.604	130.75
231.838	103.75
232.072	112.75
232.306	104.75
232.541	112.75
232.775	111.75
233.009	106.75
233.243	113.75
233.477	103.75
233.711	111.75
233.945	120.75
234.179	113.75
234.413	105.75
234.647	100.75
234.881	110.75
235.115	131.75
235.349	116.75
235.583	115.75
235.817	132.75
236.051	129.75
236.285	136.75
236.519	117.75
236.753	135.75
236.987	149.75
237.221	195.75
237.455	252.75
237.689	189.75
237.922	153.75
238.156	135.75
238.39	127.75
238.624	140.75
238.858	138.75
239.091	123.75
239.325	123.75
239.559	136.75
239.793	131.75
240.027	136.75
240.26	163.75
240.494	147.75
240.728	148.75
240.961	160.75
241.195	156.75
241.429	136.75
241.662	133.75
241.896	142.75
242.13	123.75
242.363	132.75
242.597	141.75
242.83	142.75
243.064	140.75
243.298	141.75
243.531	144.75
243.765	143.75
243.998	165.75
244.232	129.75
244.465	137.75
244.699	157.75
244.932	123.75
245.166	151.75
245.399	138.75
245.633	140.75
245.866	145.75
246.099	155.75
246.333	153.75
246.566	144.75
246.8	160.75
247.033	151.75
247.266	163.75
247.5	172.75
247.733	180.75
247.966	167.75
248.2	166.75
248.433	182.75
248.666	179.75
248.899	195.75
249.133	215.75
249.366	217.75
249.599	226.75
249.832	198.75
250.066	202.75
250.299	202.75
250.532	226.75
250.765	231.75
250.998	251.75
251.231	249.75
251.465	223.75
251.698	219.75
251.931	204.75
252.164	217.75
252.397	205.75
252.63	200.75
252.863	214.75
253.096	226.75
253.329	243.75
253.562	240.75
253.795	230.75
254.028	219.75
254.261	241.75
254.494	256.75
254.727	273.75
254.96	298.75
255.193	306.75
255.426	278.75
255.659	274.75
255.892	257.75
256.124	289.75
256.357	301.75
256.59	287.75
256.823	259.75
257.056	259.75
257.289	250.75
257.521	242.75
257.754	233.75
257.987	211.75
258.22	237.75
258.452	240.75
258.685	225.75
258.918	226.75
259.151	226.75
259.383	230.75
259.616	250.75
259.849	232.75
260.081	271.75
260.314	279.75
260.547	274.75
260.779	269.75
261.012	252.75
261.244	243.75
261.477	255.75
261.71	228.75
261.942	239.75
262.175	264.75
262.407	234.75
262.64	225.75
262.872	234.75
263.105	233.75
263.337	217.75
263.57	220.75
263.802	232.75
264.035	218.75
264.267	221.75
264.499	225.75
264.732	231.75
264.964	221.75
265.197	227.75
265.429	214.75
265.661	228.75
265.894	210.75
266.126	224.75
266.358	223.75
266.591	229.75
266.823	219.75
267.055	237.75
267.287	239.75
267.52	233.75
267.752	234.75
267.984	232.75
268.216	253.75
268.448	226.75
268.681	223.75
268.913	242.75
269.145	283.75
269.377	300.75
269.609	293.75
269.841	276.75
270.073	300.75
270.306	295.75
270.538	319.75
270.77	342.75
271.002	330.75
271.234	323.75
271.466	326.75
271.698	316.75
271.93	336.75
272.162	337.75
272.394	334.75
272.626	311.75
272.858	303.75
273.09	305.75
273.322	285.75
273.553	273.75
273.785	268.75
274.017	283.75
274.249	277.75
274.481	283.75
274.713	292.75
274.945	285.75
275.176	273.75
275.408	277.75
275.64	272.75
275.872	260.75
276.104	280.75
276.335	281.75
276.567	286.75
276.799	293.75
277.031	318.75
277.262	323.75
277.494	358.75
277.726	319.75
277.957	293.75
278.189	278.75
278.421	268.75
278.652	266.75
278.884	282.75
279.115	284.75
279.347	264.75
279.579	255.75
279.81	285.75
280.042	263.75
280.273	291.75
280.505	292.75
280.736	271.75
280.968	261.75
281.199	271.75
281.431	275.75
281.662	282.75
281.894	278.75
282.125	298.75
282.356	272.75
282.588	307.75
282.819	307.75
283.051	273.75
283.282	283.75
283.513	282.75
283.745	282.75
283.976	269.75
284.207	273.75
284.439	281.75
284.67	271.75
284.901	274.75
285.132	266.75
285.364	273.75
285.595	275.75
285.826	263.75
286.057	273.75
286.288	279.75
286.52	293.75
286.751	275.75
286.982	282.75
287.213	260.75
287.444	270.75
287.675	282.75
287.906	279.75
288.138	294.75
288.369	299.75
288.6	303.75
288.831	282.75
289.062	276.75
289.293	291.75
289.524	281.75
289.755	290.75
289.986	299.75
290.217	279.75
290.448	293.75
290.679	281.75
290.91	288.75
291.141	294.75
291.371	295.75
291.602	292.75
291.833	266.75
292.064	294.75
292.295	293.75
292.526	275.75
292.757	272.75
292.987	278.75
293.218	274.75
293.449	288.75
293.68	285.75
293.91	281.75
294.141	300.75
294.372	273.75
294.603	298.75
294.833	281.75
295.064	279.75
295.295	279.75
295.525	270.75
295.756	269.75
295.987	294.75
296.217	330.75
296.448	311.75
296.679	307.75
296.909	293.75
297.14	269.75
297.37	291.75
297.601	289.75
297.831	275.75
298.062	283.75
298.292	280.75
298.523	307.75
298.753	292.75
298.984	292.75
299.214	290.75
299.445	305.75
299.675	313.75
299.905	299.75
300.136	298.75
300.366	277.75
300.597	314.75
300.827	320.75
301.057	291.75
301.288	326.75
301.518	311.75
301.748	307.75
301.979	298.75
302.209	317.75
302.439	339.75
302.669	307.75
302.9	315.75
303.13	306.75
303.36	317.75
303.59	317.75
303.82	326.75
304.051	325.75
304.281	315.75
304.511	321.75
304.741	307.75
304.971	324.75
305.201	295.75
305.431	320.75
305.661	315.75
305.891	329.75
306.121	307.75
306.352	321.75
306.582	323.75
306.812	327.75
307.042	326.75
307.272	336.75
307.502	325.75
307.731	327.75
307.961	327.75
308.191	309.75
308.421	325.75
308.651	328.75
308.881	323.75
309.111	315.75
309.341	325.75
309.571	349.75
309.8	357.75
310.03	373.75
310.26	384.75
310.49	375.75
310.72	380.75
310.949	392.75
311.179	417.75
311.409	377.75
311.639	379.75
311.868	363.75
312.098	389.75
312.328	397.75
312.557	381.75
312.787	433.75
313.017	425.75
313.246	388.75
313.476	381.75
313.706	376.75
313.935	383.75
314.165	385.75
314.394	395.75
314.624	398.75
314.853	391.75
315.083	391.75
315.312	364.75
315.542	362.75
315.771	363.75
316.001	357.75
316.23	373.75
316.46	377.75
316.689	374.75
316.919	379.75
317.148	397.75
317.377	398.75
317.607	369.75
317.836	394.75
318.065	372.75
318.295	385.75
318.524	387.75
318.753	368.75
318.983	365.75
319.212	367.75
319.441	389.75
319.67	397.75
319.9	397.75
320.129	359.75
320.358	393.75
320.587	389.75
320.816	396.75
321.046	405.75
321.275	401.75
321.504	394.75
321.733	415.75
321.962	439.75
322.191	433.75
322.42	448.75
322.649	460.75
322.878	468.75
323.108	492.75
323.337	501.75
323.566	549.75
323.795	564.75
324.024	634.75
324.253	767.75
324.482	1107.75
324.71	1693.75
324.939	2471.75
325.168	2139.75
325.397	1120.75
325.626	742.75
325.855	639.75
326.084	579.75
326.313	577.75
326.542	567.75
326.77	604.75
326.999	743.75
327.228	1002.75
327.457	1504.75
327.686	1850.75
327.914	1295.75
328.143	861.75
328.372	761.75
328.6	707.75
328.829	625.75
329.058	671.75
329.287	691.75
329.515	635.75
329.744	588.75
329.972	598.75
330.201	659.75
330.43	770.75
330.658	770.75
330.887	703.75
331.115	695.75
331.344	592.75
331.572	518.75
331.801	525.75
332.03	541.75
332.258	500.75
332.486	491.75
332.715	475.75
332.943	468.75
333.172	461.75
333.4	485.75
333.629	491.75
333.857	509.75
334.085	575.75
334.314	617.75
334.542	721.75
334.771	751.75
334.999	628.75
335.227	533.75
335.455	490.75
335.684	467.75
335.912	443.75
336.14	433.75
336.369	427.75
336.597	447.75
336.825	433.75
337.053	438.75
337.281	414.75
337.51	425.75
337.738	428.75
337.966	425.75
338.194	431.75
338.422	448.75
338.65	425.75
338.878	433.75
339.106	424.75
339.334	415.75
339.562	412.75
339.79	416.75
340.018	398.75
340.246	409.75
340.474	425.75
340.702	431.75
340.93	417.75
341.158	422.75
341.386	428.75
341.614	435.75
341.842	432.75
342.07	408.75
342.298	409.75
342.526	381.75
342.754	387.75
342.981	401.75
343.209	394.75
343.437	405.75
343.665	391.75
343.893	398.75
344.12	422.75
344.348	410.75
344.576	407.75
344.804	423.75
345.031	418.75
345.259	436.75
345.487	444.75
345.714	413.75
345.942	428.75
346.17	403.75
346.397	408.75
346.625	397.75
346.853	411.75
347.08	420.75
347.308	405.75
347.535	403.75
347.763	419.75
347.99	429.75
348.218	419.75
348.445	421.75
348.673	417.75
348.9	411.75
349.128	405.75
349.355	379.75
349.583	401.75
349.81	395.75
350.037	398.75
350.265	386.75
350.492	364.75
350.72	385.75
350.947	395.75
351.174	416.75
351.402	426.75
351.629	408.75
351.856	416.75
352.083	403.75
352.311	428.75
352.538	418.75
352.765	443.75
352.992	429.75
353.22	407.75
353.447	417.75
353.674	413.75
353.901	398.75
354.128	354.75
354.355	379.75
354.583	379.75
354.81	376.75
355.037	372.75
355.264	371.75
355.491	364.75
355.718	357.75
355.945	358.75
356.172	356.75
356.399	341.75
356.626	364.75
356.853	347.75
357.08	367.75
357.307	398.75
357.534	379.75
357.761	355.75
357.988	375.75
358.215	355.75
358.441	367.75
358.668	366.75
358.895	390.75
359.122	391.75
359.349	386.75
359.576	396.75
359.802	431.75
360.029	477.75
360.256	465.75
360.483	444.75
360.709	407.75
360.936	409.75
361.163	388.75
361.39	415.75
361.616	426.75
361.843	399.75
362.07	376.75
362.296	396.75
362.523	391.75
362.749	387.75
362.976	387.75
363.203	390.75
363.429	379.75
363.656	380.75
363.882	389.75
364.109	387.75
364.335	381.75
364.562	378.75
364.788	377.75
365.015	372.75
365.241	385.75
365.468	378.75
365.694	391.75
365.92	384.75
366.147	381.75
366.373	382.75
366.599	383.75
366.826	362.75
367.052	366.75
367.278	378.75
367.505	370.75
367.731	382.75
367.957	383.75
368.184	381.75
368.41	379.75
368.636	377.75
368.862	390.75
369.089	405.75
369.315	375.75
369.541	368.75
369.767	369.75
369.993	368.75
370.219	359.75
370.445	366.75
370.672	364.75
370.898	362.75
371.124	390.75
371.35	369.75
371.576	362.75
371.802	365.75
372.028	372.75
372.254	364.75
372.48	350.75
372.706	359.75
372.932	361.75
373.158	359.75
373.384	371.75
373.61	356.75
373.835	357.75
374.061	365.75
374.287	382.75
374.513	391.75
374.739	376.75
374.965	376.75
375.191	377.75
375.416	339.75
375.642	364.75
375.868	375.75
376.094	343.75
376.319	352.75
376.545	356.75
376.771	382.75
376.997	372.75
377.222	356.75
377.448	369.75
377.674	351.75
377.899	359.75
378.125	372.75
378.35	353.75
378.576	357.75
378.802	352.75
379.027	344.75
379.253	350.75
379.478	343.75
379.704	356.75
379.929	367.75
380.155	358.75
380.38	371.75
380.606	360.75
380.831	349.75
381.057	358.75
381.282	364.75
381.507	362.75
381.733	362.75
381.958	372.75
382.184	376.75
382.409	368.75
382.634	353.75
382.86	354.75
383.085	355.75
383.31	369.75
383.535	372.75
383.761	376.75
383.986	370.75
384.211	355.75
384.436	371.75
384.662	378.75
384.887	395.75
385.112	371.75
385.337	378.75
385.562	371.75
385.787	387.75
386.013	396.75
386.238	391.75
386.463	382.75
386.688	402.75
386.913	397.75
387.138	367.75
387.363	368.75
387.588	395.75
387.813	368.75
388.038	382.75
388.263	379.75
388.488	398.75
388.713	373.75
388.938	389.75
389.163	384.75
389.387	371.75
389.612	377.75
389.837	387.75
390.062	387.75
390.287	385.75
390.512	378.75
390.736	378.75
390.961	387.75
391.186	372.75
391.411	387.75
391.636	399.75
391.86	364.75
392.085	367.75
392.31	381.75
392.534	385.75
392.759	387.75
392.984	393.75
393.208	359.75
393.433	384.75
393.658	395.75
393.882	360.75
394.107	369.75
394.331	387.75
394.556	369.75
394.78	383.75
395.005	380.75
395.229	394.75
395.454	381.75
395.678	384.75
395.903	382.75
396.127	412.75
396.352	412.75
396.576	401.75
396.801	391.75
397.025	388.75
397.249	382.75
397.474	396.75
397.698	389.75
397.922	407.75
398.147	437.75
398.371	431.75
398.595	439.75
398.82	397.75
399.044	389.75
399.268	417.75
399.492	443.75
399.717	477.75
399.941	507.75
400.165	510.75
400.389	521.75
400.613	475.75
400.837	440.75
401.062	427.75
401.286	433.75
401.51	426.75
401.734	426.75
401.958	420.75
402.182	437.75
402.406	448.75
402.63	431.75
402.854	447.75
403.078	434.75
403.302	428.75
403.526	452.75
403.75	448.75
403.974	436.75
404.198	431.75
404.422	439.75
404.645	474.75
404.869	461.75
405.093	515.75
405.317	547.75
405.541	575.75
405.765	545.75
405.988	488.75
406.212	488.75
406.436	509.75
406.66	520.75
406.883	469.75
407.107	501.75
407.331	535.75
407.555	615.75
407.778	603.75
408.002	547.75
408.226	509.75
408.449	476.75
408.673	506.75
408.896	521.75
409.12	559.75
409.344	522.75
409.567	483.75
409.791	468.75
410.014	444.75
410.238	460.75
410.461	442.75
410.685	465.75
410.908	473.75
411.132	516.75
411.355	529.75
411.578	529.75
411.802	469.75
412.025	464.75
412.249	460.75
412.472	520.75
412.695	563.75
412.919	565.75
413.142	513.75
413.365	474.75
413.589	474.75
413.812	444.75
414.035	448.75
414.258	436.75
414.482	433.75
414.705	425.75
414.928	419.75
415.151	415.75
415.374	437.75
415.597	402.75
415.821	411.75
416.044	440.75
416.267	433.75
416.49	402.75
416.713	419.75
416.936	422.75
417.159	433.75
417.382	433.75
417.605	443.75
417.828	460.75
418.051	455.75
418.274	433.75
418.497	432.75
418.72	427.75
418.943	426.75
419.166	455.75
419.389	455.75
419.611	451.75
419.834	462.75
420.057	454.75
420.28	500.75
420.503	479.75
420.726	484.75
420.948	499.75
421.171	529.75
421.394	559.75
421.617	468.75
421.839	451.75
422.062	441.75
422.285	460.75
422.507	516.75
422.73	599.75
422.953	572.75
423.175	505.75
423.398	477.75
423.621	459.75
423.843	502.75
424.066	484.75
424.288	483.75
424.511	514.75
424.733	555.75
424.956	627.75
425.178	628.75
425.401	629.75
425.623	639.75
425.846	555.75
426.068	515.75
426.291	495.75
426.513	487.75
426.735	511.75
426.958	537.75
427.18	644.75
427.402	771.75
427.625	841.75
427.847	784.75
428.069	677.75
428.292	581.75
428.514	542.75
428.736	516.75
428.958	497.75
429.181	471.75
429.403	471.75
429.625	483.75
429.847	511.75
430.069	568.75
430.292	573.75
430.514	492.75
430.736	481.75
430.958	469.75
431.18	443.75
431.402	429.75
431.624	444.75
431.846	420.75
432.068	426.75
432.29	453.75
432.512	422.75
432.734	435.75
432.956	428.75
433.178	455.75
433.4	447.75
433.622	437.75
433.844	442.75
434.066	427.75
434.287	423.75
434.509	435.75
434.731	432.75
434.953	435.75
435.175	465.75
435.397	503.75
435.618	497.75
435.84	514.75
436.062	609.75
436.284	678.75
436.505	590.75
436.727	525.75
436.949	487.75
437.17	491.75
437.392	455.75
437.614	486.75
437.835	513.75
438.057	609.75
438.278	723.75
438.5	687.75
438.721	771.75
438.943	760.75
439.165	601.75
439.386	541.75
439.608	528.75
439.829	527.75
440.05	556.75
440.272	591.75
440.493	535.75
440.715	524.75
440.936	478.75
441.158	464.75
441.379	466.75
441.6	474.75
441.822	502.75
442.043	539.75
442.264	637.75
442.486	642.75
442.707	564.75
442.928	511.75
443.149	546.75
443.371	554.75
443.592	586.75
443.813	655.75
444.034	732.75
444.255	593.75
444.476	517.75
444.698	520.75
444.919	498.75
445.14	586.75
445.361	538.75
445.582	556.75
445.803	610.75
446.024	723.75
446.245	741.75
446.466	666.75
446.687	559.75
446.908	515.75
447.129	497.75
447.35	499.75
447.571	476.75
447.792	469.75
448.013	469.75
448.234	507.75
448.455	538.75
448.675	650.75
448.896	771.75
449.117	663.75
449.338	631.75
449.559	732.75
449.779	797.75
450	643.75
450.221	539.75
450.442	491.75
450.662	473.75
450.883	489.75
451.104	488.75
451.324	477.75
451.545	464.75
451.766	441.75
451.986	433.75
452.207	414.75
452.428	428.75
452.648	426.75
452.869	437.75
453.089	443.75
453.31	452.75
453.53	421.75
453.751	427.75
453.971	428.75
454.192	460.75
454.412	440.75
454.633	413.75
454.853	413.75
455.073	409.75
455.294	451.75
455.514	529.75
455.734	472.75
455.955	422.75
456.175	381.75
456.395	386.75
456.616	379.75
456.836	397.75
457.056	371.75
457.276	395.75
457.497	400.75
457.717	389.75
457.937	407.75
458.157	393.75
458.377	402.75
458.598	435.75
458.818	501.75
459.038	571.75
459.258	594.75
459.478	468.75
459.698	434.75
459.918	432.75
460.138	412.75
460.358	398.75
460.578	405.75
460.798	423.75
461.018	431.75
461.238	419.75
461.458	433.75
461.678	403.75
461.898	436.75
462.118	402.75
462.338	409.75
462.558	422.75
462.777	423.75
462.997	442.75
463.217	433.75
463.437	455.75
463.657	424.75
463.876	441.75
464.096	445.75
464.316	442.75
464.536	454.75
464.755	450.75
464.975	461.75
465.195	519.75
465.414	605.75
465.634	525.75
465.854	455.75
466.073	453.75
466.293	432.75
466.512	414.75
466.732	421.75
466.951	437.75
467.171	428.75
467.391	429.75
467.61	450.75
467.829	449.75
468.049	449.75
468.268	471.75
468.488	433.75
468.707	424.75
468.927	418.75
469.146	408.75
469.365	407.75
469.585	412.75
469.804	420.75
470.023	457.75
470.243	414.75
470.462	455.75
470.681	443.75
470.901	436.75
471.12	437.75
471.339	433.75
471.558	431.75
471.777	430.75
471.997	441.75
472.216	487.75
472.435	605.75
472.654	545.75
472.873	501.75
473.092	456.75
473.311	448.75
473.53	447.75
473.749	471.75
473.968	504.75
474.187	605.75
474.406	627.75
474.625	483.75
474.844	451.75
475.063	440.75
475.282	430.75
475.501	438.75
475.72	458.75
475.939	435.75
476.158	441.75
476.377	460.75
476.596	431.75
476.814	450.75
477.033	434.75
477.252	445.75
477.471	461.75
477.69	439.75
477.908	467.75
478.127	486.75
478.346	448.75
478.564	469.75
478.783	447.75
479.002	498.75
479.22	473.75
479.439	492.75
479.658	515.75
479.876	512.75
480.095	526.75
480.313	544.75
480.532	539.75
480.751	562.75
480.969	581.75
481.188	746.75
481.406	869.75
481.624	683.75
481.843	615.75
482.061	568.75
482.28	540.75
482.498	546.75
482.717	541.75
482.935	531.75
483.153	516.75
483.372	515.75
483.59	510.75
483.808	531.75
484.027	506.75
484.245	515.75
484.463	520.75
484.681	531.75
484.9	528.75
485.118	532.75
485.336	544.75
485.554	531.75
485.772	527.75
485.99	543.75
486.209	530.75
486.427	569.75
486.645	563.75
486.863	579.75
487.081	571.75
487.299	574.75
487.517	549.75
487.735	551.75
487.953	594.75
488.171	563.75
488.389	559.75
488.607	566.75
488.825	571.75
489.043	559.75
489.261	569.75
489.479	568.75
489.696	585.75
489.914	574.75
490.132	589.75
490.35	608.75
490.568	594.75
490.786	609.75
491.003	633.75
491.221	637.75
491.439	639.75
491.657	635.75
491.874	657.75
492.092	647.75
492.31	644.75
492.527	667.75
492.745	665.75
492.963	684.75
493.18	678.75
493.398	682.75
493.615	683.75
493.833	677.75
494.05	693.75
494.268	675.75
494.485	679.75
494.703	694.75
494.92	698.75
495.138	658.75
495.355	684.75
495.573	683.75
495.79	693.75
496.008	703.75
496.225	681.75
496.442	708.75
496.66	666.75
496.877	680.75
497.094	709.75
497.312	679.75
497.529	676.75
497.746	692.75
497.963	689.75
498.181	714.75
498.398	711.75
498.615	693.75
498.832	723.75
499.049	707.75
499.267	713.75
499.484	716.75
499.701	768.75
499.918	761.75
500.135	767.75
500.352	804.75
500.569	784.75
500.786	823.75
501.003	812.75
501.22	805.75
501.437	795.75
501.654	786.75
501.871	802.75
