Data from 1986.PennyLincolnUp.Lamp.En5.5.200Scan.071819.P2_HRD10591_17-10-46-974.txt Node
Date: Thu Jul 18 17:10:46 EDT 2019
User: cochatt
Spectrometer: HR+D1059
Trigger mode: 1
Integration Time (sec): 1.000000E-1
Scans to average: 1
Electric dark correction enabled: true
Nonlinearity correction enabled: false
Boxcar width: 0
XAxis mode: Wavelengths
Number of Pixels in Spectrum: 2048
>>>>>Begin Spectral Data<<<<<
223.165	-17.5
223.4	-17.5
223.635	-17.5
223.869	-9.5
224.104	-17.5
224.338	-17.5
224.573	-16.5
224.808	2.5
225.042	-6.5
225.277	-6.5
225.511	-3.5
225.746	-11.5
225.98	1.5
226.215	25.5
226.449	0.5
226.683	17.5
226.918	32.5
227.152	26.5
227.387	32.5
227.621	31.5
227.856	36.5
228.09	41.5
228.324	44.5
228.559	52.5
228.793	59.5
229.027	86.5
229.262	98.5
229.496	114.5
229.73	156.5
229.964	163.5
230.199	134.5
230.433	117.5
230.667	113.5
230.901	130.5
231.136	100.5
231.37	107.5
231.604	95.5
231.838	114.5
232.072	122.5
232.306	115.5
232.541	100.5
232.775	120.5
233.009	116.5
233.243	105.5
233.477	113.5
233.711	109.5
233.945	113.5
234.179	114.5
234.413	108.5
234.647	99.5
234.881	117.5
235.115	117.5
235.349	108.5
235.583	108.5
235.817	115.5
236.051	122.5
236.285	131.5
236.519	131.5
236.753	141.5
236.987	142.5
237.221	195.5
237.455	255.5
237.689	207.5
237.922	148.5
238.156	137.5
238.39	151.5
238.624	122.5
238.858	118.5
239.091	148.5
239.325	123.5
239.559	134.5
239.793	133.5
240.027	150.5
240.26	144.5
240.494	156.5
240.728	170.5
240.961	149.5
241.195	157.5
241.429	158.5
241.662	140.5
241.896	131.5
242.13	124.5
242.363	131.5
242.597	133.5
242.83	139.5
243.064	128.5
243.298	135.5
243.531	128.5
243.765	129.5
243.998	142.5
244.232	144.5
244.465	143.5
244.699	170.5
244.932	141.5
245.166	131.5
245.399	153.5
245.633	162.5
245.866	147.5
246.099	134.5
246.333	161.5
246.566	155.5
246.8	155.5
247.033	160.5
247.266	160.5
247.5	168.5
247.733	165.5
247.966	190.5
248.2	179.5
248.433	188.5
248.666	151.5
248.899	197.5
249.133	225.5
249.366	216.5
249.599	203.5
249.832	189.5
250.066	195.5
250.299	194.5
250.532	191.5
250.765	213.5
250.998	243.5
251.231	233.5
251.465	235.5
251.698	227.5
251.931	217.5
252.164	210.5
252.397	216.5
252.63	225.5
252.863	229.5
253.096	226.5
253.329	221.5
253.562	249.5
253.795	236.5
254.028	239.5
254.261	236.5
254.494	229.5
254.727	249.5
254.96	286.5
255.193	307.5
255.426	275.5
255.659	265.5
255.892	255.5
256.124	240.5
256.357	265.5
256.59	249.5
256.823	235.5
257.056	232.5
257.289	202.5
257.521	211.5
257.754	240.5
257.987	226.5
258.22	222.5
258.452	237.5
258.685	228.5
258.918	233.5
259.151	233.5
259.383	243.5
259.616	236.5
259.849	236.5
260.081	243.5
260.314	265.5
260.547	279.5
260.779	249.5
261.012	244.5
261.244	246.5
261.477	248.5
261.71	220.5
261.942	246.5
262.175	229.5
262.407	231.5
262.64	230.5
262.872	219.5
263.105	209.5
263.337	215.5
263.57	230.5
263.802	209.5
264.035	220.5
264.267	217.5
264.499	212.5
264.732	206.5
264.964	206.5
265.197	232.5
265.429	222.5
265.661	212.5
265.894	203.5
266.126	213.5
266.358	219.5
266.591	225.5
266.823	213.5
267.055	227.5
267.287	220.5
267.52	236.5
267.752	228.5
267.984	194.5
268.216	235.5
268.448	224.5
268.681	237.5
268.913	250.5
269.145	249.5
269.377	280.5
269.609	293.5
269.841	267.5
270.073	291.5
270.306	300.5
270.538	307.5
270.77	311.5
271.002	326.5
271.234	316.5
271.466	321.5
271.698	336.5
271.93	317.5
272.162	327.5
272.394	311.5
272.626	317.5
272.858	298.5
273.09	295.5
273.322	261.5
273.553	286.5
273.785	270.5
274.017	262.5
274.249	263.5
274.481	250.5
274.713	254.5
274.945	277.5
275.176	267.5
275.408	274.5
275.64	264.5
275.872	260.5
276.104	289.5
276.335	265.5
276.567	273.5
276.799	273.5
277.031	302.5
277.262	323.5
277.494	336.5
277.726	309.5
277.957	302.5
278.189	264.5
278.421	270.5
278.652	275.5
278.884	269.5
279.115	262.5
279.347	244.5
279.579	255.5
279.81	264.5
280.042	263.5
280.273	260.5
280.505	258.5
280.736	254.5
280.968	266.5
281.199	266.5
281.431	247.5
281.662	275.5
281.894	245.5
282.125	243.5
282.356	287.5
282.588	301.5
282.819	286.5
283.051	264.5
283.282	261.5
283.513	260.5
283.745	255.5
283.976	271.5
284.207	265.5
284.439	259.5
284.67	258.5
284.901	279.5
285.132	271.5
285.364	276.5
285.595	267.5
285.826	254.5
286.057	258.5
286.288	270.5
286.52	277.5
286.751	263.5
286.982	277.5
287.213	250.5
287.444	273.5
287.675	264.5
287.906	292.5
288.138	284.5
288.369	291.5
288.6	289.5
288.831	301.5
289.062	269.5
289.293	269.5
289.524	279.5
289.755	263.5
289.986	262.5
290.217	267.5
290.448	281.5
290.679	256.5
290.91	256.5
291.141	271.5
291.371	268.5
291.602	259.5
291.833	267.5
292.064	255.5
292.295	262.5
292.526	285.5
292.757	251.5
292.987	277.5
293.218	278.5
293.449	278.5
293.68	263.5
293.91	265.5
294.141	279.5
294.372	272.5
294.603	283.5
294.833	277.5
295.064	271.5
295.295	277.5
295.525	269.5
295.756	282.5
295.987	293.5
296.217	317.5
296.448	331.5
296.679	298.5
296.909	289.5
297.14	270.5
297.37	296.5
297.601	271.5
297.831	267.5
298.062	268.5
298.292	274.5
298.523	296.5
298.753	286.5
298.984	288.5
299.214	289.5
299.445	286.5
299.675	289.5
299.905	296.5
300.136	286.5
300.366	291.5
300.597	297.5
300.827	293.5
301.057	322.5
301.288	287.5
301.518	289.5
301.748	289.5
301.979	313.5
302.209	312.5
302.439	292.5
302.669	300.5
302.9	298.5
303.13	305.5
303.36	310.5
303.59	290.5
303.82	340.5
304.051	333.5
304.281	291.5
304.511	325.5
304.741	281.5
304.971	295.5
305.201	312.5
305.431	305.5
305.661	295.5
305.891	301.5
306.121	316.5
306.352	323.5
306.582	317.5
306.812	323.5
307.042	311.5
307.272	322.5
307.502	291.5
307.731	292.5
307.961	326.5
308.191	314.5
308.421	300.5
308.651	327.5
308.881	303.5
309.111	320.5
309.341	328.5
309.571	339.5
309.8	340.5
310.03	369.5
310.26	362.5
310.49	339.5
310.72	390.5
310.949	377.5
311.179	397.5
311.409	379.5
311.639	363.5
311.868	369.5
312.098	381.5
312.328	359.5
312.557	405.5
312.787	409.5
313.017	411.5
313.246	389.5
313.476	361.5
313.706	347.5
313.935	354.5
314.165	379.5
314.394	399.5
314.624	381.5
314.853	390.5
315.083	357.5
315.312	352.5
315.542	349.5
315.771	360.5
316.001	366.5
316.23	375.5
316.46	377.5
316.689	354.5
316.919	377.5
317.148	380.5
317.377	378.5
317.607	369.5
317.836	373.5
318.065	378.5
318.295	357.5
318.524	375.5
318.753	364.5
318.983	327.5
319.212	369.5
319.441	357.5
319.67	385.5
319.9	365.5
320.129	347.5
320.358	356.5
320.587	367.5
320.816	385.5
321.046	399.5
321.275	387.5
321.504	394.5
321.733	389.5
321.962	418.5
322.191	421.5
322.42	416.5
322.649	459.5
322.878	451.5
323.108	497.5
323.337	509.5
323.566	537.5
323.795	559.5
324.024	631.5
324.253	765.5
324.482	1106.5
324.71	1674.5
324.939	2291.5
325.168	2085.5
325.397	1113.5
325.626	725.5
325.855	600.5
326.084	572.5
326.313	550.5
326.542	534.5
326.77	597.5
326.999	702.5
327.228	948.5
327.457	1441.5
327.686	1806.5
327.914	1233.5
328.143	825.5
328.372	707.5
328.6	631.5
328.829	611.5
329.058	616.5
329.287	610.5
329.515	580.5
329.744	524.5
329.972	542.5
330.201	547.5
330.43	588.5
330.658	629.5
330.887	678.5
331.115	629.5
331.344	542.5
331.572	490.5
331.801	513.5
332.03	485.5
332.258	422.5
332.486	452.5
332.715	420.5
332.943	426.5
333.172	407.5
333.4	418.5
333.629	453.5
333.857	459.5
334.085	469.5
334.314	480.5
334.542	518.5
334.771	565.5
334.999	501.5
335.227	475.5
335.455	458.5
335.684	424.5
335.912	416.5
336.14	398.5
336.369	399.5
336.597	416.5
336.825	420.5
337.053	429.5
337.281	398.5
337.51	411.5
337.738	382.5
337.966	402.5
338.194	426.5
338.422	434.5
338.65	415.5
338.878	404.5
339.106	387.5
339.334	413.5
339.562	407.5
339.79	395.5
340.018	383.5
340.246	389.5
340.474	409.5
340.702	411.5
340.93	398.5
341.158	405.5
341.386	391.5
341.614	385.5
341.842	380.5
342.07	394.5
342.298	382.5
342.526	405.5
342.754	389.5
342.981	380.5
343.209	385.5
343.437	390.5
343.665	389.5
343.893	407.5
344.12	389.5
344.348	390.5
344.576	406.5
344.804	413.5
345.031	413.5
345.259	407.5
345.487	412.5
345.714	426.5
345.942	385.5
346.17	396.5
346.397	398.5
346.625	403.5
346.853	387.5
347.08	385.5
347.308	398.5
347.535	405.5
347.763	403.5
347.99	410.5
348.218	395.5
348.445	405.5
348.673	405.5
348.9	393.5
349.128	375.5
349.355	387.5
349.583	370.5
349.81	360.5
350.037	377.5
350.265	386.5
350.492	374.5
350.72	381.5
350.947	377.5
351.174	412.5
351.402	407.5
351.629	414.5
351.856	391.5
352.083	414.5
352.311	407.5
352.538	401.5
352.765	429.5
352.992	405.5
353.22	406.5
353.447	386.5
353.674	394.5
353.901	373.5
354.128	359.5
354.355	354.5
354.583	366.5
354.81	351.5
355.037	334.5
355.264	356.5
355.491	353.5
355.718	357.5
355.945	355.5
356.172	348.5
356.399	347.5
356.626	365.5
356.853	328.5
357.08	337.5
357.307	352.5
357.534	358.5
357.761	332.5
357.988	366.5
358.215	342.5
358.441	354.5
358.668	341.5
358.895	349.5
359.122	374.5
359.349	383.5
359.576	386.5
359.802	426.5
360.029	447.5
360.256	453.5
360.483	427.5
360.709	418.5
360.936	393.5
361.163	400.5
361.39	381.5
361.616	387.5
361.843	384.5
362.07	375.5
362.296	395.5
362.523	385.5
362.749	388.5
362.976	381.5
363.203	386.5
363.429	358.5
363.656	381.5
363.882	402.5
364.109	375.5
364.335	353.5
364.562	361.5
364.788	357.5
365.015	377.5
365.241	350.5
365.468	389.5
365.694	385.5
365.92	376.5
366.147	391.5
366.373	371.5
366.599	359.5
366.826	361.5
367.052	348.5
367.278	366.5
367.505	373.5
367.731	362.5
367.957	363.5
368.184	365.5
368.41	364.5
368.636	382.5
368.862	372.5
369.089	373.5
369.315	371.5
369.541	360.5
369.767	355.5
369.993	370.5
370.219	363.5
370.445	339.5
370.672	354.5
370.898	351.5
371.124	346.5
371.35	334.5
371.576	350.5
371.802	367.5
372.028	347.5
372.254	358.5
372.48	356.5
372.706	354.5
372.932	339.5
373.158	354.5
373.384	358.5
373.61	337.5
373.835	340.5
374.061	354.5
374.287	370.5
374.513	358.5
374.739	371.5
374.965	337.5
375.191	353.5
375.416	360.5
375.642	362.5
375.868	349.5
376.094	350.5
376.319	325.5
376.545	365.5
376.771	371.5
376.997	351.5
377.222	325.5
377.448	350.5
377.674	369.5
377.899	358.5
378.125	367.5
378.35	335.5
378.576	332.5
378.802	349.5
379.027	326.5
379.253	343.5
379.478	350.5
379.704	334.5
379.929	342.5
380.155	339.5
380.38	347.5
380.606	353.5
380.831	343.5
381.057	351.5
381.282	350.5
381.507	341.5
381.733	355.5
381.958	357.5
382.184	364.5
382.409	357.5
382.634	367.5
382.86	365.5
383.085	356.5
383.31	361.5
383.535	351.5
383.761	372.5
383.986	358.5
384.211	351.5
384.436	356.5
384.662	347.5
384.887	366.5
385.112	361.5
385.337	374.5
385.562	352.5
385.787	369.5
386.013	373.5
386.238	378.5
386.463	368.5
386.688	378.5
386.913	362.5
387.138	349.5
387.363	376.5
387.588	350.5
387.813	365.5
388.038	329.5
388.263	359.5
388.488	378.5
388.713	379.5
388.938	371.5
389.163	371.5
389.387	382.5
389.612	383.5
389.837	364.5
390.062	361.5
390.287	369.5
390.512	366.5
390.736	358.5
390.961	375.5
391.186	377.5
391.411	370.5
391.636	377.5
391.86	374.5
392.085	373.5
392.31	369.5
392.534	380.5
392.759	369.5
392.984	378.5
393.208	353.5
393.433	387.5
393.658	373.5
393.882	348.5
394.107	348.5
394.331	365.5
394.556	378.5
394.78	373.5
395.005	371.5
395.229	349.5
395.454	367.5
395.678	385.5
395.903	385.5
396.127	400.5
396.352	419.5
396.576	394.5
396.801	375.5
397.025	389.5
397.249	369.5
397.474	385.5
397.698	405.5
397.922	409.5
398.147	392.5
398.371	399.5
398.595	393.5
398.82	406.5
399.044	413.5
399.268	422.5
399.492	415.5
399.717	451.5
399.941	450.5
400.165	517.5
400.389	495.5
400.613	463.5
400.837	454.5
401.062	409.5
401.286	395.5
401.51	409.5
401.734	424.5
401.958	437.5
402.182	421.5
402.406	431.5
402.63	438.5
402.854	427.5
403.078	413.5
403.302	453.5
403.526	426.5
403.75	422.5
403.974	425.5
404.198	417.5
404.422	442.5
404.645	436.5
404.869	430.5
405.093	463.5
405.317	498.5
405.541	553.5
405.765	517.5
405.988	474.5
406.212	462.5
406.436	506.5
406.66	489.5
406.883	477.5
407.107	488.5
407.331	514.5
407.555	600.5
407.778	579.5
408.002	517.5
408.226	477.5
408.449	472.5
408.673	476.5
408.896	518.5
409.12	566.5
409.344	533.5
409.567	480.5
409.791	436.5
410.014	401.5
410.238	429.5
410.461	415.5
410.685	434.5
410.908	449.5
411.132	469.5
411.355	512.5
411.578	502.5
411.802	455.5
412.025	453.5
412.249	435.5
412.472	457.5
412.695	493.5
412.919	479.5
413.142	440.5
413.365	442.5
413.589	440.5
413.812	436.5
414.035	410.5
414.258	406.5
414.482	415.5
414.705	400.5
414.928	395.5
415.151	420.5
415.374	390.5
415.597	397.5
415.821	398.5
416.044	421.5
416.267	401.5
416.49	402.5
416.713	411.5
416.936	392.5
417.159	398.5
417.382	412.5
417.605	413.5
417.828	425.5
418.051	443.5
418.274	442.5
418.497	405.5
418.72	399.5
418.943	406.5
419.166	433.5
419.389	441.5
419.611	449.5
419.834	435.5
420.057	440.5
420.28	424.5
420.503	440.5
420.726	446.5
420.948	447.5
421.171	486.5
421.394	515.5
421.617	474.5
421.839	455.5
422.062	439.5
422.285	471.5
422.507	504.5
422.73	568.5
422.953	551.5
423.175	501.5
423.398	455.5
423.621	461.5
423.843	464.5
424.066	489.5
424.288	483.5
424.511	489.5
424.733	549.5
424.956	629.5
425.178	623.5
425.401	585.5
425.623	623.5
425.846	525.5
426.068	507.5
426.291	488.5
426.513	478.5
426.735	506.5
426.958	546.5
427.18	617.5
427.402	741.5
427.625	839.5
427.847	743.5
428.069	661.5
428.292	555.5
428.514	525.5
428.736	478.5
428.958	469.5
429.181	466.5
429.403	455.5
429.625	473.5
429.847	498.5
430.069	577.5
430.292	559.5
430.514	474.5
430.736	482.5
430.958	451.5
431.18	424.5
431.402	437.5
431.624	392.5
431.846	406.5
432.068	415.5
432.29	433.5
432.512	411.5
432.734	433.5
432.956	443.5
433.178	427.5
433.4	438.5
433.622	421.5
433.844	428.5
434.066	411.5
434.287	420.5
434.509	409.5
434.731	417.5
434.953	439.5
435.175	448.5
435.397	486.5
435.618	495.5
435.84	553.5
436.062	634.5
436.284	683.5
436.505	558.5
436.727	514.5
436.949	491.5
437.17	470.5
437.392	451.5
437.614	501.5
437.835	505.5
438.057	588.5
438.278	696.5
438.5	691.5
438.721	734.5
438.943	732.5
439.165	596.5
439.386	535.5
439.608	517.5
439.829	523.5
440.05	552.5
440.272	555.5
440.493	556.5
440.715	500.5
440.936	488.5
441.158	434.5
441.379	474.5
441.6	474.5
441.822	498.5
442.043	513.5
442.264	599.5
442.486	653.5
442.707	564.5
442.928	515.5
443.149	513.5
443.371	526.5
443.592	554.5
443.813	658.5
444.034	725.5
444.255	574.5
444.476	534.5
444.698	489.5
444.919	463.5
445.14	560.5
445.361	516.5
445.582	535.5
445.803	590.5
446.024	691.5
446.245	707.5
446.466	659.5
446.687	544.5
446.908	505.5
447.129	455.5
447.35	457.5
447.571	442.5
447.792	449.5
448.013	468.5
448.234	501.5
448.455	531.5
448.675	647.5
448.896	740.5
449.117	628.5
449.338	594.5
449.559	677.5
449.779	789.5
450	628.5
450.221	529.5
450.442	478.5
450.662	456.5
450.883	479.5
451.104	484.5
451.324	458.5
451.545	457.5
451.766	421.5
451.986	421.5
452.207	396.5
452.428	394.5
452.648	402.5
452.869	394.5
453.089	422.5
453.31	437.5
453.53	411.5
453.751	403.5
453.971	419.5
454.192	451.5
454.412	424.5
454.633	405.5
454.853	411.5
455.073	409.5
455.294	433.5
455.514	502.5
455.734	507.5
455.955	420.5
456.175	384.5
456.395	375.5
456.616	391.5
456.836	376.5
457.056	380.5
457.276	385.5
457.497	395.5
457.717	382.5
457.937	358.5
458.157	396.5
458.377	379.5
458.598	427.5
458.818	462.5
459.038	578.5
459.258	579.5
459.478	481.5
459.698	443.5
459.918	418.5
460.138	414.5
460.358	423.5
460.578	411.5
460.798	410.5
461.018	415.5
461.238	420.5
461.458	414.5
461.678	408.5
461.898	413.5
462.118	395.5
462.338	409.5
462.558	400.5
462.777	404.5
462.997	413.5
463.217	417.5
463.437	436.5
463.657	413.5
463.876	422.5
464.096	405.5
464.316	426.5
464.536	452.5
464.755	435.5
464.975	447.5
465.195	527.5
465.414	582.5
465.634	535.5
465.854	465.5
466.073	421.5
466.293	397.5
466.512	419.5
466.732	398.5
466.951	397.5
467.171	376.5
467.391	413.5
467.61	419.5
467.829	428.5
468.049	423.5
468.268	428.5
468.488	404.5
468.707	390.5
468.927	397.5
469.146	379.5
469.365	392.5
469.585	393.5
469.804	412.5
470.023	418.5
470.243	420.5
470.462	421.5
470.681	442.5
470.901	439.5
471.12	435.5
471.339	410.5
471.558	425.5
471.777	427.5
471.997	414.5
472.216	419.5
472.435	473.5
472.654	466.5
472.873	411.5
473.092	414.5
473.311	410.5
473.53	411.5
473.749	420.5
473.968	483.5
474.187	593.5
474.406	603.5
474.625	491.5
474.844	436.5
475.063	423.5
475.282	421.5
475.501	423.5
475.72	422.5
475.939	431.5
476.158	404.5
476.377	427.5
476.596	447.5
476.814	422.5
477.033	458.5
477.252	411.5
477.471	429.5
477.69	453.5
477.908	445.5
478.127	430.5
478.346	444.5
478.564	445.5
478.783	437.5
479.002	457.5
479.22	483.5
479.439	493.5
479.658	510.5
479.876	508.5
480.095	505.5
480.313	538.5
480.532	525.5
480.751	536.5
480.969	513.5
481.188	594.5
481.406	669.5
481.624	575.5
481.843	527.5
482.061	509.5
482.28	513.5
482.498	509.5
482.717	481.5
482.935	502.5
483.153	503.5
483.372	486.5
483.59	476.5
483.808	468.5
484.027	501.5
484.245	477.5
484.463	483.5
484.681	521.5
484.9	507.5
485.118	494.5
485.336	502.5
485.554	498.5
485.772	507.5
485.99	511.5
486.209	494.5
486.427	541.5
486.645	538.5
486.863	547.5
487.081	554.5
487.299	536.5
487.517	540.5
487.735	535.5
487.953	541.5
488.171	546.5
488.389	540.5
488.607	533.5
488.825	546.5
489.043	521.5
489.261	542.5
489.479	533.5
489.696	569.5
489.914	570.5
490.132	553.5
490.35	549.5
490.568	551.5
490.786	578.5
491.003	582.5
491.221	601.5
491.439	603.5
491.657	616.5
491.874	621.5
492.092	644.5
492.31	626.5
492.527	613.5
492.745	633.5
492.963	636.5
493.18	637.5
493.398	662.5
493.615	661.5
493.833	654.5
494.05	662.5
494.268	629.5
494.485	645.5
494.703	647.5
494.92	631.5
495.138	614.5
495.355	649.5
495.573	643.5
495.79	644.5
496.008	660.5
496.225	632.5
496.442	654.5
496.66	662.5
496.877	646.5
497.094	622.5
497.312	656.5
497.529	649.5
497.746	671.5
497.963	680.5
498.181	692.5
498.398	680.5
498.615	683.5
498.832	726.5
499.049	680.5
499.267	684.5
499.484	740.5
499.701	709.5
499.918	731.5
500.135	733.5
500.352	747.5
500.569	774.5
500.786	791.5
501.003	803.5
501.22	771.5
501.437	779.5
501.654	790.5
501.871	785.5
502.088	746.5
502.305	714.5
502.522	699.5
502.739	703.5
502.956	685.5
503.172	659.5
503.389	649.5
503.606	648.5
503.823	677.5
504.04	648.5
504.256	644.5
504.473	635.5
504.69	637.5
504.907	625.5
505.123	616.5
505.34	624.5
505.557	623.5
505.773	657.5
505.99	625.5
506.207	633.5
506.423	606.5
506.64	631.5
506.856	607.5
507.073	610.5
507.289	618.5
507.506	625.5
507.722	611.5
507.939	620.5
508.155	641.5
508.372	613.5
508.588	593.5
508.805	609.5
509.021	603.5
509.238	613.5
509.454	636.5
509.67	638.5
509.887	606.5
510.103	603.5
510.319	610.5
510.536	756.5
510.752	1287.5
510.968	1063.5
511.184	637.5
511.401	629.5
511.617	593.5
511.833	587.5
512.049	584.5
512.265	567.5
512.481	596.5
512.698	557.5
512.914	590.5
513.13	554.5
513.346	595.5
513.562	574.5
513.778	579.5
513.994	589.5
514.21	615.5
514.426	665.5
514.642	679.5
514.858	716.5
515.074	778.5
515.29	934.5
515.506	1479.5
515.721	1181.5
515.937	749.5
516.153	652.5
516.369	640.5
516.585	590.5
516.801	579.5
517.016	606.5
517.232	587.5
517.448	574.5
517.664	590.5
517.879	595.5
518.095	558.5
518.311	577.5
518.527	565.5
518.742	568.5
518.958	565.5
519.173	553.5
519.389	567.5
519.605	583.5
519.82	580.5
