Data from 1986.PennyLincolnUp.Lamp.En5.5.200Scan.071819.P2_HRD10591_17-10-56-974.txt Node
Date: Thu Jul 18 17:10:56 EDT 2019
User: cochatt
Spectrometer: HR+D1059
Trigger mode: 1
Integration Time (sec): 1.000000E-1
Scans to average: 1
Electric dark correction enabled: true
Nonlinearity correction enabled: false
Boxcar width: 0
XAxis mode: Wavelengths
Number of Pixels in Spectrum: 2048
>>>>>Begin Spectral Data<<<<<
223.165	-4.94
223.4	-4.94
223.635	-4.94
223.869	-11.94
224.104	0.06
224.338	-21.94
224.573	-19.94
224.808	-3.94
225.042	-15.94
225.277	9.06
225.511	4.06
225.746	-7.94
225.98	-1.94
226.215	7.06
226.449	6.06
226.683	8.06
226.918	20.06
227.152	34.06
227.387	44.06
227.621	43.06
227.856	53.06
228.09	60.06
228.324	52.06
228.559	53.06
228.793	75.06
229.027	84.06
229.262	108.06
229.496	120.06
229.73	126.06
229.964	171.06
230.199	137.06
230.433	120.06
230.667	112.06
230.901	123.06
231.136	122.06
231.37	105.06
231.604	128.06
231.838	99.06
232.072	108.06
232.306	119.06
232.541	112.06
232.775	115.06
233.009	108.06
233.243	114.06
233.477	104.06
233.711	105.06
233.945	119.06
234.179	120.06
234.413	115.06
234.647	112.06
234.881	112.06
235.115	110.06
235.349	112.06
235.583	115.06
235.817	121.06
236.051	123.06
236.285	124.06
236.519	117.06
236.753	126.06
236.987	144.06
237.221	201.06
237.455	252.06
237.689	202.06
237.922	160.06
238.156	132.06
238.39	127.06
238.624	130.06
238.858	121.06
239.091	115.06
239.325	133.06
239.559	114.06
239.793	136.06
240.027	136.06
240.26	148.06
240.494	156.06
240.728	148.06
240.961	165.06
241.195	150.06
241.429	147.06
241.662	154.06
241.896	129.06
242.13	128.06
242.363	131.06
242.597	130.06
242.83	140.06
243.064	138.06
243.298	151.06
243.531	140.06
243.765	133.06
243.998	142.06
244.232	154.06
244.465	144.06
244.699	137.06
244.932	148.06
245.166	133.06
245.399	138.06
245.633	146.06
245.866	149.06
246.099	152.06
246.333	120.06
246.566	168.06
246.8	161.06
247.033	164.06
247.266	160.06
247.5	178.06
247.733	165.06
247.966	180.06
248.2	178.06
248.433	180.06
248.666	197.06
248.899	209.06
249.133	209.06
249.366	223.06
249.599	209.06
249.832	194.06
250.066	186.06
250.299	205.06
250.532	204.06
250.765	207.06
250.998	240.06
251.231	265.06
251.465	235.06
251.698	221.06
251.931	188.06
252.164	203.06
252.397	208.06
252.63	212.06
252.863	202.06
253.096	229.06
253.329	237.06
253.562	246.06
253.795	232.06
254.028	237.06
254.261	235.06
254.494	222.06
254.727	253.06
254.96	294.06
255.193	299.06
255.426	240.06
255.659	245.06
255.892	254.06
256.124	251.06
256.357	270.06
256.59	263.06
256.823	242.06
257.056	242.06
257.289	221.06
257.521	217.06
257.754	209.06
257.987	206.06
258.22	215.06
258.452	217.06
258.685	196.06
258.918	208.06
259.151	213.06
259.383	226.06
259.616	233.06
259.849	225.06
260.081	250.06
260.314	268.06
260.547	260.06
260.779	252.06
261.012	241.06
261.244	228.06
261.477	235.06
261.71	233.06
261.942	242.06
262.175	244.06
262.407	225.06
262.64	246.06
262.872	235.06
263.105	221.06
263.337	207.06
263.57	231.06
263.802	223.06
264.035	220.06
264.267	219.06
264.499	216.06
264.732	227.06
264.964	219.06
265.197	225.06
265.429	210.06
265.661	209.06
265.894	234.06
266.126	217.06
266.358	221.06
266.591	219.06
266.823	218.06
267.055	227.06
267.287	248.06
267.52	222.06
267.752	236.06
267.984	235.06
268.216	218.06
268.448	235.06
268.681	243.06
268.913	238.06
269.145	269.06
269.377	272.06
269.609	264.06
269.841	297.06
270.073	272.06
270.306	295.06
270.538	324.06
270.77	329.06
271.002	315.06
271.234	307.06
271.466	309.06
271.698	335.06
271.93	325.06
272.162	337.06
272.394	341.06
272.626	308.06
272.858	297.06
273.09	284.06
273.322	284.06
273.553	271.06
273.785	268.06
274.017	277.06
274.249	266.06
274.481	249.06
274.713	258.06
274.945	262.06
275.176	259.06
275.408	285.06
275.64	271.06
275.872	251.06
276.104	253.06
276.335	267.06
276.567	288.06
276.799	300.06
277.031	316.06
277.262	313.06
277.494	323.06
277.726	307.06
277.957	288.06
278.189	275.06
278.421	280.06
278.652	272.06
278.884	270.06
279.115	270.06
279.347	269.06
279.579	245.06
279.81	259.06
280.042	276.06
280.273	262.06
280.505	259.06
280.736	249.06
280.968	264.06
281.199	265.06
281.431	268.06
281.662	248.06
281.894	260.06
282.125	264.06
282.356	290.06
282.588	280.06
282.819	309.06
283.051	270.06
283.282	265.06
283.513	269.06
283.745	271.06
283.976	267.06
284.207	277.06
284.439	282.06
284.67	261.06
284.901	252.06
285.132	268.06
285.364	266.06
285.595	263.06
285.826	269.06
286.057	278.06
286.288	273.06
286.52	278.06
286.751	270.06
286.982	265.06
287.213	266.06
287.444	277.06
287.675	269.06
287.906	279.06
288.138	292.06
288.369	302.06
288.6	287.06
288.831	281.06
289.062	285.06
289.293	294.06
289.524	276.06
289.755	272.06
289.986	263.06
290.217	254.06
290.448	266.06
290.679	251.06
290.91	267.06
291.141	276.06
291.371	266.06
291.602	278.06
291.833	289.06
292.064	286.06
292.295	276.06
292.526	288.06
292.757	274.06
292.987	252.06
293.218	262.06
293.449	264.06
293.68	284.06
293.91	268.06
294.141	280.06
294.372	262.06
294.603	278.06
294.833	284.06
295.064	276.06
295.295	266.06
295.525	270.06
295.756	276.06
295.987	296.06
296.217	293.06
296.448	308.06
296.679	290.06
296.909	279.06
297.14	267.06
297.37	283.06
297.601	259.06
297.831	280.06
298.062	265.06
298.292	280.06
298.523	286.06
298.753	276.06
298.984	278.06
299.214	293.06
299.445	280.06
299.675	280.06
299.905	292.06
300.136	281.06
300.366	280.06
300.597	280.06
300.827	292.06
301.057	297.06
301.288	320.06
301.518	308.06
301.748	299.06
301.979	296.06
302.209	315.06
302.439	286.06
302.669	315.06
302.9	308.06
303.13	308.06
303.36	292.06
303.59	316.06
303.82	305.06
304.051	334.06
304.281	310.06
304.511	302.06
304.741	300.06
304.971	295.06
305.201	297.06
305.431	314.06
305.661	317.06
305.891	304.06
306.121	302.06
306.352	334.06
306.582	328.06
306.812	314.06
307.042	310.06
307.272	309.06
307.502	301.06
307.731	306.06
307.961	305.06
308.191	305.06
308.421	321.06
308.651	299.06
308.881	323.06
309.111	329.06
309.341	332.06
309.571	327.06
309.8	355.06
310.03	355.06
310.26	358.06
310.49	358.06
310.72	365.06
310.949	376.06
311.179	394.06
311.409	375.06
311.639	356.06
311.868	368.06
312.098	384.06
312.328	369.06
312.557	387.06
312.787	409.06
313.017	407.06
313.246	361.06
313.476	366.06
313.706	356.06
313.935	357.06
314.165	372.06
314.394	392.06
314.624	395.06
314.853	372.06
315.083	361.06
315.312	362.06
315.542	339.06
315.771	337.06
316.001	344.06
316.23	368.06
316.46	346.06
316.689	365.06
316.919	361.06
317.148	363.06
317.377	378.06
317.607	383.06
317.836	352.06
318.065	353.06
318.295	367.06
318.524	345.06
318.753	352.06
318.983	358.06
319.212	349.06
319.441	394.06
319.67	400.06
319.9	355.06
320.129	372.06
320.358	351.06
320.587	362.06
320.816	365.06
321.046	378.06
321.275	383.06
321.504	397.06
321.733	401.06
321.962	406.06
322.191	435.06
322.42	420.06
322.649	436.06
322.878	459.06
323.108	466.06
323.337	503.06
323.566	516.06
323.795	560.06
324.024	610.06
324.253	741.06
324.482	1072.06
324.71	1627.06
324.939	2369.06
325.168	2076.06
325.397	1100.06
325.626	710.06
325.855	600.06
326.084	556.06
326.313	533.06
326.542	526.06
326.77	570.06
326.999	710.06
327.228	989.06
327.457	1455.06
327.686	1780.06
327.914	1244.06
328.143	802.06
328.372	712.06
328.6	644.06
328.829	608.06
329.058	619.06
329.287	642.06
329.515	581.06
329.744	539.06
329.972	546.06
330.201	588.06
330.43	602.06
330.658	633.06
330.887	671.06
331.115	634.06
331.344	555.06
331.572	498.06
331.801	484.06
332.03	504.06
332.258	475.06
332.486	458.06
332.715	458.06
332.943	451.06
333.172	420.06
333.4	463.06
333.629	452.06
333.857	460.06
334.085	492.06
334.314	506.06
334.542	538.06
334.771	571.06
334.999	501.06
335.227	473.06
335.455	453.06
335.684	436.06
335.912	418.06
336.14	399.06
336.369	426.06
336.597	416.06
336.825	446.06
337.053	419.06
337.281	403.06
337.51	421.06
337.738	416.06
337.966	423.06
338.194	417.06
338.422	404.06
338.65	400.06
338.878	405.06
339.106	398.06
339.334	412.06
339.562	387.06
339.79	399.06
340.018	396.06
340.246	400.06
340.474	402.06
340.702	416.06
340.93	397.06
341.158	386.06
341.386	404.06
341.614	391.06
341.842	406.06
342.07	400.06
342.298	405.06
342.526	408.06
342.754	388.06
342.981	408.06
343.209	386.06
343.437	383.06
343.665	378.06
343.893	408.06
344.12	410.06
344.348	398.06
344.576	388.06
344.804	417.06
345.031	421.06
345.259	421.06
345.487	416.06
345.714	398.06
345.942	384.06
346.17	375.06
346.397	398.06
346.625	386.06
346.853	393.06
347.08	397.06
347.308	407.06
347.535	392.06
347.763	391.06
347.99	413.06
348.218	406.06
348.445	408.06
348.673	401.06
348.9	386.06
349.128	379.06
349.355	376.06
349.583	368.06
349.81	371.06
350.037	359.06
350.265	386.06
350.492	362.06
350.72	382.06
350.947	380.06
351.174	402.06
351.402	404.06
351.629	405.06
351.856	407.06
352.083	402.06
352.311	420.06
352.538	414.06
352.765	399.06
352.992	400.06
353.22	408.06
353.447	403.06
353.674	376.06
353.901	371.06
354.128	353.06
354.355	363.06
354.583	365.06
354.81	359.06
355.037	365.06
355.264	354.06
355.491	356.06
355.718	343.06
355.945	346.06
356.172	331.06
356.399	356.06
356.626	336.06
356.853	346.06
357.08	350.06
357.307	335.06
357.534	340.06
357.761	369.06
357.988	356.06
358.215	358.06
358.441	362.06
358.668	363.06
358.895	360.06
359.122	352.06
359.349	362.06
359.576	393.06
359.802	420.06
360.029	462.06
360.256	474.06
360.483	440.06
360.709	396.06
360.936	380.06
361.163	403.06
361.39	395.06
361.616	395.06
361.843	388.06
362.07	386.06
362.296	405.06
362.523	382.06
362.749	388.06
362.976	388.06
363.203	382.06
363.429	362.06
363.656	376.06
363.882	368.06
364.109	348.06
364.335	346.06
364.562	353.06
364.788	369.06
365.015	374.06
365.241	374.06
365.468	371.06
365.694	373.06
365.92	377.06
366.147	356.06
366.373	340.06
366.599	342.06
366.826	371.06
367.052	368.06
367.278	370.06
367.505	357.06
367.731	364.06
367.957	375.06
368.184	351.06
368.41	375.06
368.636	396.06
368.862	374.06
369.089	373.06
369.315	361.06
369.541	358.06
369.767	331.06
369.993	350.06
370.219	358.06
370.445	344.06
370.672	356.06
370.898	365.06
371.124	337.06
371.35	357.06
371.576	355.06
371.802	356.06
372.028	347.06
372.254	352.06
372.48	357.06
372.706	336.06
372.932	343.06
373.158	331.06
373.384	351.06
373.61	344.06
373.835	372.06
374.061	353.06
374.287	355.06
374.513	352.06
374.739	361.06
374.965	357.06
375.191	358.06
375.416	346.06
375.642	374.06
375.868	353.06
376.094	348.06
376.319	360.06
376.545	361.06
376.771	334.06
376.997	325.06
377.222	337.06
377.448	346.06
377.674	361.06
377.899	334.06
378.125	325.06
378.35	345.06
378.576	349.06
378.802	351.06
379.027	348.06
379.253	331.06
379.478	358.06
379.704	341.06
379.929	352.06
380.155	352.06
380.38	373.06
380.606	359.06
380.831	348.06
381.057	351.06
381.282	358.06
381.507	357.06
381.733	343.06
381.958	349.06
382.184	345.06
382.409	343.06
382.634	352.06
382.86	343.06
383.085	353.06
383.31	342.06
383.535	353.06
383.761	352.06
383.986	368.06
384.211	357.06
384.436	370.06
384.662	375.06
384.887	374.06
385.112	362.06
385.337	361.06
385.562	377.06
385.787	360.06
386.013	362.06
386.238	372.06
386.463	394.06
386.688	368.06
386.913	357.06
387.138	359.06
387.363	383.06
387.588	363.06
387.813	368.06
388.038	359.06
388.263	371.06
388.488	348.06
388.713	369.06
388.938	374.06
389.163	376.06
389.387	358.06
389.612	370.06
389.837	374.06
390.062	379.06
390.287	368.06
390.512	353.06
390.736	373.06
390.961	352.06
391.186	356.06
391.411	369.06
391.636	370.06
391.86	381.06
392.085	393.06
392.31	363.06
392.534	363.06
392.759	358.06
392.984	363.06
393.208	353.06
393.433	352.06
393.658	370.06
393.882	374.06
394.107	370.06
394.331	360.06
394.556	372.06
394.78	366.06
395.005	365.06
395.229	355.06
395.454	384.06
395.678	370.06
395.903	382.06
396.127	405.06
396.352	422.06
396.576	376.06
396.801	372.06
397.025	379.06
397.249	381.06
397.474	388.06
397.698	379.06
397.922	394.06
398.147	412.06
398.371	416.06
398.595	388.06
398.82	396.06
399.044	428.06
399.268	401.06
399.492	427.06
399.717	457.06
399.941	476.06
400.165	512.06
400.389	506.06
400.613	469.06
400.837	450.06
401.062	416.06
401.286	432.06
401.51	406.06
401.734	405.06
401.958	404.06
402.182	419.06
402.406	424.06
402.63	435.06
402.854	435.06
403.078	420.06
403.302	410.06
403.526	442.06
403.75	431.06
403.974	429.06
404.198	430.06
404.422	435.06
404.645	448.06
404.869	476.06
405.093	491.06
405.317	527.06
405.541	524.06
405.765	493.06
405.988	476.06
406.212	459.06
406.436	482.06
406.66	523.06
406.883	476.06
407.107	475.06
407.331	515.06
407.555	597.06
407.778	572.06
408.002	538.06
408.226	500.06
408.449	472.06
408.673	479.06
408.896	508.06
409.12	537.06
409.344	523.06
409.567	454.06
409.791	444.06
410.014	436.06
410.238	421.06
410.461	426.06
410.685	425.06
410.908	448.06
411.132	491.06
411.355	536.06
411.578	508.06
411.802	456.06
412.025	453.06
412.249	445.06
412.472	477.06
412.695	489.06
412.919	488.06
413.142	441.06
413.365	446.06
413.589	437.06
413.812	415.06
414.035	408.06
414.258	408.06
414.482	414.06
414.705	399.06
414.928	410.06
415.151	404.06
415.374	405.06
415.597	386.06
415.821	405.06
416.044	405.06
416.267	428.06
416.49	420.06
416.713	412.06
416.936	417.06
417.159	404.06
417.382	424.06
417.605	423.06
417.828	432.06
418.051	424.06
418.274	429.06
418.497	419.06
418.72	415.06
418.943	406.06
419.166	428.06
419.389	434.06
419.611	421.06
419.834	434.06
420.057	448.06
420.28	458.06
420.503	449.06
420.726	440.06
420.948	466.06
421.171	507.06
421.394	535.06
421.617	473.06
421.839	426.06
422.062	438.06
422.285	452.06
422.507	509.06
422.73	573.06
422.953	538.06
423.175	476.06
423.398	482.06
423.621	463.06
423.843	483.06
424.066	497.06
424.288	476.06
424.511	487.06
424.733	553.06
424.956	636.06
425.178	621.06
425.401	594.06
425.623	600.06
425.846	530.06
426.068	498.06
426.291	500.06
426.513	476.06
426.735	518.06
426.958	547.06
427.18	598.06
427.402	741.06
427.625	812.06
427.847	746.06
428.069	613.06
428.292	544.06
428.514	489.06
428.736	492.06
428.958	468.06
429.181	450.06
429.403	466.06
429.625	449.06
429.847	497.06
430.069	555.06
430.292	570.06
430.514	474.06
430.736	465.06
430.958	438.06
431.18	434.06
431.402	448.06
431.624	420.06
431.846	402.06
432.068	425.06
432.29	420.06
432.512	427.06
432.734	416.06
432.956	415.06
433.178	440.06
433.4	444.06
433.622	423.06
433.844	416.06
434.066	407.06
434.287	404.06
434.509	413.06
434.731	409.06
434.953	437.06
435.175	448.06
435.397	488.06
435.618	471.06
435.84	557.06
436.062	630.06
436.284	688.06
436.505	574.06
436.727	529.06
436.949	447.06
437.17	452.06
437.392	463.06
437.614	477.06
437.835	501.06
438.057	584.06
438.278	683.06
438.5	696.06
438.721	731.06
438.943	725.06
439.165	570.06
439.386	534.06
439.608	521.06
439.829	525.06
440.05	545.06
440.272	598.06
440.493	549.06
440.715	491.06
440.936	460.06
441.158	462.06
441.379	461.06
441.6	461.06
441.822	483.06
442.043	535.06
442.264	625.06
442.486	668.06
442.707	554.06
442.928	525.06
443.149	538.06
443.371	511.06
443.592	570.06
443.813	667.06
444.034	716.06
444.255	576.06
444.476	494.06
444.698	488.06
444.919	476.06
445.14	583.06
445.361	530.06
445.582	546.06
445.803	609.06
446.024	710.06
446.245	692.06
446.466	633.06
446.687	538.06
446.908	485.06
447.129	474.06
447.35	449.06
447.571	444.06
447.792	446.06
448.013	449.06
448.234	488.06
448.455	524.06
448.675	638.06
448.896	739.06
449.117	638.06
449.338	624.06
449.559	672.06
449.779	790.06
450	626.06
450.221	522.06
450.442	491.06
450.662	459.06
450.883	468.06
451.104	468.06
451.324	461.06
451.545	426.06
451.766	409.06
451.986	412.06
452.207	418.06
452.428	432.06
452.648	427.06
452.869	408.06
453.089	406.06
453.31	403.06
453.53	410.06
453.751	402.06
453.971	418.06
454.192	460.06
454.412	425.06
454.633	421.06
454.853	422.06
455.073	414.06
455.294	440.06
455.514	516.06
455.734	512.06
455.955	420.06
456.175	380.06
456.395	380.06
456.616	380.06
456.836	368.06
457.056	355.06
457.276	370.06
457.497	368.06
457.717	373.06
457.937	406.06
458.157	393.06
458.377	381.06
458.598	412.06
458.818	462.06
459.038	573.06
459.258	581.06
459.478	493.06
459.698	421.06
459.918	414.06
460.138	393.06
460.358	404.06
460.578	411.06
460.798	414.06
461.018	426.06
461.238	403.06
461.458	404.06
461.678	405.06
461.898	413.06
462.118	409.06
462.338	410.06
462.558	424.06
462.777	419.06
462.997	427.06
463.217	422.06
463.437	432.06
463.657	420.06
463.876	442.06
464.096	417.06
464.316	422.06
464.536	412.06
464.755	439.06
464.975	451.06
465.195	505.06
465.414	617.06
465.634	530.06
465.854	469.06
466.073	424.06
466.293	421.06
466.512	426.06
466.732	415.06
466.951	402.06
467.171	423.06
467.391	394.06
467.61	437.06
467.829	423.06
468.049	438.06
468.268	440.06
468.488	418.06
468.707	419.06
468.927	404.06
469.146	420.06
469.365	395.06
469.585	412.06
469.804	407.06
470.023	437.06
470.243	418.06
470.462	409.06
470.681	442.06
470.901	434.06
471.12	429.06
471.339	412.06
471.558	440.06
471.777	430.06
471.997	413.06
472.216	427.06
472.435	493.06
472.654	452.06
472.873	428.06
473.092	420.06
473.311	424.06
473.53	409.06
473.749	422.06
473.968	470.06
474.187	585.06
474.406	626.06
474.625	492.06
474.844	448.06
475.063	426.06
475.282	423.06
475.501	415.06
475.72	449.06
475.939	419.06
476.158	428.06
476.377	450.06
476.596	426.06
476.814	436.06
477.033	438.06
477.252	444.06
477.471	427.06
477.69	439.06
477.908	442.06
478.127	446.06
478.346	442.06
478.564	449.06
478.783	458.06
479.002	454.06
479.22	471.06
479.439	473.06
479.658	492.06
479.876	516.06
480.095	500.06
480.313	541.06
480.532	546.06
480.751	532.06
480.969	525.06
481.188	595.06
481.406	699.06
481.624	576.06
481.843	548.06
482.061	521.06
482.28	515.06
482.498	497.06
482.717	512.06
482.935	489.06
483.153	490.06
483.372	483.06
483.59	494.06
483.808	494.06
484.027	485.06
484.245	497.06
484.463	512.06
484.681	510.06
484.9	494.06
485.118	515.06
485.336	519.06
485.554	499.06
485.772	512.06
485.99	514.06
486.209	489.06
486.427	508.06
486.645	522.06
486.863	540.06
487.081	560.06
487.299	562.06
487.517	552.06
487.735	547.06
487.953	546.06
488.171	560.06
488.389	548.06
488.607	551.06
488.825	532.06
489.043	547.06
489.261	550.06
489.479	557.06
489.696	549.06
489.914	552.06
490.132	557.06
490.35	554.06
490.568	575.06
490.786	592.06
491.003	581.06
491.221	594.06
491.439	635.06
491.657	637.06
491.874	642.06
492.092	652.06
492.31	617.06
492.527	624.06
492.745	644.06
492.963	626.06
493.18	636.06
493.398	630.06
493.615	642.06
493.833	650.06
494.05	660.06
494.268	640.06
494.485	641.06
494.703	655.06
494.92	641.06
495.138	650.06
495.355	645.06
495.573	653.06
495.79	651.06
496.008	664.06
496.225	652.06
496.442	627.06
496.66	665.06
496.877	650.06
497.094	653.06
497.312	651.06
497.529	646.06
497.746	676.06
497.963	646.06
498.181	702.06
498.398	711.06
498.615	659.06
498.832	723.06
499.049	670.06
499.267	672.06
499.484	685.06
499.701	702.06
499.918	705.06
500.135	739.06
500.352	740.06
500.569	771.06
500.786	772.06
501.003	782.06
501.22	795.06
501.437	740.06
501.654	775.06
501.871	766.06
502.088	762.06
