Data from 1986.PennyLincolnUp.Lamp.En5.5.200Scan.071819.P2_HRD10591_17-11-18-974.txt Node
Date: Thu Jul 18 17:11:18 EDT 2019
User: cochatt
Spectrometer: HR+D1059
Trigger mode: 1
Integration Time (sec): 1.000000E-1
Scans to average: 1
Electric dark correction enabled: true
Nonlinearity correction enabled: false
Boxcar width: 0
XAxis mode: Wavelengths
Number of Pixels in Spectrum: 2048
>>>>>Begin Spectral Data<<<<<
223.165	-5.5
223.4	-5.5
223.635	-5.5
223.869	-19.5
224.104	-1.5
224.338	-7.5
224.573	-15.5
224.808	-9.5
225.042	-19.5
225.277	-18.5
225.511	-7.5
225.746	10.5
225.98	-10.5
226.215	17.5
226.449	12.5
226.683	14.5
226.918	23.5
227.152	36.5
227.387	45.5
227.621	35.5
227.856	46.5
228.09	40.5
228.324	42.5
228.559	54.5
228.793	65.5
229.027	93.5
229.262	101.5
229.496	110.5
229.73	132.5
229.964	160.5
230.199	144.5
230.433	104.5
230.667	124.5
230.901	107.5
231.136	116.5
231.37	122.5
231.604	102.5
231.838	100.5
232.072	114.5
232.306	101.5
232.541	124.5
232.775	106.5
233.009	123.5
233.243	78.5
233.477	114.5
233.711	105.5
233.945	122.5
234.179	128.5
234.413	108.5
234.647	107.5
234.881	121.5
235.115	118.5
235.349	118.5
235.583	117.5
235.817	124.5
236.051	126.5
236.285	118.5
236.519	126.5
236.753	133.5
236.987	152.5
237.221	178.5
237.455	242.5
237.689	201.5
237.922	138.5
238.156	134.5
238.39	137.5
238.624	124.5
238.858	130.5
239.091	137.5
239.325	125.5
239.559	129.5
239.793	131.5
240.027	148.5
240.26	146.5
240.494	155.5
240.728	154.5
240.961	155.5
241.195	130.5
241.429	132.5
241.662	135.5
241.896	155.5
242.13	136.5
242.363	129.5
242.597	119.5
242.83	126.5
243.064	143.5
243.298	136.5
243.531	134.5
243.765	141.5
243.998	132.5
244.232	160.5
244.465	152.5
244.699	157.5
244.932	150.5
245.166	136.5
245.399	154.5
245.633	160.5
245.866	151.5
246.099	146.5
246.333	144.5
246.566	140.5
246.8	166.5
247.033	155.5
247.266	159.5
247.5	153.5
247.733	183.5
247.966	183.5
248.2	184.5
248.433	175.5
248.666	176.5
248.899	199.5
249.133	181.5
249.366	227.5
249.599	210.5
249.832	194.5
250.066	180.5
250.299	207.5
250.532	196.5
250.765	203.5
250.998	250.5
251.231	250.5
251.465	242.5
251.698	231.5
251.931	222.5
252.164	217.5
252.397	220.5
252.63	218.5
252.863	197.5
253.096	219.5
253.329	230.5
253.562	245.5
253.795	231.5
254.028	224.5
254.261	233.5
254.494	234.5
254.727	257.5
254.96	298.5
255.193	295.5
255.426	290.5
255.659	259.5
255.892	259.5
256.124	266.5
256.357	270.5
256.59	268.5
256.823	265.5
257.056	232.5
257.289	249.5
257.521	223.5
257.754	223.5
257.987	228.5
258.22	215.5
258.452	203.5
258.685	208.5
258.918	215.5
259.151	216.5
259.383	242.5
259.616	237.5
259.849	230.5
260.081	244.5
260.314	246.5
260.547	271.5
260.779	264.5
261.012	234.5
261.244	223.5
261.477	229.5
261.71	245.5
261.942	228.5
262.175	260.5
262.407	255.5
262.64	235.5
262.872	216.5
263.105	225.5
263.337	221.5
263.57	217.5
263.802	198.5
264.035	193.5
264.267	206.5
264.499	218.5
264.732	212.5
264.964	223.5
265.197	209.5
265.429	193.5
265.661	219.5
265.894	223.5
266.126	216.5
266.358	209.5
266.591	208.5
266.823	210.5
267.055	226.5
267.287	236.5
267.52	214.5
267.752	226.5
267.984	217.5
268.216	226.5
268.448	249.5
268.681	233.5
268.913	257.5
269.145	259.5
269.377	298.5
269.609	271.5
269.841	290.5
270.073	271.5
270.306	306.5
270.538	335.5
270.77	323.5
271.002	328.5
271.234	310.5
271.466	316.5
271.698	316.5
271.93	332.5
272.162	327.5
272.394	323.5
272.626	319.5
272.858	306.5
273.09	290.5
273.322	280.5
273.553	271.5
273.785	283.5
274.017	286.5
274.249	266.5
274.481	285.5
274.713	270.5
274.945	273.5
275.176	275.5
275.408	273.5
275.64	279.5
275.872	268.5
276.104	266.5
276.335	272.5
276.567	278.5
276.799	295.5
277.031	312.5
277.262	330.5
277.494	326.5
277.726	310.5
277.957	306.5
278.189	300.5
278.421	275.5
278.652	270.5
278.884	270.5
279.115	268.5
279.347	271.5
279.579	274.5
279.81	270.5
280.042	262.5
280.273	259.5
280.505	262.5
280.736	263.5
280.968	267.5
281.199	262.5
281.431	260.5
281.662	275.5
281.894	258.5
282.125	269.5
282.356	287.5
282.588	322.5
282.819	297.5
283.051	280.5
283.282	292.5
283.513	270.5
283.745	267.5
283.976	280.5
284.207	266.5
284.439	286.5
284.67	276.5
284.901	280.5
285.132	279.5
285.364	250.5
285.595	278.5
285.826	261.5
286.057	272.5
286.288	275.5
286.52	280.5
286.751	256.5
286.982	267.5
287.213	282.5
287.444	286.5
287.675	276.5
287.906	288.5
288.138	289.5
288.369	292.5
288.6	288.5
288.831	265.5
289.062	294.5
289.293	267.5
289.524	290.5
289.755	286.5
289.986	282.5
290.217	271.5
290.448	271.5
290.679	261.5
290.91	260.5
291.141	273.5
291.371	274.5
291.602	270.5
291.833	258.5
292.064	283.5
292.295	265.5
292.526	272.5
292.757	274.5
292.987	282.5
293.218	269.5
293.449	267.5
293.68	262.5
293.91	271.5
294.141	277.5
294.372	288.5
294.603	278.5
294.833	258.5
295.064	262.5
295.295	291.5
295.525	285.5
295.756	276.5
295.987	301.5
296.217	313.5
296.448	330.5
296.679	288.5
296.909	278.5
297.14	262.5
297.37	283.5
297.601	269.5
297.831	272.5
298.062	291.5
298.292	293.5
298.523	297.5
298.753	287.5
298.984	280.5
299.214	289.5
299.445	285.5
299.675	295.5
299.905	298.5
300.136	282.5
300.366	291.5
300.597	284.5
300.827	280.5
301.057	303.5
301.288	313.5
301.518	303.5
301.748	306.5
301.979	318.5
302.209	299.5
302.439	310.5
302.669	333.5
302.9	303.5
303.13	309.5
303.36	284.5
303.59	315.5
303.82	312.5
304.051	332.5
304.281	310.5
304.511	295.5
304.741	321.5
304.971	322.5
305.201	298.5
305.431	302.5
305.661	312.5
305.891	291.5
306.121	298.5
306.352	308.5
306.582	311.5
306.812	307.5
307.042	326.5
307.272	310.5
307.502	332.5
307.731	345.5
307.961	315.5
308.191	313.5
308.421	308.5
308.651	312.5
308.881	311.5
309.111	324.5
309.341	338.5
309.571	345.5
309.8	361.5
310.03	374.5
310.26	384.5
310.49	377.5
310.72	377.5
310.949	384.5
311.179	392.5
311.409	371.5
311.639	376.5
311.868	380.5
312.098	362.5
312.328	362.5
312.557	372.5
312.787	396.5
313.017	379.5
313.246	372.5
313.476	367.5
313.706	346.5
313.935	388.5
314.165	382.5
314.394	385.5
314.624	408.5
314.853	382.5
315.083	334.5
315.312	381.5
315.542	370.5
315.771	365.5
316.001	363.5
316.23	347.5
316.46	367.5
316.689	348.5
316.919	358.5
317.148	386.5
317.377	377.5
317.607	366.5
317.836	367.5
318.065	377.5
318.295	355.5
318.524	354.5
318.753	354.5
318.983	333.5
319.212	351.5
319.441	369.5
319.67	382.5
319.9	366.5
320.129	373.5
320.358	374.5
320.587	366.5
320.816	390.5
321.046	406.5
321.275	402.5
321.504	408.5
321.733	392.5
321.962	426.5
322.191	436.5
322.42	416.5
322.649	440.5
322.878	444.5
323.108	460.5
323.337	494.5
323.566	528.5
323.795	574.5
324.024	618.5
324.253	741.5
324.482	1076.5
324.71	1615.5
324.939	2332.5
325.168	2098.5
325.397	1099.5
325.626	746.5
325.855	606.5
326.084	551.5
326.313	543.5
326.542	550.5
326.77	574.5
326.999	693.5
327.228	948.5
327.457	1422.5
327.686	1765.5
327.914	1246.5
328.143	840.5
328.372	717.5
328.6	647.5
328.829	598.5
329.058	639.5
329.287	636.5
329.515	614.5
329.744	555.5
329.972	584.5
330.201	614.5
330.43	667.5
330.658	696.5
330.887	678.5
331.115	662.5
331.344	541.5
331.572	490.5
331.801	515.5
332.03	500.5
332.258	502.5
332.486	471.5
332.715	442.5
332.943	438.5
333.172	445.5
333.4	439.5
333.629	475.5
333.857	496.5
334.085	501.5
334.314	565.5
334.542	638.5
334.771	647.5
334.999	578.5
335.227	464.5
335.455	469.5
335.684	442.5
335.912	435.5
336.14	435.5
336.369	457.5
336.597	430.5
336.825	459.5
337.053	400.5
337.281	405.5
337.51	405.5
337.738	416.5
337.966	415.5
338.194	407.5
338.422	434.5
338.65	406.5
338.878	398.5
339.106	392.5
339.334	407.5
339.562	411.5
339.79	409.5
340.018	400.5
340.246	419.5
340.474	399.5
340.702	396.5
340.93	372.5
341.158	388.5
341.386	415.5
341.614	404.5
341.842	411.5
342.07	395.5
342.298	400.5
342.526	391.5
342.754	388.5
342.981	377.5
343.209	374.5
343.437	371.5
343.665	375.5
343.893	397.5
344.12	403.5
344.348	412.5
344.576	407.5
344.804	411.5
345.031	420.5
345.259	434.5
345.487	433.5
345.714	437.5
345.942	372.5
346.17	400.5
346.397	388.5
346.625	397.5
346.853	402.5
347.08	406.5
347.308	395.5
347.535	398.5
347.763	401.5
347.99	415.5
348.218	404.5
348.445	400.5
348.673	407.5
348.9	406.5
349.128	419.5
349.355	374.5
349.583	390.5
349.81	375.5
350.037	391.5
350.265	371.5
350.492	395.5
350.72	373.5
350.947	400.5
351.174	405.5
351.402	407.5
351.629	404.5
351.856	419.5
352.083	406.5
352.311	423.5
352.538	421.5
352.765	424.5
352.992	394.5
353.22	408.5
353.447	406.5
353.674	388.5
353.901	380.5
354.128	377.5
354.355	365.5
354.583	357.5
354.81	343.5
355.037	365.5
355.264	341.5
355.491	364.5
355.718	366.5
355.945	352.5
356.172	368.5
356.399	365.5
356.626	361.5
356.853	346.5
357.08	369.5
357.307	358.5
357.534	351.5
357.761	358.5
357.988	351.5
358.215	355.5
358.441	340.5
358.668	346.5
358.895	382.5
359.122	374.5
359.349	379.5
359.576	392.5
359.802	413.5
360.029	451.5
360.256	455.5
360.483	434.5
360.709	376.5
360.936	403.5
361.163	386.5
361.39	378.5
361.616	377.5
361.843	394.5
362.07	376.5
362.296	414.5
362.523	380.5
362.749	420.5
362.976	375.5
363.203	381.5
363.429	360.5
363.656	364.5
363.882	374.5
364.109	370.5
364.335	370.5
364.562	372.5
364.788	362.5
365.015	347.5
365.241	360.5
365.468	346.5
365.694	375.5
365.92	374.5
366.147	379.5
366.373	366.5
366.599	365.5
366.826	359.5
367.052	355.5
367.278	359.5
367.505	334.5
367.731	359.5
367.957	389.5
368.184	357.5
368.41	380.5
368.636	386.5
368.862	384.5
369.089	393.5
369.315	359.5
369.541	365.5
369.767	362.5
369.993	366.5
370.219	359.5
370.445	347.5
370.672	354.5
370.898	336.5
371.124	349.5
371.35	373.5
371.576	344.5
371.802	362.5
372.028	348.5
372.254	373.5
372.48	350.5
372.706	357.5
372.932	373.5
373.158	354.5
373.384	345.5
373.61	358.5
373.835	364.5
374.061	354.5
374.287	376.5
374.513	354.5
374.739	353.5
374.965	344.5
375.191	363.5
375.416	354.5
375.642	375.5
375.868	351.5
376.094	353.5
376.319	350.5
376.545	344.5
376.771	338.5
376.997	340.5
377.222	339.5
377.448	340.5
377.674	366.5
377.899	345.5
378.125	355.5
378.35	318.5
378.576	348.5
378.802	348.5
379.027	336.5
379.253	339.5
379.478	348.5
379.704	346.5
379.929	354.5
380.155	362.5
380.38	336.5
380.606	355.5
380.831	354.5
381.057	341.5
381.282	335.5
381.507	342.5
381.733	358.5
381.958	349.5
382.184	348.5
382.409	348.5
382.634	367.5
382.86	348.5
383.085	359.5
383.31	354.5
383.535	350.5
383.761	356.5
383.986	364.5
384.211	363.5
384.436	377.5
384.662	374.5
384.887	361.5
385.112	354.5
385.337	369.5
385.562	353.5
385.787	370.5
386.013	367.5
386.238	386.5
386.463	364.5
386.688	368.5
386.913	351.5
387.138	377.5
387.363	377.5
387.588	347.5
387.813	375.5
388.038	363.5
388.263	368.5
388.488	373.5
388.713	366.5
388.938	375.5
389.163	368.5
389.387	363.5
389.612	351.5
389.837	352.5
390.062	367.5
390.287	387.5
390.512	351.5
390.736	370.5
390.961	378.5
391.186	372.5
391.411	369.5
391.636	379.5
391.86	359.5
392.085	376.5
392.31	361.5
392.534	364.5
392.759	379.5
392.984	372.5
393.208	374.5
393.433	378.5
393.658	380.5
393.882	379.5
394.107	363.5
394.331	350.5
394.556	377.5
394.78	346.5
395.005	355.5
395.229	370.5
395.454	378.5
395.678	383.5
395.903	385.5
396.127	394.5
396.352	399.5
396.576	384.5
396.801	389.5
397.025	384.5
397.249	383.5
397.474	397.5
397.698	374.5
397.922	424.5
398.147	404.5
398.371	407.5
398.595	406.5
398.82	424.5
399.044	428.5
399.268	399.5
399.492	419.5
399.717	452.5
399.941	454.5
400.165	485.5
400.389	505.5
400.613	463.5
400.837	440.5
401.062	401.5
401.286	422.5
401.51	423.5
401.734	409.5
401.958	417.5
402.182	405.5
402.406	428.5
402.63	422.5
402.854	404.5
403.078	404.5
403.302	402.5
403.526	441.5
403.75	446.5
403.974	419.5
404.198	423.5
404.422	429.5
404.645	468.5
404.869	470.5
405.093	485.5
405.317	554.5
405.541	563.5
405.765	504.5
405.988	481.5
406.212	484.5
406.436	529.5
406.66	531.5
406.883	476.5
407.107	487.5
407.331	507.5
407.555	579.5
407.778	600.5
408.002	564.5
408.226	498.5
408.449	472.5
408.673	458.5
408.896	500.5
409.12	559.5
409.344	514.5
409.567	472.5
409.791	456.5
410.014	414.5
410.238	432.5
410.461	428.5
410.685	444.5
410.908	462.5
411.132	494.5
411.355	519.5
411.578	503.5
411.802	480.5
412.025	423.5
412.249	446.5
412.472	482.5
412.695	540.5
412.919	543.5
413.142	484.5
413.365	466.5
413.589	468.5
413.812	440.5
414.035	408.5
414.258	386.5
414.482	425.5
414.705	424.5
414.928	427.5
415.151	400.5
415.374	412.5
415.597	420.5
415.821	419.5
416.044	427.5
416.267	417.5
416.49	398.5
416.713	409.5
416.936	407.5
417.159	405.5
417.382	404.5
417.605	432.5
417.828	454.5
418.051	440.5
418.274	438.5
418.497	437.5
418.72	410.5
418.943	418.5
419.166	432.5
419.389	435.5
419.611	423.5
419.834	419.5
420.057	453.5
420.28	463.5
420.503	448.5
420.726	461.5
420.948	493.5
421.171	486.5
421.394	532.5
421.617	473.5
421.839	460.5
422.062	443.5
422.285	463.5
422.507	492.5
422.73	564.5
422.953	560.5
423.175	496.5
423.398	464.5
423.621	478.5
423.843	476.5
424.066	487.5
424.288	457.5
424.511	495.5
424.733	554.5
424.956	644.5
425.178	606.5
425.401	610.5
425.623	597.5
425.846	578.5
426.068	515.5
426.291	478.5
426.513	467.5
426.735	513.5
426.958	534.5
427.18	611.5
427.402	716.5
427.625	827.5
427.847	739.5
428.069	652.5
428.292	572.5
428.514	522.5
428.736	483.5
428.958	468.5
429.181	437.5
429.403	444.5
429.625	485.5
429.847	498.5
430.069	584.5
430.292	556.5
430.514	476.5
430.736	477.5
430.958	432.5
431.18	440.5
431.402	458.5
431.624	426.5
431.846	425.5
432.068	412.5
432.29	423.5
432.512	420.5
432.734	432.5
432.956	441.5
433.178	431.5
433.4	456.5
433.622	430.5
433.844	406.5
434.066	407.5
434.287	427.5
434.509	419.5
434.731	431.5
434.953	423.5
435.175	469.5
435.397	484.5
435.618	487.5
435.84	558.5
436.062	624.5
436.284	697.5
436.505	582.5
436.727	518.5
436.949	465.5
437.17	454.5
437.392	468.5
437.614	478.5
437.835	511.5
438.057	602.5
438.278	678.5
438.5	680.5
438.721	736.5
438.943	746.5
439.165	574.5
439.386	536.5
439.608	507.5
439.829	518.5
440.05	539.5
440.272	595.5
440.493	543.5
440.715	502.5
440.936	482.5
441.158	459.5
441.379	452.5
441.6	458.5
441.822	486.5
442.043	538.5
442.264	600.5
442.486	666.5
442.707	587.5
442.928	514.5
443.149	514.5
443.371	527.5
443.592	590.5
443.813	634.5
444.034	697.5
444.255	579.5
444.476	504.5
444.698	512.5
444.919	489.5
445.14	577.5
445.361	563.5
445.582	503.5
445.803	569.5
446.024	710.5
446.245	711.5
446.466	649.5
446.687	555.5
446.908	490.5
447.129	478.5
447.35	464.5
447.571	473.5
447.792	449.5
448.013	450.5
448.234	487.5
448.455	548.5
448.675	628.5
448.896	723.5
449.117	642.5
449.338	599.5
449.559	696.5
449.779	762.5
450	657.5
450.221	540.5
450.442	466.5
450.662	456.5
450.883	489.5
451.104	474.5
451.324	468.5
451.545	445.5
451.766	420.5
451.986	416.5
452.207	413.5
452.428	419.5
452.648	406.5
452.869	406.5
453.089	423.5
453.31	425.5
453.53	413.5
453.751	423.5
453.971	401.5
454.192	446.5
454.412	428.5
454.633	422.5
454.853	434.5
455.073	416.5
455.294	463.5
455.514	506.5
455.734	498.5
455.955	416.5
456.175	407.5
456.395	388.5
456.616	391.5
456.836	378.5
457.056	371.5
457.276	385.5
457.497	398.5
457.717	378.5
457.937	397.5
458.157	386.5
458.377	384.5
458.598	422.5
458.818	496.5
459.038	570.5
459.258	576.5
459.478	490.5
459.698	431.5
459.918	422.5
460.138	410.5
460.358	419.5
460.578	418.5
460.798	420.5
461.018	429.5
461.238	405.5
461.458	397.5
461.678	416.5
461.898	411.5
462.118	403.5
462.338	420.5
462.558	401.5
462.777	414.5
462.997	429.5
463.217	418.5
463.437	436.5
463.657	423.5
463.876	412.5
464.096	422.5
464.316	408.5
464.536	427.5
464.755	440.5
464.975	464.5
465.195	502.5
465.414	606.5
465.634	525.5
465.854	490.5
466.073	463.5
466.293	416.5
466.512	436.5
466.732	401.5
466.951	410.5
467.171	412.5
467.391	417.5
467.61	404.5
467.829	439.5
468.049	434.5
468.268	447.5
468.488	438.5
468.707	413.5
468.927	408.5
469.146	404.5
469.365	397.5
469.585	419.5
469.804	404.5
470.023	428.5
470.243	425.5
470.462	427.5
470.681	438.5
470.901	434.5
471.12	423.5
471.339	396.5
471.558	405.5
471.777	422.5
471.997	434.5
472.216	458.5
472.435	527.5
472.654	495.5
472.873	457.5
473.092	453.5
473.311	427.5
473.53	438.5
473.749	438.5
473.968	485.5
474.187	582.5
474.406	618.5
474.625	486.5
474.844	432.5
475.063	432.5
475.282	419.5
475.501	406.5
475.72	440.5
475.939	411.5
476.158	445.5
476.377	445.5
476.596	440.5
476.814	425.5
477.033	452.5
477.252	468.5
477.471	429.5
477.69	457.5
477.908	455.5
478.127	448.5
478.346	467.5
478.564	475.5
478.783	460.5
479.002	467.5
479.22	478.5
479.439	498.5
479.658	515.5
479.876	514.5
480.095	494.5
480.313	539.5
480.532	549.5
480.751	536.5
480.969	552.5
481.188	683.5
481.406	788.5
481.624	631.5
481.843	570.5
482.061	552.5
482.28	523.5
482.498	515.5
482.717	521.5
482.935	496.5
483.153	518.5
483.372	501.5
483.59	510.5
483.808	486.5
484.027	524.5
484.245	501.5
484.463	518.5
484.681	528.5
484.9	517.5
485.118	505.5
485.336	520.5
485.554	511.5
485.772	511.5
485.99	501.5
486.209	522.5
486.427	541.5
486.645	537.5
486.863	562.5
487.081	562.5
487.299	562.5
487.517	551.5
487.735	543.5
487.953	547.5
488.171	522.5
488.389	554.5
488.607	552.5
488.825	546.5
489.043	552.5
489.261	582.5
489.479	549.5
489.696	555.5
489.914	539.5
490.132	572.5
490.35	553.5
490.568	598.5
490.786	595.5
491.003	583.5
491.221	640.5
491.439	608.5
491.657	626.5
491.874	634.5
492.092	653.5
492.31	641.5
492.527	644.5
492.745	650.5
492.963	630.5
493.18	644.5
493.398	655.5
493.615	655.5
493.833	662.5
494.05	652.5
494.268	654.5
494.485	649.5
494.703	676.5
494.92	675.5
495.138	651.5
495.355	668.5
495.573	663.5
495.79	664.5
496.008	659.5
496.225	659.5
496.442	635.5
496.66	640.5
496.877	649.5
497.094	641.5
497.312	627.5
497.529	682.5
497.746	680.5
497.963	671.5
498.181	715.5
498.398	694.5
498.615	677.5
498.832	712.5
499.049	674.5
499.267	677.5
499.484	716.5
499.701	745.5
499.918	711.5
500.135	739.5
500.352	776.5
500.569	791.5
500.786	791.5
501.003	794.5
501.22	786.5
501.437	742.5
501.654	772.5
501.871	768.5
502.088	754.5
502.305	738.5
502.522	733.5
502.739	697.5
502.956	669.5
503.172	650.5
503.389	662.5
503.606	661.5
503.823	687.5
504.04	669.5
504.256	664.5
504.473	616.5
504.69	647.5
504.907	642.5
505.123	640.5
505.34	606.5
505.557	621.5
505.773	623.5
505.99	621.5
506.207	623.5
506.423	637.5
506.64	640.5
506.856	634.5
507.073	622.5
507.289	619.5
507.506	608.5
507.722	636.5
507.939	646.5
508.155	617.5
508.372	616.5
508.588	622.5
508.805	619.5
509.021	628.5
509.238	621.5
509.454	623.5
509.67	627.5
509.887	611.5
510.103	606.5
510.319	602.5
510.536	751.5
510.752	1246.5
510.968	1026.5
511.184	631.5
511.401	588.5
511.617	604.5
511.833	605.5
512.049	602.5
512.265	606.5
512.481	596.5
512.698	582.5
512.914	566.5
513.13	583.5
513.346	582.5
513.562	568.5
513.778	594.5
513.994	602.5
514.21	620.5
514.426	616.5
514.642	684.5
514.858	705.5
515.074	754.5
515.29	924.5
515.506	1392.5
515.721	1155.5
515.937	754.5
516.153	663.5
516.369	636.5
516.585	638.5
516.801	566.5
517.016	567.5
517.232	571.5
517.448	574.5
517.664	572.5
517.879	572.5
518.095	537.5
518.311	558.5
518.527	555.5
518.742	547.5
518.958	560.5
519.173	585.5
519.389	556.5
519.605	558.5
519.82	595.5
