Data from 1986.PennyLincolnUp.Lamp.En5.5.200Scan.071819.P2_HRD10591_17-12-46-973.txt Node
Date: Thu Jul 18 17:12:46 EDT 2019
User: cochatt
Spectrometer: HR+D1059
Trigger mode: 1
Integration Time (sec): 1.000000E-1
Scans to average: 1
Electric dark correction enabled: true
Nonlinearity correction enabled: false
Boxcar width: 0
XAxis mode: Wavelengths
Number of Pixels in Spectrum: 2048
>>>>>Begin Spectral Data<<<<<
223.165	-14.62
223.4	-14.62
223.635	-14.62
223.869	-13.62
224.104	-13.62
224.338	-3.62
224.573	-5.62
224.808	-15.62
225.042	-1.62
225.277	-15.62
225.511	-5.62
225.746	6.38
225.98	-0.62
226.215	-8.62
226.449	26.38
226.683	21.38
226.918	19.38
227.152	25.38
227.387	37.38
227.621	34.38
227.856	51.38
228.09	41.38
228.324	52.38
228.559	41.38
228.793	54.38
229.027	106.38
229.262	86.38
229.496	104.38
229.73	135.38
229.964	154.38
230.199	139.38
230.433	115.38
230.667	106.38
230.901	122.38
231.136	121.38
231.37	108.38
231.604	112.38
231.838	116.38
232.072	107.38
232.306	113.38
232.541	99.38
232.775	109.38
233.009	114.38
233.243	107.38
233.477	103.38
233.711	111.38
233.945	125.38
234.179	125.38
234.413	136.38
234.647	111.38
234.881	114.38
235.115	115.38
235.349	115.38
235.583	120.38
235.817	126.38
236.051	132.38
236.285	131.38
236.519	133.38
236.753	134.38
236.987	129.38
237.221	171.38
237.455	229.38
237.689	200.38
237.922	152.38
238.156	141.38
238.39	133.38
238.624	129.38
238.858	129.38
239.091	132.38
239.325	136.38
239.559	118.38
239.793	133.38
240.027	145.38
240.26	146.38
240.494	165.38
240.728	155.38
240.961	132.38
241.195	149.38
241.429	140.38
241.662	140.38
241.896	139.38
242.13	128.38
242.363	145.38
242.597	142.38
242.83	143.38
243.064	144.38
243.298	148.38
243.531	162.38
243.765	144.38
243.998	144.38
244.232	146.38
244.465	151.38
244.699	142.38
244.932	134.38
245.166	139.38
245.399	152.38
245.633	151.38
245.866	164.38
246.099	138.38
246.333	156.38
246.566	152.38
246.8	153.38
247.033	167.38
247.266	166.38
247.5	172.38
247.733	170.38
247.966	167.38
248.2	178.38
248.433	184.38
248.666	182.38
248.899	190.38
249.133	184.38
249.366	222.38
249.599	219.38
249.832	203.38
250.066	213.38
250.299	231.38
250.532	255.38
250.765	277.38
250.998	277.38
251.231	271.38
251.465	264.38
251.698	248.38
251.931	242.38
252.164	218.38
252.397	231.38
252.63	235.38
252.863	223.38
253.096	240.38
253.329	251.38
253.562	225.38
253.795	242.38
254.028	259.38
254.261	254.38
254.494	255.38
254.727	269.38
254.96	297.38
255.193	313.38
255.426	282.38
255.659	289.38
255.892	322.38
256.124	369.38
256.357	391.38
256.59	357.38
256.823	335.38
257.056	303.38
257.289	268.38
257.521	270.38
257.754	242.38
257.987	242.38
258.22	263.38
258.452	238.38
258.685	248.38
258.918	228.38
259.151	250.38
259.383	246.38
259.616	243.38
259.849	243.38
260.081	271.38
260.314	282.38
260.547	288.38
260.779	269.38
261.012	249.38
261.244	270.38
261.477	258.38
261.71	246.38
261.942	245.38
262.175	246.38
262.407	244.38
262.64	239.38
262.872	219.38
263.105	235.38
263.337	231.38
263.57	226.38
263.802	224.38
264.035	231.38
264.267	209.38
264.499	224.38
264.732	227.38
264.964	235.38
265.197	240.38
265.429	232.38
265.661	223.38
265.894	232.38
266.126	230.38
266.358	216.38
266.591	224.38
266.823	218.38
267.055	240.38
267.287	232.38
267.52	228.38
267.752	247.38
267.984	232.38
268.216	243.38
268.448	255.38
268.681	260.38
268.913	276.38
269.145	275.38
269.377	303.38
269.609	278.38
269.841	297.38
270.073	285.38
270.306	312.38
270.538	336.38
270.77	320.38
271.002	312.38
271.234	313.38
271.466	313.38
271.698	327.38
271.93	332.38
272.162	316.38
272.394	325.38
272.626	330.38
272.858	320.38
273.09	299.38
273.322	285.38
273.553	290.38
273.785	279.38
274.017	280.38
274.249	280.38
274.481	290.38
274.713	285.38
274.945	278.38
275.176	284.38
275.408	289.38
275.64	282.38
275.872	284.38
276.104	286.38
276.335	287.38
276.567	290.38
276.799	321.38
277.031	334.38
277.262	334.38
277.494	364.38
277.726	339.38
277.957	312.38
278.189	298.38
278.421	301.38
278.652	300.38
278.884	278.38
279.115	284.38
279.347	284.38
279.579	293.38
279.81	295.38
280.042	290.38
280.273	295.38
280.505	300.38
280.736	299.38
280.968	286.38
281.199	291.38
281.431	304.38
281.662	289.38
281.894	274.38
282.125	277.38
282.356	312.38
282.588	329.38
282.819	328.38
283.051	299.38
283.282	298.38
283.513	308.38
283.745	300.38
283.976	306.38
284.207	294.38
284.439	283.38
284.67	301.38
284.901	295.38
285.132	295.38
285.364	292.38
285.595	289.38
285.826	286.38
286.057	274.38
286.288	288.38
286.52	285.38
286.751	289.38
286.982	282.38
287.213	295.38
287.444	286.38
287.675	292.38
287.906	313.38
288.138	314.38
288.369	318.38
288.6	309.38
288.831	303.38
289.062	286.38
289.293	308.38
289.524	308.38
289.755	302.38
289.986	289.38
290.217	278.38
290.448	303.38
290.679	285.38
290.91	290.38
291.141	278.38
291.371	288.38
291.602	293.38
291.833	288.38
292.064	302.38
292.295	293.38
292.526	312.38
292.757	291.38
292.987	285.38
293.218	284.38
293.449	285.38
293.68	277.38
293.91	292.38
294.141	283.38
294.372	308.38
294.603	289.38
294.833	281.38
295.064	311.38
295.295	268.38
295.525	296.38
295.756	294.38
295.987	303.38
296.217	342.38
296.448	343.38
296.679	320.38
296.909	288.38
297.14	305.38
297.37	297.38
297.601	298.38
297.831	303.38
298.062	294.38
298.292	300.38
298.523	310.38
298.753	321.38
298.984	306.38
299.214	301.38
299.445	308.38
299.675	302.38
299.905	304.38
300.136	326.38
300.366	302.38
300.597	307.38
300.827	322.38
301.057	321.38
301.288	303.38
301.518	326.38
301.748	328.38
301.979	316.38
302.209	337.38
302.439	336.38
302.669	337.38
302.9	339.38
303.13	330.38
303.36	337.38
303.59	351.38
303.82	346.38
304.051	352.38
304.281	325.38
304.511	334.38
304.741	327.38
304.971	317.38
305.201	324.38
305.431	325.38
305.661	332.38
305.891	332.38
306.121	331.38
306.352	327.38
306.582	339.38
306.812	350.38
307.042	343.38
307.272	340.38
307.502	358.38
307.731	340.38
307.961	346.38
308.191	337.38
308.421	344.38
308.651	358.38
308.881	337.38
309.111	358.38
309.341	343.38
309.571	350.38
309.8	380.38
310.03	392.38
310.26	411.38
310.49	372.38
310.72	384.38
310.949	412.38
311.179	394.38
311.409	400.38
311.639	390.38
311.868	382.38
312.098	401.38
312.328	405.38
312.557	422.38
312.787	404.38
313.017	412.38
313.246	410.38
313.476	370.38
313.706	379.38
313.935	416.38
314.165	400.38
314.394	411.38
314.624	408.38
314.853	404.38
315.083	379.38
315.312	376.38
315.542	377.38
315.771	393.38
316.001	379.38
316.23	395.38
316.46	369.38
316.689	402.38
316.919	400.38
317.148	411.38
317.377	398.38
317.607	394.38
317.836	407.38
318.065	398.38
318.295	385.38
318.524	372.38
318.753	402.38
318.983	402.38
319.212	372.38
319.441	407.38
319.67	391.38
319.9	400.38
320.129	386.38
320.358	388.38
320.587	381.38
320.816	412.38
321.046	409.38
321.275	413.38
321.504	427.38
321.733	433.38
321.962	424.38
322.191	447.38
322.42	468.38
322.649	485.38
322.878	503.38
323.108	490.38
323.337	522.38
323.566	534.38
323.795	572.38
324.024	638.38
324.253	764.38
324.482	1127.38
324.71	1656.38
324.939	2408.38
325.168	2123.38
325.397	1114.38
325.626	749.38
325.855	642.38
326.084	597.38
326.313	550.38
326.542	577.38
326.77	638.38
326.999	726.38
327.228	999.38
327.457	1514.38
327.686	1830.38
327.914	1333.38
328.143	890.38
328.372	846.38
328.6	784.38
328.829	708.38
329.058	710.38
329.287	721.38
329.515	677.38
329.744	683.38
329.972	761.38
330.201	848.38
330.43	1036.38
330.658	949.38
330.887	827.38
331.115	755.38
331.344	653.38
331.572	600.38
331.801	580.38
332.03	568.38
332.258	549.38
332.486	529.38
332.715	532.38
332.943	542.38
333.172	530.38
333.4	561.38
333.629	594.38
333.857	652.38
334.085	723.38
334.314	843.38
334.542	1063.38
334.771	1143.38
334.999	850.38
335.227	647.38
335.455	565.38
335.684	540.38
335.912	536.38
336.14	514.38
336.369	525.38
336.597	491.38
336.825	477.38
337.053	457.38
337.281	466.38
337.51	466.38
337.738	460.38
337.966	461.38
338.194	462.38
338.422	455.38
338.65	447.38
338.878	428.38
339.106	426.38
339.334	431.38
339.562	446.38
339.79	427.38
340.018	446.38
340.246	441.38
340.474	446.38
340.702	419.38
340.93	408.38
341.158	442.38
341.386	433.38
341.614	449.38
341.842	423.38
342.07	416.38
342.298	426.38
342.526	399.38
342.754	414.38
342.981	394.38
343.209	406.38
343.437	400.38
343.665	402.38
343.893	438.38
344.12	431.38
344.348	412.38
344.576	412.38
344.804	430.38
345.031	438.38
345.259	432.38
345.487	418.38
345.714	444.38
345.942	420.38
346.17	418.38
346.397	411.38
346.625	403.38
346.853	389.38
347.08	400.38
347.308	405.38
347.535	437.38
347.763	434.38
347.99	436.38
348.218	436.38
348.445	435.38
348.673	426.38
348.9	424.38
349.128	414.38
349.355	393.38
349.583	390.38
349.81	408.38
350.037	392.38
350.265	397.38
350.492	404.38
350.72	405.38
350.947	413.38
351.174	430.38
351.402	409.38
351.629	420.38
351.856	410.38
352.083	430.38
352.311	434.38
352.538	445.38
352.765	441.38
352.992	419.38
353.22	438.38
353.447	394.38
353.674	392.38
353.901	378.38
354.128	393.38
354.355	400.38
354.583	401.38
354.81	389.38
355.037	386.38
355.264	377.38
355.491	381.38
355.718	367.38
355.945	366.38
356.172	377.38
356.399	386.38
356.626	384.38
356.853	376.38
357.08	371.38
357.307	375.38
357.534	364.38
357.761	372.38
357.988	368.38
358.215	389.38
358.441	378.38
358.668	386.38
358.895	378.38
359.122	381.38
359.349	383.38
359.576	410.38
359.802	439.38
360.029	460.38
360.256	465.38
360.483	465.38
360.709	431.38
360.936	399.38
361.163	396.38
361.39	407.38
361.616	422.38
361.843	392.38
362.07	417.38
362.296	417.38
362.523	408.38
362.749	421.38
362.976	390.38
363.203	393.38
363.429	397.38
363.656	394.38
363.882	376.38
364.109	393.38
364.335	395.38
364.562	388.38
364.788	387.38
365.015	366.38
365.241	379.38
365.468	393.38
365.694	388.38
365.92	403.38
366.147	382.38
366.373	381.38
366.599	403.38
366.826	395.38
367.052	384.38
367.278	382.38
367.505	378.38
367.731	376.38
367.957	382.38
368.184	388.38
368.41	388.38
368.636	392.38
368.862	410.38
369.089	404.38
369.315	392.38
369.541	374.38
369.767	383.38
369.993	380.38
370.219	393.38
370.445	379.38
370.672	359.38
370.898	375.38
371.124	352.38
371.35	379.38
371.576	359.38
371.802	378.38
372.028	376.38
372.254	362.38
372.48	363.38
372.706	344.38
372.932	388.38
373.158	357.38
373.384	373.38
373.61	377.38
373.835	358.38
374.061	372.38
374.287	376.38
374.513	377.38
374.739	372.38
374.965	358.38
375.191	372.38
375.416	366.38
375.642	362.38
375.868	386.38
376.094	373.38
376.319	371.38
376.545	368.38
376.771	367.38
376.997	406.38
377.222	374.38
377.448	368.38
377.674	367.38
377.899	353.38
378.125	345.38
378.35	351.38
378.576	362.38
378.802	368.38
379.027	376.38
379.253	372.38
379.478	356.38
379.704	386.38
379.929	380.38
380.155	356.38
380.38	364.38
380.606	374.38
380.831	384.38
381.057	386.38
381.282	368.38
381.507	368.38
381.733	383.38
381.958	367.38
382.184	369.38
382.409	362.38
382.634	380.38
382.86	361.38
383.085	389.38
383.31	374.38
383.535	376.38
383.761	369.38
383.986	383.38
384.211	378.38
384.436	378.38
384.662	370.38
384.887	389.38
385.112	374.38
385.337	387.38
385.562	376.38
385.787	393.38
386.013	378.38
386.238	397.38
386.463	383.38
386.688	376.38
386.913	386.38
387.138	404.38
387.363	398.38
387.588	388.38
387.813	381.38
388.038	386.38
388.263	370.38
388.488	375.38
388.713	378.38
388.938	391.38
389.163	388.38
389.387	394.38
389.612	383.38
389.837	387.38
390.062	371.38
390.287	378.38
390.512	377.38
390.736	376.38
390.961	390.38
391.186	389.38
391.411	366.38
391.636	368.38
391.86	390.38
392.085	397.38
392.31	410.38
392.534	390.38
392.759	383.38
392.984	392.38
393.208	379.38
393.433	394.38
393.658	379.38
393.882	393.38
394.107	384.38
394.331	391.38
394.556	384.38
394.78	392.38
395.005	372.38
395.229	390.38
395.454	385.38
395.678	399.38
395.903	404.38
396.127	418.38
396.352	446.38
396.576	376.38
396.801	398.38
397.025	404.38
397.249	416.38
397.474	400.38
397.698	417.38
397.922	418.38
398.147	436.38
398.371	439.38
398.595	430.38
398.82	423.38
399.044	449.38
399.268	425.38
399.492	452.38
399.717	474.38
399.941	492.38
400.165	501.38
400.389	546.38
400.613	475.38
400.837	467.38
401.062	475.38
401.286	444.38
401.51	411.38
401.734	430.38
401.958	442.38
402.182	450.38
402.406	453.38
402.63	440.38
402.854	448.38
403.078	457.38
403.302	452.38
403.526	443.38
403.75	450.38
403.974	468.38
404.198	460.38
404.422	470.38
404.645	492.38
404.869	522.38
405.093	554.38
405.317	624.38
405.541	647.38
405.765	585.38
405.988	558.38
406.212	540.38
406.436	542.38
406.66	539.38
406.883	535.38
407.107	540.38
407.331	550.38
407.555	603.38
407.778	596.38
408.002	533.38
408.226	538.38
408.449	494.38
408.673	507.38
408.896	550.38
409.12	566.38
409.344	542.38
409.567	477.38
409.791	466.38
410.014	468.38
410.238	470.38
410.461	438.38
410.685	480.38
410.908	467.38
411.132	507.38
411.355	543.38
411.578	536.38
411.802	487.38
412.025	504.38
412.249	540.38
412.472	556.38
412.695	644.38
412.919	615.38
413.142	578.38
413.365	525.38
413.589	515.38
413.812	487.38
414.035	469.38
414.258	479.38
414.482	454.38
414.705	465.38
414.928	444.38
415.151	458.38
415.374	423.38
415.597	450.38
415.821	407.38
416.044	439.38
416.267	452.38
416.49	440.38
416.713	442.38
416.936	446.38
417.159	447.38
417.382	433.38
417.605	482.38
417.828	467.38
418.051	488.38
418.274	458.38
418.497	464.38
418.72	469.38
418.943	446.38
419.166	456.38
419.389	462.38
419.611	486.38
419.834	489.38
420.057	500.38
420.28	528.38
420.503	562.38
420.726	497.38
420.948	540.38
421.171	543.38
421.394	586.38
421.617	522.38
421.839	496.38
422.062	481.38
422.285	497.38
422.507	539.38
422.73	630.38
422.953	593.38
423.175	508.38
423.398	489.38
423.621	473.38
423.843	521.38
424.066	508.38
424.288	489.38
424.511	535.38
424.733	582.38
424.956	650.38
425.178	640.38
425.401	612.38
425.623	633.38
425.846	562.38
426.068	532.38
426.291	501.38
426.513	508.38
426.735	532.38
426.958	538.38
427.18	620.38
427.402	758.38
427.625	865.38
427.847	783.38
428.069	705.38
428.292	638.38
428.514	579.38
428.736	528.38
428.958	490.38
429.181	480.38
429.403	488.38
429.625	482.38
429.847	509.38
430.069	577.38
430.292	580.38
430.514	504.38
430.736	496.38
430.958	476.38
431.18	453.38
431.402	431.38
431.624	427.38
431.846	440.38
432.068	418.38
432.29	425.38
432.512	416.38
432.734	433.38
432.956	436.38
433.178	455.38
433.4	440.38
433.622	448.38
433.844	443.38
434.066	445.38
434.287	436.38
434.509	437.38
434.731	407.38
434.953	447.38
435.175	465.38
435.397	496.38
435.618	504.38
435.84	546.38
436.062	656.38
436.284	712.38
436.505	592.38
436.727	544.38
436.949	489.38
437.17	461.38
437.392	467.38
437.614	497.38
437.835	542.38
438.057	618.38
438.278	703.38
438.5	716.38
438.721	768.38
438.943	730.38
439.165	580.38
439.386	542.38
439.608	514.38
439.829	516.38
440.05	540.38
440.272	582.38
440.493	562.38
440.715	516.38
440.936	480.38
441.158	479.38
441.379	475.38
441.6	467.38
441.822	508.38
442.043	555.38
442.264	616.38
442.486	652.38
442.707	539.38
442.928	519.38
443.149	542.38
443.371	547.38
443.592	608.38
443.813	663.38
444.034	704.38
444.255	594.38
444.476	538.38
444.698	502.38
444.919	499.38
445.14	607.38
445.361	548.38
445.582	562.38
445.803	632.38
446.024	728.38
446.245	735.38
446.466	693.38
446.687	542.38
446.908	511.38
447.129	479.38
447.35	481.38
447.571	464.38
447.792	476.38
448.013	469.38
448.234	510.38
448.455	532.38
448.675	659.38
448.896	750.38
449.117	661.38
449.338	631.38
449.559	697.38
449.779	780.38
450	666.38
450.221	543.38
450.442	501.38
450.662	470.38
450.883	485.38
451.104	479.38
451.324	490.38
451.545	439.38
451.766	440.38
451.986	420.38
452.207	415.38
452.428	404.38
452.648	409.38
452.869	414.38
453.089	439.38
453.31	427.38
453.53	423.38
453.751	424.38
453.971	452.38
454.192	458.38
454.412	439.38
454.633	446.38
454.853	429.38
455.073	431.38
455.294	453.38
455.514	523.38
455.734	505.38
455.955	448.38
456.175	414.38
456.395	382.38
456.616	405.38
456.836	384.38
457.056	409.38
457.276	381.38
457.497	384.38
457.717	404.38
457.937	393.38
458.157	425.38
458.377	416.38
458.598	403.38
458.818	511.38
459.038	564.38
459.258	579.38
459.478	483.38
459.698	464.38
459.918	444.38
460.138	439.38
460.358	438.38
460.578	434.38
460.798	435.38
461.018	433.38
461.238	433.38
461.458	443.38
461.678	416.38
461.898	418.38
462.118	411.38
462.338	435.38
462.558	440.38
462.777	439.38
462.997	437.38
463.217	451.38
463.437	459.38
463.657	447.38
463.876	442.38
464.096	443.38
464.316	440.38
464.536	438.38
464.755	468.38
464.975	463.38
465.195	530.38
465.414	581.38
465.634	529.38
465.854	479.38
466.073	480.38
466.293	429.38
466.512	418.38
466.732	424.38
466.951	428.38
467.171	428.38
467.391	430.38
467.61	464.38
467.829	474.38
468.049	487.38
468.268	542.38
468.488	492.38
468.707	474.38
468.927	452.38
469.146	439.38
469.365	434.38
469.585	422.38
469.804	442.38
470.023	450.38
470.243	446.38
470.462	449.38
470.681	467.38
470.901	463.38
471.12	448.38
471.339	453.38
471.558	472.38
471.777	475.38
471.997	477.38
472.216	560.38
472.435	816.38
472.654	730.38
472.873	588.38
473.092	512.38
473.311	491.38
473.53	499.38
473.749	515.38
473.968	528.38
474.187	630.38
474.406	635.38
474.625	528.38
474.844	468.38
475.063	472.38
475.282	473.38
475.501	445.38
475.72	457.38
475.939	489.38
476.158	469.38
476.377	475.38
476.596	477.38
476.814	477.38
477.033	460.38
477.252	481.38
477.471	478.38
477.69	472.38
477.908	494.38
478.127	476.38
478.346	504.38
478.564	464.38
478.783	495.38
479.002	506.38
479.22	499.38
479.439	517.38
479.658	549.38
479.876	534.38
480.095	570.38
480.313	597.38
480.532	563.38
480.751	603.38
480.969	673.38
481.188	1060.38
481.406	1301.38
481.624	892.38
481.843	748.38
482.061	692.38
482.28	648.38
482.498	598.38
482.717	617.38
482.935	591.38
483.153	588.38
483.372	571.38
483.59	554.38
483.808	583.38
484.027	548.38
484.245	565.38
484.463	554.38
484.681	557.38
484.9	546.38
485.118	564.38
485.336	556.38
485.554	563.38
485.772	563.38
485.99	550.38
486.209	583.38
486.427	574.38
486.645	588.38
486.863	610.38
487.081	609.38
487.299	597.38
487.517	594.38
487.735	615.38
487.953	608.38
488.171	579.38
488.389	588.38
488.607	611.38
488.825	610.38
489.043	604.38
489.261	616.38
489.479	603.38
489.696	619.38
489.914	611.38
490.132	628.38
490.35	631.38
490.568	652.38
490.786	658.38
491.003	666.38
491.221	704.38
491.439	704.38
491.657	693.38
491.874	699.38
492.092	699.38
492.31	736.38
492.527	737.38
492.745	747.38
492.963	767.38
493.18	758.38
493.398	744.38
493.615	758.38
493.833	755.38
494.05	740.38
494.268	740.38
494.485	721.38
494.703	726.38
494.92	737.38
495.138	752.38
495.355	724.38
495.573	746.38
495.79	735.38
496.008	745.38
496.225	712.38
496.442	713.38
496.66	730.38
496.877	719.38
497.094	702.38
497.312	713.38
497.529	719.38
497.746	737.38
497.963	732.38
498.181	756.38
498.398	721.38
498.615	745.38
498.832	746.38
499.049	730.38
499.267	719.38
499.484	771.38
499.701	779.38
499.918	802.38
500.135	820.38
500.352	817.38
500.569	838.38
500.786	849.38
501.003	872.38
501.22	863.38
501.437	827.38
501.654	826.38
501.871	828.38
