Data from 1986.PennyLincolnUp.Lamp.En5.5.200Scan.071819.P2_HRD10591_17-11-48-974.txt Node
Date: Thu Jul 18 17:11:48 EDT 2019
User: cochatt
Spectrometer: HR+D1059
Trigger mode: 1
Integration Time (sec): 1.000000E-1
Scans to average: 1
Electric dark correction enabled: true
Nonlinearity correction enabled: false
Boxcar width: 0
XAxis mode: Wavelengths
Number of Pixels in Spectrum: 2048
>>>>>Begin Spectral Data<<<<<
223.165	-9.25
223.4	-9.25
223.635	-9.25
223.869	-16.25
224.104	-15.25
224.338	-16.25
224.573	-20.25
224.808	-12.25
225.042	-11.25
225.277	-4.25
225.511	-5.25
225.746	18.75
225.98	6.75
226.215	13.75
226.449	6.75
226.683	25.75
226.918	12.75
227.152	25.75
227.387	39.75
227.621	36.75
227.856	51.75
228.09	55.75
228.324	55.75
228.559	63.75
228.793	57.75
229.027	110.75
229.262	116.75
229.496	130.75
229.73	144.75
229.964	168.75
230.199	150.75
230.433	133.75
230.667	119.75
230.901	127.75
231.136	114.75
231.37	112.75
231.604	109.75
231.838	121.75
232.072	107.75
232.306	107.75
232.541	118.75
232.775	125.75
233.009	106.75
233.243	125.75
233.477	124.75
233.711	114.75
233.945	115.75
234.179	126.75
234.413	126.75
234.647	115.75
234.881	114.75
235.115	129.75
235.349	116.75
235.583	125.75
235.817	134.75
236.051	132.75
236.285	135.75
236.519	149.75
236.753	142.75
236.987	149.75
237.221	192.75
237.455	247.75
237.689	206.75
237.922	155.75
238.156	127.75
238.39	134.75
238.624	132.75
238.858	138.75
239.091	128.75
239.325	138.75
239.559	144.75
239.793	144.75
240.027	126.75
240.26	158.75
240.494	165.75
240.728	158.75
240.961	151.75
241.195	160.75
241.429	153.75
241.662	146.75
241.896	138.75
242.13	139.75
242.363	130.75
242.597	149.75
242.83	150.75
243.064	131.75
243.298	141.75
243.531	153.75
243.765	152.75
243.998	144.75
244.232	156.75
244.465	156.75
244.699	165.75
244.932	153.75
245.166	158.75
245.399	154.75
245.633	155.75
245.866	168.75
246.099	163.75
246.333	160.75
246.566	170.75
246.8	149.75
247.033	167.75
247.266	167.75
247.5	172.75
247.733	194.75
247.966	175.75
248.2	176.75
248.433	171.75
248.666	190.75
248.899	207.75
249.133	212.75
249.366	253.75
249.599	218.75
249.832	217.75
250.066	214.75
250.299	212.75
250.532	213.75
250.765	230.75
250.998	268.75
251.231	268.75
251.465	250.75
251.698	244.75
251.931	235.75
252.164	225.75
252.397	218.75
252.63	223.75
252.863	225.75
253.096	242.75
253.329	253.75
253.562	245.75
253.795	255.75
254.028	242.75
254.261	219.75
254.494	260.75
254.727	298.75
254.96	323.75
255.193	322.75
255.426	311.75
255.659	274.75
255.892	290.75
256.124	302.75
256.357	322.75
256.59	322.75
256.823	274.75
257.056	263.75
257.289	268.75
257.521	244.75
257.754	239.75
257.987	214.75
258.22	238.75
258.452	229.75
258.685	259.75
258.918	231.75
259.151	242.75
259.383	234.75
259.616	270.75
259.849	242.75
260.081	261.75
260.314	273.75
260.547	292.75
260.779	271.75
261.012	247.75
261.244	250.75
261.477	266.75
261.71	249.75
261.942	249.75
262.175	267.75
262.407	243.75
262.64	232.75
262.872	246.75
263.105	230.75
263.337	226.75
263.57	206.75
263.802	237.75
264.035	225.75
264.267	229.75
264.499	229.75
264.732	233.75
264.964	227.75
265.197	226.75
265.429	217.75
265.661	219.75
265.894	230.75
266.126	221.75
266.358	224.75
266.591	243.75
266.823	248.75
267.055	246.75
267.287	234.75
267.52	239.75
267.752	238.75
267.984	222.75
268.216	255.75
268.448	250.75
268.681	253.75
268.913	265.75
269.145	285.75
269.377	305.75
269.609	302.75
269.841	288.75
270.073	303.75
270.306	304.75
270.538	321.75
270.77	335.75
271.002	341.75
271.234	332.75
271.466	327.75
271.698	343.75
271.93	384.75
272.162	354.75
272.394	335.75
272.626	322.75
272.858	310.75
273.09	295.75
273.322	304.75
273.553	294.75
273.785	266.75
274.017	287.75
274.249	269.75
274.481	275.75
274.713	292.75
274.945	278.75
275.176	280.75
275.408	287.75
275.64	285.75
275.872	279.75
276.104	298.75
276.335	268.75
276.567	282.75
276.799	302.75
277.031	340.75
277.262	340.75
277.494	350.75
277.726	324.75
277.957	294.75
278.189	294.75
278.421	292.75
278.652	282.75
278.884	293.75
279.115	280.75
279.347	266.75
279.579	271.75
279.81	271.75
280.042	297.75
280.273	294.75
280.505	276.75
280.736	285.75
280.968	278.75
281.199	278.75
281.431	270.75
281.662	259.75
281.894	276.75
282.125	286.75
282.356	306.75
282.588	332.75
282.819	335.75
283.051	288.75
283.282	290.75
283.513	262.75
283.745	275.75
283.976	295.75
284.207	282.75
284.439	287.75
284.67	301.75
284.901	295.75
285.132	269.75
285.364	294.75
285.595	285.75
285.826	264.75
286.057	278.75
286.288	282.75
286.52	286.75
286.751	301.75
286.982	290.75
287.213	290.75
287.444	286.75
287.675	276.75
287.906	288.75
288.138	303.75
288.369	299.75
288.6	300.75
288.831	293.75
289.062	291.75
289.293	292.75
289.524	312.75
289.755	296.75
289.986	304.75
290.217	286.75
290.448	297.75
290.679	274.75
290.91	269.75
291.141	272.75
291.371	274.75
291.602	276.75
291.833	277.75
292.064	290.75
292.295	300.75
292.526	299.75
292.757	292.75
292.987	295.75
293.218	276.75
293.449	296.75
293.68	286.75
293.91	280.75
294.141	296.75
294.372	270.75
294.603	296.75
294.833	304.75
295.064	288.75
295.295	290.75
295.525	290.75
295.756	303.75
295.987	321.75
296.217	310.75
296.448	337.75
296.679	303.75
296.909	311.75
297.14	282.75
297.37	295.75
297.601	312.75
297.831	318.75
298.062	301.75
298.292	284.75
298.523	304.75
298.753	311.75
298.984	308.75
299.214	293.75
299.445	294.75
299.675	306.75
299.905	303.75
300.136	308.75
300.366	322.75
300.597	319.75
300.827	314.75
301.057	319.75
301.288	310.75
301.518	325.75
301.748	298.75
301.979	339.75
302.209	304.75
302.439	329.75
302.669	316.75
302.9	309.75
303.13	310.75
303.36	325.75
303.59	322.75
303.82	351.75
304.051	351.75
304.281	324.75
304.511	320.75
304.741	315.75
304.971	315.75
305.201	312.75
305.431	322.75
305.661	311.75
305.891	317.75
306.121	320.75
306.352	339.75
306.582	342.75
306.812	344.75
307.042	324.75
307.272	339.75
307.502	342.75
307.731	317.75
307.961	341.75
308.191	335.75
308.421	346.75
308.651	330.75
308.881	340.75
309.111	345.75
309.341	331.75
309.571	361.75
309.8	380.75
310.03	382.75
310.26	390.75
310.49	383.75
310.72	393.75
310.949	404.75
311.179	422.75
311.409	390.75
311.639	385.75
311.868	386.75
312.098	373.75
312.328	411.75
312.557	403.75
312.787	405.75
313.017	437.75
313.246	408.75
313.476	381.75
313.706	363.75
313.935	365.75
314.165	383.75
314.394	406.75
314.624	418.75
314.853	388.75
315.083	413.75
315.312	382.75
315.542	382.75
315.771	373.75
316.001	386.75
316.23	358.75
316.46	388.75
316.689	388.75
316.919	386.75
317.148	400.75
317.377	402.75
317.607	406.75
317.836	404.75
318.065	384.75
318.295	371.75
318.524	393.75
318.753	357.75
318.983	365.75
319.212	365.75
319.441	391.75
319.67	408.75
319.9	381.75
320.129	394.75
320.358	397.75
320.587	394.75
320.816	405.75
321.046	426.75
321.275	430.75
321.504	392.75
321.733	427.75
321.962	404.75
322.191	448.75
322.42	457.75
322.649	468.75
322.878	480.75
323.108	508.75
323.337	518.75
323.566	553.75
323.795	618.75
324.024	647.75
324.253	793.75
324.482	1132.75
324.71	1708.75
324.939	2458.75
325.168	2158.75
325.397	1170.75
325.626	785.75
325.855	637.75
326.084	581.75
326.313	562.75
326.542	575.75
326.77	612.75
326.999	740.75
327.228	1039.75
327.457	1531.75
327.686	1878.75
327.914	1302.75
328.143	885.75
328.372	760.75
328.6	746.75
328.829	682.75
329.058	684.75
329.287	691.75
329.515	648.75
329.744	614.75
329.972	640.75
330.201	708.75
330.43	803.75
330.658	783.75
330.887	731.75
331.115	686.75
331.344	593.75
331.572	554.75
331.801	545.75
332.03	527.75
332.258	508.75
332.486	479.75
332.715	486.75
332.943	515.75
333.172	490.75
333.4	501.75
333.629	532.75
333.857	573.75
334.085	592.75
334.314	672.75
334.542	786.75
334.771	859.75
334.999	666.75
335.227	553.75
335.455	516.75
335.684	471.75
335.912	473.75
336.14	461.75
336.369	466.75
336.597	475.75
336.825	473.75
337.053	459.75
337.281	458.75
337.51	445.75
337.738	441.75
337.966	433.75
338.194	436.75
338.422	447.75
338.65	457.75
338.878	422.75
339.106	439.75
339.334	420.75
339.562	431.75
339.79	440.75
340.018	429.75
340.246	437.75
340.474	445.75
340.702	421.75
340.93	436.75
341.158	429.75
341.386	438.75
341.614	438.75
341.842	442.75
342.07	403.75
342.298	407.75
342.526	410.75
342.754	413.75
342.981	381.75
343.209	410.75
343.437	409.75
343.665	419.75
343.893	387.75
344.12	404.75
344.348	406.75
344.576	412.75
344.804	422.75
345.031	432.75
345.259	459.75
345.487	433.75
345.714	426.75
345.942	412.75
346.17	399.75
346.397	406.75
346.625	390.75
346.853	420.75
347.08	410.75
347.308	410.75
347.535	419.75
347.763	447.75
347.99	428.75
348.218	436.75
348.445	448.75
348.673	435.75
348.9	410.75
349.128	397.75
349.355	399.75
349.583	388.75
349.81	400.75
350.037	411.75
350.265	378.75
350.492	396.75
350.72	391.75
350.947	411.75
351.174	406.75
351.402	412.75
351.629	435.75
351.856	415.75
352.083	438.75
352.311	432.75
352.538	436.75
352.765	453.75
352.992	445.75
353.22	420.75
353.447	414.75
353.674	407.75
353.901	400.75
354.128	399.75
354.355	374.75
354.583	383.75
354.81	374.75
355.037	401.75
355.264	405.75
355.491	364.75
355.718	390.75
355.945	356.75
356.172	374.75
356.399	343.75
356.626	365.75
356.853	364.75
357.08	378.75
357.307	354.75
357.534	366.75
357.761	387.75
357.988	380.75
358.215	361.75
358.441	376.75
358.668	358.75
358.895	368.75
359.122	409.75
359.349	402.75
359.576	402.75
359.802	428.75
360.029	472.75
360.256	447.75
360.483	468.75
360.709	422.75
360.936	418.75
361.163	401.75
361.39	405.75
361.616	397.75
361.843	409.75
362.07	423.75
362.296	400.75
362.523	398.75
362.749	419.75
362.976	393.75
363.203	386.75
363.429	395.75
363.656	397.75
363.882	380.75
364.109	370.75
364.335	386.75
364.562	372.75
364.788	378.75
365.015	391.75
365.241	380.75
365.468	381.75
365.694	382.75
365.92	390.75
366.147	387.75
366.373	382.75
366.599	383.75
366.826	361.75
367.052	359.75
367.278	360.75
367.505	373.75
367.731	373.75
367.957	396.75
368.184	379.75
368.41	398.75
368.636	414.75
368.862	408.75
369.089	392.75
369.315	404.75
369.541	370.75
369.767	364.75
369.993	386.75
370.219	367.75
370.445	372.75
370.672	362.75
370.898	364.75
371.124	377.75
371.35	364.75
371.576	358.75
371.802	365.75
372.028	373.75
372.254	373.75
372.48	374.75
372.706	366.75
372.932	360.75
373.158	354.75
373.384	379.75
373.61	381.75
373.835	376.75
374.061	367.75
374.287	384.75
374.513	379.75
374.739	376.75
374.965	393.75
375.191	384.75
375.416	375.75
375.642	356.75
375.868	374.75
376.094	377.75
376.319	371.75
376.545	372.75
376.771	367.75
376.997	370.75
377.222	365.75
377.448	368.75
377.674	371.75
377.899	363.75
378.125	357.75
378.35	346.75
378.576	363.75
378.802	359.75
379.027	362.75
379.253	370.75
379.478	330.75
379.704	351.75
379.929	375.75
380.155	360.75
380.38	364.75
380.606	362.75
380.831	376.75
381.057	364.75
381.282	372.75
381.507	370.75
381.733	363.75
381.958	386.75
382.184	356.75
382.409	366.75
382.634	361.75
382.86	368.75
383.085	377.75
383.31	370.75
383.535	361.75
383.761	360.75
383.986	384.75
384.211	379.75
384.436	372.75
384.662	381.75
384.887	374.75
385.112	368.75
385.337	385.75
385.562	404.75
385.787	379.75
386.013	395.75
386.238	404.75
386.463	379.75
386.688	415.75
386.913	391.75
387.138	375.75
387.363	378.75
387.588	384.75
387.813	399.75
388.038	396.75
388.263	386.75
388.488	391.75
388.713	397.75
388.938	390.75
389.163	385.75
389.387	380.75
389.612	394.75
389.837	397.75
390.062	396.75
390.287	380.75
390.512	380.75
390.736	379.75
390.961	381.75
391.186	379.75
391.411	393.75
391.636	367.75
391.86	397.75
392.085	390.75
392.31	390.75
392.534	412.75
392.759	388.75
392.984	358.75
393.208	384.75
393.433	395.75
393.658	372.75
393.882	390.75
394.107	363.75
394.331	390.75
394.556	380.75
394.78	392.75
395.005	389.75
395.229	386.75
395.454	397.75
395.678	390.75
395.903	394.75
396.127	412.75
396.352	422.75
396.576	410.75
396.801	390.75
397.025	381.75
397.249	386.75
397.474	419.75
397.698	385.75
397.922	415.75
398.147	414.75
398.371	442.75
398.595	438.75
398.82	410.75
399.044	423.75
399.268	424.75
399.492	455.75
399.717	465.75
399.941	471.75
400.165	515.75
400.389	522.75
400.613	501.75
400.837	467.75
401.062	454.75
401.286	442.75
401.51	424.75
401.734	431.75
401.958	437.75
402.182	426.75
402.406	434.75
402.63	452.75
402.854	427.75
403.078	448.75
403.302	454.75
403.526	445.75
403.75	452.75
403.974	466.75
404.198	454.75
404.422	467.75
404.645	462.75
404.869	494.75
405.093	524.75
405.317	572.75
405.541	595.75
405.765	551.75
405.988	517.75
406.212	506.75
406.436	534.75
406.66	552.75
406.883	527.75
407.107	532.75
407.331	554.75
407.555	614.75
407.778	606.75
408.002	561.75
408.226	500.75
408.449	524.75
408.673	518.75
408.896	517.75
409.12	592.75
409.344	537.75
409.567	470.75
409.791	455.75
410.014	465.75
410.238	457.75
410.461	453.75
410.685	473.75
410.908	474.75
411.132	537.75
411.355	561.75
411.578	520.75
411.802	484.75
412.025	479.75
412.249	500.75
412.472	516.75
412.695	592.75
412.919	564.75
413.142	529.75
413.365	506.75
413.589	494.75
413.812	478.75
414.035	458.75
414.258	447.75
414.482	427.75
414.705	432.75
414.928	450.75
415.151	440.75
415.374	422.75
415.597	428.75
415.821	442.75
416.044	431.75
416.267	448.75
416.49	440.75
416.713	435.75
416.936	446.75
417.159	436.75
417.382	457.75
417.605	440.75
417.828	455.75
418.051	444.75
418.274	444.75
418.497	442.75
418.72	438.75
418.943	420.75
419.166	441.75
419.389	473.75
419.611	475.75
419.834	480.75
420.057	458.75
420.28	494.75
420.503	475.75
420.726	494.75
420.948	496.75
421.171	548.75
421.394	578.75
421.617	494.75
421.839	459.75
422.062	477.75
422.285	495.75
422.507	533.75
422.73	605.75
422.953	586.75
423.175	522.75
423.398	500.75
423.621	471.75
423.843	499.75
424.066	509.75
424.288	507.75
424.511	518.75
424.733	598.75
424.956	640.75
425.178	636.75
425.401	586.75
425.623	622.75
425.846	566.75
426.068	510.75
426.291	502.75
426.513	483.75
426.735	532.75
426.958	567.75
427.18	626.75
427.402	730.75
427.625	818.75
427.847	793.75
428.069	688.75
428.292	612.75
428.514	520.75
428.736	526.75
428.958	513.75
429.181	492.75
429.403	479.75
429.625	500.75
429.847	520.75
430.069	591.75
430.292	568.75
430.514	507.75
430.736	472.75
430.958	458.75
431.18	453.75
431.402	458.75
431.624	444.75
431.846	451.75
432.068	439.75
432.29	420.75
432.512	449.75
432.734	450.75
432.956	465.75
433.178	450.75
433.4	467.75
433.622	438.75
433.844	430.75
434.066	435.75
434.287	442.75
434.509	438.75
434.731	444.75
434.953	444.75
435.175	481.75
435.397	486.75
435.618	509.75
435.84	543.75
436.062	630.75
436.284	685.75
436.505	606.75
436.727	548.75
436.949	495.75
437.17	484.75
437.392	452.75
437.614	484.75
437.835	538.75
438.057	630.75
438.278	698.75
438.5	717.75
438.721	764.75
438.943	749.75
439.165	595.75
439.386	563.75
439.608	535.75
439.829	520.75
440.05	563.75
440.272	593.75
440.493	580.75
440.715	495.75
440.936	497.75
441.158	474.75
441.379	469.75
441.6	483.75
441.822	535.75
442.043	560.75
442.264	638.75
442.486	683.75
442.707	549.75
442.928	520.75
443.149	530.75
443.371	567.75
443.592	588.75
443.813	691.75
444.034	738.75
444.255	619.75
444.476	535.75
444.698	495.75
444.919	502.75
445.14	592.75
445.361	594.75
445.582	553.75
445.803	620.75
446.024	729.75
446.245	736.75
446.466	669.75
446.687	582.75
446.908	530.75
447.129	475.75
447.35	469.75
447.571	482.75
447.792	450.75
448.013	472.75
448.234	503.75
448.455	552.75
448.675	646.75
448.896	762.75
449.117	657.75
449.338	618.75
449.559	714.75
449.779	797.75
450	670.75
450.221	536.75
450.442	516.75
450.662	476.75
450.883	488.75
451.104	503.75
451.324	464.75
451.545	453.75
451.766	453.75
451.986	431.75
452.207	412.75
452.428	421.75
452.648	463.75
452.869	432.75
453.089	430.75
453.31	437.75
453.53	451.75
453.751	428.75
453.971	428.75
454.192	429.75
454.412	442.75
454.633	454.75
454.853	434.75
455.073	419.75
455.294	450.75
455.514	531.75
455.734	502.75
455.955	438.75
456.175	391.75
456.395	416.75
456.616	401.75
456.836	397.75
457.056	389.75
457.276	378.75
457.497	391.75
457.717	396.75
457.937	397.75
458.157	415.75
458.377	414.75
458.598	427.75
458.818	500.75
459.038	607.75
459.258	591.75
459.478	514.75
459.698	448.75
459.918	425.75
460.138	428.75
460.358	424.75
460.578	420.75
460.798	429.75
461.018	422.75
461.238	426.75
461.458	410.75
461.678	414.75
461.898	435.75
462.118	413.75
462.338	416.75
462.558	422.75
462.777	453.75
462.997	435.75
463.217	438.75
463.437	458.75
463.657	438.75
463.876	448.75
464.096	472.75
464.316	429.75
464.536	477.75
464.755	446.75
464.975	460.75
465.195	518.75
465.414	611.75
465.634	541.75
465.854	477.75
466.073	466.75
466.293	452.75
466.512	436.75
466.732	431.75
466.951	446.75
467.171	414.75
467.391	422.75
467.61	449.75
467.829	458.75
468.049	480.75
468.268	501.75
468.488	470.75
468.707	444.75
468.927	434.75
469.146	420.75
469.365	433.75
469.585	414.75
469.804	445.75
470.023	444.75
470.243	428.75
470.462	451.75
470.681	456.75
470.901	451.75
471.12	428.75
471.339	447.75
471.558	470.75
471.777	459.75
471.997	435.75
472.216	483.75
472.435	618.75
472.654	562.75
472.873	487.75
473.092	476.75
473.311	461.75
473.53	455.75
473.749	479.75
473.968	484.75
474.187	610.75
474.406	638.75
474.625	517.75
474.844	482.75
475.063	456.75
475.282	453.75
475.501	461.75
475.72	473.75
475.939	461.75
476.158	449.75
476.377	460.75
476.596	452.75
476.814	443.75
477.033	459.75
477.252	489.75
477.471	473.75
477.69	469.75
477.908	481.75
478.127	484.75
478.346	484.75
478.564	481.75
478.783	485.75
479.002	494.75
479.22	487.75
479.439	528.75
479.658	516.75
479.876	535.75
480.095	557.75
480.313	569.75
480.532	556.75
480.751	574.75
480.969	628.75
481.188	842.75
481.406	982.75
481.624	726.75
481.843	642.75
482.061	610.75
482.28	570.75
482.498	572.75
482.717	559.75
482.935	555.75
483.153	549.75
483.372	540.75
483.59	550.75
483.808	555.75
484.027	527.75
484.245	541.75
484.463	537.75
484.681	562.75
484.9	547.75
485.118	555.75
485.336	570.75
485.554	542.75
485.772	524.75
485.99	546.75
486.209	566.75
486.427	554.75
486.645	569.75
486.863	592.75
487.081	572.75
487.299	576.75
487.517	585.75
487.735	584.75
487.953	564.75
488.171	555.75
488.389	586.75
488.607	581.75
488.825	590.75
489.043	588.75
489.261	596.75
489.479	598.75
489.696	596.75
489.914	608.75
490.132	615.75
490.35	588.75
490.568	598.75
490.786	630.75
491.003	630.75
491.221	650.75
491.439	637.75
491.657	695.75
491.874	700.75
492.092	673.75
492.31	682.75
492.527	686.75
492.745	696.75
492.963	708.75
493.18	714.75
493.398	704.75
493.615	697.75
493.833	711.75
494.05	703.75
494.268	709.75
494.485	696.75
494.703	687.75
494.92	701.75
495.138	706.75
495.355	708.75
495.573	710.75
495.79	700.75
496.008	688.75
496.225	688.75
496.442	671.75
496.66	700.75
496.877	700.75
497.094	698.75
497.312	702.75
497.529	675.75
497.746	712.75
497.963	715.75
498.181	739.75
498.398	726.75
498.615	725.75
498.832	734.75
499.049	741.75
499.267	722.75
499.484	751.75
499.701	770.75
499.918	772.75
500.135	790.75
500.352	812.75
500.569	802.75
500.786	821.75
501.003	830.75
501.22	800.75
501.437	805.75
501.654	825.75
501.871	799.75
