Data from 1986.PennyLincolnUp.Lamp.En5.5.200Scan.071819.P2_HRD10591_17-12-53-972.txt Node
Date: Thu Jul 18 17:12:53 EDT 2019
User: cochatt
Spectrometer: HR+D1059
Trigger mode: 1
Integration Time (sec): 1.000000E-1
Scans to average: 1
Electric dark correction enabled: true
Nonlinearity correction enabled: false
Boxcar width: 0
XAxis mode: Wavelengths
Number of Pixels in Spectrum: 2048
>>>>>Begin Spectral Data<<<<<
223.165	-14.69
223.4	-14.69
223.635	-14.69
223.869	-12.69
224.104	-10.69
224.338	-17.69
224.573	-23.69
224.808	0.31
225.042	-10.69
225.277	-21.69
225.511	7.31
225.746	2.31
225.98	20.31
226.215	7.31
226.449	23.31
226.683	9.31
226.918	23.31
227.152	18.31
227.387	34.31
227.621	44.31
227.856	43.31
228.09	46.31
228.324	58.31
228.559	53.31
228.793	55.31
229.027	93.31
229.262	113.31
229.496	110.31
229.73	115.31
229.964	160.31
230.199	141.31
230.433	119.31
230.667	108.31
230.901	117.31
231.136	113.31
231.37	123.31
231.604	106.31
231.838	111.31
232.072	123.31
232.306	107.31
232.541	115.31
232.775	126.31
233.009	124.31
233.243	125.31
233.477	118.31
233.711	126.31
233.945	116.31
234.179	123.31
234.413	105.31
234.647	120.31
234.881	113.31
235.115	131.31
235.349	127.31
235.583	131.31
235.817	117.31
236.051	133.31
236.285	139.31
236.519	133.31
236.753	133.31
236.987	147.31
237.221	176.31
237.455	251.31
237.689	203.31
237.922	148.31
238.156	127.31
238.39	139.31
238.624	137.31
238.858	151.31
239.091	143.31
239.325	143.31
239.559	140.31
239.793	124.31
240.027	141.31
240.26	136.31
240.494	162.31
240.728	155.31
240.961	160.31
241.195	143.31
241.429	146.31
241.662	155.31
241.896	150.31
242.13	153.31
242.363	144.31
242.597	150.31
242.83	161.31
243.064	141.31
243.298	134.31
243.531	134.31
243.765	146.31
243.998	143.31
244.232	157.31
244.465	152.31
244.699	153.31
244.932	166.31
245.166	168.31
245.399	158.31
245.633	152.31
245.866	142.31
246.099	147.31
246.333	153.31
246.566	159.31
246.8	154.31
247.033	159.31
247.266	169.31
247.5	170.31
247.733	181.31
247.966	195.31
248.2	191.31
248.433	197.31
248.666	198.31
248.899	204.31
249.133	205.31
249.366	233.31
249.599	210.31
249.832	213.31
250.066	218.31
250.299	217.31
250.532	263.31
250.765	272.31
250.998	283.31
251.231	292.31
251.465	260.31
251.698	241.31
251.931	246.31
252.164	251.31
252.397	245.31
252.63	229.31
252.863	226.31
253.096	238.31
253.329	244.31
253.562	249.31
253.795	236.31
254.028	238.31
254.261	247.31
254.494	244.31
254.727	282.31
254.96	309.31
255.193	311.31
255.426	305.31
255.659	309.31
255.892	328.31
256.124	354.31
256.357	412.31
256.59	371.31
256.823	315.31
257.056	293.31
257.289	272.31
257.521	274.31
257.754	281.31
257.987	267.31
258.22	250.31
258.452	246.31
258.685	257.31
258.918	234.31
259.151	247.31
259.383	231.31
259.616	238.31
259.849	270.31
260.081	252.31
260.314	286.31
260.547	289.31
260.779	269.31
261.012	253.31
261.244	254.31
261.477	238.31
261.71	261.31
261.942	232.31
262.175	251.31
262.407	251.31
262.64	231.31
262.872	237.31
263.105	231.31
263.337	233.31
263.57	233.31
263.802	236.31
264.035	226.31
264.267	220.31
264.499	234.31
264.732	225.31
264.964	206.31
265.197	232.31
265.429	221.31
265.661	231.31
265.894	213.31
266.126	211.31
266.358	234.31
266.591	229.31
266.823	254.31
267.055	245.31
267.287	225.31
267.52	243.31
267.752	248.31
267.984	253.31
268.216	235.31
268.448	225.31
268.681	254.31
268.913	237.31
269.145	279.31
269.377	284.31
269.609	278.31
269.841	291.31
270.073	286.31
270.306	298.31
270.538	319.31
270.77	313.31
271.002	331.31
271.234	316.31
271.466	315.31
271.698	319.31
271.93	325.31
272.162	336.31
272.394	334.31
272.626	301.31
272.858	318.31
273.09	292.31
273.322	274.31
273.553	279.31
273.785	291.31
274.017	279.31
274.249	277.31
274.481	264.31
274.713	267.31
274.945	282.31
275.176	291.31
275.408	282.31
275.64	295.31
275.872	285.31
276.104	288.31
276.335	296.31
276.567	300.31
276.799	318.31
277.031	319.31
277.262	343.31
277.494	354.31
277.726	341.31
277.957	297.31
278.189	288.31
278.421	299.31
278.652	285.31
278.884	302.31
279.115	293.31
279.347	297.31
279.579	289.31
279.81	278.31
280.042	287.31
280.273	304.31
280.505	306.31
280.736	305.31
280.968	285.31
281.199	290.31
281.431	286.31
281.662	292.31
281.894	291.31
282.125	293.31
282.356	305.31
282.588	331.31
282.819	332.31
283.051	298.31
283.282	279.31
283.513	290.31
283.745	287.31
283.976	291.31
284.207	291.31
284.439	285.31
284.67	263.31
284.901	282.31
285.132	279.31
285.364	285.31
285.595	298.31
285.826	281.31
286.057	292.31
286.288	295.31
286.52	295.31
286.751	281.31
286.982	280.31
287.213	275.31
287.444	286.31
287.675	286.31
287.906	309.31
288.138	302.31
288.369	309.31
288.6	335.31
288.831	305.31
289.062	320.31
289.293	298.31
289.524	293.31
289.755	301.31
289.986	298.31
290.217	283.31
290.448	306.31
290.679	276.31
290.91	304.31
291.141	302.31
291.371	296.31
291.602	299.31
291.833	294.31
292.064	282.31
292.295	303.31
292.526	282.31
292.757	279.31
292.987	297.31
293.218	313.31
293.449	292.31
293.68	294.31
293.91	292.31
294.141	295.31
294.372	297.31
294.603	306.31
294.833	299.31
295.064	303.31
295.295	306.31
295.525	289.31
295.756	319.31
295.987	308.31
296.217	342.31
296.448	353.31
296.679	317.31
296.909	315.31
297.14	309.31
297.37	318.31
297.601	302.31
297.831	297.31
298.062	289.31
298.292	293.31
298.523	290.31
298.753	293.31
298.984	315.31
299.214	309.31
299.445	319.31
299.675	304.31
299.905	323.31
300.136	315.31
300.366	321.31
300.597	308.31
300.827	319.31
301.057	334.31
301.288	313.31
301.518	315.31
301.748	319.31
301.979	321.31
302.209	323.31
302.439	329.31
302.669	334.31
302.9	340.31
303.13	322.31
303.36	328.31
303.59	319.31
303.82	358.31
304.051	334.31
304.281	325.31
304.511	327.31
304.741	343.31
304.971	322.31
305.201	335.31
305.431	335.31
305.661	315.31
305.891	314.31
306.121	321.31
306.352	331.31
306.582	356.31
306.812	334.31
307.042	337.31
307.272	343.31
307.502	355.31
307.731	353.31
307.961	345.31
308.191	346.31
308.421	327.31
308.651	356.31
308.881	334.31
309.111	343.31
309.341	357.31
309.571	349.31
309.8	366.31
310.03	368.31
310.26	385.31
310.49	372.31
310.72	371.31
310.949	410.31
311.179	405.31
311.409	395.31
311.639	378.31
311.868	409.31
312.098	396.31
312.328	393.31
312.557	410.31
312.787	405.31
313.017	419.31
313.246	409.31
313.476	381.31
313.706	387.31
313.935	409.31
314.165	399.31
314.394	415.31
314.624	417.31
314.853	405.31
315.083	391.31
315.312	390.31
315.542	360.31
315.771	391.31
316.001	373.31
316.23	365.31
316.46	343.31
316.689	388.31
316.919	400.31
317.148	399.31
317.377	422.31
317.607	390.31
317.836	388.31
318.065	378.31
318.295	372.31
318.524	394.31
318.753	382.31
318.983	385.31
319.212	387.31
319.441	382.31
319.67	400.31
319.9	388.31
320.129	407.31
320.358	388.31
320.587	394.31
320.816	415.31
321.046	411.31
321.275	433.31
321.504	413.31
321.733	414.31
321.962	409.31
322.191	433.31
322.42	440.31
322.649	458.31
322.878	473.31
323.108	491.31
323.337	522.31
323.566	553.31
323.795	587.31
324.024	644.31
324.253	754.31
324.482	1086.31
324.71	1638.31
324.939	2369.31
325.168	2084.31
325.397	1117.31
325.626	744.31
325.855	608.31
326.084	604.31
326.313	567.31
326.542	602.31
326.77	639.31
326.999	737.31
327.228	1007.31
327.457	1465.31
327.686	1871.31
327.914	1315.31
328.143	930.31
328.372	859.31
328.6	801.31
328.829	716.31
329.058	705.31
329.287	702.31
329.515	700.31
329.744	691.31
329.972	723.31
330.201	871.31
330.43	1012.31
330.658	972.31
330.887	798.31
331.115	749.31
331.344	640.31
331.572	585.31
331.801	595.31
332.03	575.31
332.258	562.31
332.486	535.31
332.715	526.31
332.943	541.31
333.172	539.31
333.4	587.31
333.629	615.31
333.857	652.31
334.085	740.31
334.314	879.31
334.542	1085.31
334.771	1164.31
334.999	895.31
335.227	667.31
335.455	582.31
335.684	543.31
335.912	521.31
336.14	492.31
336.369	486.31
336.597	500.31
336.825	507.31
337.053	472.31
337.281	451.31
337.51	455.31
337.738	451.31
337.966	449.31
338.194	471.31
338.422	460.31
338.65	442.31
338.878	418.31
339.106	447.31
339.334	433.31
339.562	429.31
339.79	430.31
340.018	419.31
340.246	424.31
340.474	446.31
340.702	437.31
340.93	425.31
341.158	445.31
341.386	422.31
341.614	439.31
341.842	428.31
342.07	414.31
342.298	431.31
342.526	427.31
342.754	406.31
342.981	397.31
343.209	383.31
343.437	399.31
343.665	411.31
343.893	406.31
344.12	428.31
344.348	425.31
344.576	402.31
344.804	435.31
345.031	433.31
345.259	444.31
345.487	434.31
345.714	420.31
345.942	438.31
346.17	423.31
346.397	414.31
346.625	423.31
346.853	405.31
347.08	416.31
347.308	405.31
347.535	406.31
347.763	424.31
347.99	450.31
348.218	419.31
348.445	419.31
348.673	428.31
348.9	420.31
349.128	402.31
349.355	398.31
349.583	396.31
349.81	402.31
350.037	390.31
350.265	398.31
350.492	386.31
350.72	387.31
350.947	389.31
351.174	410.31
351.402	414.31
351.629	410.31
351.856	399.31
352.083	439.31
352.311	423.31
352.538	425.31
352.765	422.31
352.992	439.31
353.22	419.31
353.447	397.31
353.674	403.31
353.901	408.31
354.128	406.31
354.355	385.31
354.583	397.31
354.81	386.31
355.037	376.31
355.264	381.31
355.491	378.31
355.718	381.31
355.945	390.31
356.172	374.31
356.399	377.31
356.626	387.31
356.853	371.31
357.08	362.31
357.307	353.31
357.534	367.31
357.761	370.31
357.988	379.31
358.215	369.31
358.441	363.31
358.668	387.31
358.895	379.31
359.122	374.31
359.349	406.31
359.576	431.31
359.802	429.31
360.029	438.31
360.256	461.31
360.483	435.31
360.709	424.31
360.936	406.31
361.163	394.31
361.39	400.31
361.616	383.31
361.843	413.31
362.07	396.31
362.296	397.31
362.523	396.31
362.749	385.31
362.976	403.31
363.203	394.31
363.429	369.31
363.656	393.31
363.882	382.31
364.109	389.31
364.335	371.31
364.562	372.31
364.788	365.31
365.015	379.31
365.241	391.31
365.468	369.31
365.694	385.31
365.92	416.31
366.147	386.31
366.373	382.31
366.599	391.31
366.826	367.31
367.052	393.31
367.278	387.31
367.505	397.31
367.731	381.31
367.957	389.31
368.184	399.31
368.41	389.31
368.636	400.31
368.862	393.31
369.089	410.31
369.315	373.31
369.541	397.31
369.767	368.31
369.993	365.31
370.219	372.31
370.445	373.31
370.672	375.31
370.898	380.31
371.124	361.31
371.35	375.31
371.576	374.31
371.802	361.31
372.028	387.31
372.254	375.31
372.48	359.31
372.706	357.31
372.932	357.31
373.158	365.31
373.384	373.31
373.61	375.31
373.835	367.31
374.061	367.31
374.287	367.31
374.513	375.31
374.739	372.31
374.965	373.31
375.191	360.31
375.416	364.31
375.642	362.31
375.868	378.31
376.094	379.31
376.319	359.31
376.545	377.31
376.771	354.31
376.997	361.31
377.222	370.31
377.448	363.31
377.674	365.31
377.899	367.31
378.125	345.31
378.35	361.31
378.576	345.31
378.802	364.31
379.027	366.31
379.253	385.31
379.478	364.31
379.704	354.31
379.929	339.31
380.155	358.31
380.38	377.31
380.606	369.31
380.831	353.31
381.057	376.31
381.282	361.31
381.507	373.31
381.733	367.31
381.958	364.31
382.184	361.31
382.409	364.31
382.634	379.31
382.86	358.31
383.085	361.31
383.31	380.31
383.535	364.31
383.761	390.31
383.986	360.31
384.211	380.31
384.436	370.31
384.662	354.31
384.887	374.31
385.112	389.31
385.337	382.31
385.562	391.31
385.787	403.31
386.013	374.31
386.238	385.31
386.463	415.31
386.688	391.31
386.913	383.31
387.138	378.31
387.363	392.31
387.588	388.31
387.813	382.31
388.038	388.31
388.263	382.31
388.488	367.31
388.713	377.31
388.938	393.31
389.163	388.31
389.387	382.31
389.612	367.31
389.837	362.31
390.062	381.31
390.287	397.31
390.512	374.31
390.736	364.31
390.961	365.31
391.186	385.31
391.411	395.31
391.636	390.31
391.86	373.31
392.085	394.31
392.31	393.31
392.534	385.31
392.759	382.31
392.984	366.31
393.208	377.31
393.433	370.31
393.658	390.31
393.882	373.31
394.107	389.31
394.331	395.31
394.556	377.31
394.78	401.31
395.005	396.31
395.229	391.31
395.454	385.31
395.678	392.31
395.903	403.31
396.127	399.31
396.352	429.31
396.576	384.31
396.801	397.31
397.025	396.31
397.249	391.31
397.474	405.31
397.698	404.31
397.922	406.31
398.147	419.31
398.371	439.31
398.595	406.31
398.82	425.31
399.044	401.31
399.268	424.31
399.492	437.31
399.717	469.31
399.941	497.31
400.165	494.31
400.389	542.31
400.613	484.31
400.837	447.31
401.062	458.31
401.286	419.31
401.51	420.31
401.734	416.31
401.958	436.31
402.182	413.31
402.406	459.31
402.63	451.31
402.854	441.31
403.078	450.31
403.302	447.31
403.526	460.31
403.75	471.31
403.974	459.31
404.198	454.31
404.422	468.31
404.645	497.31
404.869	505.31
405.093	566.31
405.317	603.31
405.541	635.31
405.765	558.31
405.988	541.31
406.212	540.31
406.436	525.31
406.66	521.31
406.883	506.31
407.107	526.31
407.331	567.31
407.555	603.31
407.778	595.31
408.002	552.31
408.226	535.31
408.449	501.31
408.673	499.31
408.896	543.31
409.12	551.31
409.344	534.31
409.567	485.31
409.791	455.31
410.014	465.31
410.238	467.31
410.461	469.31
410.685	477.31
410.908	491.31
411.132	517.31
411.355	518.31
411.578	515.31
411.802	524.31
412.025	486.31
412.249	533.31
412.472	577.31
412.695	626.31
412.919	625.31
413.142	554.31
413.365	530.31
413.589	526.31
413.812	483.31
414.035	478.31
414.258	480.31
414.482	494.31
414.705	444.31
414.928	451.31
415.151	454.31
415.374	459.31
415.597	435.31
415.821	449.31
416.044	453.31
416.267	444.31
416.49	444.31
416.713	448.31
416.936	438.31
417.159	428.31
417.382	465.31
417.605	464.31
417.828	471.31
418.051	486.31
418.274	474.31
418.497	444.31
418.72	456.31
418.943	439.31
419.166	455.31
419.389	473.31
419.611	465.31
419.834	482.31
420.057	488.31
420.28	538.31
420.503	524.31
420.726	539.31
420.948	522.31
421.171	543.31
421.394	593.31
421.617	506.31
421.839	493.31
422.062	472.31
422.285	467.31
422.507	533.31
422.73	613.31
422.953	591.31
423.175	510.31
423.398	489.31
423.621	479.31
423.843	513.31
424.066	505.31
424.288	492.31
424.511	522.31
424.733	579.31
424.956	653.31
425.178	620.31
425.401	614.31
425.623	642.31
425.846	549.31
426.068	511.31
426.291	494.31
426.513	497.31
426.735	514.31
426.958	555.31
427.18	633.31
427.402	710.31
427.625	835.31
427.847	771.31
428.069	737.31
428.292	634.31
428.514	538.31
428.736	516.31
428.958	472.31
429.181	482.31
429.403	493.31
429.625	501.31
429.847	530.31
430.069	603.31
430.292	585.31
430.514	483.31
430.736	469.31
430.958	447.31
431.18	450.31
431.402	451.31
431.624	454.31
431.846	436.31
432.068	438.31
432.29	458.31
432.512	447.31
432.734	442.31
432.956	446.31
433.178	427.31
433.4	450.31
433.622	454.31
433.844	450.31
434.066	429.31
434.287	421.31
434.509	431.31
434.731	433.31
434.953	428.31
435.175	446.31
435.397	480.31
435.618	493.31
435.84	548.31
436.062	631.31
436.284	713.31
436.505	571.31
436.727	513.31
436.949	486.31
437.17	493.31
437.392	478.31
437.614	475.31
437.835	528.31
438.057	596.31
438.278	718.31
438.5	734.31
438.721	760.31
438.943	723.31
439.165	597.31
439.386	539.31
439.608	520.31
439.829	521.31
440.05	535.31
440.272	605.31
440.493	576.31
440.715	513.31
440.936	513.31
441.158	466.31
441.379	453.31
441.6	462.31
441.822	479.31
442.043	545.31
442.264	606.31
442.486	661.31
442.707	590.31
442.928	554.31
443.149	538.31
443.371	553.31
443.592	577.31
443.813	650.31
444.034	717.31
444.255	582.31
444.476	505.31
444.698	499.31
444.919	510.31
445.14	571.31
445.361	563.31
445.582	543.31
445.803	616.31
446.024	698.31
446.245	717.31
446.466	647.31
446.687	544.31
446.908	512.31
447.129	493.31
447.35	472.31
447.571	479.31
447.792	453.31
448.013	475.31
448.234	493.31
448.455	542.31
448.675	650.31
448.896	748.31
449.117	639.31
449.338	630.31
449.559	694.31
449.779	775.31
450	654.31
450.221	554.31
450.442	507.31
450.662	458.31
450.883	472.31
451.104	494.31
451.324	463.31
451.545	455.31
451.766	451.31
451.986	444.31
452.207	418.31
452.428	419.31
452.648	410.31
452.869	423.31
453.089	420.31
453.31	426.31
453.53	420.31
453.751	430.31
453.971	417.31
454.192	444.31
454.412	449.31
454.633	411.31
454.853	443.31
455.073	423.31
455.294	457.31
455.514	491.31
455.734	502.31
455.955	435.31
456.175	411.31
456.395	397.31
456.616	388.31
456.836	407.31
457.056	387.31
457.276	375.31
457.497	396.31
457.717	418.31
457.937	396.31
458.157	419.31
458.377	399.31
458.598	440.31
458.818	455.31
459.038	553.31
459.258	594.31
459.478	509.31
459.698	450.31
459.918	427.31
460.138	388.31
460.358	411.31
460.578	431.31
460.798	423.31
461.018	438.31
461.238	426.31
461.458	418.31
461.678	409.31
461.898	423.31
462.118	433.31
462.338	435.31
462.558	436.31
462.777	443.31
462.997	430.31
463.217	458.31
463.437	441.31
463.657	453.31
463.876	435.31
464.096	444.31
464.316	433.31
464.536	457.31
464.755	446.31
464.975	471.31
465.195	507.31
465.414	599.31
465.634	531.31
465.854	457.31
466.073	467.31
466.293	457.31
466.512	451.31
466.732	430.31
466.951	440.31
467.171	430.31
467.391	419.31
467.61	432.31
467.829	457.31
468.049	485.31
468.268	528.31
468.488	493.31
468.707	469.31
468.927	458.31
469.146	441.31
469.365	428.31
469.585	427.31
469.804	447.31
470.023	460.31
470.243	443.31
470.462	441.31
470.681	456.31
470.901	446.31
471.12	455.31
471.339	444.31
471.558	449.31
471.777	472.31
471.997	479.31
472.216	567.31
472.435	825.31
472.654	752.31
472.873	582.31
473.092	541.31
473.311	485.31
473.53	517.31
473.749	480.31
473.968	545.31
474.187	606.31
474.406	666.31
474.625	543.31
474.844	467.31
475.063	458.31
475.282	456.31
475.501	468.31
475.72	459.31
475.939	463.31
476.158	452.31
476.377	483.31
476.596	453.31
476.814	471.31
477.033	467.31
477.252	474.31
477.471	482.31
477.69	479.31
477.908	491.31
478.127	497.31
478.346	502.31
478.564	508.31
478.783	499.31
479.002	510.31
479.22	495.31
479.439	531.31
479.658	529.31
479.876	525.31
480.095	544.31
480.313	591.31
480.532	585.31
480.751	609.31
480.969	682.31
481.188	1062.31
481.406	1347.31
481.624	919.31
481.843	743.31
482.061	685.31
482.28	643.31
482.498	636.31
482.717	597.31
482.935	562.31
483.153	571.31
483.372	574.31
483.59	564.31
483.808	568.31
484.027	550.31
484.245	566.31
484.463	569.31
484.681	558.31
484.9	557.31
485.118	555.31
485.336	558.31
485.554	575.31
485.772	571.31
485.99	574.31
486.209	579.31
486.427	563.31
486.645	601.31
486.863	609.31
487.081	591.31
487.299	613.31
487.517	577.31
487.735	588.31
487.953	592.31
488.171	595.31
488.389	588.31
488.607	597.31
488.825	590.31
489.043	605.31
489.261	607.31
489.479	598.31
489.696	627.31
489.914	625.31
490.132	614.31
490.35	650.31
490.568	635.31
490.786	659.31
491.003	648.31
491.221	661.31
491.439	686.31
491.657	725.31
491.874	731.31
492.092	730.31
492.31	740.31
492.527	728.31
492.745	750.31
492.963	738.31
493.18	735.31
493.398	727.31
493.615	761.31
493.833	758.31
494.05	753.31
494.268	745.31
494.485	721.31
494.703	732.31
494.92	727.31
495.138	724.31
495.355	740.31
495.573	718.31
495.79	732.31
496.008	744.31
496.225	729.31
496.442	717.31
496.66	710.31
496.877	724.31
497.094	711.31
497.312	698.31
497.529	710.31
497.746	681.31
497.963	714.31
498.181	707.31
498.398	724.31
498.615	750.31
498.832	739.31
499.049	727.31
499.267	739.31
499.484	759.31
499.701	783.31
499.918	778.31
500.135	787.31
500.352	805.31
500.569	839.31
500.786	853.31
501.003	847.31
501.22	837.31
501.437	808.31
501.654	811.31
501.871	813.31
