Data from 1986.PennyLincolnUp.Lamp.En5.5.200Scan.071819.P2_HRD10591_17-10-50-973.txt Node
Date: Thu Jul 18 17:10:50 EDT 2019
User: cochatt
Spectrometer: HR+D1059
Trigger mode: 1
Integration Time (sec): 1.000000E-1
Scans to average: 1
Electric dark correction enabled: true
Nonlinearity correction enabled: false
Boxcar width: 0
XAxis mode: Wavelengths
Number of Pixels in Spectrum: 2048
>>>>>Begin Spectral Data<<<<<
223.165	-4.44
223.4	-4.44
223.635	-4.44
223.869	-12.44
224.104	-15.44
224.338	-21.44
224.573	-10.44
224.808	-14.44
225.042	-8.44
225.277	-10.44
225.511	-5.44
225.746	-7.44
225.98	5.56
226.215	17.56
226.449	16.56
226.683	15.56
226.918	33.56
227.152	21.56
227.387	31.56
227.621	37.56
227.856	45.56
228.09	57.56
228.324	48.56
228.559	55.56
228.793	59.56
229.027	103.56
229.262	119.56
229.496	128.56
229.73	142.56
229.964	157.56
230.199	132.56
230.433	111.56
230.667	115.56
230.901	99.56
231.136	112.56
231.37	117.56
231.604	109.56
231.838	119.56
232.072	119.56
232.306	115.56
232.541	123.56
232.775	112.56
233.009	124.56
233.243	127.56
233.477	125.56
233.711	119.56
233.945	124.56
234.179	107.56
234.413	129.56
234.647	117.56
234.881	128.56
235.115	113.56
235.349	129.56
235.583	111.56
235.817	131.56
236.051	121.56
236.285	138.56
236.519	131.56
236.753	139.56
236.987	156.56
237.221	205.56
237.455	250.56
237.689	191.56
237.922	146.56
238.156	130.56
238.39	132.56
238.624	135.56
238.858	131.56
239.091	136.56
239.325	133.56
239.559	113.56
239.793	136.56
240.027	124.56
240.26	148.56
240.494	159.56
240.728	154.56
240.961	156.56
241.195	157.56
241.429	152.56
241.662	131.56
241.896	137.56
242.13	148.56
242.363	137.56
242.597	141.56
242.83	141.56
243.064	154.56
243.298	133.56
243.531	143.56
243.765	131.56
243.998	147.56
244.232	157.56
244.465	138.56
244.699	158.56
244.932	164.56
245.166	137.56
245.399	160.56
245.633	150.56
245.866	130.56
246.099	157.56
246.333	127.56
246.566	136.56
246.8	151.56
247.033	164.56
247.266	166.56
247.5	161.56
247.733	171.56
247.966	169.56
248.2	176.56
248.433	183.56
248.666	185.56
248.899	200.56
249.133	197.56
249.366	210.56
249.599	220.56
249.832	214.56
250.066	181.56
250.299	186.56
250.532	219.56
250.765	228.56
250.998	232.56
251.231	249.56
251.465	238.56
251.698	204.56
251.931	211.56
252.164	206.56
252.397	200.56
252.63	215.56
252.863	216.56
253.096	222.56
253.329	227.56
253.562	251.56
253.795	235.56
254.028	211.56
254.261	217.56
254.494	239.56
254.727	267.56
254.96	297.56
255.193	297.56
255.426	266.56
255.659	254.56
255.892	267.56
256.124	250.56
256.357	231.56
256.59	253.56
256.823	246.56
257.056	233.56
257.289	227.56
257.521	213.56
257.754	221.56
257.987	223.56
258.22	225.56
258.452	213.56
258.685	213.56
258.918	219.56
259.151	215.56
259.383	230.56
259.616	215.56
259.849	224.56
260.081	253.56
260.314	289.56
260.547	272.56
260.779	264.56
261.012	240.56
261.244	236.56
261.477	229.56
261.71	249.56
261.942	257.56
262.175	262.56
262.407	243.56
262.64	229.56
262.872	217.56
263.105	230.56
263.337	226.56
263.57	213.56
263.802	219.56
264.035	226.56
264.267	227.56
264.499	217.56
264.732	215.56
264.964	205.56
265.197	213.56
265.429	211.56
265.661	206.56
265.894	205.56
266.126	222.56
266.358	208.56
266.591	211.56
266.823	217.56
267.055	214.56
267.287	246.56
267.52	227.56
267.752	209.56
267.984	193.56
268.216	215.56
268.448	221.56
268.681	238.56
268.913	248.56
269.145	266.56
269.377	269.56
269.609	288.56
269.841	277.56
270.073	283.56
270.306	303.56
270.538	317.56
270.77	320.56
271.002	314.56
271.234	315.56
271.466	293.56
271.698	309.56
271.93	327.56
272.162	318.56
272.394	333.56
272.626	300.56
272.858	301.56
273.09	295.56
273.322	287.56
273.553	272.56
273.785	257.56
274.017	275.56
274.249	263.56
274.481	259.56
274.713	278.56
274.945	275.56
275.176	259.56
275.408	279.56
275.64	247.56
275.872	260.56
276.104	265.56
276.335	261.56
276.567	261.56
276.799	272.56
277.031	298.56
277.262	329.56
277.494	343.56
277.726	299.56
277.957	294.56
278.189	284.56
278.421	273.56
278.652	270.56
278.884	259.56
279.115	254.56
279.347	250.56
279.579	277.56
279.81	278.56
280.042	267.56
280.273	276.56
280.505	275.56
280.736	252.56
280.968	256.56
281.199	257.56
281.431	249.56
281.662	253.56
281.894	264.56
282.125	268.56
282.356	283.56
282.588	276.56
282.819	302.56
283.051	269.56
283.282	264.56
283.513	254.56
283.745	267.56
283.976	278.56
284.207	272.56
284.439	276.56
284.67	255.56
284.901	262.56
285.132	267.56
285.364	253.56
285.595	258.56
285.826	259.56
286.057	253.56
286.288	256.56
286.52	267.56
286.751	268.56
286.982	264.56
287.213	267.56
287.444	284.56
287.675	285.56
287.906	268.56
288.138	312.56
288.369	271.56
288.6	269.56
288.831	271.56
289.062	270.56
289.293	261.56
289.524	278.56
289.755	269.56
289.986	271.56
290.217	259.56
290.448	271.56
290.679	270.56
290.91	265.56
291.141	288.56
291.371	263.56
291.602	261.56
291.833	276.56
292.064	273.56
292.295	270.56
292.526	258.56
292.757	258.56
292.987	277.56
293.218	263.56
293.449	270.56
293.68	268.56
293.91	272.56
294.141	261.56
294.372	252.56
294.603	265.56
294.833	271.56
295.064	280.56
295.295	270.56
295.525	282.56
295.756	290.56
295.987	302.56
296.217	309.56
296.448	316.56
296.679	290.56
296.909	293.56
297.14	264.56
297.37	275.56
297.601	259.56
297.831	272.56
298.062	265.56
298.292	279.56
298.523	270.56
298.753	287.56
298.984	292.56
299.214	277.56
299.445	298.56
299.675	281.56
299.905	286.56
300.136	287.56
300.366	284.56
300.597	288.56
300.827	305.56
301.057	299.56
301.288	315.56
301.518	310.56
301.748	299.56
301.979	287.56
302.209	283.56
302.439	292.56
302.669	299.56
302.9	311.56
303.13	287.56
303.36	283.56
303.59	309.56
303.82	309.56
304.051	327.56
304.281	310.56
304.511	311.56
304.741	294.56
304.971	319.56
305.201	296.56
305.431	303.56
305.661	308.56
305.891	294.56
306.121	323.56
306.352	308.56
306.582	343.56
306.812	323.56
307.042	298.56
307.272	279.56
307.502	319.56
307.731	311.56
307.961	300.56
308.191	310.56
308.421	305.56
308.651	315.56
308.881	297.56
309.111	311.56
309.341	334.56
309.571	341.56
309.8	350.56
310.03	351.56
310.26	369.56
310.49	355.56
310.72	395.56
310.949	385.56
311.179	405.56
311.409	378.56
311.639	353.56
311.868	357.56
312.098	360.56
312.328	383.56
312.557	381.56
312.787	396.56
313.017	392.56
313.246	372.56
313.476	347.56
313.706	359.56
313.935	371.56
314.165	365.56
314.394	383.56
314.624	381.56
314.853	400.56
315.083	374.56
315.312	347.56
315.542	354.56
315.771	336.56
316.001	350.56
316.23	351.56
316.46	372.56
316.689	363.56
316.919	373.56
317.148	377.56
317.377	365.56
317.607	367.56
317.836	357.56
318.065	355.56
318.295	345.56
318.524	354.56
318.753	344.56
318.983	359.56
319.212	380.56
319.441	387.56
319.67	357.56
319.9	357.56
320.129	352.56
320.358	367.56
320.587	362.56
320.816	359.56
321.046	419.56
321.275	377.56
321.504	366.56
321.733	405.56
321.962	409.56
322.191	406.56
322.42	440.56
322.649	440.56
322.878	472.56
323.108	469.56
323.337	500.56
323.566	519.56
323.795	555.56
324.024	629.56
324.253	747.56
324.482	1062.56
324.71	1658.56
324.939	2353.56
325.168	2085.56
325.397	1120.56
325.626	737.56
325.855	615.56
326.084	552.56
326.313	524.56
326.542	522.56
326.77	602.56
326.999	695.56
327.228	931.56
327.457	1420.56
327.686	1736.56
327.914	1215.56
328.143	797.56
328.372	682.56
328.6	629.56
328.829	615.56
329.058	591.56
329.287	627.56
329.515	596.56
329.744	511.56
329.972	509.56
330.201	569.56
330.43	623.56
330.658	643.56
330.887	643.56
331.115	619.56
331.344	537.56
331.572	483.56
331.801	471.56
332.03	468.56
332.258	464.56
332.486	435.56
332.715	451.56
332.943	424.56
333.172	430.56
333.4	426.56
333.629	453.56
333.857	442.56
334.085	458.56
334.314	503.56
334.542	505.56
334.771	559.56
334.999	493.56
335.227	452.56
335.455	439.56
335.684	428.56
335.912	414.56
336.14	421.56
336.369	418.56
336.597	419.56
336.825	435.56
337.053	409.56
337.281	401.56
337.51	410.56
337.738	402.56
337.966	401.56
338.194	419.56
338.422	406.56
338.65	395.56
338.878	406.56
339.106	384.56
339.334	393.56
339.562	405.56
339.79	398.56
340.018	387.56
340.246	387.56
340.474	396.56
340.702	387.56
340.93	388.56
341.158	414.56
341.386	418.56
341.614	415.56
341.842	390.56
342.07	395.56
342.298	391.56
342.526	395.56
342.754	394.56
342.981	369.56
343.209	373.56
343.437	370.56
343.665	376.56
343.893	364.56
344.12	403.56
344.348	375.56
344.576	395.56
344.804	398.56
345.031	412.56
345.259	422.56
345.487	416.56
345.714	427.56
345.942	409.56
346.17	380.56
346.397	381.56
346.625	382.56
346.853	392.56
347.08	376.56
347.308	379.56
347.535	398.56
347.763	395.56
347.99	388.56
348.218	396.56
348.445	422.56
348.673	387.56
348.9	377.56
349.128	365.56
349.355	377.56
349.583	366.56
349.81	362.56
350.037	378.56
350.265	382.56
350.492	388.56
350.72	378.56
350.947	377.56
351.174	397.56
351.402	386.56
351.629	393.56
351.856	416.56
352.083	410.56
352.311	425.56
352.538	430.56
352.765	419.56
352.992	404.56
353.22	408.56
353.447	389.56
353.674	386.56
353.901	373.56
354.128	363.56
354.355	363.56
354.583	372.56
354.81	355.56
355.037	357.56
355.264	337.56
355.491	340.56
355.718	341.56
355.945	340.56
356.172	333.56
356.399	342.56
356.626	362.56
356.853	350.56
357.08	356.56
357.307	360.56
357.534	353.56
357.761	344.56
357.988	343.56
358.215	351.56
358.441	360.56
358.668	341.56
358.895	367.56
359.122	380.56
359.349	379.56
359.576	375.56
359.802	415.56
360.029	444.56
360.256	465.56
360.483	443.56
360.709	371.56
360.936	407.56
361.163	382.56
361.39	398.56
361.616	395.56
361.843	399.56
362.07	378.56
362.296	393.56
362.523	377.56
362.749	380.56
362.976	373.56
363.203	380.56
363.429	359.56
363.656	366.56
363.882	355.56
364.109	359.56
364.335	359.56
364.562	351.56
364.788	345.56
365.015	364.56
365.241	369.56
365.468	373.56
365.694	377.56
365.92	369.56
366.147	383.56
366.373	357.56
366.599	356.56
366.826	332.56
367.052	359.56
367.278	367.56
367.505	349.56
367.731	359.56
367.957	343.56
368.184	357.56
368.41	378.56
368.636	359.56
368.862	392.56
369.089	375.56
369.315	361.56
369.541	340.56
369.767	343.56
369.993	365.56
370.219	357.56
370.445	337.56
370.672	341.56
370.898	348.56
371.124	350.56
371.35	344.56
371.576	337.56
371.802	367.56
372.028	352.56
372.254	341.56
372.48	332.56
372.706	332.56
372.932	333.56
373.158	345.56
373.384	348.56
373.61	340.56
373.835	351.56
374.061	358.56
374.287	356.56
374.513	348.56
374.739	363.56
374.965	363.56
375.191	365.56
375.416	352.56
375.642	337.56
375.868	362.56
376.094	346.56
376.319	359.56
376.545	339.56
376.771	353.56
376.997	347.56
377.222	337.56
377.448	349.56
377.674	348.56
377.899	335.56
378.125	336.56
378.35	334.56
378.576	339.56
378.802	353.56
379.027	334.56
379.253	331.56
379.478	342.56
379.704	348.56
379.929	362.56
380.155	379.56
380.38	344.56
380.606	352.56
380.831	337.56
381.057	353.56
381.282	365.56
381.507	363.56
381.733	345.56
381.958	354.56
382.184	363.56
382.409	340.56
382.634	346.56
382.86	349.56
383.085	340.56
383.31	342.56
383.535	335.56
383.761	343.56
383.986	345.56
384.211	347.56
384.436	353.56
384.662	356.56
384.887	351.56
385.112	362.56
385.337	374.56
385.562	365.56
385.787	363.56
386.013	364.56
386.238	367.56
386.463	379.56
386.688	362.56
386.913	365.56
387.138	363.56
387.363	373.56
387.588	344.56
387.813	364.56
388.038	349.56
388.263	356.56
388.488	358.56
388.713	368.56
388.938	380.56
389.163	377.56
389.387	343.56
389.612	344.56
389.837	355.56
390.062	366.56
390.287	356.56
390.512	377.56
390.736	373.56
390.961	349.56
391.186	342.56
391.411	349.56
391.636	363.56
391.86	352.56
392.085	375.56
392.31	371.56
392.534	354.56
392.759	375.56
392.984	358.56
393.208	367.56
393.433	370.56
393.658	356.56
393.882	347.56
394.107	359.56
394.331	342.56
394.556	344.56
394.78	371.56
395.005	356.56
395.229	352.56
395.454	357.56
395.678	378.56
395.903	366.56
396.127	398.56
396.352	400.56
396.576	376.56
396.801	360.56
397.025	371.56
397.249	367.56
397.474	380.56
397.698	377.56
397.922	386.56
398.147	410.56
398.371	402.56
398.595	382.56
398.82	412.56
399.044	389.56
399.268	411.56
399.492	426.56
399.717	426.56
399.941	456.56
400.165	479.56
400.389	505.56
400.613	459.56
400.837	400.56
401.062	421.56
401.286	435.56
401.51	405.56
401.734	413.56
401.958	400.56
402.182	409.56
402.406	413.56
402.63	429.56
402.854	424.56
403.078	413.56
403.302	408.56
403.526	421.56
403.75	408.56
403.974	394.56
404.198	412.56
404.422	433.56
404.645	437.56
404.869	431.56
405.093	461.56
405.317	507.56
405.541	527.56
405.765	476.56
405.988	455.56
406.212	462.56
406.436	491.56
406.66	501.56
406.883	473.56
407.107	504.56
407.331	504.56
407.555	592.56
407.778	584.56
408.002	524.56
408.226	480.56
408.449	456.56
408.673	459.56
408.896	503.56
409.12	532.56
409.344	526.56
409.567	467.56
409.791	431.56
410.014	436.56
410.238	402.56
410.461	429.56
410.685	439.56
410.908	439.56
411.132	476.56
411.355	519.56
411.578	504.56
411.802	445.56
412.025	429.56
412.249	424.56
412.472	478.56
412.695	520.56
412.919	480.56
413.142	465.56
413.365	423.56
413.589	419.56
413.812	401.56
414.035	395.56
414.258	402.56
414.482	408.56
414.705	376.56
414.928	404.56
415.151	412.56
415.374	397.56
415.597	398.56
415.821	376.56
416.044	392.56
416.267	395.56
416.49	394.56
416.713	401.56
416.936	416.56
417.159	384.56
417.382	414.56
417.605	408.56
417.828	396.56
418.051	430.56
418.274	415.56
418.497	412.56
418.72	405.56
418.943	393.56
419.166	399.56
419.389	450.56
419.611	440.56
419.834	440.56
420.057	426.56
420.28	432.56
420.503	442.56
420.726	431.56
420.948	455.56
421.171	475.56
421.394	547.56
421.617	448.56
421.839	439.56
422.062	431.56
422.285	463.56
422.507	490.56
422.73	570.56
422.953	555.56
423.175	488.56
423.398	466.56
423.621	460.56
423.843	486.56
424.066	486.56
424.288	461.56
424.511	475.56
424.733	538.56
424.956	653.56
425.178	603.56
425.401	603.56
425.623	623.56
425.846	522.56
426.068	490.56
426.291	477.56
426.513	490.56
426.735	491.56
426.958	540.56
427.18	621.56
427.402	730.56
427.625	799.56
427.847	741.56
428.069	634.56
428.292	537.56
428.514	494.56
428.736	471.56
428.958	458.56
429.181	439.56
429.403	439.56
429.625	451.56
429.847	482.56
430.069	553.56
430.292	544.56
430.514	460.56
430.736	449.56
430.958	441.56
431.18	461.56
431.402	421.56
431.624	408.56
431.846	417.56
432.068	393.56
432.29	396.56
432.512	424.56
432.734	418.56
432.956	412.56
433.178	425.56
433.4	433.56
433.622	431.56
433.844	412.56
434.066	400.56
434.287	416.56
434.509	414.56
434.731	419.56
434.953	435.56
435.175	449.56
435.397	479.56
435.618	491.56
435.84	544.56
436.062	607.56
436.284	663.56
436.505	572.56
436.727	513.56
436.949	469.56
437.17	464.56
437.392	438.56
437.614	456.56
437.835	517.56
438.057	580.56
438.278	715.56
438.5	671.56
438.721	739.56
438.943	719.56
439.165	567.56
439.386	537.56
439.608	487.56
439.829	506.56
440.05	530.56
440.272	581.56
440.493	553.56
440.715	490.56
440.936	476.56
441.158	468.56
441.379	414.56
441.6	447.56
441.822	481.56
442.043	533.56
442.264	604.56
442.486	642.56
442.707	544.56
442.928	501.56
443.149	496.56
443.371	521.56
443.592	573.56
443.813	624.56
444.034	710.56
444.255	577.56
444.476	483.56
444.698	501.56
444.919	463.56
445.14	543.56
445.361	529.56
445.582	528.56
445.803	581.56
446.024	667.56
446.245	697.56
446.466	624.56
446.687	570.56
446.908	496.56
447.129	472.56
447.35	446.56
447.571	443.56
447.792	453.56
448.013	453.56
448.234	472.56
448.455	528.56
448.675	627.56
448.896	738.56
449.117	632.56
449.338	596.56
449.559	678.56
449.779	733.56
450	633.56
450.221	495.56
450.442	464.56
450.662	428.56
450.883	427.56
451.104	484.56
451.324	468.56
451.545	461.56
451.766	425.56
451.986	417.56
452.207	416.56
452.428	383.56
452.648	402.56
452.869	414.56
453.089	421.56
453.31	425.56
453.53	429.56
453.751	411.56
453.971	421.56
454.192	423.56
454.412	430.56
454.633	409.56
454.853	405.56
455.073	391.56
455.294	419.56
455.514	493.56
455.734	487.56
455.955	419.56
456.175	393.56
456.395	379.56
456.616	379.56
456.836	377.56
457.056	354.56
457.276	337.56
457.497	347.56
457.717	360.56
457.937	372.56
458.157	380.56
458.377	395.56
458.598	423.56
458.818	474.56
459.038	580.56
459.258	583.56
459.478	474.56
459.698	420.56
459.918	395.56
460.138	392.56
460.358	398.56
460.578	393.56
460.798	383.56
461.018	392.56
461.238	402.56
461.458	404.56
461.678	395.56
461.898	388.56
462.118	382.56
462.338	421.56
462.558	388.56
462.777	401.56
462.997	414.56
463.217	400.56
463.437	430.56
463.657	429.56
463.876	415.56
464.096	438.56
464.316	422.56
464.536	436.56
464.755	438.56
464.975	434.56
465.195	498.56
465.414	583.56
465.634	513.56
465.854	478.56
466.073	425.56
466.293	423.56
466.512	396.56
466.732	383.56
466.951	399.56
467.171	410.56
467.391	411.56
467.61	418.56
467.829	429.56
468.049	421.56
468.268	432.56
468.488	397.56
468.707	383.56
468.927	379.56
469.146	383.56
469.365	387.56
469.585	395.56
469.804	399.56
470.023	404.56
470.243	396.56
470.462	419.56
470.681	434.56
470.901	437.56
471.12	409.56
471.339	408.56
471.558	425.56
471.777	408.56
471.997	412.56
472.216	436.56
472.435	478.56
472.654	455.56
472.873	424.56
473.092	414.56
473.311	402.56
473.53	406.56
473.749	420.56
473.968	477.56
474.187	565.56
474.406	607.56
474.625	487.56
474.844	419.56
475.063	429.56
475.282	426.56
475.501	413.56
475.72	413.56
475.939	418.56
476.158	428.56
476.377	431.56
476.596	415.56
476.814	414.56
477.033	454.56
477.252	439.56
477.471	425.56
477.69	439.56
477.908	429.56
478.127	449.56
478.346	441.56
478.564	432.56
478.783	439.56
479.002	477.56
479.22	449.56
479.439	464.56
479.658	491.56
479.876	468.56
480.095	484.56
480.313	510.56
480.532	491.56
480.751	515.56
480.969	541.56
481.188	603.56
481.406	672.56
481.624	569.56
481.843	505.56
482.061	526.56
482.28	485.56
482.498	502.56
482.717	480.56
482.935	483.56
483.153	483.56
483.372	501.56
483.59	473.56
483.808	488.56
484.027	485.56
484.245	487.56
484.463	486.56
484.681	474.56
484.9	508.56
485.118	491.56
485.336	506.56
485.554	493.56
485.772	506.56
485.99	501.56
486.209	503.56
486.427	516.56
486.645	519.56
486.863	538.56
487.081	541.56
487.299	528.56
487.517	529.56
487.735	517.56
487.953	522.56
488.171	528.56
488.389	536.56
488.607	527.56
488.825	530.56
489.043	542.56
489.261	505.56
489.479	534.56
489.696	528.56
489.914	524.56
490.132	561.56
490.35	552.56
490.568	562.56
490.786	588.56
491.003	560.56
491.221	588.56
491.439	593.56
491.657	604.56
491.874	630.56
492.092	614.56
492.31	620.56
492.527	623.56
492.745	629.56
492.963	635.56
493.18	645.56
493.398	630.56
493.615	637.56
493.833	645.56
494.05	644.56
494.268	633.56
494.485	647.56
494.703	617.56
494.92	622.56
495.138	654.56
495.355	643.56
495.573	647.56
495.79	631.56
496.008	642.56
496.225	629.56
496.442	641.56
496.66	648.56
496.877	620.56
497.094	605.56
497.312	638.56
497.529	659.56
497.746	657.56
497.963	646.56
498.181	695.56
498.398	662.56
498.615	678.56
498.832	693.56
499.049	677.56
499.267	678.56
499.484	712.56
499.701	731.56
499.918	697.56
500.135	727.56
500.352	743.56
500.569	768.56
500.786	752.56
501.003	782.56
501.22	741.56
501.437	724.56
501.654	722.56
501.871	729.56
