Data from 1986.PennyLincolnUp.Lamp.En5.5.200Scan.071819.P2_HRD10591_17-11-03-973.txt Node
Date: Thu Jul 18 17:11:03 EDT 2019
User: cochatt
Spectrometer: HR+D1059
Trigger mode: 1
Integration Time (sec): 1.000000E-1
Scans to average: 1
Electric dark correction enabled: true
Nonlinearity correction enabled: false
Boxcar width: 0
XAxis mode: Wavelengths
Number of Pixels in Spectrum: 2048
>>>>>Begin Spectral Data<<<<<
223.165	-10.75
223.4	-10.75
223.635	-10.75
223.869	-24.75
224.104	-28.75
224.338	-8.75
224.573	-18.75
224.808	-26.75
225.042	8.25
225.277	-3.75
225.511	-10.75
225.746	7.25
225.98	8.25
226.215	17.25
226.449	35.25
226.683	15.25
226.918	7.25
227.152	34.25
227.387	40.25
227.621	30.25
227.856	49.25
228.09	59.25
228.324	59.25
228.559	57.25
228.793	65.25
229.027	100.25
229.262	121.25
229.496	110.25
229.73	129.25
229.964	140.25
230.199	138.25
230.433	136.25
230.667	130.25
230.901	98.25
231.136	124.25
231.37	113.25
231.604	108.25
231.838	118.25
232.072	110.25
232.306	117.25
232.541	115.25
232.775	109.25
233.009	114.25
233.243	105.25
233.477	121.25
233.711	135.25
233.945	122.25
234.179	126.25
234.413	105.25
234.647	117.25
234.881	119.25
235.115	107.25
235.349	121.25
235.583	127.25
235.817	126.25
236.051	135.25
236.285	131.25
236.519	124.25
236.753	137.25
236.987	151.25
237.221	188.25
237.455	233.25
237.689	191.25
237.922	154.25
238.156	139.25
238.39	133.25
238.624	113.25
238.858	135.25
239.091	133.25
239.325	130.25
239.559	124.25
239.793	131.25
240.027	141.25
240.26	144.25
240.494	166.25
240.728	147.25
240.961	147.25
241.195	154.25
241.429	145.25
241.662	122.25
241.896	135.25
242.13	134.25
242.363	144.25
242.597	136.25
242.83	148.25
243.064	145.25
243.298	148.25
243.531	146.25
243.765	140.25
243.998	142.25
244.232	139.25
244.465	145.25
244.699	140.25
244.932	129.25
245.166	145.25
245.399	161.25
245.633	148.25
245.866	145.25
246.099	159.25
246.333	158.25
246.566	154.25
246.8	155.25
247.033	156.25
247.266	163.25
247.5	174.25
247.733	165.25
247.966	179.25
248.2	179.25
248.433	179.25
248.666	186.25
248.899	185.25
249.133	190.25
249.366	225.25
249.599	217.25
249.832	200.25
250.066	199.25
250.299	203.25
250.532	207.25
250.765	236.25
250.998	256.25
251.231	238.25
251.465	231.25
251.698	219.25
251.931	220.25
252.164	223.25
252.397	201.25
252.63	218.25
252.863	220.25
253.096	212.25
253.329	235.25
253.562	249.25
253.795	245.25
254.028	235.25
254.261	231.25
254.494	243.25
254.727	248.25
254.96	283.25
255.193	292.25
255.426	277.25
255.659	237.25
255.892	257.25
256.124	269.25
256.357	254.25
256.59	248.25
256.823	237.25
257.056	221.25
257.289	231.25
257.521	228.25
257.754	217.25
257.987	221.25
258.22	222.25
258.452	222.25
258.685	236.25
258.918	223.25
259.151	235.25
259.383	220.25
259.616	229.25
259.849	235.25
260.081	243.25
260.314	256.25
260.547	274.25
260.779	269.25
261.012	275.25
261.244	235.25
261.477	246.25
261.71	233.25
261.942	233.25
262.175	255.25
262.407	225.25
262.64	223.25
262.872	227.25
263.105	230.25
263.337	227.25
263.57	225.25
263.802	210.25
264.035	216.25
264.267	201.25
264.499	213.25
264.732	207.25
264.964	204.25
265.197	214.25
265.429	214.25
265.661	230.25
265.894	220.25
266.126	204.25
266.358	204.25
266.591	214.25
266.823	252.25
267.055	225.25
267.287	222.25
267.52	227.25
267.752	233.25
267.984	231.25
268.216	227.25
268.448	241.25
268.681	242.25
268.913	262.25
269.145	263.25
269.377	283.25
269.609	271.25
269.841	283.25
270.073	277.25
270.306	307.25
270.538	321.25
270.77	333.25
271.002	334.25
271.234	313.25
271.466	309.25
271.698	342.25
271.93	324.25
272.162	338.25
272.394	315.25
272.626	323.25
272.858	310.25
273.09	285.25
273.322	280.25
273.553	274.25
273.785	266.25
274.017	270.25
274.249	261.25
274.481	267.25
274.713	261.25
274.945	281.25
275.176	257.25
275.408	261.25
275.64	265.25
275.872	253.25
276.104	276.25
276.335	272.25
276.567	271.25
276.799	283.25
277.031	336.25
277.262	331.25
277.494	333.25
277.726	317.25
277.957	302.25
278.189	268.25
278.421	265.25
278.652	262.25
278.884	268.25
279.115	260.25
279.347	275.25
279.579	260.25
279.81	277.25
280.042	259.25
280.273	265.25
280.505	250.25
280.736	272.25
280.968	264.25
281.199	258.25
281.431	258.25
281.662	270.25
281.894	262.25
282.125	277.25
282.356	271.25
282.588	282.25
282.819	308.25
283.051	266.25
283.282	283.25
283.513	276.25
283.745	274.25
283.976	292.25
284.207	254.25
284.439	271.25
284.67	263.25
284.901	255.25
285.132	254.25
285.364	267.25
285.595	259.25
285.826	268.25
286.057	276.25
286.288	274.25
286.52	275.25
286.751	286.25
286.982	269.25
287.213	263.25
287.444	272.25
287.675	248.25
287.906	283.25
288.138	294.25
288.369	307.25
288.6	288.25
288.831	276.25
289.062	293.25
289.293	275.25
289.524	280.25
289.755	263.25
289.986	269.25
290.217	281.25
290.448	268.25
290.679	285.25
290.91	264.25
291.141	270.25
291.371	290.25
291.602	282.25
291.833	284.25
292.064	284.25
292.295	271.25
292.526	277.25
292.757	294.25
292.987	287.25
293.218	279.25
293.449	309.25
293.68	276.25
293.91	288.25
294.141	293.25
294.372	269.25
294.603	275.25
294.833	273.25
295.064	273.25
295.295	286.25
295.525	271.25
295.756	294.25
295.987	288.25
296.217	314.25
296.448	331.25
296.679	293.25
296.909	282.25
297.14	296.25
297.37	285.25
297.601	272.25
297.831	276.25
298.062	285.25
298.292	284.25
298.523	283.25
298.753	284.25
298.984	272.25
299.214	305.25
299.445	290.25
299.675	278.25
299.905	288.25
300.136	278.25
300.366	302.25
300.597	276.25
300.827	291.25
301.057	292.25
301.288	309.25
301.518	300.25
301.748	298.25
301.979	296.25
302.209	307.25
302.439	305.25
302.669	307.25
302.9	284.25
303.13	293.25
303.36	313.25
303.59	312.25
303.82	312.25
304.051	327.25
304.281	309.25
304.511	306.25
304.741	296.25
304.971	303.25
305.201	316.25
305.431	332.25
305.661	317.25
305.891	301.25
306.121	298.25
306.352	334.25
306.582	313.25
306.812	314.25
307.042	319.25
307.272	310.25
307.502	308.25
307.731	305.25
307.961	319.25
308.191	314.25
308.421	315.25
308.651	321.25
308.881	316.25
309.111	318.25
309.341	322.25
309.571	331.25
309.8	357.25
310.03	342.25
310.26	374.25
310.49	389.25
310.72	389.25
310.949	381.25
311.179	396.25
311.409	393.25
311.639	372.25
311.868	374.25
312.098	386.25
312.328	363.25
312.557	403.25
312.787	420.25
313.017	407.25
313.246	388.25
313.476	381.25
313.706	365.25
313.935	375.25
314.165	399.25
314.394	394.25
314.624	373.25
314.853	381.25
315.083	363.25
315.312	352.25
315.542	364.25
315.771	345.25
316.001	372.25
316.23	351.25
316.46	363.25
316.689	371.25
316.919	359.25
317.148	370.25
317.377	373.25
317.607	366.25
317.836	373.25
318.065	369.25
318.295	376.25
318.524	348.25
318.753	349.25
318.983	363.25
319.212	351.25
319.441	379.25
319.67	390.25
319.9	359.25
320.129	381.25
320.358	374.25
320.587	398.25
320.816	380.25
321.046	396.25
321.275	396.25
321.504	388.25
321.733	385.25
321.962	397.25
322.191	405.25
322.42	412.25
322.649	433.25
322.878	480.25
323.108	492.25
323.337	508.25
323.566	545.25
323.795	587.25
324.024	644.25
324.253	787.25
324.482	1062.25
324.71	1646.25
324.939	2356.25
325.168	2081.25
325.397	1126.25
325.626	726.25
325.855	588.25
326.084	545.25
326.313	542.25
326.542	561.25
326.77	569.25
326.999	714.25
327.228	943.25
327.457	1465.25
327.686	1780.25
327.914	1253.25
328.143	840.25
328.372	722.25
328.6	670.25
328.829	600.25
329.058	621.25
329.287	654.25
329.515	584.25
329.744	542.25
329.972	565.25
330.201	569.25
330.43	646.25
330.658	677.25
330.887	683.25
331.115	635.25
331.344	559.25
331.572	496.25
331.801	531.25
332.03	504.25
332.258	504.25
332.486	459.25
332.715	442.25
332.943	450.25
333.172	445.25
333.4	456.25
333.629	446.25
333.857	492.25
334.085	513.25
334.314	521.25
334.542	597.25
334.771	605.25
334.999	547.25
335.227	474.25
335.455	475.25
335.684	422.25
335.912	439.25
336.14	419.25
336.369	421.25
336.597	442.25
336.825	454.25
337.053	422.25
337.281	413.25
337.51	411.25
337.738	433.25
337.966	421.25
338.194	425.25
338.422	430.25
338.65	422.25
338.878	422.25
339.106	396.25
339.334	418.25
339.562	398.25
339.79	410.25
340.018	406.25
340.246	405.25
340.474	423.25
340.702	418.25
340.93	404.25
341.158	394.25
341.386	395.25
341.614	406.25
341.842	425.25
342.07	394.25
342.298	406.25
342.526	395.25
342.754	385.25
342.981	392.25
343.209	389.25
343.437	391.25
343.665	385.25
343.893	404.25
344.12	395.25
344.348	408.25
344.576	414.25
344.804	406.25
345.031	410.25
345.259	420.25
345.487	419.25
345.714	419.25
345.942	414.25
346.17	402.25
346.397	386.25
346.625	392.25
346.853	391.25
347.08	409.25
347.308	397.25
347.535	398.25
347.763	428.25
347.99	397.25
348.218	413.25
348.445	427.25
348.673	422.25
348.9	379.25
349.128	405.25
349.355	389.25
349.583	369.25
349.81	362.25
350.037	387.25
350.265	375.25
350.492	374.25
350.72	377.25
350.947	388.25
351.174	393.25
351.402	418.25
351.629	399.25
351.856	396.25
352.083	397.25
352.311	415.25
352.538	410.25
352.765	406.25
352.992	415.25
353.22	400.25
353.447	411.25
353.674	375.25
353.901	389.25
354.128	379.25
354.355	374.25
354.583	364.25
354.81	369.25
355.037	367.25
355.264	364.25
355.491	338.25
355.718	366.25
355.945	358.25
356.172	350.25
356.399	350.25
356.626	351.25
356.853	354.25
357.08	358.25
357.307	367.25
357.534	362.25
357.761	368.25
357.988	355.25
358.215	366.25
358.441	378.25
358.668	355.25
358.895	379.25
359.122	396.25
359.349	384.25
359.576	410.25
359.802	428.25
360.029	452.25
360.256	446.25
360.483	444.25
360.709	408.25
360.936	406.25
361.163	389.25
361.39	387.25
361.616	393.25
361.843	405.25
362.07	395.25
362.296	409.25
362.523	387.25
362.749	390.25
362.976	379.25
363.203	381.25
363.429	394.25
363.656	380.25
363.882	377.25
364.109	360.25
364.335	346.25
364.562	362.25
364.788	375.25
365.015	369.25
365.241	351.25
365.468	375.25
365.694	361.25
365.92	369.25
366.147	391.25
366.373	366.25
366.599	353.25
366.826	356.25
367.052	355.25
367.278	373.25
367.505	359.25
367.731	363.25
367.957	374.25
368.184	371.25
368.41	382.25
368.636	384.25
368.862	373.25
369.089	375.25
369.315	355.25
369.541	366.25
369.767	375.25
369.993	371.25
370.219	363.25
370.445	363.25
370.672	356.25
370.898	348.25
371.124	365.25
371.35	358.25
371.576	373.25
371.802	355.25
372.028	326.25
372.254	348.25
372.48	349.25
372.706	365.25
372.932	362.25
373.158	333.25
373.384	361.25
373.61	365.25
373.835	360.25
374.061	353.25
374.287	369.25
374.513	344.25
374.739	349.25
374.965	340.25
375.191	342.25
375.416	358.25
375.642	344.25
375.868	365.25
376.094	347.25
376.319	342.25
376.545	343.25
376.771	349.25
376.997	335.25
377.222	356.25
377.448	339.25
377.674	339.25
377.899	348.25
378.125	341.25
378.35	344.25
378.576	335.25
378.802	334.25
379.027	361.25
379.253	353.25
379.478	336.25
379.704	350.25
379.929	371.25
380.155	379.25
380.38	354.25
380.606	348.25
380.831	339.25
381.057	346.25
381.282	364.25
381.507	370.25
381.733	364.25
381.958	359.25
382.184	346.25
382.409	361.25
382.634	359.25
382.86	342.25
383.085	344.25
383.31	356.25
383.535	360.25
383.761	379.25
383.986	367.25
384.211	362.25
384.436	366.25
384.662	367.25
384.887	375.25
385.112	350.25
385.337	375.25
385.562	364.25
385.787	369.25
386.013	379.25
386.238	381.25
386.463	387.25
386.688	358.25
386.913	367.25
387.138	375.25
387.363	374.25
387.588	362.25
387.813	377.25
388.038	375.25
388.263	366.25
388.488	373.25
388.713	360.25
388.938	359.25
389.163	356.25
389.387	357.25
389.612	354.25
389.837	377.25
390.062	375.25
390.287	355.25
390.512	372.25
390.736	359.25
390.961	376.25
391.186	382.25
391.411	369.25
391.636	381.25
391.86	381.25
392.085	380.25
392.31	383.25
392.534	371.25
392.759	377.25
392.984	360.25
393.208	379.25
393.433	382.25
393.658	374.25
393.882	356.25
394.107	379.25
394.331	374.25
394.556	368.25
394.78	362.25
395.005	346.25
395.229	363.25
395.454	393.25
395.678	387.25
395.903	389.25
396.127	427.25
396.352	420.25
396.576	404.25
396.801	366.25
397.025	368.25
397.249	377.25
397.474	390.25
397.698	377.25
397.922	392.25
398.147	419.25
398.371	431.25
398.595	407.25
398.82	426.25
399.044	410.25
399.268	394.25
399.492	439.25
399.717	460.25
399.941	455.25
400.165	496.25
400.389	513.25
400.613	471.25
400.837	443.25
401.062	433.25
401.286	428.25
401.51	418.25
401.734	391.25
401.958	404.25
402.182	415.25
402.406	433.25
402.63	437.25
402.854	434.25
403.078	413.25
403.302	428.25
403.526	433.25
403.75	445.25
403.974	421.25
404.198	424.25
404.422	448.25
404.645	440.25
404.869	455.25
405.093	491.25
405.317	501.25
405.541	561.25
405.765	532.25
405.988	503.25
406.212	501.25
406.436	477.25
406.66	508.25
406.883	490.25
407.107	484.25
407.331	515.25
407.555	598.25
407.778	583.25
408.002	544.25
408.226	474.25
408.449	485.25
408.673	485.25
408.896	521.25
409.12	543.25
409.344	511.25
409.567	478.25
409.791	472.25
410.014	429.25
410.238	434.25
410.461	424.25
410.685	439.25
410.908	467.25
411.132	485.25
411.355	534.25
411.578	509.25
411.802	467.25
412.025	434.25
412.249	451.25
412.472	481.25
412.695	508.25
412.919	513.25
413.142	467.25
413.365	447.25
413.589	429.25
413.812	425.25
414.035	409.25
414.258	411.25
414.482	400.25
414.705	422.25
414.928	412.25
415.151	409.25
415.374	413.25
415.597	398.25
415.821	400.25
416.044	427.25
416.267	418.25
416.49	389.25
416.713	417.25
416.936	415.25
417.159	387.25
417.382	396.25
417.605	427.25
417.828	434.25
418.051	446.25
418.274	449.25
418.497	421.25
418.72	425.25
418.943	398.25
419.166	428.25
419.389	452.25
419.611	451.25
419.834	435.25
420.057	427.25
420.28	445.25
420.503	446.25
420.726	455.25
420.948	456.25
421.171	523.25
421.394	522.25
421.617	468.25
421.839	444.25
422.062	417.25
422.285	451.25
422.507	494.25
422.73	575.25
422.953	555.25
423.175	503.25
423.398	462.25
423.621	477.25
423.843	466.25
424.066	490.25
424.288	467.25
424.511	497.25
424.733	545.25
424.956	635.25
425.178	628.25
425.401	605.25
425.623	614.25
425.846	547.25
426.068	510.25
426.291	471.25
426.513	481.25
426.735	494.25
426.958	537.25
427.18	609.25
427.402	727.25
427.625	819.25
427.847	773.25
428.069	652.25
428.292	574.25
428.514	518.25
428.736	495.25
428.958	473.25
429.181	454.25
429.403	452.25
429.625	473.25
429.847	509.25
430.069	577.25
430.292	547.25
430.514	460.25
430.736	450.25
430.958	443.25
431.18	426.25
431.402	413.25
431.624	401.25
431.846	410.25
432.068	408.25
432.29	427.25
432.512	395.25
432.734	431.25
432.956	428.25
433.178	424.25
433.4	451.25
433.622	429.25
433.844	426.25
434.066	435.25
434.287	430.25
434.509	425.25
434.731	415.25
434.953	416.25
435.175	467.25
435.397	462.25
435.618	482.25
435.84	524.25
436.062	625.25
436.284	693.25
436.505	591.25
436.727	548.25
436.949	498.25
437.17	452.25
437.392	461.25
437.614	477.25
437.835	508.25
438.057	607.25
438.278	720.25
438.5	715.25
438.721	757.25
438.943	714.25
439.165	576.25
439.386	534.25
439.608	531.25
439.829	502.25
440.05	537.25
440.272	572.25
440.493	554.25
440.715	494.25
440.936	468.25
441.158	459.25
441.379	480.25
441.6	458.25
441.822	475.25
442.043	538.25
442.264	619.25
442.486	652.25
442.707	565.25
442.928	504.25
443.149	547.25
443.371	542.25
443.592	551.25
443.813	642.25
444.034	723.25
444.255	609.25
444.476	522.25
444.698	505.25
444.919	491.25
445.14	577.25
445.361	548.25
445.582	547.25
445.803	594.25
446.024	695.25
446.245	691.25
446.466	652.25
446.687	562.25
446.908	519.25
447.129	495.25
447.35	454.25
447.571	453.25
447.792	468.25
448.013	470.25
448.234	486.25
448.455	512.25
448.675	646.25
448.896	751.25
449.117	633.25
449.338	603.25
449.559	689.25
449.779	775.25
450	630.25
450.221	526.25
450.442	472.25
450.662	459.25
450.883	474.25
451.104	499.25
451.324	484.25
451.545	442.25
451.766	443.25
451.986	416.25
452.207	417.25
452.428	421.25
452.648	405.25
452.869	428.25
453.089	429.25
453.31	428.25
453.53	439.25
453.751	415.25
453.971	421.25
454.192	458.25
454.412	447.25
454.633	420.25
454.853	396.25
455.073	402.25
455.294	442.25
455.514	508.25
455.734	501.25
455.955	410.25
456.175	405.25
456.395	396.25
456.616	374.25
456.836	397.25
457.056	381.25
457.276	374.25
457.497	381.25
457.717	382.25
457.937	394.25
458.157	395.25
458.377	395.25
458.598	437.25
458.818	478.25
459.038	573.25
459.258	586.25
459.478	469.25
459.698	458.25
459.918	429.25
460.138	416.25
460.358	402.25
460.578	423.25
460.798	414.25
461.018	418.25
461.238	390.25
461.458	381.25
461.678	411.25
461.898	415.25
462.118	412.25
462.338	419.25
462.558	404.25
462.777	417.25
462.997	417.25
463.217	409.25
463.437	439.25
463.657	416.25
463.876	422.25
464.096	422.25
464.316	435.25
464.536	435.25
464.755	437.25
464.975	452.25
465.195	504.25
465.414	607.25
465.634	522.25
465.854	470.25
466.073	437.25
466.293	435.25
466.512	423.25
466.732	409.25
466.951	419.25
467.171	395.25
467.391	405.25
467.61	419.25
467.829	439.25
468.049	421.25
468.268	448.25
468.488	419.25
468.707	400.25
468.927	405.25
469.146	392.25
469.365	392.25
469.585	409.25
469.804	401.25
470.023	410.25
470.243	406.25
470.462	430.25
470.681	449.25
470.901	440.25
471.12	434.25
471.339	397.25
471.558	426.25
471.777	436.25
471.997	421.25
472.216	433.25
472.435	513.25
472.654	478.25
472.873	444.25
473.092	429.25
473.311	434.25
473.53	399.25
473.749	424.25
473.968	468.25
474.187	591.25
474.406	619.25
474.625	468.25
474.844	463.25
475.063	459.25
475.282	422.25
475.501	426.25
475.72	437.25
475.939	439.25
476.158	430.25
476.377	427.25
476.596	437.25
476.814	446.25
477.033	441.25
477.252	453.25
477.471	456.25
477.69	450.25
477.908	436.25
478.127	467.25
478.346	456.25
478.564	470.25
478.783	460.25
479.002	468.25
479.22	466.25
479.439	476.25
479.658	521.25
479.876	523.25
480.095	520.25
480.313	540.25
480.532	531.25
480.751	540.25
480.969	540.25
481.188	640.25
481.406	741.25
481.624	587.25
481.843	545.25
482.061	530.25
482.28	521.25
482.498	501.25
482.717	508.25
482.935	481.25
483.153	486.25
483.372	501.25
483.59	502.25
483.808	503.25
484.027	503.25
484.245	495.25
484.463	514.25
484.681	524.25
484.9	517.25
485.118	516.25
485.336	494.25
485.554	524.25
485.772	521.25
485.99	512.25
486.209	529.25
486.427	519.25
486.645	524.25
486.863	561.25
487.081	554.25
487.299	558.25
487.517	553.25
487.735	525.25
487.953	525.25
488.171	549.25
488.389	527.25
488.607	545.25
488.825	533.25
489.043	547.25
489.261	549.25
489.479	557.25
489.696	556.25
489.914	546.25
490.132	575.25
490.35	570.25
490.568	573.25
490.786	586.25
491.003	606.25
491.221	609.25
491.439	605.25
491.657	611.25
491.874	622.25
492.092	604.25
492.31	646.25
492.527	625.25
492.745	632.25
492.963	641.25
493.18	636.25
493.398	655.25
493.615	664.25
493.833	649.25
494.05	639.25
494.268	675.25
494.485	633.25
494.703	641.25
494.92	652.25
495.138	653.25
495.355	648.25
495.573	652.25
495.79	669.25
496.008	653.25
496.225	663.25
496.442	651.25
496.66	667.25
496.877	672.25
497.094	641.25
497.312	645.25
497.529	640.25
497.746	671.25
497.963	682.25
498.181	709.25
498.398	677.25
498.615	680.25
498.832	707.25
499.049	699.25
499.267	701.25
499.484	709.25
499.701	726.25
499.918	734.25
500.135	755.25
500.352	761.25
500.569	788.25
500.786	806.25
501.003	774.25
501.22	781.25
501.437	756.25
501.654	761.25
501.871	774.25
