Data from 1986.PennyLincolnUp.Lamp.En5.5.200Scan.071819.P2_HRD10591_17-11-32-974.txt Node
Date: Thu Jul 18 17:11:32 EDT 2019
User: cochatt
Spectrometer: HR+D1059
Trigger mode: 1
Integration Time (sec): 1.000000E-1
Scans to average: 1
Electric dark correction enabled: true
Nonlinearity correction enabled: false
Boxcar width: 0
XAxis mode: Wavelengths
Number of Pixels in Spectrum: 2048
>>>>>Begin Spectral Data<<<<<
223.165	-13.5
223.4	-13.5
223.635	-13.5
223.869	-11.5
224.104	-10.5
224.338	-20.5
224.573	-12.5
224.808	-11.5
225.042	-15.5
225.277	-5.5
225.511	0.5
225.746	9.5
225.98	8.5
226.215	11.5
226.449	-0.5
226.683	7.5
226.918	29.5
227.152	34.5
227.387	38.5
227.621	43.5
227.856	33.5
228.09	34.5
228.324	48.5
228.559	57.5
228.793	66.5
229.027	107.5
229.262	112.5
229.496	112.5
229.73	145.5
229.964	165.5
230.199	132.5
230.433	120.5
230.667	118.5
230.901	109.5
231.136	114.5
231.37	107.5
231.604	110.5
231.838	110.5
232.072	120.5
232.306	109.5
232.541	114.5
232.775	130.5
233.009	123.5
233.243	113.5
233.477	105.5
233.711	120.5
233.945	121.5
234.179	101.5
234.413	123.5
234.647	120.5
234.881	122.5
235.115	115.5
235.349	143.5
235.583	114.5
235.817	122.5
236.051	135.5
236.285	117.5
236.519	125.5
236.753	140.5
236.987	138.5
237.221	166.5
237.455	250.5
237.689	204.5
237.922	156.5
238.156	152.5
238.39	149.5
238.624	143.5
238.858	127.5
239.091	128.5
239.325	128.5
239.559	125.5
239.793	117.5
240.027	127.5
240.26	158.5
240.494	154.5
240.728	158.5
240.961	158.5
241.195	145.5
241.429	142.5
241.662	148.5
241.896	150.5
242.13	133.5
242.363	133.5
242.597	133.5
242.83	146.5
243.064	144.5
243.298	133.5
243.531	132.5
243.765	128.5
243.998	145.5
244.232	160.5
244.465	143.5
244.699	168.5
244.932	148.5
245.166	152.5
245.399	166.5
245.633	151.5
245.866	150.5
246.099	136.5
246.333	145.5
246.566	150.5
246.8	153.5
247.033	160.5
247.266	165.5
247.5	166.5
247.733	171.5
247.966	201.5
248.2	186.5
248.433	173.5
248.666	189.5
248.899	205.5
249.133	228.5
249.366	214.5
249.599	241.5
249.832	199.5
250.066	201.5
250.299	192.5
250.532	214.5
250.765	249.5
250.998	251.5
251.231	259.5
251.465	243.5
251.698	229.5
251.931	212.5
252.164	224.5
252.397	216.5
252.63	229.5
252.863	226.5
253.096	228.5
253.329	254.5
253.562	248.5
253.795	214.5
254.028	251.5
254.261	244.5
254.494	237.5
254.727	274.5
254.96	301.5
255.193	304.5
255.426	272.5
255.659	258.5
255.892	273.5
256.124	276.5
256.357	306.5
256.59	288.5
256.823	272.5
257.056	247.5
257.289	241.5
257.521	221.5
257.754	228.5
257.987	214.5
258.22	237.5
258.452	248.5
258.685	231.5
258.918	228.5
259.151	234.5
259.383	244.5
259.616	227.5
259.849	254.5
260.081	245.5
260.314	267.5
260.547	279.5
260.779	280.5
261.012	249.5
261.244	236.5
261.477	250.5
261.71	261.5
261.942	233.5
262.175	240.5
262.407	268.5
262.64	243.5
262.872	237.5
263.105	216.5
263.337	228.5
263.57	237.5
263.802	227.5
264.035	209.5
264.267	234.5
264.499	210.5
264.732	219.5
264.964	200.5
265.197	208.5
265.429	226.5
265.661	224.5
265.894	213.5
266.126	208.5
266.358	227.5
266.591	212.5
266.823	246.5
267.055	229.5
267.287	228.5
267.52	239.5
267.752	242.5
267.984	234.5
268.216	229.5
268.448	230.5
268.681	229.5
268.913	231.5
269.145	279.5
269.377	289.5
269.609	284.5
269.841	290.5
270.073	289.5
270.306	314.5
270.538	346.5
270.77	363.5
271.002	339.5
271.234	325.5
271.466	329.5
271.698	331.5
271.93	340.5
272.162	333.5
272.394	332.5
272.626	317.5
272.858	331.5
273.09	286.5
273.322	282.5
273.553	276.5
273.785	278.5
274.017	277.5
274.249	264.5
274.481	265.5
274.713	263.5
274.945	281.5
275.176	275.5
275.408	278.5
275.64	264.5
275.872	283.5
276.104	269.5
276.335	274.5
276.567	267.5
276.799	308.5
277.031	333.5
277.262	344.5
277.494	340.5
277.726	325.5
277.957	311.5
278.189	305.5
278.421	307.5
278.652	282.5
278.884	270.5
279.115	283.5
279.347	280.5
279.579	279.5
279.81	278.5
280.042	278.5
280.273	281.5
280.505	274.5
280.736	260.5
280.968	274.5
281.199	276.5
281.431	273.5
281.662	292.5
281.894	278.5
282.125	279.5
282.356	299.5
282.588	311.5
282.819	326.5
283.051	278.5
283.282	281.5
283.513	273.5
283.745	288.5
283.976	293.5
284.207	294.5
284.439	282.5
284.67	289.5
284.901	268.5
285.132	292.5
285.364	273.5
285.595	278.5
285.826	276.5
286.057	284.5
286.288	281.5
286.52	292.5
286.751	268.5
286.982	276.5
287.213	292.5
287.444	283.5
287.675	300.5
287.906	295.5
288.138	313.5
288.369	285.5
288.6	303.5
288.831	287.5
289.062	290.5
289.293	280.5
289.524	281.5
289.755	281.5
289.986	304.5
290.217	280.5
290.448	288.5
290.679	281.5
290.91	269.5
291.141	287.5
291.371	275.5
291.602	266.5
291.833	271.5
292.064	292.5
292.295	293.5
292.526	283.5
292.757	277.5
292.987	296.5
293.218	285.5
293.449	280.5
293.68	297.5
293.91	282.5
294.141	277.5
294.372	268.5
294.603	289.5
294.833	291.5
295.064	276.5
295.295	304.5
295.525	283.5
295.756	295.5
295.987	296.5
296.217	338.5
296.448	326.5
296.679	295.5
296.909	295.5
297.14	304.5
297.37	282.5
297.601	286.5
297.831	297.5
298.062	297.5
298.292	293.5
298.523	304.5
298.753	301.5
298.984	295.5
299.214	301.5
299.445	278.5
299.675	322.5
299.905	299.5
300.136	312.5
300.366	285.5
300.597	296.5
300.827	299.5
301.057	324.5
301.288	314.5
301.518	302.5
301.748	297.5
301.979	313.5
302.209	314.5
302.439	340.5
302.669	309.5
302.9	321.5
303.13	316.5
303.36	320.5
303.59	331.5
303.82	320.5
304.051	323.5
304.281	320.5
304.511	314.5
304.741	315.5
304.971	290.5
305.201	337.5
305.431	320.5
305.661	333.5
305.891	311.5
306.121	314.5
306.352	332.5
306.582	328.5
306.812	339.5
307.042	312.5
307.272	326.5
307.502	336.5
307.731	330.5
307.961	342.5
308.191	330.5
308.421	309.5
308.651	321.5
308.881	336.5
309.111	338.5
309.341	341.5
309.571	350.5
309.8	374.5
310.03	374.5
310.26	399.5
310.49	363.5
310.72	366.5
310.949	396.5
311.179	414.5
311.409	389.5
311.639	373.5
311.868	372.5
312.098	372.5
312.328	399.5
312.557	428.5
312.787	416.5
313.017	413.5
313.246	404.5
313.476	388.5
313.706	385.5
313.935	384.5
314.165	411.5
314.394	399.5
314.624	408.5
314.853	417.5
315.083	378.5
315.312	388.5
315.542	370.5
315.771	367.5
316.001	372.5
316.23	367.5
316.46	381.5
316.689	356.5
316.919	375.5
317.148	392.5
317.377	387.5
317.607	378.5
317.836	390.5
318.065	380.5
318.295	370.5
318.524	370.5
318.753	382.5
318.983	385.5
319.212	378.5
319.441	381.5
319.67	390.5
319.9	404.5
320.129	381.5
320.358	377.5
320.587	400.5
320.816	407.5
321.046	397.5
321.275	414.5
321.504	404.5
321.733	407.5
321.962	422.5
322.191	429.5
322.42	445.5
322.649	469.5
322.878	481.5
323.108	490.5
323.337	523.5
323.566	543.5
323.795	582.5
324.024	641.5
324.253	781.5
324.482	1134.5
324.71	1696.5
324.939	2486.5
325.168	2167.5
325.397	1182.5
325.626	754.5
325.855	635.5
326.084	596.5
326.313	550.5
326.542	573.5
326.77	620.5
326.999	740.5
327.228	1029.5
327.457	1538.5
327.686	1907.5
327.914	1292.5
328.143	868.5
328.372	752.5
328.6	702.5
328.829	662.5
329.058	644.5
329.287	684.5
329.515	630.5
329.744	606.5
329.972	620.5
330.201	663.5
330.43	741.5
330.658	791.5
330.887	727.5
331.115	673.5
331.344	584.5
331.572	526.5
331.801	516.5
332.03	512.5
332.258	504.5
332.486	503.5
332.715	481.5
332.943	492.5
333.172	492.5
333.4	510.5
333.629	489.5
333.857	527.5
334.085	585.5
334.314	622.5
334.542	722.5
334.771	756.5
334.999	578.5
335.227	545.5
335.455	501.5
335.684	473.5
335.912	462.5
336.14	456.5
336.369	438.5
336.597	468.5
336.825	454.5
337.053	451.5
337.281	432.5
337.51	428.5
337.738	436.5
337.966	432.5
338.194	424.5
338.422	445.5
338.65	436.5
338.878	401.5
339.106	419.5
339.334	419.5
339.562	417.5
339.79	425.5
340.018	422.5
340.246	443.5
340.474	432.5
340.702	429.5
340.93	440.5
341.158	422.5
341.386	429.5
341.614	412.5
341.842	410.5
342.07	409.5
342.298	405.5
342.526	410.5
342.754	405.5
342.981	393.5
343.209	394.5
343.437	405.5
343.665	396.5
343.893	410.5
344.12	421.5
344.348	419.5
344.576	436.5
344.804	418.5
345.031	443.5
345.259	436.5
345.487	411.5
345.714	424.5
345.942	429.5
346.17	410.5
346.397	383.5
346.625	404.5
346.853	410.5
347.08	412.5
347.308	394.5
347.535	406.5
347.763	410.5
347.99	426.5
348.218	442.5
348.445	432.5
348.673	439.5
348.9	412.5
349.128	402.5
349.355	385.5
349.583	392.5
349.81	410.5
350.037	422.5
350.265	380.5
350.492	410.5
350.72	417.5
350.947	399.5
351.174	395.5
351.402	415.5
351.629	409.5
351.856	422.5
352.083	419.5
352.311	440.5
352.538	428.5
352.765	458.5
352.992	421.5
353.22	427.5
353.447	396.5
353.674	405.5
353.901	377.5
354.128	380.5
354.355	381.5
354.583	397.5
354.81	372.5
355.037	381.5
355.264	374.5
355.491	374.5
355.718	359.5
355.945	356.5
356.172	355.5
356.399	363.5
356.626	378.5
356.853	361.5
357.08	372.5
357.307	364.5
357.534	358.5
357.761	371.5
357.988	370.5
358.215	382.5
358.441	376.5
358.668	377.5
358.895	392.5
359.122	393.5
359.349	385.5
359.576	416.5
359.802	433.5
360.029	442.5
360.256	469.5
360.483	458.5
360.709	430.5
360.936	407.5
361.163	407.5
361.39	411.5
361.616	425.5
361.843	398.5
362.07	388.5
362.296	416.5
362.523	394.5
362.749	390.5
362.976	406.5
363.203	398.5
363.429	387.5
363.656	378.5
363.882	376.5
364.109	375.5
364.335	372.5
364.562	380.5
364.788	374.5
365.015	378.5
365.241	359.5
365.468	372.5
365.694	376.5
365.92	384.5
366.147	377.5
366.373	380.5
366.599	380.5
366.826	386.5
367.052	383.5
367.278	359.5
367.505	386.5
367.731	376.5
367.957	392.5
368.184	377.5
368.41	380.5
368.636	397.5
368.862	385.5
369.089	392.5
369.315	378.5
369.541	373.5
369.767	372.5
369.993	372.5
370.219	369.5
370.445	362.5
370.672	343.5
370.898	358.5
371.124	354.5
371.35	375.5
371.576	378.5
371.802	368.5
372.028	364.5
372.254	360.5
372.48	365.5
372.706	372.5
372.932	376.5
373.158	353.5
373.384	356.5
373.61	378.5
373.835	374.5
374.061	373.5
374.287	361.5
374.513	368.5
374.739	372.5
374.965	355.5
375.191	357.5
375.416	371.5
375.642	372.5
375.868	360.5
376.094	361.5
376.319	363.5
376.545	353.5
376.771	361.5
376.997	348.5
377.222	365.5
377.448	341.5
377.674	355.5
377.899	361.5
378.125	364.5
378.35	335.5
378.576	374.5
378.802	346.5
379.027	364.5
379.253	377.5
379.478	362.5
379.704	352.5
379.929	369.5
380.155	365.5
380.38	359.5
380.606	357.5
380.831	374.5
381.057	352.5
381.282	357.5
381.507	376.5
381.733	360.5
381.958	364.5
382.184	355.5
382.409	349.5
382.634	374.5
382.86	389.5
383.085	357.5
383.31	374.5
383.535	369.5
383.761	353.5
383.986	380.5
384.211	350.5
384.436	370.5
384.662	385.5
384.887	370.5
385.112	345.5
385.337	357.5
385.562	370.5
385.787	379.5
386.013	376.5
386.238	387.5
386.463	376.5
386.688	381.5
386.913	381.5
387.138	373.5
387.363	383.5
387.588	353.5
387.813	371.5
388.038	384.5
388.263	356.5
388.488	381.5
388.713	372.5
388.938	369.5
389.163	380.5
389.387	378.5
389.612	352.5
389.837	370.5
390.062	386.5
390.287	387.5
390.512	395.5
390.736	398.5
390.961	386.5
391.186	374.5
391.411	371.5
391.636	380.5
391.86	397.5
392.085	360.5
392.31	386.5
392.534	371.5
392.759	386.5
392.984	374.5
393.208	372.5
393.433	380.5
393.658	374.5
393.882	385.5
394.107	379.5
394.331	372.5
394.556	369.5
394.78	364.5
395.005	372.5
395.229	379.5
395.454	379.5
395.678	385.5
395.903	407.5
396.127	414.5
396.352	439.5
396.576	409.5
396.801	376.5
397.025	393.5
397.249	395.5
397.474	395.5
397.698	388.5
397.922	397.5
398.147	409.5
398.371	415.5
398.595	409.5
398.82	421.5
399.044	417.5
399.268	421.5
399.492	451.5
399.717	475.5
399.941	475.5
400.165	493.5
400.389	534.5
400.613	469.5
400.837	466.5
401.062	449.5
401.286	416.5
401.51	413.5
401.734	403.5
401.958	435.5
402.182	423.5
402.406	442.5
402.63	463.5
402.854	448.5
403.078	446.5
403.302	428.5
403.526	459.5
403.75	445.5
403.974	442.5
404.198	450.5
404.422	467.5
404.645	446.5
404.869	471.5
405.093	493.5
405.317	564.5
405.541	577.5
405.765	530.5
405.988	505.5
406.212	490.5
406.436	518.5
406.66	512.5
406.883	493.5
407.107	506.5
407.331	548.5
407.555	635.5
407.778	572.5
408.002	553.5
408.226	500.5
408.449	494.5
408.673	510.5
408.896	541.5
409.12	579.5
409.344	521.5
409.567	461.5
409.791	461.5
410.014	445.5
410.238	446.5
410.461	437.5
410.685	440.5
410.908	452.5
411.132	505.5
411.355	544.5
411.578	503.5
411.802	475.5
412.025	449.5
412.249	485.5
412.472	530.5
412.695	568.5
412.919	556.5
413.142	488.5
413.365	467.5
413.589	454.5
413.812	439.5
414.035	454.5
414.258	441.5
414.482	436.5
414.705	457.5
414.928	434.5
415.151	431.5
415.374	432.5
415.597	432.5
415.821	424.5
416.044	417.5
416.267	418.5
416.49	434.5
416.713	434.5
416.936	436.5
417.159	430.5
417.382	424.5
417.605	450.5
417.828	456.5
418.051	458.5
418.274	452.5
418.497	420.5
418.72	419.5
418.943	419.5
419.166	449.5
419.389	464.5
419.611	469.5
419.834	453.5
420.057	459.5
420.28	482.5
420.503	486.5
420.726	489.5
420.948	484.5
421.171	523.5
421.394	548.5
421.617	482.5
421.839	475.5
422.062	471.5
422.285	462.5
422.507	532.5
422.73	603.5
422.953	592.5
423.175	486.5
423.398	485.5
423.621	456.5
423.843	504.5
424.066	490.5
424.288	486.5
424.511	508.5
424.733	561.5
424.956	626.5
425.178	620.5
425.401	610.5
425.623	642.5
425.846	564.5
426.068	528.5
426.291	520.5
426.513	485.5
426.735	515.5
426.958	548.5
427.18	642.5
427.402	780.5
427.625	836.5
427.847	786.5
428.069	696.5
428.292	630.5
428.514	562.5
428.736	496.5
428.958	494.5
429.181	474.5
429.403	466.5
429.625	479.5
429.847	519.5
430.069	579.5
430.292	555.5
430.514	476.5
430.736	455.5
430.958	466.5
431.18	440.5
431.402	436.5
431.624	453.5
431.846	434.5
432.068	419.5
432.29	432.5
432.512	410.5
432.734	445.5
432.956	426.5
433.178	439.5
433.4	452.5
433.622	448.5
433.844	434.5
434.066	413.5
434.287	425.5
434.509	426.5
434.731	456.5
434.953	441.5
435.175	459.5
435.397	484.5
435.618	496.5
435.84	534.5
436.062	636.5
436.284	686.5
436.505	588.5
436.727	512.5
436.949	501.5
437.17	490.5
437.392	478.5
437.614	481.5
437.835	527.5
438.057	614.5
438.278	713.5
438.5	713.5
438.721	781.5
438.943	737.5
439.165	577.5
439.386	555.5
439.608	566.5
439.829	531.5
440.05	546.5
440.272	580.5
440.493	586.5
440.715	532.5
440.936	500.5
441.158	482.5
441.379	477.5
441.6	474.5
441.822	529.5
442.043	568.5
442.264	612.5
442.486	682.5
442.707	572.5
442.928	512.5
443.149	543.5
443.371	552.5
443.592	606.5
443.813	674.5
444.034	700.5
444.255	594.5
444.476	548.5
444.698	490.5
444.919	512.5
445.14	560.5
445.361	541.5
445.582	546.5
445.803	625.5
446.024	713.5
446.245	735.5
446.466	666.5
446.687	562.5
446.908	532.5
447.129	497.5
447.35	478.5
447.571	473.5
447.792	457.5
448.013	491.5
448.234	500.5
448.455	568.5
448.675	648.5
448.896	754.5
449.117	648.5
449.338	624.5
449.559	701.5
449.779	774.5
450	652.5
450.221	543.5
450.442	460.5
450.662	462.5
450.883	488.5
451.104	511.5
451.324	493.5
451.545	455.5
451.766	440.5
451.986	438.5
452.207	431.5
452.428	417.5
452.648	422.5
452.869	412.5
453.089	432.5
453.31	457.5
453.53	435.5
453.751	420.5
453.971	434.5
454.192	461.5
454.412	452.5
454.633	441.5
454.853	424.5
455.073	425.5
455.294	468.5
455.514	519.5
455.734	505.5
455.955	432.5
456.175	393.5
456.395	392.5
456.616	400.5
456.836	398.5
457.056	376.5
457.276	379.5
457.497	378.5
457.717	402.5
457.937	383.5
458.157	394.5
458.377	417.5
458.598	426.5
458.818	482.5
459.038	570.5
459.258	617.5
459.478	518.5
459.698	443.5
459.918	445.5
460.138	419.5
460.358	422.5
460.578	417.5
460.798	412.5
461.018	401.5
461.238	410.5
461.458	419.5
461.678	401.5
461.898	436.5
462.118	423.5
462.338	420.5
462.558	418.5
462.777	434.5
462.997	419.5
463.217	442.5
463.437	432.5
463.657	434.5
463.876	437.5
464.096	437.5
464.316	450.5
464.536	469.5
464.755	452.5
464.975	458.5
465.195	514.5
465.414	611.5
465.634	522.5
465.854	476.5
466.073	453.5
466.293	426.5
466.512	412.5
466.732	406.5
466.951	429.5
467.171	419.5
467.391	413.5
467.61	442.5
467.829	446.5
468.049	436.5
468.268	466.5
468.488	448.5
468.707	431.5
468.927	420.5
469.146	402.5
469.365	417.5
469.585	429.5
469.804	413.5
470.023	421.5
470.243	424.5
470.462	458.5
470.681	444.5
470.901	446.5
471.12	433.5
471.339	426.5
471.558	434.5
471.777	461.5
471.997	433.5
472.216	497.5
472.435	590.5
472.654	533.5
472.873	485.5
473.092	427.5
473.311	449.5
473.53	470.5
473.749	477.5
473.968	489.5
474.187	598.5
474.406	636.5
474.625	520.5
474.844	456.5
475.063	422.5
475.282	440.5
475.501	440.5
475.72	434.5
475.939	439.5
476.158	449.5
476.377	452.5
476.596	442.5
476.814	453.5
477.033	461.5
477.252	460.5
477.471	454.5
477.69	459.5
477.908	445.5
478.127	456.5
478.346	458.5
478.564	461.5
478.783	486.5
479.002	488.5
479.22	477.5
479.439	487.5
479.658	524.5
479.876	521.5
480.095	527.5
480.313	563.5
480.532	557.5
480.751	538.5
480.969	567.5
481.188	744.5
481.406	893.5
481.624	690.5
481.843	608.5
482.061	568.5
482.28	565.5
482.498	540.5
482.717	549.5
482.935	516.5
483.153	509.5
483.372	521.5
483.59	512.5
483.808	534.5
484.027	532.5
484.245	529.5
484.463	531.5
484.681	525.5
484.9	506.5
485.118	542.5
485.336	544.5
485.554	529.5
485.772	544.5
485.99	531.5
486.209	549.5
486.427	547.5
486.645	573.5
486.863	561.5
487.081	569.5
487.299	586.5
487.517	596.5
487.735	556.5
487.953	578.5
488.171	589.5
488.389	566.5
488.607	572.5
488.825	558.5
489.043	554.5
489.261	557.5
489.479	572.5
489.696	568.5
489.914	558.5
490.132	588.5
490.35	602.5
490.568	602.5
490.786	617.5
491.003	627.5
491.221	638.5
491.439	644.5
491.657	643.5
491.874	658.5
492.092	676.5
492.31	680.5
492.527	672.5
492.745	683.5
492.963	694.5
493.18	673.5
493.398	705.5
493.615	700.5
493.833	686.5
494.05	693.5
494.268	696.5
494.485	696.5
494.703	685.5
494.92	677.5
495.138	690.5
495.355	700.5
495.573	694.5
495.79	689.5
496.008	692.5
496.225	677.5
496.442	699.5
496.66	686.5
496.877	679.5
497.094	664.5
497.312	692.5
497.529	707.5
497.746	678.5
497.963	693.5
498.181	723.5
498.398	726.5
498.615	706.5
498.832	730.5
499.049	727.5
499.267	736.5
499.484	717.5
499.701	724.5
499.918	736.5
500.135	776.5
500.352	772.5
500.569	806.5
500.786	825.5
501.003	788.5
501.22	786.5
501.437	786.5
501.654	810.5
501.871	783.5
502.088	788.5
502.305	757.5
502.522	738.5
502.739	718.5
502.956	701.5
503.172	681.5
503.389	668.5
503.606	694.5
503.823	721.5
504.04	673.5
504.256	663.5
504.473	649.5
504.69	667.5
504.907	666.5
505.123	639.5
505.34	635.5
505.557	626.5
505.773	626.5
505.99	657.5
506.207	653.5
506.423	644.5
506.64	644.5
506.856	633.5
507.073	626.5
507.289	633.5
507.506	641.5
507.722	652.5
507.939	696.5
508.155	637.5
508.372	621.5
508.588	611.5
508.805	617.5
509.021	618.5
509.238	643.5
509.454	644.5
509.67	637.5
509.887	632.5
510.103	635.5
510.319	662.5
510.536	760.5
510.752	1274.5
510.968	1065.5
511.184	688.5
511.401	634.5
511.617	639.5
511.833	627.5
512.049	610.5
512.265	630.5
512.481	610.5
512.698	613.5
512.914	604.5
513.13	590.5
513.346	597.5
513.562	589.5
513.778	610.5
513.994	610.5
514.21	610.5
514.426	647.5
514.642	696.5
514.858	735.5
515.074	782.5
515.29	927.5
515.506	1438.5
515.721	1153.5
515.937	772.5
516.153	680.5
516.369	644.5
516.585	639.5
516.801	616.5
517.016	621.5
517.232	606.5
517.448	589.5
517.664	609.5
517.879	578.5
518.095	610.5
518.311	561.5
518.527	597.5
518.742	594.5
518.958	596.5
519.173	593.5
519.389	586.5
519.605	599.5
519.82	601.5
