Data from 1986.PennyLincolnUp.Lamp.En5.5.200Scan.071819.P2_HRD10591_17-09-45-974.txt Node
Date: Thu Jul 18 17:09:45 EDT 2019
User: cochatt
Spectrometer: HR+D1059
Trigger mode: 1
Integration Time (sec): 1.000000E-1
Scans to average: 1
Electric dark correction enabled: true
Nonlinearity correction enabled: false
Boxcar width: 0
XAxis mode: Wavelengths
Number of Pixels in Spectrum: 2048
>>>>>Begin Spectral Data<<<<<
223.165	-12.5
223.4	-12.5
223.635	-12.5
223.869	-8.5
224.104	-1.5
224.338	-14.5
224.573	-10.5
224.808	-17.5
225.042	-20.5
225.277	-9.5
225.511	-3.5
225.746	3.5
225.98	2.5
226.215	14.5
226.449	4.5
226.683	18.5
226.918	25.5
227.152	29.5
227.387	23.5
227.621	20.5
227.856	37.5
228.09	48.5
228.324	48.5
228.559	44.5
228.793	60.5
229.027	90.5
229.262	100.5
229.496	92.5
229.73	113.5
229.964	144.5
230.199	123.5
230.433	102.5
230.667	118.5
230.901	103.5
231.136	95.5
231.37	98.5
231.604	88.5
231.838	101.5
232.072	92.5
232.306	99.5
232.541	99.5
232.775	104.5
233.009	113.5
233.243	108.5
233.477	100.5
233.711	94.5
233.945	123.5
234.179	110.5
234.413	115.5
234.647	101.5
234.881	101.5
235.115	95.5
235.349	111.5
235.583	108.5
235.817	109.5
236.051	102.5
236.285	111.5
236.519	104.5
236.753	122.5
236.987	112.5
237.221	155.5
237.455	225.5
237.689	163.5
237.922	113.5
238.156	116.5
238.39	120.5
238.624	120.5
238.858	109.5
239.091	114.5
239.325	101.5
239.559	120.5
239.793	107.5
240.027	112.5
240.26	118.5
240.494	151.5
240.728	131.5
240.961	122.5
241.195	126.5
241.429	129.5
241.662	114.5
241.896	111.5
242.13	129.5
242.363	119.5
242.597	121.5
242.83	127.5
243.064	129.5
243.298	126.5
243.531	120.5
243.765	115.5
243.998	122.5
244.232	132.5
244.465	136.5
244.699	116.5
244.932	129.5
245.166	125.5
245.399	127.5
245.633	123.5
245.866	117.5
246.099	123.5
246.333	119.5
246.566	139.5
246.8	142.5
247.033	122.5
247.266	146.5
247.5	153.5
247.733	150.5
247.966	154.5
248.2	143.5
248.433	144.5
248.666	157.5
248.899	171.5
249.133	191.5
249.366	181.5
249.599	172.5
249.832	166.5
250.066	162.5
250.299	167.5
250.532	168.5
250.765	165.5
250.998	192.5
251.231	198.5
251.465	196.5
251.698	183.5
251.931	184.5
252.164	172.5
252.397	178.5
252.63	171.5
252.863	186.5
253.096	194.5
253.329	192.5
253.562	196.5
253.795	185.5
254.028	198.5
254.261	187.5
254.494	206.5
254.727	222.5
254.96	244.5
255.193	234.5
255.426	215.5
255.659	199.5
255.892	206.5
256.124	196.5
256.357	198.5
256.59	178.5
256.823	185.5
257.056	193.5
257.289	180.5
257.521	190.5
257.754	182.5
257.987	193.5
258.22	186.5
258.452	190.5
258.685	177.5
258.918	186.5
259.151	211.5
259.383	180.5
259.616	181.5
259.849	203.5
260.081	211.5
260.314	219.5
260.547	215.5
260.779	223.5
261.012	224.5
261.244	210.5
261.477	208.5
261.71	196.5
261.942	201.5
262.175	205.5
262.407	189.5
262.64	192.5
262.872	198.5
263.105	184.5
263.337	190.5
263.57	185.5
263.802	185.5
264.035	171.5
264.267	188.5
264.499	161.5
264.732	183.5
264.964	190.5
265.197	190.5
265.429	176.5
265.661	187.5
265.894	182.5
266.126	191.5
266.358	197.5
266.591	182.5
266.823	183.5
267.055	184.5
267.287	193.5
267.52	208.5
267.752	193.5
267.984	196.5
268.216	199.5
268.448	194.5
268.681	187.5
268.913	185.5
269.145	220.5
269.377	246.5
269.609	234.5
269.841	224.5
270.073	255.5
270.306	253.5
270.538	278.5
270.77	279.5
271.002	252.5
271.234	241.5
271.466	259.5
271.698	255.5
271.93	280.5
272.162	279.5
272.394	283.5
272.626	244.5
272.858	259.5
273.09	269.5
273.322	229.5
273.553	240.5
273.785	218.5
274.017	234.5
274.249	217.5
274.481	219.5
274.713	248.5
274.945	234.5
275.176	240.5
275.408	239.5
275.64	223.5
275.872	231.5
276.104	231.5
276.335	210.5
276.567	229.5
276.799	239.5
277.031	256.5
277.262	268.5
277.494	249.5
277.726	262.5
277.957	255.5
278.189	243.5
278.421	233.5
278.652	227.5
278.884	238.5
279.115	234.5
279.347	229.5
279.579	219.5
279.81	239.5
280.042	212.5
280.273	218.5
280.505	226.5
280.736	226.5
280.968	223.5
281.199	234.5
281.431	203.5
281.662	225.5
281.894	210.5
282.125	211.5
282.356	234.5
282.588	249.5
282.819	260.5
283.051	261.5
283.282	205.5
283.513	213.5
283.745	211.5
283.976	225.5
284.207	225.5
284.439	233.5
284.67	233.5
284.901	245.5
285.132	240.5
285.364	232.5
285.595	227.5
285.826	231.5
286.057	228.5
286.288	217.5
286.52	229.5
286.751	228.5
286.982	227.5
287.213	224.5
287.444	244.5
287.675	237.5
287.906	236.5
288.138	246.5
288.369	252.5
288.6	265.5
288.831	242.5
289.062	219.5
289.293	242.5
289.524	228.5
289.755	225.5
289.986	227.5
290.217	219.5
290.448	224.5
290.679	224.5
290.91	231.5
291.141	209.5
291.371	236.5
291.602	232.5
291.833	232.5
292.064	232.5
292.295	234.5
292.526	240.5
292.757	233.5
292.987	241.5
293.218	236.5
293.449	238.5
293.68	225.5
293.91	216.5
294.141	238.5
294.372	234.5
294.603	220.5
294.833	240.5
295.064	245.5
295.295	240.5
295.525	243.5
295.756	252.5
295.987	251.5
296.217	258.5
296.448	264.5
296.679	245.5
296.909	226.5
297.14	228.5
297.37	226.5
297.601	218.5
297.831	235.5
298.062	256.5
298.292	251.5
298.523	239.5
298.753	245.5
298.984	231.5
299.214	256.5
299.445	250.5
299.675	233.5
299.905	247.5
300.136	252.5
300.366	228.5
300.597	244.5
300.827	272.5
301.057	268.5
301.288	263.5
301.518	243.5
301.748	259.5
301.979	248.5
302.209	262.5
302.439	255.5
302.669	274.5
302.9	256.5
303.13	250.5
303.36	248.5
303.59	266.5
303.82	269.5
304.051	260.5
304.281	261.5
304.511	252.5
304.741	258.5
304.971	267.5
305.201	267.5
305.431	239.5
305.661	258.5
305.891	256.5
306.121	250.5
306.352	261.5
306.582	267.5
306.812	275.5
307.042	278.5
307.272	275.5
307.502	262.5
307.731	266.5
307.961	264.5
308.191	271.5
308.421	266.5
308.651	274.5
308.881	269.5
309.111	265.5
309.341	278.5
309.571	268.5
309.8	278.5
310.03	306.5
310.26	307.5
310.49	296.5
310.72	290.5
310.949	297.5
311.179	319.5
311.409	299.5
311.639	315.5
311.868	296.5
312.098	299.5
312.328	318.5
312.557	327.5
312.787	354.5
313.017	332.5
313.246	297.5
313.476	310.5
313.706	323.5
313.935	286.5
314.165	312.5
314.394	323.5
314.624	324.5
314.853	324.5
315.083	318.5
315.312	303.5
315.542	314.5
315.771	307.5
316.001	306.5
316.23	297.5
316.46	285.5
316.689	288.5
316.919	307.5
317.148	302.5
317.377	308.5
317.607	303.5
317.836	305.5
318.065	296.5
318.295	293.5
318.524	309.5
318.753	308.5
318.983	288.5
319.212	315.5
319.441	290.5
319.67	316.5
319.9	305.5
320.129	284.5
320.358	314.5
320.587	288.5
320.816	316.5
321.046	320.5
321.275	331.5
321.504	323.5
321.733	329.5
321.962	341.5
322.191	346.5
322.42	346.5
322.649	343.5
322.878	396.5
323.108	395.5
323.337	401.5
323.566	410.5
323.795	439.5
324.024	490.5
324.253	564.5
324.482	785.5
324.71	1238.5
324.939	1768.5
325.168	1511.5
325.397	815.5
325.626	544.5
325.855	466.5
326.084	400.5
326.313	393.5
326.542	412.5
326.77	435.5
326.999	538.5
327.228	700.5
327.457	1069.5
327.686	1280.5
327.914	905.5
328.143	595.5
328.372	503.5
328.6	473.5
328.829	443.5
329.058	459.5
329.287	468.5
329.515	443.5
329.744	400.5
329.972	396.5
330.201	394.5
330.43	414.5
330.658	450.5
330.887	480.5
331.115	456.5
331.344	397.5
331.572	379.5
331.801	401.5
332.03	381.5
332.258	376.5
332.486	357.5
332.715	341.5
332.943	356.5
333.172	339.5
333.4	331.5
333.629	339.5
333.857	355.5
334.085	355.5
334.314	336.5
334.542	352.5
334.771	355.5
334.999	342.5
335.227	351.5
335.455	342.5
335.684	348.5
335.912	345.5
336.14	335.5
336.369	343.5
336.597	344.5
336.825	355.5
337.053	328.5
337.281	342.5
337.51	347.5
337.738	331.5
337.966	350.5
338.194	342.5
338.422	351.5
338.65	345.5
338.878	332.5
339.106	330.5
339.334	336.5
339.562	332.5
339.79	331.5
340.018	346.5
340.246	336.5
340.474	326.5
340.702	339.5
340.93	326.5
341.158	328.5
341.386	324.5
341.614	338.5
341.842	352.5
342.07	347.5
342.298	344.5
342.526	320.5
342.754	332.5
342.981	308.5
343.209	320.5
343.437	320.5
343.665	338.5
343.893	331.5
344.12	312.5
344.348	337.5
344.576	340.5
344.804	337.5
345.031	348.5
345.259	349.5
345.487	364.5
345.714	336.5
345.942	327.5
346.17	313.5
346.397	326.5
346.625	330.5
346.853	329.5
347.08	321.5
347.308	325.5
347.535	345.5
347.763	339.5
347.99	335.5
348.218	347.5
348.445	343.5
348.673	380.5
348.9	326.5
349.128	324.5
349.355	328.5
349.583	322.5
349.81	331.5
350.037	323.5
350.265	334.5
350.492	314.5
350.72	324.5
350.947	334.5
351.174	319.5
351.402	321.5
351.629	320.5
351.856	338.5
352.083	340.5
352.311	335.5
352.538	338.5
352.765	357.5
352.992	334.5
353.22	336.5
353.447	353.5
353.674	329.5
353.901	299.5
354.128	312.5
354.355	320.5
354.583	308.5
354.81	292.5
355.037	307.5
355.264	307.5
355.491	292.5
355.718	289.5
355.945	300.5
356.172	292.5
356.399	311.5
356.626	310.5
356.853	306.5
357.08	305.5
357.307	306.5
357.534	293.5
357.761	310.5
357.988	318.5
358.215	316.5
358.441	297.5
358.668	315.5
358.895	303.5
359.122	317.5
359.349	326.5
359.576	338.5
359.802	356.5
360.029	361.5
360.256	376.5
360.483	378.5
360.709	341.5
360.936	326.5
361.163	321.5
361.39	337.5
361.616	326.5
361.843	329.5
362.07	318.5
362.296	332.5
362.523	330.5
362.749	332.5
362.976	344.5
363.203	323.5
363.429	326.5
363.656	315.5
363.882	298.5
364.109	315.5
364.335	326.5
364.562	311.5
364.788	307.5
365.015	313.5
365.241	299.5
365.468	350.5
365.694	326.5
365.92	331.5
366.147	315.5
366.373	301.5
366.599	314.5
366.826	295.5
367.052	288.5
367.278	327.5
367.505	312.5
367.731	320.5
367.957	296.5
368.184	299.5
368.41	311.5
368.636	326.5
368.862	335.5
369.089	342.5
369.315	303.5
369.541	330.5
369.767	304.5
369.993	310.5
370.219	315.5
370.445	316.5
370.672	309.5
370.898	324.5
371.124	335.5
371.35	314.5
371.576	306.5
371.802	308.5
372.028	299.5
372.254	303.5
372.48	322.5
372.706	308.5
372.932	303.5
373.158	316.5
373.384	319.5
373.61	310.5
373.835	316.5
374.061	310.5
374.287	315.5
374.513	313.5
374.739	309.5
374.965	304.5
375.191	285.5
375.416	310.5
375.642	298.5
375.868	303.5
376.094	308.5
376.319	319.5
376.545	310.5
376.771	307.5
376.997	307.5
377.222	303.5
377.448	314.5
377.674	318.5
377.899	296.5
378.125	301.5
378.35	319.5
378.576	291.5
378.802	297.5
379.027	296.5
379.253	321.5
379.478	289.5
379.704	291.5
379.929	299.5
380.155	315.5
380.38	315.5
380.606	303.5
380.831	293.5
381.057	312.5
381.282	310.5
381.507	307.5
381.733	313.5
381.958	323.5
382.184	296.5
382.409	302.5
382.634	283.5
382.86	306.5
383.085	325.5
383.31	324.5
383.535	317.5
383.761	318.5
383.986	326.5
384.211	294.5
384.436	315.5
384.662	318.5
384.887	339.5
385.112	337.5
385.337	328.5
385.562	326.5
385.787	335.5
386.013	345.5
386.238	332.5
386.463	328.5
386.688	319.5
386.913	330.5
387.138	338.5
387.363	311.5
387.588	322.5
387.813	325.5
388.038	319.5
388.263	330.5
388.488	320.5
388.713	331.5
388.938	333.5
389.163	344.5
389.387	345.5
389.612	305.5
389.837	314.5
390.062	328.5
390.287	311.5
390.512	319.5
390.736	314.5
390.961	313.5
391.186	310.5
391.411	338.5
391.636	320.5
391.86	362.5
392.085	346.5
392.31	316.5
392.534	330.5
392.759	341.5
392.984	332.5
393.208	332.5
393.433	338.5
393.658	315.5
393.882	335.5
394.107	314.5
394.331	324.5
394.556	314.5
394.78	331.5
395.005	330.5
395.229	324.5
395.454	332.5
395.678	332.5
395.903	320.5
396.127	368.5
396.352	368.5
396.576	329.5
396.801	337.5
397.025	347.5
397.249	326.5
397.474	344.5
397.698	337.5
397.922	331.5
398.147	361.5
398.371	389.5
398.595	366.5
398.82	372.5
399.044	353.5
399.268	346.5
399.492	378.5
399.717	385.5
399.941	409.5
400.165	429.5
400.389	451.5
400.613	420.5
400.837	382.5
401.062	375.5
401.286	363.5
401.51	365.5
401.734	378.5
401.958	355.5
402.182	382.5
402.406	368.5
402.63	380.5
402.854	355.5
403.078	379.5
403.302	373.5
403.526	393.5
403.75	386.5
403.974	374.5
404.198	370.5
404.422	372.5
404.645	380.5
404.869	370.5
405.093	392.5
405.317	400.5
405.541	418.5
405.765	401.5
405.988	393.5
406.212	407.5
406.436	414.5
406.66	436.5
406.883	420.5
407.107	422.5
407.331	450.5
407.555	508.5
407.778	511.5
408.002	454.5
408.226	419.5
408.449	416.5
408.673	410.5
408.896	440.5
409.12	446.5
409.344	486.5
409.567	420.5
409.791	419.5
410.014	386.5
410.238	393.5
410.461	395.5
410.685	386.5
410.908	410.5
411.132	438.5
411.355	457.5
411.578	439.5
411.802	392.5
412.025	379.5
412.249	367.5
412.472	380.5
412.695	363.5
412.919	362.5
413.142	366.5
413.365	370.5
413.589	358.5
413.812	357.5
414.035	378.5
414.258	343.5
414.482	342.5
414.705	359.5
414.928	331.5
415.151	366.5
415.374	361.5
415.597	361.5
415.821	357.5
416.044	353.5
416.267	363.5
416.49	348.5
416.713	358.5
416.936	356.5
417.159	357.5
417.382	339.5
417.605	344.5
417.828	383.5
418.051	388.5
418.274	372.5
418.497	336.5
418.72	363.5
418.943	370.5
419.166	386.5
419.389	387.5
419.611	370.5
419.834	364.5
420.057	372.5
420.28	366.5
420.503	358.5
420.726	369.5
420.948	394.5
421.171	421.5
421.394	439.5
421.617	400.5
421.839	388.5
422.062	387.5
422.285	386.5
422.507	440.5
422.73	470.5
422.953	488.5
423.175	431.5
423.398	392.5
423.621	399.5
423.843	384.5
424.066	417.5
424.288	422.5
424.511	436.5
424.733	468.5
424.956	531.5
425.178	527.5
425.401	511.5
425.623	555.5
425.846	457.5
426.068	433.5
426.291	427.5
426.513	422.5
426.735	417.5
426.958	463.5
427.18	540.5
427.402	630.5
427.625	692.5
427.847	607.5
428.069	495.5
428.292	448.5
428.514	436.5
428.736	400.5
428.958	394.5
429.181	380.5
429.403	376.5
429.625	393.5
429.847	408.5
430.069	468.5
430.292	487.5
430.514	398.5
430.736	383.5
430.958	388.5
431.18	371.5
431.402	387.5
431.624	353.5
431.846	362.5
432.068	370.5
432.29	364.5
432.512	363.5
432.734	363.5
432.956	359.5
433.178	366.5
433.4	376.5
433.622	372.5
433.844	380.5
434.066	343.5
434.287	343.5
434.509	345.5
434.731	380.5
434.953	382.5
435.175	407.5
435.397	423.5
435.618	425.5
435.84	470.5
436.062	548.5
436.284	602.5
436.505	522.5
436.727	423.5
436.949	405.5
437.17	401.5
437.392	405.5
437.614	399.5
437.835	444.5
438.057	510.5
438.278	598.5
438.5	570.5
438.721	653.5
438.943	620.5
439.165	481.5
439.386	439.5
439.608	436.5
439.829	457.5
440.05	458.5
440.272	485.5
440.493	464.5
440.715	420.5
440.936	396.5
441.158	385.5
441.379	378.5
441.6	389.5
441.822	415.5
442.043	450.5
442.264	516.5
442.486	545.5
442.707	452.5
442.928	430.5
443.149	437.5
443.371	465.5
443.592	492.5
443.813	566.5
444.034	585.5
444.255	524.5
444.476	453.5
444.698	430.5
444.919	431.5
445.14	547.5
445.361	495.5
445.582	457.5
445.803	521.5
446.024	577.5
446.245	595.5
446.466	553.5
446.687	464.5
446.908	421.5
447.129	415.5
447.35	424.5
447.571	404.5
447.792	356.5
448.013	410.5
448.234	406.5
448.455	445.5
448.675	532.5
448.896	654.5
449.117	530.5
449.338	513.5
449.559	574.5
449.779	642.5
450	550.5
450.221	456.5
450.442	423.5
450.662	393.5
450.883	384.5
451.104	405.5
451.324	400.5
451.545	379.5
451.766	337.5
451.986	355.5
452.207	360.5
452.428	363.5
452.648	350.5
452.869	372.5
453.089	367.5
453.31	367.5
453.53	374.5
453.751	343.5
453.971	359.5
454.192	378.5
454.412	370.5
454.633	340.5
454.853	350.5
455.073	356.5
455.294	361.5
455.514	424.5
455.734	417.5
455.955	346.5
456.175	332.5
456.395	341.5
456.616	307.5
456.836	334.5
457.056	320.5
457.276	335.5
457.497	323.5
457.717	338.5
457.937	334.5
458.157	337.5
458.377	341.5
458.598	369.5
458.818	402.5
459.038	464.5
459.258	479.5
459.478	395.5
459.698	372.5
459.918	351.5
460.138	364.5
460.358	352.5
460.578	377.5
460.798	358.5
461.018	347.5
461.238	360.5
461.458	353.5
461.678	354.5
461.898	352.5
462.118	352.5
462.338	358.5
462.558	373.5
462.777	390.5
462.997	367.5
463.217	371.5
463.437	397.5
463.657	374.5
463.876	375.5
464.096	373.5
464.316	360.5
464.536	370.5
464.755	394.5
464.975	409.5
465.195	414.5
465.414	492.5
465.634	442.5
465.854	375.5
466.073	383.5
466.293	366.5
466.512	356.5
466.732	361.5
466.951	347.5
467.171	344.5
467.391	357.5
467.61	352.5
467.829	363.5
468.049	376.5
468.268	348.5
468.488	346.5
468.707	366.5
468.927	347.5
469.146	338.5
469.365	346.5
469.585	339.5
469.804	327.5
470.023	370.5
470.243	359.5
470.462	370.5
470.681	353.5
470.901	386.5
471.12	362.5
471.339	362.5
471.558	359.5
471.777	343.5
471.997	343.5
472.216	358.5
472.435	358.5
472.654	351.5
472.873	362.5
473.092	353.5
473.311	367.5
473.53	346.5
473.749	358.5
473.968	406.5
474.187	472.5
474.406	516.5
474.625	421.5
474.844	377.5
475.063	363.5
475.282	368.5
475.501	352.5
475.72	362.5
475.939	363.5
476.158	391.5
476.377	379.5
476.596	360.5
476.814	378.5
477.033	366.5
477.252	392.5
477.471	378.5
477.69	388.5
477.908	385.5
478.127	374.5
478.346	382.5
478.564	402.5
478.783	400.5
479.002	414.5
479.22	400.5
479.439	425.5
479.658	411.5
479.876	435.5
480.095	414.5
480.313	454.5
480.532	424.5
480.751	437.5
480.969	422.5
481.188	459.5
481.406	447.5
481.624	440.5
481.843	414.5
482.061	398.5
482.28	423.5
482.498	425.5
482.717	428.5
482.935	395.5
483.153	416.5
483.372	422.5
483.59	416.5
483.808	408.5
484.027	422.5
484.245	423.5
484.463	435.5
484.681	445.5
484.9	413.5
485.118	443.5
485.336	424.5
485.554	446.5
485.772	444.5
485.99	438.5
486.209	425.5
486.427	435.5
486.645	459.5
486.863	483.5
487.081	451.5
487.299	454.5
487.517	468.5
487.735	444.5
487.953	444.5
488.171	441.5
488.389	481.5
488.607	464.5
488.825	458.5
489.043	435.5
489.261	460.5
489.479	447.5
489.696	456.5
489.914	485.5
490.132	485.5
490.35	470.5
490.568	483.5
490.786	494.5
491.003	496.5
491.221	499.5
491.439	496.5
491.657	491.5
491.874	502.5
492.092	528.5
492.31	528.5
492.527	525.5
492.745	531.5
492.963	532.5
493.18	528.5
493.398	535.5
493.615	540.5
493.833	533.5
494.05	518.5
494.268	539.5
494.485	536.5
494.703	535.5
494.92	523.5
495.138	546.5
495.355	535.5
495.573	535.5
495.79	530.5
496.008	546.5
496.225	526.5
496.442	538.5
496.66	549.5
496.877	537.5
497.094	550.5
497.312	538.5
497.529	554.5
497.746	550.5
497.963	560.5
498.181	593.5
498.398	580.5
498.615	578.5
498.832	605.5
499.049	609.5
499.267	598.5
499.484	608.5
499.701	639.5
499.918	642.5
500.135	646.5
500.352	657.5
500.569	687.5
500.786	681.5
501.003	672.5
501.22	679.5
501.437	656.5
501.654	651.5
501.871	670.5
502.088	640.5
502.305	607.5
502.522	593.5
502.739	589.5
502.956	575.5
503.172	583.5
503.389	554.5
503.606	561.5
503.823	562.5
504.04	560.5
504.256	536.5
504.473	565.5
504.69	549.5
504.907	562.5
505.123	582.5
505.34	520.5
505.557	519.5
505.773	542.5
505.99	521.5
506.207	517.5
506.423	517.5
506.64	523.5
506.856	517.5
507.073	528.5
507.289	528.5
507.506	533.5
507.722	544.5
507.939	562.5
508.155	526.5
508.372	492.5
508.588	483.5
508.805	500.5
509.021	515.5
509.238	519.5
509.454	523.5
509.67	511.5
509.887	494.5
510.103	507.5
510.319	520.5
510.536	602.5
510.752	1014.5
510.968	809.5
511.184	511.5
511.401	516.5
511.617	492.5
511.833	484.5
512.049	466.5
512.265	473.5
512.481	494.5
512.698	455.5
512.914	482.5
513.13	491.5
513.346	462.5
513.562	459.5
513.778	460.5
513.994	511.5
514.21	514.5
514.426	504.5
514.642	542.5
514.858	572.5
515.074	598.5
515.29	748.5
515.506	1101.5
515.721	899.5
515.937	617.5
516.153	536.5
516.369	512.5
516.585	504.5
516.801	498.5
517.016	486.5
517.232	487.5
517.448	486.5
517.664	485.5
517.879	471.5
518.095	490.5
518.311	484.5
518.527	489.5
518.742	500.5
518.958	473.5
519.173	467.5
519.389	455.5
519.605	494.5
519.82	482.5
520.036	492.5
