Data from 1986.PennyLincolnUp.Lamp.En5.5.200Scan.071819.P2_HRD10591_17-11-58-972.txt Node
Date: Thu Jul 18 17:11:58 EDT 2019
User: cochatt
Spectrometer: HR+D1059
Trigger mode: 1
Integration Time (sec): 1.000000E-1
Scans to average: 1
Electric dark correction enabled: true
Nonlinearity correction enabled: false
Boxcar width: 0
XAxis mode: Wavelengths
Number of Pixels in Spectrum: 2048
>>>>>Begin Spectral Data<<<<<
223.165	-7.5
223.4	-7.5
223.635	-7.5
223.869	-13.5
224.104	-13.5
224.338	-21.5
224.573	-26.5
224.808	-19.5
225.042	-3.5
225.277	-11.5
225.511	2.5
225.746	-2.5
225.98	3.5
226.215	21.5
226.449	12.5
226.683	22.5
226.918	24.5
227.152	32.5
227.387	42.5
227.621	34.5
227.856	46.5
228.09	51.5
228.324	59.5
228.559	57.5
228.793	67.5
229.027	94.5
229.262	120.5
229.496	115.5
229.73	131.5
229.964	172.5
230.199	139.5
230.433	119.5
230.667	125.5
230.901	104.5
231.136	115.5
231.37	99.5
231.604	110.5
231.838	120.5
232.072	116.5
232.306	123.5
232.541	97.5
232.775	134.5
233.009	140.5
233.243	118.5
233.477	117.5
233.711	110.5
233.945	118.5
234.179	127.5
234.413	117.5
234.647	119.5
234.881	111.5
235.115	113.5
235.349	133.5
235.583	132.5
235.817	124.5
236.051	126.5
236.285	124.5
236.519	132.5
236.753	139.5
236.987	159.5
237.221	201.5
237.455	258.5
237.689	198.5
237.922	155.5
238.156	139.5
238.39	140.5
238.624	135.5
238.858	126.5
239.091	132.5
239.325	130.5
239.559	131.5
239.793	140.5
240.027	131.5
240.26	165.5
240.494	164.5
240.728	166.5
240.961	160.5
241.195	146.5
241.429	144.5
241.662	150.5
241.896	129.5
242.13	148.5
242.363	133.5
242.597	139.5
242.83	148.5
243.064	150.5
243.298	147.5
243.531	159.5
243.765	144.5
243.998	148.5
244.232	149.5
244.465	156.5
244.699	167.5
244.932	156.5
245.166	151.5
245.399	167.5
245.633	164.5
245.866	165.5
246.099	144.5
246.333	156.5
246.566	171.5
246.8	175.5
247.033	166.5
247.266	179.5
247.5	171.5
247.733	179.5
247.966	178.5
248.2	187.5
248.433	180.5
248.666	173.5
248.899	216.5
249.133	225.5
249.366	232.5
249.599	232.5
249.832	220.5
250.066	204.5
250.299	205.5
250.532	228.5
250.765	242.5
250.998	272.5
251.231	268.5
251.465	261.5
251.698	236.5
251.931	237.5
252.164	229.5
252.397	217.5
252.63	239.5
252.863	227.5
253.096	232.5
253.329	250.5
253.562	257.5
253.795	240.5
254.028	237.5
254.261	275.5
254.494	230.5
254.727	288.5
254.96	317.5
255.193	307.5
255.426	280.5
255.659	270.5
255.892	292.5
256.124	331.5
256.357	348.5
256.59	319.5
256.823	308.5
257.056	270.5
257.289	243.5
257.521	264.5
257.754	255.5
257.987	246.5
258.22	245.5
258.452	252.5
258.685	242.5
258.918	245.5
259.151	231.5
259.383	250.5
259.616	233.5
259.849	242.5
260.081	262.5
260.314	302.5
260.547	286.5
260.779	299.5
261.012	264.5
261.244	249.5
261.477	269.5
261.71	249.5
261.942	234.5
262.175	273.5
262.407	251.5
262.64	234.5
262.872	227.5
263.105	246.5
263.337	231.5
263.57	251.5
263.802	238.5
264.035	232.5
264.267	220.5
264.499	219.5
264.732	231.5
264.964	216.5
265.197	213.5
265.429	228.5
265.661	233.5
265.894	229.5
266.126	219.5
266.358	231.5
266.591	232.5
266.823	238.5
267.055	238.5
267.287	254.5
267.52	248.5
267.752	245.5
267.984	232.5
268.216	238.5
268.448	248.5
268.681	229.5
268.913	261.5
269.145	287.5
269.377	296.5
269.609	307.5
269.841	282.5
270.073	294.5
270.306	329.5
270.538	333.5
270.77	334.5
271.002	332.5
271.234	306.5
271.466	324.5
271.698	347.5
271.93	342.5
272.162	362.5
272.394	361.5
272.626	324.5
272.858	324.5
273.09	331.5
273.322	306.5
273.553	286.5
273.785	287.5
274.017	290.5
274.249	286.5
274.481	298.5
274.713	272.5
274.945	269.5
275.176	280.5
275.408	286.5
275.64	292.5
275.872	270.5
276.104	260.5
276.335	280.5
276.567	300.5
276.799	316.5
277.031	328.5
277.262	344.5
277.494	346.5
277.726	323.5
277.957	320.5
278.189	302.5
278.421	301.5
278.652	303.5
278.884	303.5
279.115	293.5
279.347	304.5
279.579	280.5
279.81	288.5
280.042	296.5
280.273	275.5
280.505	275.5
280.736	282.5
280.968	273.5
281.199	292.5
281.431	270.5
281.662	277.5
281.894	289.5
282.125	299.5
282.356	299.5
282.588	309.5
282.819	345.5
283.051	294.5
283.282	275.5
283.513	288.5
283.745	288.5
283.976	292.5
284.207	290.5
284.439	275.5
284.67	287.5
284.901	294.5
285.132	293.5
285.364	292.5
285.595	278.5
285.826	289.5
286.057	268.5
286.288	280.5
286.52	283.5
286.751	281.5
286.982	287.5
287.213	297.5
287.444	289.5
287.675	293.5
287.906	306.5
288.138	304.5
288.369	326.5
288.6	314.5
288.831	306.5
289.062	315.5
289.293	308.5
289.524	297.5
289.755	297.5
289.986	302.5
290.217	299.5
290.448	302.5
290.679	302.5
290.91	297.5
291.141	290.5
291.371	291.5
291.602	267.5
291.833	280.5
292.064	291.5
292.295	313.5
292.526	298.5
292.757	273.5
292.987	292.5
293.218	289.5
293.449	298.5
293.68	305.5
293.91	279.5
294.141	310.5
294.372	306.5
294.603	294.5
294.833	298.5
295.064	286.5
295.295	309.5
295.525	309.5
295.756	301.5
295.987	293.5
296.217	328.5
296.448	348.5
296.679	333.5
296.909	322.5
297.14	312.5
297.37	310.5
297.601	271.5
297.831	323.5
298.062	318.5
298.292	295.5
298.523	310.5
298.753	310.5
298.984	309.5
299.214	294.5
299.445	325.5
299.675	328.5
299.905	312.5
300.136	319.5
300.366	316.5
300.597	302.5
300.827	304.5
301.057	323.5
301.288	326.5
301.518	335.5
301.748	327.5
301.979	330.5
302.209	329.5
302.439	335.5
302.669	326.5
302.9	322.5
303.13	299.5
303.36	326.5
303.59	354.5
303.82	346.5
304.051	344.5
304.281	331.5
304.511	336.5
304.741	333.5
304.971	330.5
305.201	319.5
305.431	324.5
305.661	332.5
305.891	314.5
306.121	335.5
306.352	336.5
306.582	322.5
306.812	342.5
307.042	332.5
307.272	355.5
307.502	346.5
307.731	365.5
307.961	351.5
308.191	335.5
308.421	320.5
308.651	335.5
308.881	342.5
309.111	359.5
309.341	354.5
309.571	363.5
309.8	357.5
310.03	376.5
310.26	375.5
310.49	384.5
310.72	394.5
310.949	388.5
311.179	401.5
311.409	382.5
311.639	386.5
311.868	395.5
312.098	399.5
312.328	394.5
312.557	420.5
312.787	420.5
313.017	434.5
313.246	413.5
313.476	388.5
313.706	399.5
313.935	405.5
314.165	398.5
314.394	407.5
314.624	421.5
314.853	400.5
315.083	389.5
315.312	382.5
315.542	376.5
315.771	365.5
316.001	384.5
316.23	370.5
316.46	390.5
316.689	392.5
316.919	387.5
317.148	401.5
317.377	416.5
317.607	406.5
317.836	403.5
318.065	389.5
318.295	391.5
318.524	387.5
318.753	375.5
318.983	387.5
319.212	366.5
319.441	398.5
319.67	393.5
319.9	406.5
320.129	395.5
320.358	375.5
320.587	387.5
320.816	404.5
321.046	418.5
321.275	423.5
321.504	418.5
321.733	437.5
321.962	431.5
322.191	450.5
322.42	454.5
322.649	481.5
322.878	495.5
323.108	514.5
323.337	524.5
323.566	572.5
323.795	610.5
324.024	666.5
324.253	797.5
324.482	1145.5
324.71	1728.5
324.939	2530.5
325.168	2208.5
325.397	1160.5
325.626	785.5
325.855	621.5
326.084	598.5
326.313	558.5
326.542	594.5
326.77	620.5
326.999	747.5
327.228	1015.5
327.457	1541.5
327.686	1897.5
327.914	1363.5
328.143	910.5
328.372	774.5
328.6	769.5
328.829	684.5
329.058	700.5
329.287	692.5
329.515	662.5
329.744	635.5
329.972	648.5
330.201	731.5
330.43	834.5
330.658	831.5
330.887	767.5
331.115	706.5
331.344	582.5
331.572	562.5
331.801	551.5
332.03	552.5
332.258	518.5
332.486	504.5
332.715	492.5
332.943	489.5
333.172	498.5
333.4	516.5
333.629	536.5
333.857	566.5
334.085	609.5
334.314	722.5
334.542	827.5
334.771	896.5
334.999	698.5
335.227	603.5
335.455	529.5
335.684	496.5
335.912	493.5
336.14	475.5
336.369	481.5
336.597	462.5
336.825	474.5
337.053	475.5
337.281	439.5
337.51	436.5
337.738	451.5
337.966	459.5
338.194	467.5
338.422	455.5
338.65	444.5
338.878	440.5
339.106	435.5
339.334	442.5
339.562	435.5
339.79	438.5
340.018	408.5
340.246	431.5
340.474	443.5
340.702	445.5
340.93	430.5
341.158	416.5
341.386	430.5
341.614	418.5
341.842	446.5
342.07	439.5
342.298	441.5
342.526	412.5
342.754	398.5
342.981	411.5
343.209	412.5
343.437	415.5
343.665	403.5
343.893	416.5
344.12	410.5
344.348	422.5
344.576	436.5
344.804	435.5
345.031	423.5
345.259	447.5
345.487	438.5
345.714	442.5
345.942	407.5
346.17	423.5
346.397	418.5
346.625	436.5
346.853	426.5
347.08	408.5
347.308	397.5
347.535	431.5
347.763	450.5
347.99	425.5
348.218	445.5
348.445	442.5
348.673	427.5
348.9	406.5
349.128	398.5
349.355	404.5
349.583	373.5
349.81	403.5
350.037	399.5
350.265	410.5
350.492	391.5
350.72	415.5
350.947	377.5
351.174	398.5
351.402	442.5
351.629	426.5
351.856	437.5
352.083	428.5
352.311	447.5
352.538	420.5
352.765	448.5
352.992	418.5
353.22	418.5
353.447	436.5
353.674	415.5
353.901	402.5
354.128	368.5
354.355	382.5
354.583	394.5
354.81	382.5
355.037	372.5
355.264	367.5
355.491	382.5
355.718	367.5
355.945	375.5
356.172	375.5
356.399	380.5
356.626	370.5
356.853	363.5
357.08	375.5
357.307	379.5
357.534	362.5
357.761	386.5
357.988	383.5
358.215	375.5
358.441	392.5
358.668	378.5
358.895	379.5
359.122	381.5
359.349	399.5
359.576	401.5
359.802	446.5
360.029	470.5
360.256	466.5
360.483	464.5
360.709	426.5
360.936	418.5
361.163	418.5
361.39	419.5
361.616	387.5
361.843	414.5
362.07	427.5
362.296	431.5
362.523	435.5
362.749	412.5
362.976	416.5
363.203	400.5
363.429	386.5
363.656	396.5
363.882	389.5
364.109	399.5
364.335	382.5
364.562	401.5
364.788	387.5
365.015	402.5
365.241	381.5
365.468	395.5
365.694	384.5
365.92	409.5
366.147	378.5
366.373	387.5
366.599	392.5
366.826	384.5
367.052	380.5
367.278	404.5
367.505	371.5
367.731	399.5
367.957	407.5
368.184	395.5
368.41	404.5
368.636	406.5
368.862	404.5
369.089	401.5
369.315	374.5
369.541	394.5
369.767	375.5
369.993	380.5
370.219	380.5
370.445	380.5
370.672	378.5
370.898	384.5
371.124	376.5
371.35	376.5
371.576	367.5
371.802	370.5
372.028	365.5
372.254	379.5
372.48	388.5
372.706	390.5
372.932	379.5
373.158	360.5
373.384	377.5
373.61	359.5
373.835	380.5
374.061	363.5
374.287	386.5
374.513	380.5
374.739	376.5
374.965	374.5
375.191	384.5
375.416	387.5
375.642	386.5
375.868	366.5
376.094	380.5
376.319	364.5
376.545	368.5
376.771	361.5
376.997	366.5
377.222	375.5
377.448	383.5
377.674	370.5
377.899	380.5
378.125	379.5
378.35	345.5
378.576	371.5
378.802	376.5
379.027	364.5
379.253	365.5
379.478	374.5
379.704	343.5
379.929	388.5
380.155	368.5
380.38	372.5
380.606	352.5
380.831	363.5
381.057	384.5
381.282	370.5
381.507	373.5
381.733	350.5
381.958	370.5
382.184	374.5
382.409	381.5
382.634	377.5
382.86	373.5
383.085	378.5
383.31	375.5
383.535	386.5
383.761	384.5
383.986	386.5
384.211	387.5
384.436	392.5
384.662	389.5
384.887	392.5
385.112	394.5
385.337	377.5
385.562	369.5
385.787	383.5
386.013	392.5
386.238	393.5
386.463	398.5
386.688	376.5
386.913	379.5
387.138	382.5
387.363	382.5
387.588	393.5
387.813	386.5
388.038	383.5
388.263	391.5
388.488	398.5
388.713	387.5
388.938	366.5
389.163	400.5
389.387	389.5
389.612	392.5
389.837	380.5
390.062	377.5
390.287	387.5
390.512	378.5
390.736	365.5
390.961	365.5
391.186	384.5
391.411	378.5
391.636	394.5
391.86	389.5
392.085	399.5
392.31	391.5
392.534	391.5
392.759	389.5
392.984	386.5
393.208	382.5
393.433	381.5
393.658	381.5
393.882	383.5
394.107	401.5
394.331	382.5
394.556	377.5
394.78	357.5
395.005	390.5
395.229	391.5
395.454	406.5
395.678	386.5
395.903	406.5
396.127	433.5
396.352	441.5
396.576	435.5
396.801	401.5
397.025	404.5
397.249	396.5
397.474	409.5
397.698	427.5
397.922	411.5
398.147	431.5
398.371	439.5
398.595	416.5
398.82	426.5
399.044	438.5
399.268	436.5
399.492	456.5
399.717	480.5
399.941	490.5
400.165	511.5
400.389	566.5
400.613	492.5
400.837	450.5
401.062	446.5
401.286	456.5
401.51	434.5
401.734	446.5
401.958	433.5
402.182	456.5
402.406	450.5
402.63	456.5
402.854	442.5
403.078	445.5
403.302	447.5
403.526	466.5
403.75	470.5
403.974	436.5
404.198	457.5
404.422	478.5
404.645	476.5
404.869	491.5
405.093	540.5
405.317	585.5
405.541	636.5
405.765	582.5
405.988	530.5
406.212	508.5
406.436	531.5
406.66	523.5
406.883	509.5
407.107	523.5
407.331	546.5
407.555	604.5
407.778	620.5
408.002	578.5
408.226	501.5
408.449	523.5
408.673	484.5
408.896	524.5
409.12	580.5
409.344	565.5
409.567	489.5
409.791	479.5
410.014	472.5
410.238	465.5
410.461	452.5
410.685	447.5
410.908	501.5
411.132	524.5
411.355	557.5
411.578	520.5
411.802	487.5
412.025	493.5
412.249	512.5
412.472	562.5
412.695	586.5
412.919	596.5
413.142	533.5
413.365	527.5
413.589	507.5
413.812	471.5
414.035	467.5
414.258	464.5
414.482	447.5
414.705	449.5
414.928	418.5
415.151	430.5
415.374	436.5
415.597	444.5
415.821	433.5
416.044	445.5
416.267	462.5
416.49	418.5
416.713	432.5
416.936	448.5
417.159	450.5
417.382	439.5
417.605	444.5
417.828	467.5
418.051	500.5
418.274	467.5
418.497	452.5
418.72	465.5
418.943	450.5
419.166	443.5
419.389	466.5
419.611	490.5
419.834	498.5
420.057	498.5
420.28	519.5
420.503	515.5
420.726	520.5
420.948	502.5
421.171	564.5
421.394	563.5
421.617	494.5
421.839	468.5
422.062	488.5
422.285	499.5
422.507	540.5
422.73	618.5
422.953	582.5
423.175	526.5
423.398	499.5
423.621	502.5
423.843	512.5
424.066	524.5
424.288	504.5
424.511	524.5
424.733	571.5
424.956	639.5
425.178	650.5
425.401	634.5
425.623	631.5
425.846	548.5
426.068	530.5
426.291	524.5
426.513	500.5
426.735	518.5
426.958	600.5
427.18	653.5
427.402	763.5
427.625	885.5
427.847	782.5
428.069	723.5
428.292	634.5
428.514	538.5
428.736	536.5
428.958	498.5
429.181	456.5
429.403	482.5
429.625	482.5
429.847	516.5
430.069	603.5
430.292	603.5
430.514	500.5
430.736	492.5
430.958	462.5
431.18	462.5
431.402	445.5
431.624	429.5
431.846	424.5
432.068	426.5
432.29	432.5
432.512	450.5
432.734	463.5
432.956	445.5
433.178	448.5
433.4	431.5
433.622	446.5
433.844	452.5
434.066	437.5
434.287	431.5
434.509	446.5
434.731	421.5
434.953	451.5
435.175	460.5
435.397	514.5
435.618	532.5
435.84	585.5
436.062	660.5
436.284	730.5
436.505	606.5
436.727	538.5
436.949	510.5
437.17	475.5
437.392	458.5
437.614	512.5
437.835	546.5
438.057	628.5
438.278	709.5
438.5	712.5
438.721	786.5
438.943	781.5
439.165	592.5
439.386	562.5
439.608	545.5
439.829	523.5
440.05	566.5
440.272	611.5
440.493	588.5
440.715	534.5
440.936	490.5
441.158	484.5
441.379	486.5
441.6	482.5
441.822	499.5
442.043	536.5
442.264	624.5
442.486	669.5
442.707	571.5
442.928	536.5
443.149	532.5
443.371	548.5
443.592	585.5
443.813	683.5
444.034	760.5
444.255	641.5
444.476	544.5
444.698	487.5
444.919	491.5
445.14	585.5
445.361	570.5
445.582	564.5
445.803	618.5
446.024	730.5
446.245	717.5
446.466	687.5
446.687	578.5
446.908	525.5
447.129	522.5
447.35	478.5
447.571	490.5
447.792	490.5
448.013	490.5
448.234	514.5
448.455	554.5
448.675	667.5
448.896	788.5
449.117	637.5
449.338	616.5
449.559	723.5
449.779	828.5
450	678.5
450.221	559.5
450.442	506.5
450.662	505.5
450.883	467.5
451.104	514.5
451.324	507.5
451.545	472.5
451.766	469.5
451.986	428.5
452.207	423.5
452.428	418.5
452.648	426.5
452.869	430.5
453.089	435.5
453.31	454.5
453.53	448.5
453.751	420.5
453.971	427.5
454.192	450.5
454.412	444.5
454.633	427.5
454.853	444.5
455.073	423.5
455.294	454.5
455.514	534.5
455.734	516.5
455.955	452.5
456.175	400.5
456.395	410.5
456.616	407.5
456.836	423.5
457.056	400.5
457.276	394.5
457.497	412.5
457.717	405.5
457.937	410.5
458.157	421.5
458.377	405.5
458.598	435.5
458.818	508.5
459.038	598.5
459.258	604.5
459.478	508.5
459.698	457.5
459.918	439.5
460.138	442.5
460.358	428.5
460.578	429.5
460.798	427.5
461.018	425.5
461.238	441.5
461.458	416.5
461.678	432.5
461.898	434.5
462.118	416.5
462.338	451.5
462.558	436.5
462.777	440.5
462.997	444.5
463.217	440.5
463.437	446.5
463.657	430.5
463.876	459.5
464.096	469.5
464.316	449.5
464.536	471.5
464.755	466.5
464.975	459.5
465.195	526.5
465.414	591.5
465.634	534.5
465.854	490.5
466.073	488.5
466.293	461.5
466.512	455.5
466.732	436.5
466.951	427.5
467.171	422.5
467.391	432.5
467.61	444.5
467.829	438.5
468.049	491.5
468.268	498.5
468.488	474.5
468.707	438.5
468.927	420.5
469.146	447.5
469.365	437.5
469.585	423.5
469.804	420.5
470.023	456.5
470.243	438.5
470.462	455.5
470.681	439.5
470.901	459.5
471.12	455.5
471.339	446.5
471.558	447.5
471.777	436.5
471.997	464.5
472.216	522.5
472.435	638.5
472.654	612.5
472.873	507.5
473.092	490.5
473.311	462.5
473.53	461.5
473.749	476.5
473.968	514.5
474.187	606.5
474.406	639.5
474.625	528.5
474.844	470.5
475.063	459.5
475.282	458.5
475.501	445.5
475.72	478.5
475.939	439.5
476.158	468.5
476.377	459.5
476.596	475.5
476.814	487.5
477.033	499.5
477.252	482.5
477.471	478.5
477.69	475.5
477.908	481.5
478.127	480.5
478.346	497.5
478.564	482.5
478.783	481.5
479.002	488.5
479.22	519.5
479.439	532.5
479.658	539.5
479.876	548.5
480.095	550.5
480.313	565.5
480.532	566.5
480.751	567.5
480.969	633.5
481.188	845.5
481.406	1028.5
481.624	759.5
481.843	652.5
482.061	638.5
482.28	586.5
482.498	570.5
482.717	552.5
482.935	564.5
483.153	576.5
483.372	564.5
483.59	535.5
483.808	531.5
484.027	548.5
484.245	548.5
484.463	557.5
484.681	573.5
484.9	548.5
485.118	549.5
485.336	544.5
485.554	583.5
485.772	564.5
485.99	550.5
486.209	562.5
486.427	564.5
486.645	584.5
486.863	575.5
487.081	596.5
487.299	589.5
487.517	580.5
487.735	573.5
487.953	588.5
488.171	584.5
488.389	590.5
488.607	602.5
488.825	601.5
489.043	594.5
489.261	601.5
489.479	609.5
489.696	612.5
489.914	600.5
490.132	614.5
490.35	638.5
490.568	636.5
490.786	637.5
491.003	640.5
491.221	637.5
491.439	685.5
491.657	685.5
491.874	690.5
492.092	690.5
492.31	697.5
492.527	724.5
492.745	731.5
492.963	714.5
493.18	724.5
493.398	715.5
493.615	723.5
493.833	724.5
494.05	720.5
494.268	718.5
494.485	718.5
494.703	745.5
494.92	700.5
495.138	720.5
495.355	709.5
495.573	727.5
495.79	716.5
496.008	717.5
496.225	697.5
496.442	689.5
496.66	696.5
496.877	708.5
497.094	693.5
497.312	702.5
497.529	696.5
497.746	717.5
497.963	705.5
498.181	736.5
498.398	740.5
498.615	769.5
498.832	727.5
499.049	734.5
499.267	757.5
499.484	763.5
499.701	759.5
499.918	766.5
500.135	804.5
500.352	842.5
500.569	810.5
500.786	852.5
501.003	858.5
501.22	830.5
501.437	807.5
501.654	818.5
501.871	823.5
502.088	808.5
502.305	761.5
502.522	754.5
502.739	758.5
502.956	709.5
503.172	711.5
503.389	691.5
503.606	703.5
503.823	688.5
504.04	676.5
504.256	675.5
504.473	676.5
504.69	676.5
504.907	684.5
505.123	675.5
505.34	674.5
505.557	649.5
505.773	666.5
505.99	640.5
506.207	638.5
506.423	672.5
506.64	661.5
506.856	660.5
507.073	651.5
507.289	661.5
507.506	645.5
507.722	671.5
507.939	677.5
508.155	655.5
508.372	649.5
508.588	652.5
508.805	635.5
509.021	630.5
509.238	638.5
509.454	639.5
509.67	658.5
509.887	648.5
510.103	638.5
510.319	644.5
510.536	754.5
510.752	1295.5
510.968	1094.5
511.184	665.5
511.401	634.5
511.617	644.5
511.833	632.5
512.049	674.5
512.265	636.5
512.481	668.5
512.698	638.5
512.914	630.5
513.13	620.5
513.346	609.5
513.562	626.5
513.778	628.5
513.994	626.5
514.21	638.5
514.426	652.5
514.642	704.5
514.858	754.5
515.074	798.5
515.29	947.5
515.506	1434.5
515.721	1151.5
515.937	762.5
516.153	696.5
516.369	665.5
516.585	640.5
516.801	616.5
517.016	621.5
517.232	614.5
517.448	607.5
517.664	598.5
517.879	598.5
518.095	580.5
518.311	591.5
518.527	590.5
518.742	598.5
518.958	592.5
519.173	600.5
519.389	604.5
519.605	626.5
519.82	613.5
