Data from 1986.PennyLincolnUp.Lamp.En5.5.200Scan.071819.P2_HRD10591_17-11-29-972.txt Node
Date: Thu Jul 18 17:11:29 EDT 2019
User: cochatt
Spectrometer: HR+D1059
Trigger mode: 1
Integration Time (sec): 1.000000E-1
Scans to average: 1
Electric dark correction enabled: true
Nonlinearity correction enabled: false
Boxcar width: 0
XAxis mode: Wavelengths
Number of Pixels in Spectrum: 2048
>>>>>Begin Spectral Data<<<<<
223.165	-29.69
223.4	-29.69
223.635	-29.69
223.869	-18.69
224.104	-13.69
224.338	-12.69
224.573	-10.69
224.808	-3.69
225.042	-15.69
225.277	-16.69
225.511	9.31
225.746	-3.69
225.98	4.31
226.215	15.31
226.449	29.31
226.683	13.31
226.918	24.31
227.152	29.31
227.387	30.31
227.621	31.31
227.856	39.31
228.09	50.31
228.324	50.31
228.559	57.31
228.793	63.31
229.027	87.31
229.262	109.31
229.496	110.31
229.73	128.31
229.964	154.31
230.199	136.31
230.433	120.31
230.667	116.31
230.901	114.31
231.136	104.31
231.37	110.31
231.604	107.31
231.838	108.31
232.072	116.31
232.306	125.31
232.541	124.31
232.775	117.31
233.009	107.31
233.243	119.31
233.477	119.31
233.711	126.31
233.945	122.31
234.179	127.31
234.413	108.31
234.647	102.31
234.881	120.31
235.115	114.31
235.349	120.31
235.583	119.31
235.817	119.31
236.051	130.31
236.285	136.31
236.519	124.31
236.753	123.31
236.987	147.31
237.221	200.31
237.455	252.31
237.689	204.31
237.922	136.31
238.156	142.31
238.39	124.31
238.624	118.31
238.858	126.31
239.091	125.31
239.325	123.31
239.559	127.31
239.793	130.31
240.027	148.31
240.26	138.31
240.494	163.31
240.728	165.31
240.961	159.31
241.195	140.31
241.429	131.31
241.662	148.31
241.896	131.31
242.13	131.31
242.363	136.31
242.597	133.31
242.83	139.31
243.064	133.31
243.298	138.31
243.531	121.31
243.765	141.31
243.998	151.31
244.232	147.31
244.465	147.31
244.699	140.31
244.932	150.31
245.166	152.31
245.399	148.31
245.633	159.31
245.866	151.31
246.099	152.31
246.333	158.31
246.566	160.31
246.8	154.31
247.033	152.31
247.266	154.31
247.5	172.31
247.733	182.31
247.966	163.31
248.2	160.31
248.433	187.31
248.666	174.31
248.899	212.31
249.133	226.31
249.366	221.31
249.599	217.31
249.832	192.31
250.066	194.31
250.299	210.31
250.532	218.31
250.765	249.31
250.998	258.31
251.231	244.31
251.465	221.31
251.698	236.31
251.931	231.31
252.164	220.31
252.397	220.31
252.63	206.31
252.863	223.31
253.096	231.31
253.329	235.31
253.562	234.31
253.795	237.31
254.028	234.31
254.261	235.31
254.494	263.31
254.727	253.31
254.96	294.31
255.193	292.31
255.426	259.31
255.659	246.31
255.892	273.31
256.124	302.31
256.357	324.31
256.59	299.31
256.823	274.31
257.056	240.31
257.289	242.31
257.521	224.31
257.754	240.31
257.987	248.31
258.22	221.31
258.452	226.31
258.685	235.31
258.918	226.31
259.151	231.31
259.383	219.31
259.616	240.31
259.849	250.31
260.081	240.31
260.314	279.31
260.547	283.31
260.779	271.31
261.012	243.31
261.244	228.31
261.477	232.31
261.71	219.31
261.942	244.31
262.175	239.31
262.407	255.31
262.64	233.31
262.872	223.31
263.105	212.31
263.337	215.31
263.57	209.31
263.802	214.31
264.035	223.31
264.267	206.31
264.499	230.31
264.732	215.31
264.964	211.31
265.197	225.31
265.429	221.31
265.661	226.31
265.894	212.31
266.126	214.31
266.358	212.31
266.591	204.31
266.823	226.31
267.055	226.31
267.287	233.31
267.52	229.31
267.752	235.31
267.984	232.31
268.216	224.31
268.448	234.31
268.681	244.31
268.913	248.31
269.145	277.31
269.377	305.31
269.609	276.31
269.841	292.31
270.073	292.31
270.306	315.31
270.538	336.31
270.77	341.31
271.002	316.31
271.234	324.31
271.466	322.31
271.698	339.31
271.93	326.31
272.162	339.31
272.394	350.31
272.626	333.31
272.858	306.31
273.09	294.31
273.322	287.31
273.553	261.31
273.785	286.31
274.017	277.31
274.249	259.31
274.481	266.31
274.713	257.31
274.945	284.31
275.176	266.31
275.408	272.31
275.64	282.31
275.872	283.31
276.104	262.31
276.335	274.31
276.567	292.31
276.799	295.31
277.031	351.31
277.262	313.31
277.494	320.31
277.726	330.31
277.957	294.31
278.189	282.31
278.421	280.31
278.652	287.31
278.884	269.31
279.115	263.31
279.347	264.31
279.579	276.31
279.81	265.31
280.042	259.31
280.273	270.31
280.505	294.31
280.736	283.31
280.968	272.31
281.199	260.31
281.431	263.31
281.662	264.31
281.894	293.31
282.125	270.31
282.356	276.31
282.588	296.31
282.819	314.31
283.051	283.31
283.282	272.31
283.513	271.31
283.745	278.31
283.976	278.31
284.207	283.31
284.439	290.31
284.67	266.31
284.901	275.31
285.132	282.31
285.364	266.31
285.595	278.31
285.826	286.31
286.057	278.31
286.288	278.31
286.52	273.31
286.751	266.31
286.982	278.31
287.213	264.31
287.444	276.31
287.675	276.31
287.906	282.31
288.138	291.31
288.369	298.31
288.6	299.31
288.831	293.31
289.062	292.31
289.293	297.31
289.524	292.31
289.755	291.31
289.986	276.31
290.217	267.31
290.448	273.31
290.679	284.31
290.91	296.31
291.141	271.31
291.371	282.31
291.602	273.31
291.833	285.31
292.064	280.31
292.295	270.31
292.526	267.31
292.757	266.31
292.987	270.31
293.218	287.31
293.449	269.31
293.68	294.31
293.91	266.31
294.141	256.31
294.372	283.31
294.603	287.31
294.833	289.31
295.064	291.31
295.295	285.31
295.525	282.31
295.756	295.31
295.987	299.31
296.217	338.31
296.448	322.31
296.679	303.31
296.909	286.31
297.14	280.31
297.37	287.31
297.601	292.31
297.831	286.31
298.062	283.31
298.292	284.31
298.523	299.31
298.753	294.31
298.984	299.31
299.214	283.31
299.445	288.31
299.675	284.31
299.905	299.31
300.136	290.31
300.366	285.31
300.597	278.31
300.827	306.31
301.057	321.31
301.288	318.31
301.518	327.31
301.748	313.31
301.979	293.31
302.209	306.31
302.439	324.31
302.669	299.31
302.9	307.31
303.13	302.31
303.36	334.31
303.59	313.31
303.82	312.31
304.051	315.31
304.281	301.31
304.511	286.31
304.741	302.31
304.971	314.31
305.201	310.31
305.431	325.31
305.661	310.31
305.891	297.31
306.121	327.31
306.352	326.31
306.582	322.31
306.812	307.31
307.042	334.31
307.272	336.31
307.502	335.31
307.731	316.31
307.961	316.31
308.191	315.31
308.421	313.31
308.651	323.31
308.881	316.31
309.111	318.31
309.341	344.31
309.571	349.31
309.8	363.31
310.03	355.31
310.26	358.31
310.49	362.31
310.72	364.31
310.949	401.31
311.179	411.31
311.409	374.31
311.639	367.31
311.868	380.31
312.098	355.31
312.328	379.31
312.557	425.31
312.787	403.31
313.017	396.31
313.246	393.31
313.476	367.31
313.706	375.31
313.935	372.31
314.165	374.31
314.394	416.31
314.624	380.31
314.853	384.31
315.083	366.31
315.312	363.31
315.542	363.31
315.771	348.31
316.001	368.31
316.23	366.31
316.46	346.31
316.689	374.31
316.919	375.31
317.148	389.31
317.377	381.31
317.607	381.31
317.836	379.31
318.065	374.31
318.295	371.31
318.524	358.31
318.753	365.31
318.983	367.31
319.212	372.31
319.441	396.31
319.67	394.31
319.9	379.31
320.129	372.31
320.358	357.31
320.587	382.31
320.816	398.31
321.046	407.31
321.275	386.31
321.504	388.31
321.733	419.31
321.962	419.31
322.191	408.31
322.42	440.31
322.649	475.31
322.878	466.31
323.108	502.31
323.337	520.31
323.566	566.31
323.795	571.31
324.024	636.31
324.253	770.31
324.482	1096.31
324.71	1651.31
324.939	2379.31
325.168	2103.31
325.397	1121.31
325.626	742.31
325.855	629.31
326.084	583.31
326.313	558.31
326.542	546.31
326.77	616.31
326.999	692.31
327.228	961.31
327.457	1474.31
327.686	1831.31
327.914	1230.31
328.143	853.31
328.372	730.31
328.6	694.31
328.829	622.31
329.058	636.31
329.287	689.31
329.515	638.31
329.744	578.31
329.972	594.31
330.201	656.31
330.43	704.31
330.658	714.31
330.887	703.31
331.115	665.31
331.344	552.31
331.572	515.31
331.801	526.31
332.03	523.31
332.258	482.31
332.486	479.31
332.715	469.31
332.943	485.31
333.172	494.31
333.4	448.31
333.629	484.31
333.857	511.31
334.085	522.31
334.314	608.31
334.542	686.31
334.771	727.31
334.999	590.31
335.227	514.31
335.455	476.31
335.684	445.31
335.912	463.31
336.14	425.31
336.369	418.31
336.597	434.31
336.825	442.31
337.053	419.31
337.281	446.31
337.51	421.31
337.738	425.31
337.966	446.31
338.194	434.31
338.422	413.31
338.65	430.31
338.878	416.31
339.106	426.31
339.334	421.31
339.562	392.31
339.79	430.31
340.018	404.31
340.246	413.31
340.474	414.31
340.702	412.31
340.93	414.31
341.158	403.31
341.386	408.31
341.614	391.31
341.842	415.31
342.07	409.31
342.298	389.31
342.526	390.31
342.754	390.31
342.981	371.31
343.209	390.31
343.437	378.31
343.665	366.31
343.893	376.31
344.12	389.31
344.348	406.31
344.576	380.31
344.804	401.31
345.031	430.31
345.259	408.31
345.487	424.31
345.714	416.31
345.942	415.31
346.17	387.31
346.397	379.31
346.625	403.31
346.853	402.31
347.08	389.31
347.308	396.31
347.535	402.31
347.763	406.31
347.99	422.31
348.218	397.31
348.445	436.31
348.673	410.31
348.9	396.31
349.128	396.31
349.355	379.31
349.583	383.31
349.81	397.31
350.037	387.31
350.265	386.31
350.492	373.31
350.72	383.31
350.947	392.31
351.174	412.31
351.402	404.31
351.629	383.31
351.856	402.31
352.083	397.31
352.311	424.31
352.538	425.31
352.765	402.31
352.992	401.31
353.22	416.31
353.447	387.31
353.674	384.31
353.901	387.31
354.128	373.31
354.355	366.31
354.583	383.31
354.81	370.31
355.037	365.31
355.264	354.31
355.491	353.31
355.718	369.31
355.945	363.31
356.172	378.31
356.399	349.31
356.626	366.31
356.853	371.31
357.08	352.31
357.307	348.31
357.534	347.31
357.761	370.31
357.988	354.31
358.215	363.31
358.441	366.31
358.668	360.31
358.895	370.31
359.122	378.31
359.349	382.31
359.576	396.31
359.802	449.31
360.029	445.31
360.256	461.31
360.483	449.31
360.709	401.31
360.936	381.31
361.163	388.31
361.39	399.31
361.616	400.31
361.843	391.31
362.07	388.31
362.296	378.31
362.523	400.31
362.749	395.31
362.976	376.31
363.203	396.31
363.429	385.31
363.656	397.31
363.882	379.31
364.109	378.31
364.335	363.31
364.562	388.31
364.788	359.31
365.015	380.31
365.241	392.31
365.468	402.31
365.694	396.31
365.92	395.31
366.147	380.31
366.373	390.31
366.599	372.31
366.826	355.31
367.052	371.31
367.278	354.31
367.505	353.31
367.731	377.31
367.957	367.31
368.184	376.31
368.41	364.31
368.636	373.31
368.862	382.31
369.089	362.31
369.315	354.31
369.541	372.31
369.767	380.31
369.993	357.31
370.219	362.31
370.445	365.31
370.672	378.31
370.898	347.31
371.124	354.31
371.35	368.31
371.576	354.31
371.802	364.31
372.028	361.31
372.254	356.31
372.48	366.31
372.706	364.31
372.932	362.31
373.158	367.31
373.384	352.31
373.61	361.31
373.835	348.31
374.061	363.31
374.287	359.31
374.513	367.31
374.739	362.31
374.965	376.31
375.191	364.31
375.416	355.31
375.642	373.31
375.868	367.31
376.094	361.31
376.319	367.31
376.545	371.31
376.771	338.31
376.997	351.31
377.222	344.31
377.448	347.31
377.674	361.31
377.899	339.31
378.125	351.31
378.35	358.31
378.576	355.31
378.802	328.31
379.027	338.31
379.253	360.31
379.478	355.31
379.704	367.31
379.929	351.31
380.155	336.31
380.38	351.31
380.606	337.31
380.831	344.31
381.057	334.31
381.282	371.31
381.507	358.31
381.733	356.31
381.958	361.31
382.184	351.31
382.409	353.31
382.634	353.31
382.86	368.31
383.085	367.31
383.31	362.31
383.535	350.31
383.761	344.31
383.986	373.31
384.211	356.31
384.436	336.31
384.662	380.31
384.887	355.31
385.112	362.31
385.337	370.31
385.562	342.31
385.787	358.31
386.013	383.31
386.238	390.31
386.463	386.31
386.688	396.31
386.913	382.31
387.138	375.31
387.363	369.31
387.588	373.31
387.813	372.31
388.038	359.31
388.263	375.31
388.488	370.31
388.713	372.31
388.938	391.31
389.163	385.31
389.387	382.31
389.612	357.31
389.837	362.31
390.062	374.31
390.287	370.31
390.512	360.31
390.736	388.31
390.961	355.31
391.186	380.31
391.411	367.31
391.636	351.31
391.86	370.31
392.085	378.31
392.31	363.31
392.534	366.31
392.759	369.31
392.984	346.31
393.208	339.31
393.433	373.31
393.658	370.31
393.882	365.31
394.107	374.31
394.331	367.31
394.556	365.31
394.78	365.31
395.005	400.31
395.229	364.31
395.454	374.31
395.678	385.31
395.903	392.31
396.127	390.31
396.352	405.31
396.576	373.31
396.801	369.31
397.025	374.31
397.249	398.31
397.474	400.31
397.698	419.31
397.922	406.31
398.147	410.31
398.371	445.31
398.595	406.31
398.82	397.31
399.044	408.31
399.268	410.31
399.492	440.31
399.717	460.31
399.941	458.31
400.165	514.31
400.389	534.31
400.613	486.31
400.837	423.31
401.062	408.31
401.286	416.31
401.51	420.31
401.734	401.31
401.958	431.31
402.182	415.31
402.406	437.31
402.63	450.31
402.854	436.31
403.078	419.31
403.302	434.31
403.526	436.31
403.75	441.31
403.974	449.31
404.198	413.31
404.422	412.31
404.645	474.31
404.869	471.31
405.093	484.31
405.317	539.31
405.541	555.31
405.765	548.31
405.988	505.31
406.212	491.31
406.436	531.31
406.66	530.31
406.883	501.31
407.107	490.31
407.331	535.31
407.555	600.31
407.778	592.31
408.002	542.31
408.226	503.31
408.449	494.31
408.673	481.31
408.896	493.31
409.12	557.31
409.344	508.31
409.567	474.31
409.791	428.31
410.014	438.31
410.238	434.31
410.461	440.31
410.685	445.31
410.908	482.31
411.132	488.31
411.355	528.31
411.578	522.31
411.802	458.31
412.025	454.31
412.249	461.31
412.472	508.31
412.695	565.31
412.919	567.31
413.142	505.31
413.365	463.31
413.589	456.31
413.812	449.31
414.035	445.31
414.258	444.31
414.482	435.31
414.705	439.31
414.928	407.31
415.151	425.31
415.374	416.31
415.597	412.31
415.821	408.31
416.044	414.31
416.267	419.31
416.49	416.31
416.713	400.31
416.936	421.31
417.159	426.31
417.382	437.31
417.605	428.31
417.828	446.31
418.051	457.31
418.274	442.31
418.497	406.31
418.72	397.31
418.943	399.31
419.166	422.31
419.389	436.31
419.611	458.31
419.834	450.31
420.057	447.31
420.28	472.31
420.503	482.31
420.726	470.31
420.948	489.31
421.171	509.31
421.394	550.31
421.617	475.31
421.839	462.31
422.062	440.31
422.285	478.31
422.507	516.31
422.73	593.31
422.953	575.31
423.175	472.31
423.398	455.31
423.621	487.31
423.843	494.31
424.066	483.31
424.288	466.31
424.511	514.31
424.733	529.31
424.956	633.31
425.178	597.31
425.401	596.31
425.623	615.31
425.846	545.31
426.068	500.31
426.291	499.31
426.513	490.31
426.735	503.31
426.958	552.31
427.18	620.31
427.402	733.31
427.625	831.31
427.847	783.31
428.069	680.31
428.292	592.31
428.514	526.31
428.736	482.31
428.958	478.31
429.181	447.31
429.403	474.31
429.625	459.31
429.847	500.31
430.069	575.31
430.292	551.31
430.514	485.31
430.736	450.31
430.958	456.31
431.18	444.31
431.402	414.31
431.624	406.31
431.846	405.31
432.068	409.31
432.29	423.31
432.512	429.31
432.734	436.31
432.956	423.31
433.178	444.31
433.4	439.31
433.622	424.31
433.844	419.31
434.066	415.31
434.287	422.31
434.509	415.31
434.731	400.31
434.953	441.31
435.175	477.31
435.397	465.31
435.618	498.31
435.84	537.31
436.062	608.31
436.284	687.31
436.505	582.31
436.727	501.31
436.949	473.31
437.17	471.31
437.392	461.31
437.614	474.31
437.835	498.31
438.057	615.31
438.278	721.31
438.5	699.31
438.721	742.31
438.943	712.31
439.165	608.31
439.386	535.31
439.608	524.31
439.829	517.31
440.05	547.31
440.272	571.31
440.493	554.31
440.715	474.31
440.936	467.31
441.158	459.31
441.379	444.31
441.6	495.31
441.822	483.31
442.043	521.31
442.264	612.31
442.486	649.31
442.707	572.31
442.928	513.31
443.149	528.31
443.371	542.31
443.592	578.31
443.813	668.31
444.034	709.31
444.255	608.31
444.476	505.31
444.698	501.31
444.919	462.31
445.14	579.31
445.361	530.31
445.582	529.31
445.803	609.31
446.024	700.31
446.245	697.31
446.466	656.31
446.687	528.31
446.908	504.31
447.129	498.31
447.35	479.31
447.571	454.31
447.792	458.31
448.013	455.31
448.234	474.31
448.455	548.31
448.675	657.31
448.896	714.31
449.117	647.31
449.338	604.31
449.559	692.31
449.779	786.31
450	619.31
450.221	525.31
450.442	465.31
450.662	470.31
450.883	464.31
451.104	474.31
451.324	475.31
451.545	449.31
451.766	445.31
451.986	422.31
452.207	404.31
452.428	389.31
452.648	420.31
452.869	408.31
453.089	454.31
453.31	428.31
453.53	436.31
453.751	429.31
453.971	414.31
454.192	447.31
454.412	429.31
454.633	401.31
454.853	434.31
455.073	406.31
455.294	445.31
455.514	515.31
455.734	507.31
455.955	420.31
456.175	388.31
456.395	351.31
456.616	390.31
456.836	400.31
457.056	392.31
457.276	371.31
457.497	370.31
457.717	391.31
457.937	400.31
458.157	383.31
458.377	419.31
458.598	412.31
458.818	470.31
459.038	578.31
459.258	596.31
459.478	500.31
459.698	422.31
459.918	429.31
460.138	414.31
460.358	434.31
460.578	403.31
460.798	401.31
461.018	401.31
461.238	415.31
461.458	415.31
461.678	415.31
461.898	397.31
462.118	395.31
462.338	416.31
462.558	419.31
462.777	406.31
462.997	425.31
463.217	444.31
463.437	423.31
463.657	427.31
463.876	428.31
464.096	432.31
464.316	427.31
464.536	446.31
464.755	439.31
464.975	459.31
465.195	500.31
465.414	568.31
465.634	523.31
465.854	468.31
466.073	452.31
466.293	416.31
466.512	407.31
466.732	428.31
466.951	401.31
467.171	419.31
467.391	402.31
467.61	419.31
467.829	451.31
468.049	437.31
468.268	472.31
468.488	441.31
468.707	422.31
468.927	422.31
469.146	394.31
469.365	405.31
469.585	409.31
469.804	431.31
470.023	429.31
470.243	419.31
470.462	427.31
470.681	447.31
470.901	440.31
471.12	429.31
471.339	419.31
471.558	439.31
471.777	437.31
471.997	436.31
472.216	472.31
472.435	578.31
472.654	532.31
472.873	459.31
473.092	442.31
473.311	443.31
473.53	454.31
473.749	428.31
473.968	506.31
474.187	593.31
474.406	622.31
474.625	500.31
474.844	456.31
475.063	443.31
475.282	434.31
475.501	443.31
475.72	450.31
475.939	435.31
476.158	428.31
476.377	425.31
476.596	428.31
476.814	420.31
477.033	459.31
477.252	441.31
477.471	456.31
477.69	454.31
477.908	453.31
478.127	460.31
478.346	483.31
478.564	459.31
478.783	445.31
479.002	470.31
479.22	476.31
479.439	487.31
479.658	514.31
479.876	522.31
480.095	524.31
480.313	574.31
480.532	538.31
480.751	536.31
480.969	556.31
481.188	723.31
481.406	839.31
481.624	643.31
481.843	569.31
482.061	562.31
482.28	536.31
482.498	551.31
482.717	530.31
482.935	528.31
483.153	522.31
483.372	511.31
483.59	504.31
483.808	527.31
484.027	516.31
484.245	534.31
484.463	541.31
484.681	543.31
484.9	534.31
485.118	516.31
485.336	512.31
485.554	527.31
485.772	526.31
485.99	508.31
486.209	537.31
486.427	511.31
486.645	544.31
486.863	565.31
487.081	560.31
487.299	544.31
487.517	567.31
487.735	526.31
487.953	548.31
488.171	542.31
488.389	545.31
488.607	523.31
488.825	575.31
489.043	572.31
489.261	574.31
489.479	570.31
489.696	558.31
489.914	572.31
490.132	570.31
490.35	585.31
490.568	597.31
490.786	596.31
491.003	618.31
491.221	639.31
491.439	619.31
491.657	639.31
491.874	649.31
492.092	645.31
492.31	682.31
492.527	664.31
492.745	659.31
492.963	656.31
493.18	666.31
493.398	664.31
493.615	662.31
493.833	670.31
494.05	664.31
494.268	680.31
494.485	646.31
494.703	664.31
494.92	645.31
495.138	679.31
495.355	672.31
495.573	669.31
495.79	687.31
496.008	648.31
496.225	670.31
496.442	674.31
496.66	650.31
496.877	642.31
497.094	661.31
497.312	654.31
497.529	659.31
497.746	676.31
497.963	703.31
498.181	703.31
498.398	698.31
498.615	704.31
498.832	703.31
499.049	711.31
499.267	704.31
499.484	691.31
499.701	761.31
499.918	718.31
500.135	774.31
500.352	777.31
500.569	783.31
500.786	803.31
501.003	779.31
501.22	785.31
501.437	768.31
501.654	749.31
501.871	774.31
