Data from 1986.PennyLincolnUp.Lamp.En5.5.200Scan.071819.P2_HRD10591_17-09-42-973.txt Node
Date: Thu Jul 18 17:09:42 EDT 2019
User: cochatt
Spectrometer: HR+D1059
Trigger mode: 1
Integration Time (sec): 1.000000E-1
Scans to average: 1
Electric dark correction enabled: true
Nonlinearity correction enabled: false
Boxcar width: 0
XAxis mode: Wavelengths
Number of Pixels in Spectrum: 2048
>>>>>Begin Spectral Data<<<<<
223.165	-8.25
223.4	-8.25
223.635	-8.25
223.869	-12.25
224.104	-25.25
224.338	-14.25
224.573	-19.25
224.808	4.75
225.042	-19.25
225.277	-13.25
225.511	-11.25
225.746	-3.25
225.98	10.75
226.215	11.75
226.449	31.75
226.683	21.75
226.918	23.75
227.152	21.75
227.387	34.75
227.621	49.75
227.856	44.75
228.09	50.75
228.324	57.75
228.559	48.75
228.793	70.75
229.027	76.75
229.262	78.75
229.496	110.75
229.73	114.75
229.964	145.75
230.199	108.75
230.433	95.75
230.667	105.75
230.901	104.75
231.136	88.75
231.37	90.75
231.604	116.75
231.838	120.75
232.072	87.75
232.306	94.75
232.541	100.75
232.775	101.75
233.009	99.75
233.243	101.75
233.477	111.75
233.711	106.75
233.945	106.75
234.179	100.75
234.413	104.75
234.647	112.75
234.881	112.75
235.115	103.75
235.349	120.75
235.583	116.75
235.817	103.75
236.051	114.75
236.285	123.75
236.519	102.75
236.753	124.75
236.987	115.75
237.221	152.75
237.455	210.75
237.689	156.75
237.922	119.75
238.156	128.75
238.39	125.75
238.624	121.75
238.858	117.75
239.091	113.75
239.325	108.75
239.559	108.75
239.793	118.75
240.027	112.75
240.26	127.75
240.494	135.75
240.728	137.75
240.961	126.75
241.195	132.75
241.429	128.75
241.662	120.75
241.896	123.75
242.13	119.75
242.363	113.75
242.597	119.75
242.83	123.75
243.064	109.75
243.298	119.75
243.531	128.75
243.765	130.75
243.998	130.75
244.232	118.75
244.465	119.75
244.699	125.75
244.932	126.75
245.166	127.75
245.399	137.75
245.633	131.75
245.866	134.75
246.099	131.75
246.333	156.75
246.566	143.75
246.8	136.75
247.033	130.75
247.266	138.75
247.5	148.75
247.733	160.75
247.966	153.75
248.2	155.75
248.433	155.75
248.666	179.75
248.899	154.75
249.133	173.75
249.366	169.75
249.599	181.75
249.832	175.75
250.066	150.75
250.299	155.75
250.532	157.75
250.765	173.75
250.998	180.75
251.231	207.75
251.465	189.75
251.698	178.75
251.931	168.75
252.164	168.75
252.397	181.75
252.63	176.75
252.863	195.75
253.096	208.75
253.329	183.75
253.562	204.75
253.795	188.75
254.028	187.75
254.261	199.75
254.494	205.75
254.727	221.75
254.96	232.75
255.193	247.75
255.426	241.75
255.659	209.75
255.892	196.75
256.124	176.75
256.357	190.75
256.59	185.75
256.823	186.75
257.056	183.75
257.289	175.75
257.521	185.75
257.754	199.75
257.987	173.75
258.22	173.75
258.452	191.75
258.685	181.75
258.918	186.75
259.151	168.75
259.383	188.75
259.616	197.75
259.849	184.75
260.081	192.75
260.314	215.75
260.547	227.75
260.779	201.75
261.012	213.75
261.244	203.75
261.477	197.75
261.71	196.75
261.942	184.75
262.175	181.75
262.407	198.75
262.64	171.75
262.872	200.75
263.105	192.75
263.337	171.75
263.57	178.75
263.802	199.75
264.035	177.75
264.267	192.75
264.499	180.75
264.732	199.75
264.964	190.75
265.197	183.75
265.429	165.75
265.661	174.75
265.894	189.75
266.126	182.75
266.358	177.75
266.591	176.75
266.823	189.75
267.055	194.75
267.287	190.75
267.52	197.75
267.752	186.75
267.984	202.75
268.216	192.75
268.448	201.75
268.681	189.75
268.913	219.75
269.145	201.75
269.377	220.75
269.609	231.75
269.841	220.75
270.073	228.75
270.306	234.75
270.538	248.75
270.77	265.75
271.002	264.75
271.234	242.75
271.466	249.75
271.698	262.75
271.93	267.75
272.162	253.75
272.394	258.75
272.626	248.75
272.858	228.75
273.09	242.75
273.322	243.75
273.553	211.75
273.785	229.75
274.017	222.75
274.249	208.75
274.481	219.75
274.713	200.75
274.945	217.75
275.176	232.75
275.408	230.75
275.64	233.75
275.872	216.75
276.104	223.75
276.335	219.75
276.567	214.75
276.799	235.75
277.031	248.75
277.262	244.75
277.494	250.75
277.726	249.75
277.957	231.75
278.189	232.75
278.421	216.75
278.652	227.75
278.884	218.75
279.115	231.75
279.347	223.75
279.579	242.75
279.81	220.75
280.042	222.75
280.273	213.75
280.505	214.75
280.736	237.75
280.968	192.75
281.199	217.75
281.431	219.75
281.662	225.75
281.894	226.75
282.125	233.75
282.356	232.75
282.588	226.75
282.819	244.75
283.051	221.75
283.282	216.75
283.513	233.75
283.745	208.75
283.976	221.75
284.207	241.75
284.439	221.75
284.67	227.75
284.901	221.75
285.132	228.75
285.364	229.75
285.595	234.75
285.826	218.75
286.057	206.75
286.288	215.75
286.52	204.75
286.751	211.75
286.982	225.75
287.213	229.75
287.444	226.75
287.675	230.75
287.906	229.75
288.138	241.75
288.369	244.75
288.6	237.75
288.831	228.75
289.062	230.75
289.293	240.75
289.524	240.75
289.755	216.75
289.986	237.75
290.217	240.75
290.448	227.75
290.679	216.75
290.91	229.75
291.141	228.75
291.371	234.75
291.602	236.75
291.833	235.75
292.064	217.75
292.295	236.75
292.526	240.75
292.757	220.75
292.987	219.75
293.218	232.75
293.449	234.75
293.68	231.75
293.91	228.75
294.141	225.75
294.372	232.75
294.603	230.75
294.833	245.75
295.064	235.75
295.295	227.75
295.525	218.75
295.756	241.75
295.987	236.75
296.217	269.75
296.448	261.75
296.679	259.75
296.909	233.75
297.14	230.75
297.37	233.75
297.601	222.75
297.831	211.75
298.062	214.75
298.292	228.75
298.523	235.75
298.753	218.75
298.984	229.75
299.214	250.75
299.445	223.75
299.675	237.75
299.905	246.75
300.136	257.75
300.366	247.75
300.597	241.75
300.827	251.75
301.057	258.75
301.288	254.75
301.518	274.75
301.748	253.75
301.979	241.75
302.209	244.75
302.439	254.75
302.669	262.75
302.9	252.75
303.13	268.75
303.36	256.75
303.59	279.75
303.82	261.75
304.051	249.75
304.281	262.75
304.511	268.75
304.741	253.75
304.971	261.75
305.201	238.75
305.431	247.75
305.661	246.75
305.891	253.75
306.121	263.75
306.352	254.75
306.582	258.75
306.812	257.75
307.042	261.75
307.272	278.75
307.502	277.75
307.731	270.75
307.961	258.75
308.191	260.75
308.421	248.75
308.651	269.75
308.881	250.75
309.111	261.75
309.341	275.75
309.571	274.75
309.8	276.75
310.03	307.75
310.26	302.75
310.49	278.75
310.72	308.75
310.949	321.75
311.179	326.75
311.409	305.75
311.639	298.75
311.868	299.75
312.098	287.75
312.328	292.75
312.557	315.75
312.787	329.75
313.017	314.75
313.246	321.75
313.476	288.75
313.706	293.75
313.935	290.75
314.165	312.75
314.394	316.75
314.624	296.75
314.853	312.75
315.083	298.75
315.312	280.75
315.542	294.75
315.771	288.75
316.001	301.75
316.23	287.75
316.46	287.75
316.689	298.75
316.919	288.75
317.148	305.75
317.377	306.75
317.607	291.75
317.836	311.75
318.065	295.75
318.295	298.75
318.524	304.75
318.753	281.75
318.983	297.75
319.212	312.75
319.441	299.75
319.67	299.75
319.9	283.75
320.129	297.75
320.358	309.75
320.587	289.75
320.816	293.75
321.046	313.75
321.275	324.75
321.504	306.75
321.733	327.75
321.962	301.75
322.191	322.75
322.42	336.75
322.649	337.75
322.878	346.75
323.108	358.75
323.337	361.75
323.566	399.75
323.795	390.75
324.024	455.75
324.253	532.75
324.482	753.75
324.71	1162.75
324.939	1642.75
325.168	1414.75
325.397	764.75
325.626	485.75
325.855	440.75
326.084	410.75
326.313	380.75
326.542	396.75
326.77	449.75
326.999	482.75
327.228	667.75
327.457	986.75
327.686	1214.75
327.914	836.75
328.143	585.75
328.372	466.75
328.6	454.75
328.829	425.75
329.058	425.75
329.287	457.75
329.515	411.75
329.744	396.75
329.972	403.75
330.201	397.75
330.43	389.75
330.658	418.75
330.887	454.75
331.115	440.75
331.344	392.75
331.572	373.75
331.801	380.75
332.03	374.75
332.258	352.75
332.486	346.75
332.715	338.75
332.943	331.75
333.172	334.75
333.4	331.75
333.629	341.75
333.857	372.75
334.085	359.75
334.314	359.75
334.542	346.75
334.771	341.75
334.999	352.75
335.227	340.75
335.455	332.75
335.684	321.75
335.912	332.75
336.14	327.75
336.369	332.75
336.597	339.75
336.825	354.75
337.053	357.75
337.281	343.75
337.51	322.75
337.738	330.75
337.966	337.75
338.194	324.75
338.422	349.75
338.65	342.75
338.878	326.75
339.106	333.75
339.334	338.75
339.562	315.75
339.79	326.75
340.018	330.75
340.246	329.75
340.474	331.75
340.702	335.75
340.93	329.75
341.158	325.75
341.386	316.75
341.614	306.75
341.842	330.75
342.07	313.75
342.298	336.75
342.526	314.75
342.754	325.75
342.981	309.75
343.209	311.75
343.437	316.75
343.665	304.75
343.893	318.75
344.12	346.75
344.348	315.75
344.576	333.75
344.804	337.75
345.031	335.75
345.259	354.75
345.487	345.75
345.714	353.75
345.942	330.75
346.17	334.75
346.397	307.75
346.625	336.75
346.853	326.75
347.08	322.75
347.308	332.75
347.535	350.75
347.763	337.75
347.99	322.75
348.218	318.75
348.445	332.75
348.673	312.75
348.9	345.75
349.128	326.75
349.355	317.75
349.583	324.75
349.81	310.75
350.037	301.75
350.265	312.75
350.492	299.75
350.72	333.75
350.947	313.75
351.174	301.75
351.402	329.75
351.629	311.75
351.856	322.75
352.083	345.75
352.311	354.75
352.538	340.75
352.765	324.75
352.992	334.75
353.22	333.75
353.447	339.75
353.674	315.75
353.901	314.75
354.128	310.75
354.355	312.75
354.583	308.75
354.81	298.75
355.037	290.75
355.264	304.75
355.491	293.75
355.718	280.75
355.945	312.75
356.172	280.75
356.399	291.75
356.626	288.75
356.853	295.75
357.08	301.75
357.307	297.75
357.534	316.75
357.761	292.75
357.988	282.75
358.215	332.75
358.441	300.75
358.668	297.75
358.895	307.75
359.122	300.75
359.349	325.75
359.576	322.75
359.802	332.75
360.029	368.75
360.256	346.75
360.483	346.75
360.709	333.75
360.936	336.75
361.163	314.75
361.39	308.75
361.616	321.75
361.843	321.75
362.07	316.75
362.296	318.75
362.523	314.75
362.749	333.75
362.976	302.75
363.203	307.75
363.429	293.75
363.656	294.75
363.882	326.75
364.109	301.75
364.335	304.75
364.562	325.75
364.788	312.75
365.015	296.75
365.241	290.75
365.468	315.75
365.694	300.75
365.92	310.75
366.147	312.75
366.373	324.75
366.599	321.75
366.826	296.75
367.052	296.75
367.278	292.75
367.505	302.75
367.731	307.75
367.957	287.75
368.184	310.75
368.41	304.75
368.636	305.75
368.862	324.75
369.089	322.75
369.315	289.75
369.541	303.75
369.767	296.75
369.993	308.75
370.219	309.75
370.445	313.75
370.672	301.75
370.898	298.75
371.124	306.75
371.35	306.75
371.576	306.75
371.802	305.75
372.028	309.75
372.254	311.75
372.48	295.75
372.706	288.75
372.932	317.75
373.158	302.75
373.384	293.75
373.61	313.75
373.835	321.75
374.061	312.75
374.287	306.75
374.513	295.75
374.739	310.75
374.965	315.75
375.191	306.75
375.416	302.75
375.642	309.75
375.868	315.75
376.094	303.75
376.319	321.75
376.545	308.75
376.771	293.75
376.997	310.75
377.222	308.75
377.448	298.75
377.674	298.75
377.899	286.75
378.125	314.75
378.35	311.75
378.576	301.75
378.802	286.75
379.027	307.75
379.253	307.75
379.478	315.75
379.704	302.75
379.929	311.75
380.155	334.75
380.38	310.75
380.606	308.75
380.831	318.75
381.057	312.75
381.282	300.75
381.507	299.75
381.733	321.75
381.958	287.75
382.184	302.75
382.409	310.75
382.634	301.75
382.86	298.75
383.085	285.75
383.31	326.75
383.535	320.75
383.761	298.75
383.986	310.75
384.211	325.75
384.436	315.75
384.662	329.75
384.887	324.75
385.112	312.75
385.337	302.75
385.562	314.75
385.787	312.75
386.013	311.75
386.238	314.75
386.463	328.75
386.688	317.75
386.913	321.75
387.138	318.75
387.363	325.75
387.588	312.75
387.813	319.75
388.038	321.75
388.263	325.75
388.488	306.75
388.713	334.75
388.938	334.75
389.163	327.75
389.387	331.75
389.612	298.75
389.837	324.75
390.062	309.75
390.287	325.75
390.512	315.75
390.736	305.75
390.961	298.75
391.186	315.75
391.411	319.75
391.636	305.75
391.86	315.75
392.085	308.75
392.31	327.75
392.534	311.75
392.759	318.75
392.984	309.75
393.208	331.75
393.433	348.75
393.658	348.75
393.882	308.75
394.107	338.75
394.331	324.75
394.556	317.75
394.78	320.75
395.005	320.75
395.229	312.75
395.454	309.75
395.678	322.75
395.903	354.75
396.127	359.75
396.352	360.75
396.576	338.75
396.801	344.75
397.025	342.75
397.249	344.75
397.474	338.75
397.698	326.75
397.922	345.75
398.147	358.75
398.371	359.75
398.595	347.75
398.82	360.75
399.044	352.75
399.268	361.75
399.492	367.75
399.717	364.75
399.941	390.75
400.165	434.75
400.389	448.75
400.613	400.75
400.837	353.75
401.062	364.75
401.286	377.75
401.51	370.75
401.734	338.75
401.958	358.75
402.182	349.75
402.406	365.75
402.63	376.75
402.854	368.75
403.078	375.75
403.302	387.75
403.526	369.75
403.75	357.75
403.974	356.75
404.198	353.75
404.422	350.75
404.645	374.75
404.869	387.75
405.093	387.75
405.317	397.75
405.541	412.75
405.765	394.75
405.988	384.75
406.212	390.75
406.436	435.75
406.66	422.75
406.883	403.75
407.107	413.75
407.331	447.75
407.555	515.75
407.778	500.75
408.002	457.75
408.226	404.75
408.449	394.75
408.673	423.75
408.896	427.75
409.12	460.75
409.344	425.75
409.567	380.75
409.791	380.75
410.014	371.75
410.238	390.75
410.461	370.75
410.685	373.75
410.908	393.75
411.132	407.75
411.355	446.75
411.578	410.75
411.802	379.75
412.025	361.75
412.249	370.75
412.472	365.75
412.695	360.75
412.919	359.75
413.142	362.75
413.365	349.75
413.589	364.75
413.812	349.75
414.035	358.75
414.258	352.75
414.482	339.75
414.705	334.75
414.928	338.75
415.151	353.75
415.374	329.75
415.597	341.75
415.821	341.75
416.044	349.75
416.267	370.75
416.49	347.75
416.713	326.75
416.936	342.75
417.159	356.75
417.382	357.75
417.605	354.75
417.828	354.75
418.051	390.75
418.274	386.75
418.497	334.75
418.72	368.75
418.943	361.75
419.166	358.75
419.389	385.75
419.611	376.75
419.834	365.75
420.057	382.75
420.28	384.75
420.503	374.75
420.726	374.75
420.948	363.75
421.171	413.75
421.394	452.75
421.617	394.75
421.839	375.75
422.062	380.75
422.285	365.75
422.507	427.75
422.73	490.75
422.953	473.75
423.175	413.75
423.398	394.75
423.621	398.75
423.843	405.75
424.066	392.75
424.288	408.75
424.511	414.75
424.733	465.75
424.956	516.75
425.178	505.75
425.401	474.75
425.623	513.75
425.846	427.75
426.068	418.75
426.291	401.75
426.513	405.75
426.735	416.75
426.958	439.75
427.18	512.75
427.402	616.75
427.625	638.75
427.847	580.75
428.069	516.75
428.292	456.75
428.514	410.75
428.736	405.75
428.958	399.75
429.181	387.75
429.403	372.75
429.625	381.75
429.847	386.75
430.069	450.75
430.292	453.75
430.514	387.75
430.736	386.75
430.958	363.75
431.18	366.75
431.402	371.75
431.624	349.75
431.846	346.75
432.068	361.75
432.29	364.75
432.512	356.75
432.734	375.75
432.956	357.75
433.178	377.75
433.4	368.75
433.622	364.75
433.844	346.75
434.066	368.75
434.287	343.75
434.509	348.75
434.731	375.75
434.953	359.75
435.175	378.75
435.397	398.75
435.618	425.75
435.84	439.75
436.062	504.75
436.284	582.75
436.505	470.75
436.727	424.75
436.949	414.75
437.17	402.75
437.392	390.75
437.614	416.75
437.835	416.75
438.057	497.75
438.278	589.75
438.5	567.75
438.721	620.75
438.943	588.75
439.165	477.75
439.386	448.75
439.608	432.75
439.829	437.75
440.05	442.75
440.272	445.75
440.493	432.75
440.715	385.75
440.936	382.75
441.158	380.75
441.379	377.75
441.6	391.75
441.822	415.75
442.043	428.75
442.264	500.75
442.486	542.75
442.707	458.75
442.928	430.75
443.149	450.75
443.371	445.75
443.592	481.75
443.813	561.75
444.034	590.75
444.255	488.75
444.476	427.75
444.698	410.75
444.919	426.75
445.14	510.75
445.361	474.75
445.582	439.75
445.803	476.75
446.024	578.75
446.245	585.75
446.466	520.75
446.687	438.75
446.908	416.75
447.129	387.75
447.35	387.75
447.571	391.75
447.792	384.75
448.013	370.75
448.234	415.75
448.455	442.75
448.675	547.75
448.896	605.75
449.117	514.75
449.338	492.75
449.559	576.75
449.779	625.75
450	544.75
450.221	439.75
450.442	394.75
450.662	365.75
450.883	376.75
451.104	393.75
451.324	367.75
451.545	370.75
451.766	370.75
451.986	342.75
452.207	331.75
452.428	328.75
452.648	344.75
452.869	347.75
453.089	366.75
453.31	383.75
453.53	348.75
453.751	347.75
453.971	352.75
454.192	381.75
454.412	348.75
454.633	336.75
454.853	354.75
455.073	346.75
455.294	363.75
455.514	404.75
455.734	404.75
455.955	345.75
456.175	328.75
456.395	325.75
456.616	320.75
456.836	322.75
457.056	326.75
457.276	308.75
457.497	337.75
457.717	335.75
457.937	315.75
458.157	328.75
458.377	339.75
458.598	347.75
458.818	412.75
459.038	465.75
459.258	462.75
459.478	402.75
459.698	363.75
459.918	332.75
460.138	341.75
460.358	343.75
460.578	348.75
460.798	340.75
461.018	341.75
461.238	352.75
461.458	370.75
461.678	341.75
461.898	350.75
462.118	351.75
462.338	361.75
462.558	355.75
462.777	357.75
462.997	364.75
463.217	378.75
463.437	384.75
463.657	382.75
463.876	370.75
464.096	362.75
464.316	371.75
464.536	374.75
464.755	384.75
464.975	397.75
465.195	425.75
465.414	489.75
465.634	423.75
465.854	390.75
466.073	386.75
466.293	369.75
466.512	343.75
466.732	336.75
466.951	324.75
467.171	350.75
467.391	334.75
467.61	370.75
467.829	338.75
468.049	331.75
468.268	347.75
468.488	333.75
468.707	335.75
468.927	339.75
469.146	329.75
469.365	330.75
469.585	343.75
469.804	309.75
470.023	348.75
470.243	342.75
470.462	348.75
470.681	355.75
470.901	358.75
471.12	338.75
471.339	339.75
471.558	355.75
471.777	361.75
471.997	354.75
472.216	334.75
472.435	344.75
472.654	361.75
472.873	331.75
473.092	350.75
473.311	347.75
473.53	339.75
473.749	346.75
473.968	390.75
474.187	469.75
474.406	499.75
474.625	419.75
474.844	382.75
475.063	366.75
475.282	374.75
475.501	374.75
475.72	370.75
475.939	361.75
476.158	359.75
476.377	364.75
476.596	343.75
476.814	372.75
477.033	366.75
477.252	358.75
477.471	362.75
477.69	357.75
477.908	375.75
478.127	372.75
478.346	376.75
478.564	382.75
478.783	382.75
479.002	395.75
479.22	403.75
479.439	395.75
479.658	421.75
479.876	419.75
480.095	417.75
480.313	428.75
480.532	467.75
480.751	433.75
480.969	411.75
481.188	413.75
481.406	423.75
481.624	417.75
481.843	405.75
482.061	413.75
482.28	420.75
482.498	417.75
482.717	400.75
482.935	416.75
483.153	395.75
483.372	403.75
483.59	409.75
483.808	398.75
484.027	396.75
484.245	419.75
484.463	391.75
484.681	416.75
484.9	405.75
485.118	421.75
485.336	416.75
485.554	440.75
485.772	434.75
485.99	435.75
486.209	439.75
486.427	441.75
486.645	441.75
486.863	475.75
487.081	454.75
487.299	455.75
487.517	436.75
487.735	459.75
487.953	447.75
488.171	425.75
488.389	421.75
488.607	439.75
488.825	419.75
489.043	426.75
489.261	432.75
489.479	449.75
489.696	455.75
489.914	453.75
490.132	457.75
490.35	464.75
490.568	459.75
490.786	461.75
491.003	475.75
491.221	486.75
491.439	498.75
491.657	483.75
491.874	475.75
492.092	497.75
492.31	493.75
492.527	500.75
492.745	506.75
492.963	503.75
493.18	507.75
493.398	525.75
493.615	491.75
493.833	518.75
494.05	498.75
494.268	490.75
494.485	517.75
494.703	529.75
494.92	535.75
495.138	520.75
495.355	520.75
495.573	517.75
495.79	502.75
496.008	530.75
496.225	513.75
496.442	520.75
496.66	533.75
496.877	516.75
497.094	529.75
497.312	532.75
497.529	530.75
497.746	544.75
497.963	557.75
498.181	571.75
498.398	574.75
498.615	582.75
498.832	581.75
499.049	585.75
499.267	585.75
499.484	598.75
499.701	640.75
499.918	594.75
500.135	629.75
500.352	668.75
500.569	684.75
500.786	669.75
501.003	666.75
501.22	658.75
501.437	667.75
501.654	632.75
501.871	661.75
502.088	617.75
