Data from 1986.PennyLincolnUp.Lamp.En5.5.200Scan.071819.P2_HRD10591_17-12-51-973.txt Node
Date: Thu Jul 18 17:12:51 EDT 2019
User: cochatt
Spectrometer: HR+D1059
Trigger mode: 1
Integration Time (sec): 1.000000E-1
Scans to average: 1
Electric dark correction enabled: true
Nonlinearity correction enabled: false
Boxcar width: 0
XAxis mode: Wavelengths
Number of Pixels in Spectrum: 2048
>>>>>Begin Spectral Data<<<<<
223.165	-13.06
223.4	-13.06
223.635	-13.06
223.869	-6.06
224.104	-13.06
224.338	-2.06
224.573	-25.06
224.808	-20.06
225.042	-10.06
225.277	-7.06
225.511	-13.06
225.746	-7.06
225.98	7.94
226.215	28.94
226.449	11.94
226.683	9.94
226.918	29.94
227.152	27.94
227.387	19.94
227.621	26.94
227.856	38.94
228.09	52.94
228.324	50.94
228.559	51.94
228.793	67.94
229.027	97.94
229.262	103.94
229.496	102.94
229.73	140.94
229.964	165.94
230.199	137.94
230.433	118.94
230.667	126.94
230.901	107.94
231.136	114.94
231.37	119.94
231.604	122.94
231.838	107.94
232.072	107.94
232.306	113.94
232.541	106.94
232.775	113.94
233.009	123.94
233.243	124.94
233.477	122.94
233.711	121.94
233.945	127.94
234.179	108.94
234.413	111.94
234.647	123.94
234.881	122.94
235.115	115.94
235.349	119.94
235.583	140.94
235.817	127.94
236.051	122.94
236.285	139.94
236.519	130.94
236.753	136.94
236.987	145.94
237.221	183.94
237.455	225.94
237.689	195.94
237.922	143.94
238.156	137.94
238.39	140.94
238.624	117.94
238.858	125.94
239.091	121.94
239.325	129.94
239.559	130.94
239.793	134.94
240.027	145.94
240.26	149.94
240.494	171.94
240.728	175.94
240.961	160.94
241.195	151.94
241.429	149.94
241.662	142.94
241.896	132.94
242.13	147.94
242.363	128.94
242.597	140.94
242.83	153.94
243.064	141.94
243.298	139.94
243.531	132.94
243.765	144.94
243.998	144.94
244.232	157.94
244.465	147.94
244.699	154.94
244.932	166.94
245.166	154.94
245.399	167.94
245.633	159.94
245.866	143.94
246.099	163.94
246.333	158.94
246.566	150.94
246.8	163.94
247.033	157.94
247.266	167.94
247.5	171.94
247.733	182.94
247.966	190.94
248.2	180.94
248.433	193.94
248.666	188.94
248.899	210.94
249.133	220.94
249.366	220.94
249.599	217.94
249.832	212.94
250.066	221.94
250.299	235.94
250.532	242.94
250.765	272.94
250.998	296.94
251.231	306.94
251.465	258.94
251.698	244.94
251.931	212.94
252.164	234.94
252.397	216.94
252.63	237.94
252.863	234.94
253.096	234.94
253.329	258.94
253.562	243.94
253.795	231.94
254.028	257.94
254.261	241.94
254.494	249.94
254.727	293.94
254.96	306.94
255.193	306.94
255.426	293.94
255.659	299.94
255.892	324.94
256.124	363.94
256.357	414.94
256.59	369.94
256.823	342.94
257.056	313.94
257.289	283.94
257.521	271.94
257.754	260.94
257.987	257.94
258.22	244.94
258.452	259.94
258.685	243.94
258.918	235.94
259.151	228.94
259.383	246.94
259.616	249.94
259.849	262.94
260.081	251.94
260.314	288.94
260.547	288.94
260.779	287.94
261.012	256.94
261.244	236.94
261.477	236.94
261.71	253.94
261.942	241.94
262.175	268.94
262.407	243.94
262.64	227.94
262.872	222.94
263.105	231.94
263.337	223.94
263.57	230.94
263.802	217.94
264.035	214.94
264.267	241.94
264.499	241.94
264.732	221.94
264.964	231.94
265.197	243.94
265.429	246.94
265.661	234.94
265.894	215.94
266.126	226.94
266.358	232.94
266.591	241.94
266.823	240.94
267.055	252.94
267.287	247.94
267.52	245.94
267.752	261.94
267.984	247.94
268.216	282.94
268.448	243.94
268.681	237.94
268.913	255.94
269.145	276.94
269.377	293.94
269.609	307.94
269.841	267.94
270.073	277.94
270.306	309.94
270.538	319.94
270.77	328.94
271.002	321.94
271.234	320.94
271.466	314.94
271.698	312.94
271.93	331.94
272.162	330.94
272.394	361.94
272.626	315.94
272.858	301.94
273.09	300.94
273.322	285.94
273.553	283.94
273.785	295.94
274.017	298.94
274.249	304.94
274.481	290.94
274.713	302.94
274.945	283.94
275.176	300.94
275.408	280.94
275.64	297.94
275.872	279.94
276.104	289.94
276.335	290.94
276.567	286.94
276.799	314.94
277.031	328.94
277.262	355.94
277.494	355.94
277.726	330.94
277.957	315.94
278.189	311.94
278.421	313.94
278.652	297.94
278.884	296.94
279.115	295.94
279.347	296.94
279.579	289.94
279.81	299.94
280.042	315.94
280.273	298.94
280.505	321.94
280.736	277.94
280.968	287.94
281.199	288.94
281.431	292.94
281.662	289.94
281.894	294.94
282.125	290.94
282.356	315.94
282.588	316.94
282.819	314.94
283.051	294.94
283.282	280.94
283.513	287.94
283.745	283.94
283.976	295.94
284.207	297.94
284.439	319.94
284.67	285.94
284.901	297.94
285.132	299.94
285.364	280.94
285.595	287.94
285.826	293.94
286.057	311.94
286.288	293.94
286.52	285.94
286.751	299.94
286.982	276.94
287.213	312.94
287.444	294.94
287.675	313.94
287.906	291.94
288.138	319.94
288.369	309.94
288.6	313.94
288.831	308.94
289.062	323.94
289.293	297.94
289.524	296.94
289.755	294.94
289.986	299.94
290.217	311.94
290.448	296.94
290.679	280.94
290.91	305.94
291.141	304.94
291.371	306.94
291.602	315.94
291.833	301.94
292.064	295.94
292.295	308.94
292.526	315.94
292.757	311.94
292.987	314.94
293.218	287.94
293.449	293.94
293.68	283.94
293.91	293.94
294.141	286.94
294.372	309.94
294.603	300.94
294.833	289.94
295.064	301.94
295.295	298.94
295.525	309.94
295.756	317.94
295.987	314.94
296.217	340.94
296.448	350.94
296.679	316.94
296.909	302.94
297.14	311.94
297.37	313.94
297.601	310.94
297.831	314.94
298.062	297.94
298.292	287.94
298.523	308.94
298.753	322.94
298.984	322.94
299.214	314.94
299.445	301.94
299.675	297.94
299.905	301.94
300.136	329.94
300.366	312.94
300.597	326.94
300.827	337.94
301.057	343.94
301.288	343.94
301.518	327.94
301.748	341.94
301.979	332.94
302.209	354.94
302.439	328.94
302.669	335.94
302.9	339.94
303.13	335.94
303.36	333.94
303.59	325.94
303.82	333.94
304.051	358.94
304.281	327.94
304.511	327.94
304.741	320.94
304.971	340.94
305.201	341.94
305.431	323.94
305.661	346.94
305.891	328.94
306.121	329.94
306.352	337.94
306.582	338.94
306.812	343.94
307.042	335.94
307.272	342.94
307.502	338.94
307.731	357.94
307.961	350.94
308.191	327.94
308.421	343.94
308.651	345.94
308.881	345.94
309.111	347.94
309.341	371.94
309.571	361.94
309.8	367.94
310.03	379.94
310.26	390.94
310.49	381.94
310.72	388.94
310.949	417.94
311.179	416.94
311.409	396.94
311.639	403.94
311.868	396.94
312.098	405.94
312.328	409.94
312.557	422.94
312.787	429.94
313.017	420.94
313.246	409.94
313.476	391.94
313.706	395.94
313.935	424.94
314.165	411.94
314.394	421.94
314.624	399.94
314.853	413.94
315.083	407.94
315.312	384.94
315.542	369.94
315.771	393.94
316.001	373.94
316.23	387.94
316.46	386.94
316.689	387.94
316.919	394.94
317.148	419.94
317.377	413.94
317.607	397.94
317.836	397.94
318.065	393.94
318.295	395.94
318.524	411.94
318.753	392.94
318.983	387.94
319.212	404.94
319.441	398.94
319.67	407.94
319.9	395.94
320.129	407.94
320.358	405.94
320.587	426.94
320.816	402.94
321.046	396.94
321.275	420.94
321.504	422.94
321.733	459.94
321.962	437.94
322.191	463.94
322.42	459.94
322.649	474.94
322.878	493.94
323.108	499.94
323.337	548.94
323.566	548.94
323.795	584.94
324.024	641.94
324.253	771.94
324.482	1124.94
324.71	1701.94
324.939	2455.94
325.168	2167.94
325.397	1151.94
325.626	769.94
325.855	643.94
326.084	597.94
326.313	565.94
326.542	571.94
326.77	665.94
326.999	744.94
327.228	1019.94
327.457	1511.94
327.686	1923.94
327.914	1336.94
328.143	927.94
328.372	856.94
328.6	795.94
328.829	710.94
329.058	704.94
329.287	704.94
329.515	700.94
329.744	697.94
329.972	753.94
330.201	868.94
330.43	993.94
330.658	944.94
330.887	836.94
331.115	739.94
331.344	650.94
331.572	583.94
331.801	602.94
332.03	572.94
332.258	560.94
332.486	537.94
332.715	540.94
332.943	547.94
333.172	533.94
333.4	577.94
333.629	600.94
333.857	667.94
334.085	747.94
334.314	889.94
334.542	1092.94
334.771	1145.94
334.999	865.94
335.227	676.94
335.455	581.94
335.684	558.94
335.912	526.94
336.14	521.94
336.369	503.94
336.597	519.94
336.825	489.94
337.053	477.94
337.281	468.94
337.51	463.94
337.738	462.94
337.966	469.94
338.194	473.94
338.422	467.94
338.65	461.94
338.878	449.94
339.106	442.94
339.334	451.94
339.562	430.94
339.79	453.94
340.018	451.94
340.246	437.94
340.474	442.94
340.702	433.94
340.93	449.94
341.158	447.94
341.386	437.94
341.614	451.94
341.842	438.94
342.07	417.94
342.298	425.94
342.526	421.94
342.754	409.94
342.981	398.94
343.209	421.94
343.437	422.94
343.665	420.94
343.893	417.94
344.12	430.94
344.348	425.94
344.576	425.94
344.804	442.94
345.031	451.94
345.259	465.94
345.487	444.94
345.714	429.94
345.942	416.94
346.17	403.94
346.397	421.94
346.625	423.94
346.853	417.94
347.08	415.94
347.308	413.94
347.535	440.94
347.763	439.94
347.99	424.94
348.218	423.94
348.445	413.94
348.673	415.94
348.9	419.94
349.128	395.94
349.355	399.94
349.583	412.94
349.81	424.94
350.037	391.94
350.265	402.94
350.492	413.94
350.72	409.94
350.947	401.94
351.174	436.94
351.402	426.94
351.629	431.94
351.856	426.94
352.083	415.94
352.311	441.94
352.538	423.94
352.765	445.94
352.992	440.94
353.22	419.94
353.447	418.94
353.674	390.94
353.901	413.94
354.128	383.94
354.355	401.94
354.583	391.94
354.81	395.94
355.037	393.94
355.264	375.94
355.491	365.94
355.718	383.94
355.945	371.94
356.172	377.94
356.399	365.94
356.626	365.94
356.853	397.94
357.08	373.94
357.307	364.94
357.534	381.94
357.761	383.94
357.988	378.94
358.215	366.94
358.441	404.94
358.668	401.94
358.895	383.94
359.122	392.94
359.349	392.94
359.576	417.94
359.802	429.94
360.029	463.94
360.256	467.94
360.483	445.94
360.709	424.94
360.936	413.94
361.163	415.94
361.39	427.94
361.616	430.94
361.843	403.94
362.07	397.94
362.296	416.94
362.523	409.94
362.749	426.94
362.976	386.94
363.203	397.94
363.429	383.94
363.656	403.94
363.882	407.94
364.109	393.94
364.335	388.94
364.562	404.94
364.788	389.94
365.015	396.94
365.241	401.94
365.468	376.94
365.694	420.94
365.92	380.94
366.147	377.94
366.373	388.94
366.599	377.94
366.826	383.94
367.052	379.94
367.278	409.94
367.505	393.94
367.731	387.94
367.957	422.94
368.184	381.94
368.41	397.94
368.636	397.94
368.862	418.94
369.089	388.94
369.315	396.94
369.541	386.94
369.767	387.94
369.993	394.94
370.219	398.94
370.445	393.94
370.672	369.94
370.898	380.94
371.124	378.94
371.35	372.94
371.576	370.94
371.802	369.94
372.028	377.94
372.254	373.94
372.48	375.94
372.706	388.94
372.932	371.94
373.158	383.94
373.384	385.94
373.61	385.94
373.835	394.94
374.061	390.94
374.287	378.94
374.513	383.94
374.739	378.94
374.965	389.94
375.191	378.94
375.416	373.94
375.642	376.94
375.868	377.94
376.094	374.94
376.319	377.94
376.545	387.94
376.771	383.94
376.997	364.94
377.222	374.94
377.448	381.94
377.674	368.94
377.899	384.94
378.125	376.94
378.35	401.94
378.576	367.94
378.802	385.94
379.027	376.94
379.253	376.94
379.478	347.94
379.704	355.94
379.929	360.94
380.155	358.94
380.38	359.94
380.606	376.94
380.831	373.94
381.057	377.94
381.282	377.94
381.507	365.94
381.733	377.94
381.958	377.94
382.184	383.94
382.409	385.94
382.634	396.94
382.86	370.94
383.085	386.94
383.31	381.94
383.535	368.94
383.761	361.94
383.986	378.94
384.211	369.94
384.436	383.94
384.662	386.94
384.887	375.94
385.112	373.94
385.337	396.94
385.562	376.94
385.787	368.94
386.013	387.94
386.238	410.94
386.463	406.94
386.688	392.94
386.913	378.94
387.138	388.94
387.363	381.94
387.588	384.94
387.813	409.94
388.038	401.94
388.263	404.94
388.488	400.94
388.713	413.94
388.938	389.94
389.163	395.94
389.387	400.94
389.612	391.94
389.837	379.94
390.062	397.94
390.287	410.94
390.512	393.94
390.736	395.94
390.961	390.94
391.186	389.94
391.411	371.94
391.636	407.94
391.86	418.94
392.085	396.94
392.31	380.94
392.534	398.94
392.759	403.94
392.984	388.94
393.208	390.94
393.433	399.94
393.658	402.94
393.882	387.94
394.107	412.94
394.331	394.94
394.556	390.94
394.78	391.94
395.005	394.94
395.229	401.94
395.454	395.94
395.678	420.94
395.903	422.94
396.127	427.94
396.352	461.94
396.576	418.94
396.801	405.94
397.025	409.94
397.249	389.94
397.474	400.94
397.698	408.94
397.922	444.94
398.147	444.94
398.371	436.94
398.595	450.94
398.82	431.94
399.044	456.94
399.268	433.94
399.492	441.94
399.717	474.94
399.941	495.94
400.165	529.94
400.389	525.94
400.613	501.94
400.837	460.94
401.062	459.94
401.286	447.94
401.51	436.94
401.734	446.94
401.958	452.94
402.182	463.94
402.406	453.94
402.63	456.94
402.854	460.94
403.078	481.94
403.302	452.94
403.526	469.94
403.75	471.94
403.974	479.94
404.198	460.94
404.422	471.94
404.645	493.94
404.869	529.94
405.093	579.94
405.317	624.94
405.541	641.94
405.765	595.94
405.988	561.94
406.212	556.94
406.436	543.94
406.66	552.94
406.883	519.94
407.107	539.94
407.331	563.94
407.555	653.94
407.778	612.94
408.002	552.94
408.226	527.94
408.449	496.94
408.673	515.94
408.896	534.94
409.12	607.94
409.344	551.94
409.567	501.94
409.791	466.94
410.014	484.94
410.238	481.94
410.461	449.94
410.685	480.94
410.908	485.94
411.132	515.94
411.355	567.94
411.578	559.94
411.802	504.94
412.025	525.94
412.249	530.94
412.472	585.94
412.695	648.94
412.919	647.94
413.142	592.94
413.365	564.94
413.589	515.94
413.812	490.94
414.035	485.94
414.258	492.94
414.482	472.94
414.705	464.94
414.928	459.94
415.151	457.94
415.374	462.94
415.597	459.94
415.821	457.94
416.044	457.94
416.267	461.94
416.49	473.94
416.713	434.94
416.936	436.94
417.159	461.94
417.382	448.94
417.605	487.94
417.828	486.94
418.051	500.94
418.274	490.94
418.497	460.94
418.72	479.94
418.943	447.94
419.166	476.94
419.389	481.94
419.611	468.94
419.834	501.94
420.057	514.94
420.28	562.94
420.503	561.94
420.726	546.94
420.948	527.94
421.171	563.94
421.394	574.94
421.617	512.94
421.839	477.94
422.062	508.94
422.285	522.94
422.507	553.94
422.73	642.94
422.953	599.94
423.175	532.94
423.398	497.94
423.621	503.94
423.843	527.94
424.066	507.94
424.288	502.94
424.511	520.94
424.733	562.94
424.956	630.94
425.178	654.94
425.401	610.94
425.623	651.94
425.846	574.94
426.068	529.94
426.291	501.94
426.513	497.94
426.735	536.94
426.958	567.94
427.18	631.94
427.402	750.94
427.625	867.94
427.847	811.94
428.069	753.94
428.292	632.94
428.514	563.94
428.736	519.94
428.958	500.94
429.181	480.94
429.403	480.94
429.625	493.94
429.847	532.94
430.069	579.94
430.292	580.94
430.514	509.94
430.736	472.94
430.958	486.94
431.18	455.94
431.402	455.94
431.624	443.94
431.846	437.94
432.068	447.94
432.29	453.94
432.512	454.94
432.734	447.94
432.956	458.94
433.178	458.94
433.4	462.94
433.622	453.94
433.844	443.94
434.066	433.94
434.287	455.94
434.509	455.94
434.731	459.94
434.953	443.94
435.175	477.94
435.397	502.94
435.618	503.94
435.84	572.94
436.062	635.94
436.284	729.94
436.505	616.94
436.727	543.94
436.949	512.94
437.17	473.94
437.392	496.94
437.614	480.94
437.835	515.94
438.057	613.94
438.278	725.94
438.5	721.94
438.721	798.94
438.943	768.94
439.165	648.94
439.386	567.94
439.608	519.94
439.829	534.94
440.05	546.94
440.272	590.94
440.493	577.94
440.715	519.94
440.936	487.94
441.158	480.94
441.379	488.94
441.6	485.94
441.822	514.94
442.043	547.94
442.264	629.94
442.486	681.94
442.707	580.94
442.928	538.94
443.149	540.94
443.371	553.94
443.592	579.94
443.813	695.94
444.034	735.94
444.255	608.94
444.476	522.94
444.698	511.94
444.919	501.94
445.14	579.94
445.361	577.94
445.582	565.94
445.803	639.94
446.024	714.94
446.245	743.94
446.466	666.94
446.687	569.94
446.908	525.94
447.129	504.94
447.35	479.94
447.571	477.94
447.792	476.94
448.013	474.94
448.234	504.94
448.455	543.94
448.675	668.94
448.896	772.94
449.117	670.94
449.338	617.94
449.559	749.94
449.779	818.94
450	664.94
450.221	529.94
450.442	479.94
450.662	492.94
450.883	481.94
451.104	511.94
451.324	479.94
451.545	457.94
451.766	446.94
451.986	461.94
452.207	428.94
452.428	444.94
452.648	433.94
452.869	438.94
453.089	411.94
453.31	455.94
453.53	441.94
453.751	448.94
453.971	441.94
454.192	454.94
454.412	427.94
454.633	439.94
454.853	430.94
455.073	417.94
455.294	449.94
455.514	532.94
455.734	473.94
455.955	447.94
456.175	417.94
456.395	412.94
456.616	410.94
456.836	417.94
457.056	380.94
457.276	393.94
457.497	407.94
457.717	398.94
457.937	398.94
458.157	430.94
458.377	412.94
458.598	457.94
458.818	498.94
459.038	591.94
459.258	577.94
459.478	486.94
459.698	466.94
459.918	447.94
460.138	431.94
460.358	437.94
460.578	436.94
460.798	455.94
461.018	442.94
461.238	449.94
461.458	455.94
461.678	427.94
461.898	403.94
462.118	429.94
462.338	450.94
462.558	441.94
462.777	453.94
462.997	464.94
463.217	466.94
463.437	467.94
463.657	457.94
463.876	457.94
464.096	448.94
464.316	449.94
464.536	460.94
464.755	476.94
464.975	471.94
465.195	510.94
465.414	570.94
465.634	525.94
465.854	490.94
466.073	458.94
466.293	464.94
466.512	471.94
466.732	455.94
466.951	417.94
467.171	428.94
467.391	451.94
467.61	466.94
467.829	477.94
468.049	495.94
468.268	562.94
468.488	535.94
468.707	461.94
468.927	453.94
469.146	460.94
469.365	442.94
469.585	432.94
469.804	463.94
470.023	466.94
470.243	437.94
470.462	466.94
470.681	449.94
470.901	475.94
471.12	441.94
471.339	461.94
471.558	472.94
471.777	460.94
471.997	484.94
472.216	567.94
472.435	823.94
472.654	753.94
472.873	588.94
473.092	529.94
473.311	507.94
473.53	507.94
473.749	505.94
473.968	540.94
474.187	643.94
474.406	669.94
474.625	559.94
474.844	502.94
475.063	475.94
475.282	466.94
475.501	479.94
475.72	479.94
475.939	466.94
476.158	473.94
476.377	460.94
476.596	472.94
476.814	471.94
477.033	492.94
477.252	486.94
477.471	477.94
477.69	485.94
477.908	508.94
478.127	469.94
478.346	490.94
478.564	476.94
478.783	508.94
479.002	521.94
479.22	516.94
479.439	541.94
479.658	554.94
479.876	561.94
480.095	556.94
480.313	601.94
480.532	600.94
480.751	615.94
480.969	692.94
481.188	1053.94
481.406	1366.94
481.624	916.94
481.843	771.94
482.061	701.94
482.28	656.94
482.498	627.94
482.717	613.94
482.935	583.94
483.153	615.94
483.372	592.94
483.59	585.94
483.808	569.94
484.027	562.94
484.245	579.94
484.463	569.94
484.681	564.94
484.9	577.94
485.118	558.94
485.336	576.94
485.554	589.94
485.772	571.94
485.99	577.94
486.209	590.94
486.427	603.94
486.645	593.94
486.863	610.94
487.081	598.94
487.299	596.94
487.517	613.94
487.735	604.94
487.953	603.94
488.171	609.94
488.389	618.94
488.607	618.94
488.825	607.94
489.043	621.94
489.261	615.94
489.479	636.94
489.696	614.94
489.914	624.94
490.132	645.94
490.35	650.94
490.568	659.94
490.786	682.94
491.003	693.94
491.221	714.94
491.439	717.94
491.657	724.94
491.874	736.94
492.092	757.94
492.31	735.94
492.527	759.94
492.745	751.94
492.963	765.94
493.18	765.94
493.398	760.94
493.615	763.94
493.833	757.94
494.05	768.94
494.268	754.94
494.485	756.94
494.703	745.94
494.92	782.94
495.138	747.94
495.355	734.94
495.573	743.94
495.79	739.94
496.008	752.94
496.225	715.94
496.442	746.94
496.66	743.94
496.877	742.94
497.094	718.94
497.312	713.94
497.529	704.94
497.746	736.94
497.963	758.94
498.181	761.94
498.398	779.94
498.615	763.94
498.832	772.94
499.049	781.94
499.267	770.94
499.484	791.94
499.701	796.94
499.918	805.94
500.135	822.94
500.352	825.94
500.569	850.94
500.786	873.94
501.003	892.94
501.22	873.94
501.437	829.94
501.654	827.94
501.871	825.94
