Data from 1986.PennyLincolnUp.Lamp.En5.5.200Scan.071819.P2_HRD10591_17-10-26-974.txt Node
Date: Thu Jul 18 17:10:26 EDT 2019
User: cochatt
Spectrometer: HR+D1059
Trigger mode: 1
Integration Time (sec): 1.000000E-1
Scans to average: 1
Electric dark correction enabled: true
Nonlinearity correction enabled: false
Boxcar width: 0
XAxis mode: Wavelengths
Number of Pixels in Spectrum: 2048
>>>>>Begin Spectral Data<<<<<
223.165	-1
223.4	-1
223.635	-1
223.869	-13
224.104	-13
224.338	-19
224.573	-16
224.808	-12
225.042	4
225.277	-20
225.511	0
225.746	8
225.98	7
226.215	-3
226.449	21
226.683	21
226.918	17
227.152	19
227.387	31
227.621	38
227.856	48
228.09	52
228.324	38
228.559	76
228.793	90
229.027	113
229.262	122
229.496	124
229.73	137
229.964	164
230.199	130
230.433	134
230.667	124
230.901	106
231.136	121
231.37	118
231.604	112
231.838	109
232.072	112
232.306	110
232.541	115
232.775	104
233.009	123
233.243	108
233.477	128
233.711	120
233.945	128
234.179	129
234.413	128
234.647	112
234.881	128
235.115	119
235.349	125
235.583	122
235.817	120
236.051	135
236.285	115
236.519	128
236.753	128
236.987	148
237.221	198
237.455	250
237.689	196
237.922	159
238.156	142
238.39	131
238.624	121
238.858	127
239.091	128
239.325	133
239.559	123
239.793	120
240.027	137
240.26	126
240.494	140
240.728	156
240.961	170
241.195	151
241.429	130
241.662	135
241.896	123
242.13	149
242.363	126
242.597	130
242.83	135
243.064	152
243.298	132
243.531	124
243.765	133
243.998	132
244.232	142
244.465	144
244.699	147
244.932	134
245.166	138
245.399	142
245.633	144
245.866	128
246.099	136
246.333	146
246.566	142
246.8	155
247.033	169
247.266	163
247.5	164
247.733	195
247.966	173
248.2	169
248.433	176
248.666	179
248.899	188
249.133	214
249.366	216
249.599	221
249.832	195
250.066	175
250.299	197
250.532	187
250.765	204
250.998	217
251.231	231
251.465	216
251.698	222
251.931	207
252.164	213
252.397	206
252.63	224
252.863	232
253.096	246
253.329	238
253.562	253
253.795	237
254.028	219
254.261	227
254.494	257
254.727	285
254.96	290
255.193	289
255.426	257
255.659	248
255.892	242
256.124	227
256.357	244
256.59	255
256.823	218
257.056	227
257.289	219
257.521	216
257.754	214
257.987	211
258.22	216
258.452	217
258.685	211
258.918	210
259.151	219
259.383	213
259.616	219
259.849	235
260.081	261
260.314	262
260.547	277
260.779	275
261.012	242
261.244	221
261.477	230
261.71	227
261.942	241
262.175	260
262.407	245
262.64	212
262.872	207
263.105	233
263.337	212
263.57	208
263.802	231
264.035	211
264.267	211
264.499	212
264.732	221
264.964	202
265.197	217
265.429	210
265.661	223
265.894	214
266.126	184
266.358	203
266.591	208
266.823	226
267.055	235
267.287	228
267.52	231
267.752	231
267.984	219
268.216	218
268.448	228
268.681	210
268.913	251
269.145	260
269.377	280
269.609	290
269.841	287
270.073	287
270.306	298
270.538	318
270.77	310
271.002	303
271.234	305
271.466	290
271.698	312
271.93	330
272.162	339
272.394	317
272.626	319
272.858	296
273.09	290
273.322	285
273.553	276
273.785	281
274.017	246
274.249	276
274.481	276
274.713	268
274.945	260
275.176	277
275.408	243
275.64	248
275.872	256
276.104	250
276.335	258
276.567	253
276.799	274
277.031	289
277.262	319
277.494	310
277.726	296
277.957	296
278.189	281
278.421	268
278.652	267
278.884	263
279.115	246
279.347	271
279.579	254
279.81	259
280.042	243
280.273	267
280.505	250
280.736	247
280.968	242
281.199	262
281.431	258
281.662	268
281.894	264
282.125	267
282.356	290
282.588	313
282.819	304
283.051	280
283.282	258
283.513	250
283.745	267
283.976	272
284.207	252
284.439	268
284.67	258
284.901	258
285.132	272
285.364	263
285.595	266
285.826	262
286.057	266
286.288	274
286.52	274
286.751	259
286.982	272
287.213	290
287.444	257
287.675	281
287.906	278
288.138	286
288.369	289
288.6	286
288.831	284
289.062	266
289.293	274
289.524	268
289.755	271
289.986	257
290.217	266
290.448	266
290.679	255
290.91	274
291.141	266
291.371	271
291.602	264
291.833	270
292.064	274
292.295	271
292.526	281
292.757	274
292.987	262
293.218	266
293.449	272
293.68	276
293.91	270
294.141	256
294.372	273
294.603	278
294.833	266
295.064	288
295.295	274
295.525	273
295.756	267
295.987	286
296.217	306
296.448	304
296.679	296
296.909	266
297.14	267
297.37	291
297.601	290
297.831	278
298.062	276
298.292	270
298.523	278
298.753	273
298.984	288
299.214	274
299.445	249
299.675	280
299.905	296
300.136	306
300.366	285
300.597	290
300.827	283
301.057	288
301.288	322
301.518	301
301.748	289
301.979	282
302.209	313
302.439	300
302.669	296
302.9	287
303.13	307
303.36	300
303.59	305
303.82	329
304.051	330
304.281	288
304.511	293
304.741	292
304.971	297
305.201	286
305.431	291
305.661	302
305.891	277
306.121	301
306.352	314
306.582	300
306.812	314
307.042	313
307.272	277
307.502	310
307.731	300
307.961	294
308.191	322
308.421	319
308.651	322
308.881	328
309.111	340
309.341	313
309.571	327
309.8	343
310.03	351
310.26	375
310.49	367
310.72	360
310.949	392
311.179	387
311.409	370
311.639	355
311.868	350
312.098	365
312.328	385
312.557	398
312.787	398
313.017	401
313.246	364
313.476	360
313.706	340
313.935	357
314.165	381
314.394	364
314.624	382
314.853	344
315.083	366
315.312	344
315.542	356
315.771	346
316.001	339
316.23	348
316.46	357
316.689	343
316.919	355
317.148	359
317.377	385
317.607	368
317.836	354
318.065	351
318.295	354
318.524	350
318.753	339
318.983	345
319.212	348
319.441	364
319.67	368
319.9	376
320.129	368
320.358	369
320.587	378
320.816	358
321.046	362
321.275	379
321.504	372
321.733	382
321.962	394
322.191	395
322.42	419
322.649	418
322.878	465
323.108	436
323.337	471
323.566	510
323.795	530
324.024	617
324.253	751
324.482	1015
324.71	1592
324.939	2242
325.168	1959
325.397	1062
325.626	680
325.855	566
326.084	527
326.313	498
326.542	528
326.77	578
326.999	658
327.228	918
327.457	1367
327.686	1702
327.914	1183
328.143	753
328.372	684
328.6	610
328.829	597
329.058	585
329.287	587
329.515	557
329.744	514
329.972	497
330.201	526
330.43	526
330.658	575
330.887	656
331.115	598
331.344	511
331.572	469
331.801	484
332.03	454
332.258	431
332.486	412
332.715	423
332.943	408
333.172	418
333.4	416
333.629	423
333.857	436
334.085	440
334.314	435
334.542	452
334.771	496
334.999	477
335.227	432
335.455	407
335.684	421
335.912	442
336.14	404
336.369	400
336.597	417
336.825	414
337.053	421
337.281	415
337.51	387
337.738	419
337.966	393
338.194	393
338.422	399
338.65	383
338.878	410
339.106	384
339.334	373
339.562	396
339.79	379
340.018	397
340.246	388
340.474	398
340.702	398
340.93	388
341.158	398
341.386	384
341.614	402
341.842	403
342.07	398
342.298	385
342.526	371
342.754	386
342.981	374
343.209	377
343.437	393
343.665	386
343.893	397
344.12	393
344.348	391
344.576	392
344.804	404
345.031	407
345.259	428
345.487	404
345.714	393
345.942	395
346.17	376
346.397	383
346.625	371
346.853	373
347.08	404
347.308	402
347.535	399
347.763	390
347.99	386
348.218	396
348.445	398
348.673	419
348.9	396
349.128	374
349.355	371
349.583	382
349.81	375
350.037	385
350.265	383
350.492	355
350.72	396
350.947	356
351.174	396
351.402	404
351.629	372
351.856	405
352.083	405
352.311	394
352.538	399
352.765	405
352.992	405
353.22	399
353.447	377
353.674	386
353.901	379
354.128	351
354.355	358
354.583	343
354.81	350
355.037	341
355.264	348
355.491	349
355.718	350
355.945	350
356.172	338
356.399	357
356.626	356
356.853	344
357.08	350
357.307	353
357.534	350
357.761	347
357.988	365
358.215	347
358.441	349
358.668	339
358.895	347
359.122	342
359.349	362
359.576	396
359.802	419
360.029	449
360.256	465
360.483	430
360.709	403
360.936	367
361.163	372
361.39	387
361.616	386
361.843	376
362.07	376
362.296	380
362.523	371
362.749	374
362.976	382
363.203	363
363.429	355
363.656	370
363.882	352
364.109	349
364.335	356
364.562	357
364.788	354
365.015	374
365.241	384
365.468	369
365.694	370
365.92	371
366.147	365
366.373	352
366.599	364
366.826	359
367.052	349
367.278	336
367.505	358
367.731	366
367.957	372
368.184	356
368.41	359
368.636	366
368.862	352
369.089	375
369.315	368
369.541	379
369.767	354
369.993	361
370.219	351
370.445	376
370.672	339
370.898	347
371.124	333
371.35	360
371.576	344
371.802	342
372.028	336
372.254	359
372.48	340
372.706	359
372.932	355
373.158	351
373.384	361
373.61	334
373.835	354
374.061	339
374.287	354
374.513	352
374.739	360
374.965	354
375.191	355
375.416	356
375.642	350
375.868	361
376.094	338
376.319	350
376.545	352
376.771	334
376.997	346
377.222	344
377.448	346
377.674	359
377.899	329
378.125	336
378.35	328
378.576	343
378.802	330
379.027	335
379.253	363
379.478	327
379.704	346
379.929	352
380.155	357
380.38	360
380.606	358
380.831	335
381.057	353
381.282	350
381.507	356
381.733	346
381.958	350
382.184	334
382.409	336
382.634	349
382.86	340
383.085	341
383.31	336
383.535	353
383.761	352
383.986	360
384.211	371
384.436	362
384.662	376
384.887	368
385.112	346
385.337	357
385.562	371
385.787	368
386.013	369
386.238	354
386.463	379
386.688	386
386.913	347
387.138	369
387.363	365
387.588	368
387.813	343
388.038	369
388.263	366
388.488	356
388.713	379
388.938	376
389.163	372
389.387	371
389.612	366
389.837	376
390.062	361
390.287	356
390.512	345
390.736	361
390.961	358
391.186	369
391.411	350
391.636	365
391.86	348
392.085	354
392.31	371
392.534	356
392.759	356
392.984	387
393.208	370
393.433	360
393.658	356
393.882	354
394.107	366
394.331	351
394.556	353
394.78	363
395.005	355
395.229	369
395.454	359
395.678	356
395.903	367
396.127	383
396.352	405
396.576	382
396.801	377
397.025	372
397.249	386
397.474	358
397.698	374
397.922	419
398.147	396
398.371	424
398.595	403
398.82	388
399.044	382
399.268	398
399.492	415
399.717	445
399.941	473
400.165	497
400.389	506
400.613	458
400.837	435
401.062	420
401.286	397
401.51	429
401.734	398
401.958	385
402.182	420
402.406	425
402.63	397
402.854	390
403.078	418
403.302	420
403.526	444
403.75	411
403.974	431
404.198	413
404.422	424
404.645	436
404.869	401
405.093	459
405.317	470
405.541	504
405.765	465
405.988	435
406.212	453
406.436	494
406.66	478
406.883	467
407.107	489
407.331	502
407.555	568
407.778	576
408.002	512
408.226	477
408.449	472
408.673	476
408.896	512
409.12	532
409.344	500
409.567	452
409.791	447
410.014	418
410.238	427
410.461	424
410.685	444
410.908	413
411.132	469
411.355	512
411.578	469
411.802	451
412.025	430
412.249	435
412.472	428
412.695	453
412.919	441
413.142	410
413.365	430
413.589	402
413.812	418
414.035	401
414.258	401
414.482	403
414.705	371
414.928	392
415.151	416
415.374	401
415.597	396
415.821	404
416.044	415
416.267	401
416.49	406
416.713	372
416.936	404
417.159	401
417.382	410
417.605	406
417.828	431
418.051	417
418.274	405
418.497	401
418.72	396
418.943	407
419.166	403
419.389	435
419.611	420
419.834	434
420.057	422
420.28	440
420.503	416
420.726	419
420.948	438
421.171	466
421.394	490
421.617	441
421.839	443
422.062	446
422.285	455
422.507	506
422.73	563
422.953	550
423.175	486
423.398	472
423.621	447
423.843	478
424.066	482
424.288	462
424.511	489
424.733	542
424.956	623
425.178	619
425.401	580
425.623	586
425.846	520
426.068	468
426.291	484
426.513	471
426.735	477
426.958	514
427.18	596
427.402	718
427.625	794
427.847	725
428.069	594
428.292	524
428.514	489
428.736	466
428.958	434
429.181	441
429.403	452
429.625	460
429.847	502
430.069	549
430.292	550
430.514	475
430.736	439
430.958	433
431.18	428
431.402	426
431.624	414
431.846	418
432.068	404
432.29	410
432.512	420
432.734	403
432.956	420
433.178	433
433.4	431
433.622	415
433.844	409
434.066	401
434.287	390
434.509	426
434.731	416
434.953	402
435.175	453
435.397	460
435.618	475
435.84	522
436.062	602
436.284	660
436.505	569
436.727	504
436.949	443
437.17	460
437.392	417
437.614	466
437.835	480
438.057	607
438.278	697
438.5	690
438.721	735
438.943	680
439.165	562
439.386	528
439.608	505
439.829	508
440.05	511
440.272	570
440.493	538
440.715	488
440.936	452
441.158	456
441.379	435
441.6	452
441.822	456
442.043	536
442.264	614
442.486	661
442.707	536
442.928	518
443.149	528
443.371	509
443.592	578
443.813	639
444.034	687
444.255	581
444.476	498
444.698	474
444.919	458
445.14	556
445.361	544
445.582	517
445.803	590
446.024	668
446.245	689
446.466	642
446.687	540
446.908	528
447.129	472
447.35	461
447.571	460
447.792	437
448.013	463
448.234	485
448.455	514
448.675	621
448.896	705
449.117	596
449.338	595
449.559	692
449.779	748
450	611
450.221	488
450.442	465
450.662	431
450.883	461
451.104	475
451.324	474
451.545	449
451.766	426
451.986	399
452.207	426
452.428	401
452.648	403
452.869	422
453.089	428
453.31	430
453.53	424
453.751	408
453.971	420
454.192	424
454.412	417
454.633	400
454.853	391
455.073	399
455.294	431
455.514	496
455.734	494
455.955	386
456.175	385
456.395	361
456.616	355
456.836	381
457.056	358
457.276	364
457.497	387
457.717	384
457.937	366
458.157	398
458.377	411
458.598	414
458.818	470
459.038	568
459.258	580
459.478	470
459.698	446
459.918	400
460.138	404
460.358	424
460.578	395
460.798	394
461.018	401
461.238	404
461.458	423
461.678	383
461.898	402
462.118	390
462.338	419
462.558	420
462.777	414
462.997	404
463.217	402
463.437	414
463.657	414
463.876	428
464.096	429
464.316	451
464.536	433
464.755	431
464.975	438
465.195	495
465.414	578
465.634	499
465.854	473
466.073	428
466.293	419
466.512	409
466.732	403
466.951	402
467.171	396
467.391	397
467.61	427
467.829	432
468.049	427
468.268	403
468.488	402
468.707	392
468.927	386
469.146	394
469.365	390
469.585	396
469.804	410
470.023	402
470.243	420
470.462	419
470.681	435
470.901	439
471.12	402
471.339	404
471.558	405
471.777	404
471.997	385
472.216	402
472.435	429
472.654	413
472.873	408
473.092	405
473.311	403
473.53	397
473.749	430
473.968	466
474.187	557
474.406	595
474.625	482
474.844	416
475.063	417
475.282	390
475.501	390
475.72	440
475.939	406
476.158	423
476.377	428
476.596	416
476.814	426
477.033	445
477.252	436
477.471	447
477.69	459
477.908	444
478.127	443
478.346	438
478.564	455
478.783	448
479.002	445
479.22	459
479.439	464
479.658	479
479.876	494
480.095	502
480.313	524
480.532	504
480.751	495
480.969	494
481.188	526
481.406	575
481.624	514
481.843	506
482.061	489
482.28	459
482.498	465
482.717	475
482.935	476
483.153	467
483.372	493
483.59	491
483.808	475
484.027	483
484.245	500
484.463	507
484.681	491
484.9	484
485.118	474
485.336	490
485.554	525
485.772	498
485.99	510
486.209	511
486.427	526
486.645	510
486.863	526
487.081	534
487.299	540
487.517	505
487.735	522
487.953	519
488.171	511
488.389	533
488.607	550
488.825	523
489.043	537
489.261	537
489.479	509
489.696	536
489.914	554
490.132	559
490.35	568
490.568	581
490.786	548
491.003	560
491.221	585
491.439	599
491.657	590
491.874	596
492.092	602
492.31	591
492.527	607
492.745	606
492.963	618
493.18	615
493.398	610
493.615	632
493.833	627
494.05	607
494.268	610
494.485	614
494.703	621
494.92	621
495.138	614
495.355	604
495.573	614
495.79	609
496.008	628
496.225	613
496.442	635
496.66	614
496.877	586
497.094	620
497.312	627
497.529	627
497.746	623
497.963	650
498.181	672
498.398	654
498.615	670
498.832	672
499.049	668
499.267	650
499.484	706
499.701	674
499.918	710
500.135	741
500.352	742
500.569	751
500.786	727
501.003	786
501.22	754
501.437	731
501.654	741
501.871	738
502.088	743
502.305	691
502.522	673
502.739	669
502.956	660
503.172	649
503.389	649
503.606	647
503.823	634
504.04	652
504.256	622
504.473	643
504.69	610
504.907	610
505.123	591
505.34	608
505.557	593
505.773	575
505.99	626
506.207	621
506.423	602
506.64	613
506.856	621
507.073	593
507.289	584
507.506	617
507.722	607
507.939	630
508.155	616
508.372	608
508.588	573
508.805	553
509.021	598
509.238	600
509.454	611
509.67	598
509.887	587
510.103	591
510.319	612
510.536	737
510.752	1255
510.968	1010
511.184	647
511.401	572
511.617	572
511.833	575
512.049	578
512.265	562
512.481	546
512.698	563
512.914	562
513.13	574
513.346	549
513.562	568
513.778	573
513.994	570
514.21	599
514.426	614
514.642	679
514.858	713
515.074	759
515.29	939
515.506	1418
515.721	1148
515.937	756
516.153	650
516.369	612
516.585	556
516.801	594
517.016	594
517.232	588
517.448	556
517.664	540
517.879	550
518.095	557
518.311	550
518.527	570
518.742	542
518.958	555
519.173	558
519.389	552
519.605	552
519.82	567
520.036	581
520.251	620
520.467	642
520.682	670
520.898	641
521.113	678
521.329	727
521.544	845
521.76	1150
521.975	1962
522.19	1906
522.406	975
522.621	692
522.836	637
523.052	570
523.267	547
523.482	536
523.698	530
523.913	542
524.128	536
524.343	492
524.559	516
524.774	492
524.989	505
525.204	528
525.419	488
525.634	505
525.849	474
526.064	460
526.28	447
526.495	456
526.71	453
526.925	455
527.14	433
527.355	450
527.57	476
527.785	434
527.999	437
528.214	432
528.429	455
528.644	446
528.859	448
529.074	447
529.289	478
529.503	577
529.718	535
529.933	490
530.148	461
530.363	459
530.577	462
530.792	448
531.007	442
531.221	417
531.436	423
531.651	448
531.865	424
532.08	437
532.295	448
532.509	424
532.724	422
532.938	409
533.153	430
533.367	424
533.582	422
533.796	418
534.011	417
534.225	422
534.44	407
534.654	420
534.868	417
535.083	434
535.297	430
535.511	428
535.726	411
535.94	438
536.154	410
536.369	437
536.583	405
536.797	402
537.011	390
537.225	413
537.44	413
537.654	402
537.868	394
538.082	399
538.296	390
538.51	414
538.724	412
538.938	426
539.153	421
539.367	418
539.581	417
539.795	412
540.009	395
540.222	404
540.436	387
540.65	395
540.864	409
541.078	397
541.292	402
541.506	383
541.72	418
541.934	412
542.147	402
542.361	410
542.575	404
542.789	384
543.002	390
543.216	399
543.43	415
543.644	414
543.857	387
544.071	390
544.285	402
544.498	405
544.712	391
544.925	407
545.139	399
545.352	378
545.566	388
545.779	394
545.993	384
546.206	385
546.42	389
546.633	376
546.847	393
547.06	376
547.274	367
547.487	382
547.7	370
547.914	371
548.127	388
548.34	390
548.554	379
548.767	369
548.98	380
549.193	371
549.407	380
549.62	385
549.833	368
550.046	371
550.259	370
550.473	386
550.686	380
550.899	382
551.112	361
551.325	352
551.538	381
551.751	356
551.964	366
552.177	367
552.39	382
552.603	366
552.816	370
553.029	367
553.242	369
553.455	371
553.667	388
553.88	386
554.093	368
554.306	406
554.519	365
554.732	374
554.944	371
555.157	374
555.37	376
555.583	367
555.795	351
556.008	361
556.221	355
556.433	375
556.646	348
556.859	365
557.071	334
557.284	349
557.496	352
557.709	344
557.921	345
558.134	331
558.346	351
558.559	342
558.771	339
558.984	339
559.196	331
559.409	343
559.621	355
559.833	363
560.046	353
560.258	333
560.47	330
560.683	345
560.895	333
561.107	329
561.32	338
561.532	334
561.744	336
561.956	338
562.168	335
562.381	329
562.593	328
562.805	338
563.017	341
563.229	353
563.441	348
