Data from 1986.PennyLincolnUp.Lamp.En5.5.200Scan.071819.P2_HRD10591_17-12-50-973.txt Node
Date: Thu Jul 18 17:12:50 EDT 2019
User: cochatt
Spectrometer: HR+D1059
Trigger mode: 1
Integration Time (sec): 1.000000E-1
Scans to average: 1
Electric dark correction enabled: true
Nonlinearity correction enabled: false
Boxcar width: 0
XAxis mode: Wavelengths
Number of Pixels in Spectrum: 2048
>>>>>Begin Spectral Data<<<<<
223.165	-20.88
223.4	-20.88
223.635	-20.88
223.869	-7.88
224.104	-13.88
224.338	1.12
224.573	-10.88
224.808	-16.88
225.042	-11.88
225.277	-9.88
225.511	1.12
225.746	0.12
225.98	-6.88
226.215	1.12
226.449	19.12
226.683	18.12
226.918	27.12
227.152	31.12
227.387	49.12
227.621	34.12
227.856	45.12
228.09	56.12
228.324	48.12
228.559	59.12
228.793	67.12
229.027	112.12
229.262	119.12
229.496	136.12
229.73	147.12
229.964	160.12
230.199	132.12
230.433	128.12
230.667	124.12
230.901	120.12
231.136	109.12
231.37	112.12
231.604	120.12
231.838	117.12
232.072	120.12
232.306	121.12
232.541	119.12
232.775	127.12
233.009	106.12
233.243	114.12
233.477	89.12
233.711	112.12
233.945	119.12
234.179	113.12
234.413	122.12
234.647	127.12
234.881	133.12
235.115	121.12
235.349	121.12
235.583	116.12
235.817	122.12
236.051	140.12
236.285	138.12
236.519	141.12
236.753	135.12
236.987	160.12
237.221	192.12
237.455	266.12
237.689	213.12
237.922	145.12
238.156	143.12
238.39	127.12
238.624	125.12
238.858	120.12
239.091	127.12
239.325	142.12
239.559	126.12
239.793	127.12
240.027	140.12
240.26	140.12
240.494	160.12
240.728	150.12
240.961	144.12
241.195	148.12
241.429	161.12
241.662	145.12
241.896	151.12
242.13	136.12
242.363	138.12
242.597	137.12
242.83	150.12
243.064	158.12
243.298	158.12
243.531	141.12
243.765	138.12
243.998	162.12
244.232	162.12
244.465	156.12
244.699	160.12
244.932	156.12
245.166	157.12
245.399	169.12
245.633	156.12
245.866	150.12
246.099	150.12
246.333	174.12
246.566	167.12
246.8	169.12
247.033	155.12
247.266	182.12
247.5	166.12
247.733	185.12
247.966	180.12
248.2	189.12
248.433	214.12
248.666	191.12
248.899	213.12
249.133	214.12
249.366	225.12
249.599	213.12
249.832	217.12
250.066	220.12
250.299	219.12
250.532	262.12
250.765	280.12
250.998	283.12
251.231	286.12
251.465	258.12
251.698	234.12
251.931	242.12
252.164	231.12
252.397	229.12
252.63	239.12
252.863	240.12
253.096	246.12
253.329	253.12
253.562	258.12
253.795	255.12
254.028	248.12
254.261	249.12
254.494	267.12
254.727	265.12
254.96	301.12
255.193	322.12
255.426	280.12
255.659	282.12
255.892	329.12
256.124	385.12
256.357	419.12
256.59	363.12
256.823	336.12
257.056	309.12
257.289	281.12
257.521	275.12
257.754	267.12
257.987	260.12
258.22	250.12
258.452	244.12
258.685	242.12
258.918	232.12
259.151	237.12
259.383	250.12
259.616	256.12
259.849	245.12
260.081	246.12
260.314	285.12
260.547	290.12
260.779	289.12
261.012	264.12
261.244	240.12
261.477	252.12
261.71	243.12
261.942	255.12
262.175	250.12
262.407	243.12
262.64	232.12
262.872	225.12
263.105	237.12
263.337	241.12
263.57	225.12
263.802	219.12
264.035	231.12
264.267	248.12
264.499	228.12
264.732	220.12
264.964	250.12
265.197	233.12
265.429	236.12
265.661	237.12
265.894	217.12
266.126	229.12
266.358	221.12
266.591	217.12
266.823	235.12
267.055	236.12
267.287	235.12
267.52	257.12
267.752	227.12
267.984	238.12
268.216	254.12
268.448	261.12
268.681	246.12
268.913	264.12
269.145	261.12
269.377	298.12
269.609	276.12
269.841	268.12
270.073	262.12
270.306	317.12
270.538	329.12
270.77	334.12
271.002	323.12
271.234	315.12
271.466	316.12
271.698	331.12
271.93	333.12
272.162	337.12
272.394	344.12
272.626	336.12
272.858	308.12
273.09	305.12
273.322	296.12
273.553	278.12
273.785	294.12
274.017	290.12
274.249	301.12
274.481	275.12
274.713	292.12
274.945	279.12
275.176	306.12
275.408	309.12
275.64	275.12
275.872	297.12
276.104	296.12
276.335	301.12
276.567	297.12
276.799	315.12
277.031	320.12
277.262	347.12
277.494	345.12
277.726	361.12
277.957	325.12
278.189	313.12
278.421	306.12
278.652	312.12
278.884	304.12
279.115	316.12
279.347	298.12
279.579	295.12
279.81	301.12
280.042	289.12
280.273	311.12
280.505	303.12
280.736	300.12
280.968	277.12
281.199	278.12
281.431	305.12
281.662	280.12
281.894	304.12
282.125	305.12
282.356	316.12
282.588	337.12
282.819	328.12
283.051	296.12
283.282	288.12
283.513	297.12
283.745	304.12
283.976	301.12
284.207	304.12
284.439	299.12
284.67	302.12
284.901	294.12
285.132	295.12
285.364	276.12
285.595	301.12
285.826	286.12
286.057	289.12
286.288	302.12
286.52	307.12
286.751	297.12
286.982	287.12
287.213	301.12
287.444	305.12
287.675	286.12
287.906	312.12
288.138	318.12
288.369	312.12
288.6	324.12
288.831	291.12
289.062	326.12
289.293	298.12
289.524	311.12
289.755	297.12
289.986	294.12
290.217	317.12
290.448	306.12
290.679	294.12
290.91	314.12
291.141	293.12
291.371	310.12
291.602	307.12
291.833	293.12
292.064	289.12
292.295	296.12
292.526	291.12
292.757	317.12
292.987	293.12
293.218	290.12
293.449	306.12
293.68	314.12
293.91	294.12
294.141	288.12
294.372	283.12
294.603	290.12
294.833	307.12
295.064	301.12
295.295	312.12
295.525	294.12
295.756	303.12
295.987	310.12
296.217	335.12
296.448	324.12
296.679	322.12
296.909	304.12
297.14	311.12
297.37	308.12
297.601	313.12
297.831	307.12
298.062	310.12
298.292	313.12
298.523	307.12
298.753	314.12
298.984	321.12
299.214	327.12
299.445	307.12
299.675	320.12
299.905	311.12
300.136	326.12
300.366	305.12
300.597	329.12
300.827	325.12
301.057	320.12
301.288	324.12
301.518	326.12
301.748	328.12
301.979	329.12
302.209	321.12
302.439	321.12
302.669	328.12
302.9	336.12
303.13	330.12
303.36	336.12
303.59	347.12
303.82	348.12
304.051	338.12
304.281	345.12
304.511	320.12
304.741	316.12
304.971	323.12
305.201	333.12
305.431	326.12
305.661	339.12
305.891	348.12
306.121	353.12
306.352	340.12
306.582	361.12
306.812	329.12
307.042	355.12
307.272	355.12
307.502	346.12
307.731	358.12
307.961	345.12
308.191	356.12
308.421	346.12
308.651	352.12
308.881	361.12
309.111	356.12
309.341	329.12
309.571	367.12
309.8	370.12
310.03	402.12
310.26	377.12
310.49	390.12
310.72	407.12
310.949	385.12
311.179	416.12
311.409	394.12
311.639	376.12
311.868	399.12
312.098	411.12
312.328	397.12
312.557	431.12
312.787	431.12
313.017	419.12
313.246	409.12
313.476	388.12
313.706	386.12
313.935	411.12
314.165	413.12
314.394	393.12
314.624	408.12
314.853	420.12
315.083	417.12
315.312	396.12
315.542	392.12
315.771	380.12
316.001	380.12
316.23	395.12
316.46	386.12
316.689	394.12
316.919	406.12
317.148	409.12
317.377	401.12
317.607	411.12
317.836	396.12
318.065	403.12
318.295	399.12
318.524	379.12
318.753	408.12
318.983	375.12
319.212	388.12
319.441	420.12
319.67	398.12
319.9	400.12
320.129	385.12
320.358	422.12
320.587	402.12
320.816	422.12
321.046	452.12
321.275	420.12
321.504	448.12
321.733	423.12
321.962	436.12
322.191	446.12
322.42	470.12
322.649	460.12
322.878	513.12
323.108	496.12
323.337	536.12
323.566	554.12
323.795	570.12
324.024	660.12
324.253	790.12
324.482	1087.12
324.71	1681.12
324.939	2458.12
325.168	2169.12
325.397	1156.12
325.626	764.12
325.855	664.12
326.084	596.12
326.313	576.12
326.542	596.12
326.77	660.12
326.999	760.12
327.228	1014.12
327.457	1539.12
327.686	1906.12
327.914	1325.12
328.143	928.12
328.372	872.12
328.6	792.12
328.829	730.12
329.058	702.12
329.287	737.12
329.515	724.12
329.744	716.12
329.972	736.12
330.201	890.12
330.43	1012.12
330.658	932.12
330.887	832.12
331.115	721.12
331.344	648.12
331.572	615.12
331.801	566.12
332.03	579.12
332.258	587.12
332.486	535.12
332.715	528.12
332.943	574.12
333.172	563.12
333.4	577.12
333.629	605.12
333.857	651.12
334.085	752.12
334.314	886.12
334.542	1110.12
334.771	1153.12
334.999	859.12
335.227	669.12
335.455	581.12
335.684	552.12
335.912	530.12
336.14	524.12
336.369	509.12
336.597	506.12
336.825	522.12
337.053	468.12
337.281	476.12
337.51	493.12
337.738	460.12
337.966	462.12
338.194	459.12
338.422	465.12
338.65	462.12
338.878	459.12
339.106	438.12
339.334	422.12
339.562	448.12
339.79	448.12
340.018	444.12
340.246	457.12
340.474	461.12
340.702	453.12
340.93	445.12
341.158	440.12
341.386	444.12
341.614	441.12
341.842	436.12
342.07	435.12
342.298	417.12
342.526	437.12
342.754	420.12
342.981	419.12
343.209	408.12
343.437	419.12
343.665	405.12
343.893	442.12
344.12	434.12
344.348	446.12
344.576	437.12
344.804	444.12
345.031	434.12
345.259	456.12
345.487	435.12
345.714	446.12
345.942	427.12
346.17	418.12
346.397	405.12
346.625	414.12
346.853	425.12
347.08	408.12
347.308	431.12
347.535	433.12
347.763	445.12
347.99	427.12
348.218	445.12
348.445	438.12
348.673	435.12
348.9	440.12
349.128	422.12
349.355	394.12
349.583	378.12
349.81	398.12
350.037	416.12
350.265	408.12
350.492	420.12
350.72	403.12
350.947	418.12
351.174	410.12
351.402	436.12
351.629	426.12
351.856	406.12
352.083	426.12
352.311	433.12
352.538	452.12
352.765	458.12
352.992	429.12
353.22	429.12
353.447	397.12
353.674	396.12
353.901	407.12
354.128	406.12
354.355	389.12
354.583	409.12
354.81	375.12
355.037	391.12
355.264	399.12
355.491	390.12
355.718	368.12
355.945	376.12
356.172	374.12
356.399	379.12
356.626	369.12
356.853	370.12
357.08	377.12
357.307	375.12
357.534	386.12
357.761	385.12
357.988	371.12
358.215	371.12
358.441	373.12
358.668	384.12
358.895	385.12
359.122	382.12
359.349	389.12
359.576	432.12
359.802	441.12
360.029	452.12
360.256	493.12
360.483	446.12
360.709	432.12
360.936	420.12
361.163	416.12
361.39	404.12
361.616	404.12
361.843	414.12
362.07	423.12
362.296	417.12
362.523	419.12
362.749	382.12
362.976	418.12
363.203	397.12
363.429	386.12
363.656	384.12
363.882	404.12
364.109	395.12
364.335	398.12
364.562	400.12
364.788	387.12
365.015	382.12
365.241	375.12
365.468	389.12
365.694	413.12
365.92	385.12
366.147	395.12
366.373	391.12
366.599	393.12
366.826	393.12
367.052	391.12
367.278	396.12
367.505	384.12
367.731	398.12
367.957	385.12
368.184	386.12
368.41	405.12
368.636	405.12
368.862	417.12
369.089	390.12
369.315	398.12
369.541	408.12
369.767	385.12
369.993	377.12
370.219	389.12
370.445	379.12
370.672	413.12
370.898	373.12
371.124	387.12
371.35	384.12
371.576	382.12
371.802	364.12
372.028	366.12
372.254	398.12
372.48	374.12
372.706	375.12
372.932	382.12
373.158	381.12
373.384	377.12
373.61	381.12
373.835	395.12
374.061	377.12
374.287	382.12
374.513	390.12
374.739	374.12
374.965	394.12
375.191	382.12
375.416	379.12
375.642	361.12
375.868	380.12
376.094	379.12
376.319	369.12
376.545	366.12
376.771	384.12
376.997	366.12
377.222	382.12
377.448	360.12
377.674	380.12
377.899	368.12
378.125	373.12
378.35	371.12
378.576	380.12
378.802	377.12
379.027	375.12
379.253	374.12
379.478	364.12
379.704	373.12
379.929	384.12
380.155	364.12
380.38	357.12
380.606	378.12
380.831	361.12
381.057	384.12
381.282	379.12
381.507	376.12
381.733	386.12
381.958	363.12
382.184	374.12
382.409	376.12
382.634	376.12
382.86	377.12
383.085	372.12
383.31	384.12
383.535	389.12
383.761	388.12
383.986	386.12
384.211	374.12
384.436	377.12
384.662	371.12
384.887	389.12
385.112	412.12
385.337	404.12
385.562	395.12
385.787	406.12
386.013	398.12
386.238	397.12
386.463	408.12
386.688	412.12
386.913	380.12
387.138	382.12
387.363	377.12
387.588	392.12
387.813	378.12
388.038	389.12
388.263	389.12
388.488	389.12
388.713	412.12
388.938	393.12
389.163	421.12
389.387	402.12
389.612	399.12
389.837	389.12
390.062	382.12
390.287	375.12
390.512	350.12
390.736	384.12
390.961	380.12
391.186	416.12
391.411	399.12
391.636	405.12
391.86	386.12
392.085	386.12
392.31	389.12
392.534	409.12
392.759	391.12
392.984	370.12
393.208	400.12
393.433	391.12
393.658	389.12
393.882	387.12
394.107	401.12
394.331	408.12
394.556	365.12
394.78	392.12
395.005	405.12
395.229	416.12
395.454	423.12
395.678	421.12
395.903	412.12
396.127	433.12
396.352	435.12
396.576	407.12
396.801	410.12
397.025	394.12
397.249	409.12
397.474	417.12
397.698	421.12
397.922	432.12
398.147	428.12
398.371	432.12
398.595	420.12
398.82	429.12
399.044	448.12
399.268	433.12
399.492	461.12
399.717	488.12
399.941	508.12
400.165	544.12
400.389	541.12
400.613	489.12
400.837	458.12
401.062	457.12
401.286	460.12
401.51	453.12
401.734	451.12
401.958	456.12
402.182	433.12
402.406	454.12
402.63	468.12
402.854	464.12
403.078	450.12
403.302	465.12
403.526	478.12
403.75	467.12
403.974	472.12
404.198	473.12
404.422	485.12
404.645	514.12
404.869	534.12
405.093	553.12
405.317	618.12
405.541	652.12
405.765	601.12
405.988	552.12
406.212	530.12
406.436	562.12
406.66	553.12
406.883	523.12
407.107	521.12
407.331	569.12
407.555	612.12
407.778	634.12
408.002	591.12
408.226	516.12
408.449	489.12
408.673	524.12
408.896	547.12
409.12	566.12
409.344	550.12
409.567	503.12
409.791	475.12
410.014	476.12
410.238	463.12
410.461	477.12
410.685	488.12
410.908	489.12
411.132	529.12
411.355	564.12
411.578	545.12
411.802	489.12
412.025	496.12
412.249	516.12
412.472	589.12
412.695	642.12
412.919	630.12
413.142	573.12
413.365	544.12
413.589	502.12
413.812	488.12
414.035	506.12
414.258	452.12
414.482	475.12
414.705	457.12
414.928	462.12
415.151	455.12
415.374	450.12
415.597	449.12
415.821	451.12
416.044	465.12
416.267	484.12
416.49	459.12
416.713	445.12
416.936	446.12
417.159	471.12
417.382	459.12
417.605	465.12
417.828	492.12
418.051	488.12
418.274	457.12
418.497	457.12
418.72	455.12
418.943	446.12
419.166	469.12
419.389	485.12
419.611	472.12
419.834	486.12
420.057	498.12
420.28	532.12
420.503	576.12
420.726	539.12
420.948	560.12
421.171	563.12
421.394	588.12
421.617	502.12
421.839	493.12
422.062	497.12
422.285	500.12
422.507	559.12
422.73	633.12
422.953	597.12
423.175	517.12
423.398	494.12
423.621	509.12
423.843	521.12
424.066	515.12
424.288	523.12
424.511	545.12
424.733	594.12
424.956	681.12
425.178	653.12
425.401	642.12
425.623	665.12
425.846	564.12
426.068	522.12
426.291	515.12
426.513	512.12
426.735	530.12
426.958	570.12
427.18	636.12
427.402	775.12
427.625	811.12
427.847	798.12
428.069	746.12
428.292	660.12
428.514	593.12
428.736	523.12
428.958	520.12
429.181	493.12
429.403	469.12
429.625	474.12
429.847	541.12
430.069	599.12
430.292	605.12
430.514	486.12
430.736	468.12
430.958	476.12
431.18	470.12
431.402	469.12
431.624	448.12
431.846	438.12
432.068	448.12
432.29	444.12
432.512	455.12
432.734	453.12
432.956	466.12
433.178	468.12
433.4	461.12
433.622	446.12
433.844	436.12
434.066	430.12
434.287	440.12
434.509	443.12
434.731	459.12
434.953	457.12
435.175	462.12
435.397	488.12
435.618	520.12
435.84	582.12
436.062	630.12
436.284	706.12
436.505	583.12
436.727	534.12
436.949	500.12
437.17	463.12
437.392	476.12
437.614	503.12
437.835	536.12
438.057	625.12
438.278	716.12
438.5	714.12
438.721	787.12
438.943	737.12
439.165	603.12
439.386	551.12
439.608	541.12
439.829	524.12
440.05	553.12
440.272	614.12
440.493	601.12
440.715	527.12
440.936	493.12
441.158	485.12
441.379	479.12
441.6	498.12
441.822	518.12
442.043	551.12
442.264	616.12
442.486	674.12
442.707	576.12
442.928	540.12
443.149	524.12
443.371	560.12
443.592	584.12
443.813	701.12
444.034	737.12
444.255	601.12
444.476	545.12
444.698	496.12
444.919	508.12
445.14	600.12
445.361	575.12
445.582	560.12
445.803	631.12
446.024	740.12
446.245	725.12
446.466	677.12
446.687	582.12
446.908	513.12
447.129	498.12
447.35	494.12
447.571	470.12
447.792	484.12
448.013	485.12
448.234	518.12
448.455	567.12
448.675	677.12
448.896	768.12
449.117	654.12
449.338	641.12
449.559	707.12
449.779	820.12
450	650.12
450.221	566.12
450.442	520.12
450.662	483.12
450.883	460.12
451.104	506.12
451.324	489.12
451.545	466.12
451.766	428.12
451.986	421.12
452.207	441.12
452.428	428.12
452.648	428.12
452.869	427.12
453.089	429.12
453.31	460.12
453.53	450.12
453.751	441.12
453.971	429.12
454.192	457.12
454.412	441.12
454.633	426.12
454.853	433.12
455.073	413.12
455.294	443.12
455.514	526.12
455.734	529.12
455.955	438.12
456.175	408.12
456.395	405.12
456.616	383.12
456.836	402.12
457.056	410.12
457.276	382.12
457.497	405.12
457.717	396.12
457.937	432.12
458.157	400.12
458.377	415.12
458.598	443.12
458.818	496.12
459.038	575.12
459.258	568.12
459.478	477.12
459.698	461.12
459.918	438.12
460.138	427.12
460.358	442.12
460.578	448.12
460.798	435.12
461.018	434.12
461.238	440.12
461.458	425.12
461.678	416.12
461.898	443.12
462.118	437.12
462.338	437.12
462.558	448.12
462.777	446.12
462.997	453.12
463.217	451.12
463.437	429.12
463.657	456.12
463.876	470.12
464.096	456.12
464.316	479.12
464.536	458.12
464.755	456.12
464.975	468.12
465.195	519.12
465.414	609.12
465.634	528.12
465.854	508.12
466.073	473.12
466.293	458.12
466.512	442.12
466.732	448.12
466.951	429.12
467.171	427.12
467.391	440.12
467.61	453.12
467.829	453.12
468.049	497.12
468.268	568.12
468.488	518.12
468.707	475.12
468.927	456.12
469.146	457.12
469.365	450.12
469.585	446.12
469.804	443.12
470.023	463.12
470.243	458.12
470.462	460.12
470.681	483.12
470.901	469.12
471.12	483.12
471.339	474.12
471.558	452.12
471.777	481.12
471.997	493.12
472.216	561.12
472.435	812.12
472.654	742.12
472.873	562.12
473.092	522.12
473.311	506.12
473.53	498.12
473.749	485.12
473.968	527.12
474.187	621.12
474.406	652.12
474.625	543.12
474.844	502.12
475.063	475.12
475.282	481.12
475.501	464.12
475.72	464.12
475.939	473.12
476.158	482.12
476.377	470.12
476.596	475.12
476.814	485.12
477.033	493.12
477.252	470.12
477.471	500.12
477.69	484.12
477.908	469.12
478.127	496.12
478.346	500.12
478.564	512.12
478.783	517.12
479.002	508.12
479.22	498.12
479.439	513.12
479.658	543.12
479.876	568.12
480.095	563.12
480.313	604.12
480.532	577.12
480.751	600.12
480.969	700.12
481.188	1047.12
481.406	1355.12
481.624	940.12
481.843	725.12
482.061	679.12
482.28	666.12
482.498	636.12
482.717	610.12
482.935	592.12
483.153	587.12
483.372	580.12
483.59	571.12
483.808	564.12
484.027	587.12
484.245	572.12
484.463	582.12
484.681	573.12
484.9	570.12
485.118	577.12
485.336	571.12
485.554	601.12
485.772	550.12
485.99	590.12
486.209	567.12
486.427	579.12
486.645	574.12
486.863	635.12
487.081	619.12
487.299	609.12
487.517	616.12
487.735	600.12
487.953	581.12
488.171	621.12
488.389	597.12
488.607	618.12
488.825	606.12
489.043	613.12
489.261	605.12
489.479	617.12
489.696	627.12
489.914	625.12
490.132	637.12
490.35	630.12
490.568	649.12
490.786	666.12
491.003	663.12
491.221	706.12
491.439	727.12
491.657	736.12
491.874	726.12
492.092	746.12
492.31	757.12
492.527	766.12
492.745	780.12
492.963	782.12
493.18	780.12
493.398	777.12
493.615	762.12
493.833	778.12
494.05	774.12
494.268	762.12
494.485	749.12
494.703	758.12
494.92	786.12
495.138	746.12
495.355	785.12
495.573	754.12
495.79	727.12
496.008	753.12
496.225	715.12
496.442	732.12
496.66	707.12
496.877	730.12
497.094	723.12
497.312	706.12
497.529	762.12
497.746	754.12
497.963	740.12
498.181	758.12
498.398	774.12
498.615	748.12
498.832	753.12
499.049	746.12
499.267	786.12
499.484	778.12
499.701	778.12
499.918	821.12
500.135	832.12
500.352	832.12
500.569	858.12
500.786	877.12
501.003	878.12
501.22	858.12
501.437	852.12
501.654	836.12
501.871	862.12
