Data from 1986.PennyLincolnUp.Lamp.En5.5.200Scan.071819.P2_HRD10591_17-11-22-973.txt Node
Date: Thu Jul 18 17:11:22 EDT 2019
User: cochatt
Spectrometer: HR+D1059
Trigger mode: 1
Integration Time (sec): 1.000000E-1
Scans to average: 1
Electric dark correction enabled: true
Nonlinearity correction enabled: false
Boxcar width: 0
XAxis mode: Wavelengths
Number of Pixels in Spectrum: 2048
>>>>>Begin Spectral Data<<<<<
223.165	-11.06
223.4	-11.06
223.635	-11.06
223.869	-18.06
224.104	-24.06
224.338	-16.06
224.573	-31.06
224.808	-18.06
225.042	7.94
225.277	-7.06
225.511	-3.06
225.746	1.94
225.98	8.94
226.215	14.94
226.449	12.94
226.683	15.94
226.918	32.94
227.152	32.94
227.387	17.94
227.621	36.94
227.856	57.94
228.09	56.94
228.324	42.94
228.559	62.94
228.793	58.94
229.027	100.94
229.262	114.94
229.496	117.94
229.73	130.94
229.964	164.94
230.199	148.94
230.433	118.94
230.667	116.94
230.901	125.94
231.136	108.94
231.37	120.94
231.604	125.94
231.838	122.94
232.072	128.94
232.306	104.94
232.541	107.94
232.775	110.94
233.009	124.94
233.243	123.94
233.477	108.94
233.711	104.94
233.945	128.94
234.179	122.94
234.413	126.94
234.647	115.94
234.881	113.94
235.115	109.94
235.349	124.94
235.583	110.94
235.817	107.94
236.051	112.94
236.285	120.94
236.519	125.94
236.753	140.94
236.987	140.94
237.221	180.94
237.455	263.94
237.689	188.94
237.922	144.94
238.156	128.94
238.39	120.94
238.624	137.94
238.858	121.94
239.091	113.94
239.325	126.94
239.559	129.94
239.793	113.94
240.027	130.94
240.26	139.94
240.494	157.94
240.728	152.94
240.961	136.94
241.195	137.94
241.429	139.94
241.662	129.94
241.896	132.94
242.13	138.94
242.363	136.94
242.597	139.94
242.83	137.94
243.064	130.94
243.298	129.94
243.531	140.94
243.765	155.94
243.998	138.94
244.232	130.94
244.465	141.94
244.699	147.94
244.932	146.94
245.166	133.94
245.399	144.94
245.633	147.94
245.866	149.94
246.099	149.94
246.333	152.94
246.566	148.94
246.8	139.94
247.033	161.94
247.266	157.94
247.5	172.94
247.733	180.94
247.966	182.94
248.2	182.94
248.433	180.94
248.666	179.94
248.899	197.94
249.133	210.94
249.366	213.94
249.599	215.94
249.832	192.94
250.066	198.94
250.299	204.94
250.532	205.94
250.765	215.94
250.998	242.94
251.231	263.94
251.465	229.94
251.698	215.94
251.931	210.94
252.164	225.94
252.397	218.94
252.63	213.94
252.863	213.94
253.096	224.94
253.329	236.94
253.562	242.94
253.795	247.94
254.028	237.94
254.261	228.94
254.494	238.94
254.727	264.94
254.96	300.94
255.193	293.94
255.426	262.94
255.659	266.94
255.892	275.94
256.124	280.94
256.357	283.94
256.59	271.94
256.823	261.94
257.056	234.94
257.289	232.94
257.521	249.94
257.754	242.94
257.987	218.94
258.22	229.94
258.452	229.94
258.685	215.94
258.918	214.94
259.151	210.94
259.383	230.94
259.616	224.94
259.849	236.94
260.081	228.94
260.314	269.94
260.547	258.94
260.779	258.94
261.012	245.94
261.244	233.94
261.477	231.94
261.71	214.94
261.942	243.94
262.175	235.94
262.407	256.94
262.64	214.94
262.872	228.94
263.105	220.94
263.337	221.94
263.57	229.94
263.802	219.94
264.035	222.94
264.267	217.94
264.499	203.94
264.732	214.94
264.964	209.94
265.197	212.94
265.429	211.94
265.661	225.94
265.894	216.94
266.126	225.94
266.358	221.94
266.591	215.94
266.823	221.94
267.055	221.94
267.287	226.94
267.52	236.94
267.752	227.94
267.984	237.94
268.216	238.94
268.448	226.94
268.681	213.94
268.913	259.94
269.145	279.94
269.377	271.94
269.609	281.94
269.841	273.94
270.073	268.94
270.306	286.94
270.538	308.94
270.77	327.94
271.002	321.94
271.234	308.94
271.466	300.94
271.698	319.94
271.93	322.94
272.162	346.94
272.394	336.94
272.626	314.94
272.858	290.94
273.09	290.94
273.322	261.94
273.553	253.94
273.785	253.94
274.017	279.94
274.249	260.94
274.481	277.94
274.713	264.94
274.945	284.94
275.176	265.94
275.408	271.94
275.64	266.94
275.872	280.94
276.104	270.94
276.335	276.94
276.567	256.94
276.799	290.94
277.031	311.94
277.262	324.94
277.494	331.94
277.726	312.94
277.957	264.94
278.189	297.94
278.421	267.94
278.652	281.94
278.884	263.94
279.115	252.94
279.347	262.94
279.579	259.94
279.81	277.94
280.042	277.94
280.273	269.94
280.505	266.94
280.736	270.94
280.968	279.94
281.199	245.94
281.431	266.94
281.662	282.94
281.894	258.94
282.125	274.94
282.356	289.94
282.588	312.94
282.819	291.94
283.051	260.94
283.282	266.94
283.513	255.94
283.745	266.94
283.976	262.94
284.207	262.94
284.439	268.94
284.67	269.94
284.901	284.94
285.132	274.94
285.364	273.94
285.595	280.94
285.826	265.94
286.057	263.94
286.288	269.94
286.52	245.94
286.751	263.94
286.982	276.94
287.213	285.94
287.444	268.94
287.675	267.94
287.906	277.94
288.138	296.94
288.369	281.94
288.6	291.94
288.831	292.94
289.062	278.94
289.293	280.94
289.524	270.94
289.755	267.94
289.986	279.94
290.217	276.94
290.448	267.94
290.679	270.94
290.91	278.94
291.141	252.94
291.371	252.94
291.602	260.94
291.833	289.94
292.064	261.94
292.295	240.94
292.526	242.94
292.757	265.94
292.987	269.94
293.218	276.94
293.449	286.94
293.68	284.94
293.91	270.94
294.141	274.94
294.372	277.94
294.603	274.94
294.833	268.94
295.064	278.94
295.295	276.94
295.525	278.94
295.756	276.94
295.987	292.94
296.217	331.94
296.448	340.94
296.679	296.94
296.909	297.94
297.14	273.94
297.37	283.94
297.601	267.94
297.831	293.94
298.062	267.94
298.292	276.94
298.523	298.94
298.753	290.94
298.984	280.94
299.214	281.94
299.445	295.94
299.675	304.94
299.905	284.94
300.136	310.94
300.366	282.94
300.597	282.94
300.827	299.94
301.057	326.94
301.288	316.94
301.518	310.94
301.748	298.94
301.979	311.94
302.209	310.94
302.439	314.94
302.669	310.94
302.9	305.94
303.13	281.94
303.36	309.94
303.59	312.94
303.82	324.94
304.051	318.94
304.281	320.94
304.511	316.94
304.741	319.94
304.971	307.94
305.201	296.94
305.431	314.94
305.661	312.94
305.891	315.94
306.121	299.94
306.352	310.94
306.582	310.94
306.812	311.94
307.042	313.94
307.272	312.94
307.502	314.94
307.731	323.94
307.961	324.94
308.191	314.94
308.421	304.94
308.651	316.94
308.881	327.94
309.111	344.94
309.341	315.94
309.571	346.94
309.8	355.94
310.03	342.94
310.26	366.94
310.49	361.94
310.72	374.94
310.949	380.94
311.179	401.94
311.409	362.94
311.639	349.94
311.868	380.94
312.098	368.94
312.328	373.94
312.557	395.94
312.787	405.94
313.017	413.94
313.246	380.94
313.476	367.94
313.706	361.94
313.935	351.94
314.165	380.94
314.394	388.94
314.624	393.94
314.853	348.94
315.083	384.94
315.312	370.94
315.542	360.94
315.771	355.94
316.001	350.94
316.23	341.94
316.46	357.94
316.689	368.94
316.919	350.94
317.148	376.94
317.377	371.94
317.607	371.94
317.836	368.94
318.065	378.94
318.295	359.94
318.524	365.94
318.753	370.94
318.983	340.94
319.212	365.94
319.441	372.94
319.67	388.94
319.9	369.94
320.129	362.94
320.358	361.94
320.587	378.94
320.816	391.94
321.046	414.94
321.275	395.94
321.504	377.94
321.733	402.94
321.962	402.94
322.191	433.94
322.42	435.94
322.649	450.94
322.878	469.94
323.108	480.94
323.337	514.94
323.566	523.94
323.795	582.94
324.024	620.94
324.253	755.94
324.482	1067.94
324.71	1670.94
324.939	2388.94
325.168	2072.94
325.397	1083.94
325.626	720.94
325.855	601.94
326.084	562.94
326.313	539.94
326.542	546.94
326.77	610.94
326.999	699.94
327.228	962.94
327.457	1482.94
327.686	1765.94
327.914	1249.94
328.143	835.94
328.372	730.94
328.6	677.94
328.829	647.94
329.058	624.94
329.287	650.94
329.515	599.94
329.744	583.94
329.972	563.94
330.201	638.94
330.43	660.94
330.658	695.94
330.887	660.94
331.115	646.94
331.344	560.94
331.572	534.94
331.801	514.94
332.03	492.94
332.258	481.94
332.486	460.94
332.715	459.94
332.943	458.94
333.172	454.94
333.4	458.94
333.629	466.94
333.857	495.94
334.085	537.94
334.314	573.94
334.542	660.94
334.771	698.94
334.999	572.94
335.227	515.94
335.455	465.94
335.684	447.94
335.912	428.94
336.14	433.94
336.369	429.94
336.597	438.94
336.825	440.94
337.053	422.94
337.281	429.94
337.51	418.94
337.738	398.94
337.966	403.94
338.194	424.94
338.422	429.94
338.65	417.94
338.878	430.94
339.106	425.94
339.334	402.94
339.562	415.94
339.79	386.94
340.018	414.94
340.246	416.94
340.474	426.94
340.702	396.94
340.93	404.94
341.158	385.94
341.386	399.94
341.614	402.94
341.842	406.94
342.07	396.94
342.298	400.94
342.526	381.94
342.754	376.94
342.981	378.94
343.209	371.94
343.437	397.94
343.665	404.94
343.893	392.94
344.12	406.94
344.348	408.94
344.576	388.94
344.804	414.94
345.031	434.94
345.259	417.94
345.487	417.94
345.714	419.94
345.942	380.94
346.17	393.94
346.397	388.94
346.625	402.94
346.853	379.94
347.08	384.94
347.308	387.94
347.535	403.94
347.763	404.94
347.99	417.94
348.218	398.94
348.445	412.94
348.673	407.94
348.9	397.94
349.128	384.94
349.355	387.94
349.583	384.94
349.81	386.94
350.037	383.94
350.265	376.94
350.492	384.94
350.72	380.94
350.947	364.94
351.174	395.94
351.402	403.94
351.629	404.94
351.856	398.94
352.083	411.94
352.311	408.94
352.538	424.94
352.765	432.94
352.992	391.94
353.22	404.94
353.447	398.94
353.674	377.94
353.901	386.94
354.128	376.94
354.355	374.94
354.583	372.94
354.81	365.94
355.037	374.94
355.264	373.94
355.491	350.94
355.718	343.94
355.945	353.94
356.172	336.94
356.399	353.94
356.626	349.94
356.853	374.94
357.08	359.94
357.307	359.94
357.534	352.94
357.761	357.94
357.988	366.94
358.215	344.94
358.441	329.94
358.668	337.94
358.895	352.94
359.122	365.94
359.349	380.94
359.576	416.94
359.802	416.94
360.029	446.94
360.256	474.94
360.483	426.94
360.709	408.94
360.936	397.94
361.163	405.94
361.39	393.94
361.616	390.94
361.843	384.94
362.07	394.94
362.296	385.94
362.523	378.94
362.749	374.94
362.976	375.94
363.203	378.94
363.429	378.94
363.656	368.94
363.882	386.94
364.109	366.94
364.335	372.94
364.562	358.94
364.788	374.94
365.015	364.94
365.241	370.94
365.468	372.94
365.694	374.94
365.92	394.94
366.147	364.94
366.373	363.94
366.599	368.94
366.826	368.94
367.052	352.94
367.278	365.94
367.505	361.94
367.731	364.94
367.957	361.94
368.184	363.94
368.41	357.94
368.636	381.94
368.862	388.94
369.089	386.94
369.315	347.94
369.541	352.94
369.767	366.94
369.993	362.94
370.219	355.94
370.445	360.94
370.672	356.94
370.898	351.94
371.124	329.94
371.35	359.94
371.576	353.94
371.802	365.94
372.028	354.94
372.254	353.94
372.48	346.94
372.706	342.94
372.932	353.94
373.158	345.94
373.384	349.94
373.61	361.94
373.835	361.94
374.061	345.94
374.287	349.94
374.513	356.94
374.739	373.94
374.965	340.94
375.191	361.94
375.416	354.94
375.642	368.94
375.868	369.94
376.094	360.94
376.319	348.94
376.545	360.94
376.771	346.94
376.997	351.94
377.222	348.94
377.448	352.94
377.674	348.94
377.899	356.94
378.125	348.94
378.35	356.94
378.576	345.94
378.802	349.94
379.027	345.94
379.253	358.94
379.478	341.94
379.704	362.94
379.929	367.94
380.155	353.94
380.38	338.94
380.606	355.94
380.831	334.94
381.057	357.94
381.282	347.94
381.507	331.94
381.733	332.94
381.958	331.94
382.184	342.94
382.409	352.94
382.634	352.94
382.86	338.94
383.085	349.94
383.31	370.94
383.535	356.94
383.761	353.94
383.986	357.94
384.211	358.94
384.436	361.94
384.662	350.94
384.887	355.94
385.112	354.94
385.337	357.94
385.562	370.94
385.787	385.94
386.013	394.94
386.238	384.94
386.463	374.94
386.688	369.94
386.913	360.94
387.138	346.94
387.363	354.94
387.588	347.94
387.813	371.94
388.038	361.94
388.263	364.94
388.488	369.94
388.713	386.94
388.938	372.94
389.163	374.94
389.387	387.94
389.612	374.94
389.837	350.94
390.062	352.94
390.287	368.94
390.512	357.94
390.736	358.94
390.961	355.94
391.186	362.94
391.411	382.94
391.636	360.94
391.86	370.94
392.085	380.94
392.31	380.94
392.534	354.94
392.759	366.94
392.984	376.94
393.208	369.94
393.433	374.94
393.658	362.94
393.882	373.94
394.107	361.94
394.331	363.94
394.556	369.94
394.78	347.94
395.005	365.94
395.229	377.94
395.454	366.94
395.678	371.94
395.903	371.94
396.127	404.94
396.352	406.94
396.576	392.94
396.801	397.94
397.025	366.94
397.249	381.94
397.474	390.94
397.698	394.94
397.922	396.94
398.147	416.94
398.371	412.94
398.595	392.94
398.82	399.94
399.044	400.94
399.268	413.94
399.492	436.94
399.717	429.94
399.941	459.94
400.165	486.94
400.389	502.94
400.613	475.94
400.837	438.94
401.062	443.94
401.286	429.94
401.51	411.94
401.734	429.94
401.958	434.94
402.182	419.94
402.406	407.94
402.63	429.94
402.854	412.94
403.078	437.94
403.302	420.94
403.526	433.94
403.75	435.94
403.974	429.94
404.198	440.94
404.422	432.94
404.645	458.94
404.869	456.94
405.093	497.94
405.317	530.94
405.541	571.94
405.765	524.94
405.988	485.94
406.212	482.94
406.436	521.94
406.66	524.94
406.883	481.94
407.107	510.94
407.331	518.94
407.555	589.94
407.778	601.94
408.002	536.94
408.226	488.94
408.449	484.94
408.673	502.94
408.896	524.94
409.12	548.94
409.344	524.94
409.567	472.94
409.791	439.94
410.014	419.94
410.238	453.94
410.461	434.94
410.685	437.94
410.908	440.94
411.132	488.94
411.355	517.94
411.578	488.94
411.802	441.94
412.025	448.94
412.249	462.94
412.472	478.94
412.695	549.94
412.919	547.94
413.142	474.94
413.365	446.94
413.589	441.94
413.812	422.94
414.035	434.94
414.258	420.94
414.482	419.94
414.705	422.94
414.928	422.94
415.151	401.94
415.374	409.94
415.597	396.94
415.821	410.94
416.044	408.94
416.267	418.94
416.49	399.94
416.713	420.94
416.936	409.94
417.159	408.94
417.382	417.94
417.605	429.94
417.828	441.94
418.051	444.94
418.274	425.94
418.497	432.94
418.72	411.94
418.943	404.94
419.166	437.94
419.389	456.94
419.611	453.94
419.834	460.94
420.057	432.94
420.28	451.94
420.503	460.94
420.726	445.94
420.948	459.94
421.171	510.94
421.394	525.94
421.617	467.94
421.839	459.94
422.062	454.94
422.285	460.94
422.507	508.94
422.73	586.94
422.953	548.94
423.175	504.94
423.398	458.94
423.621	483.94
423.843	465.94
424.066	489.94
424.288	486.94
424.511	475.94
424.733	563.94
424.956	628.94
425.178	613.94
425.401	605.94
425.623	608.94
425.846	546.94
426.068	499.94
426.291	485.94
426.513	501.94
426.735	486.94
426.958	556.94
427.18	611.94
427.402	731.94
427.625	820.94
427.847	734.94
428.069	682.94
428.292	566.94
428.514	501.94
428.736	491.94
428.958	488.94
429.181	450.94
429.403	469.94
429.625	464.94
429.847	498.94
430.069	550.94
430.292	565.94
430.514	454.94
430.736	441.94
430.958	452.94
431.18	454.94
431.402	435.94
431.624	414.94
431.846	410.94
432.068	408.94
432.29	402.94
432.512	402.94
432.734	440.94
432.956	432.94
433.178	442.94
433.4	450.94
433.622	429.94
433.844	404.94
434.066	398.94
434.287	420.94
434.509	393.94
434.731	420.94
434.953	436.94
435.175	451.94
435.397	453.94
435.618	500.94
435.84	530.94
436.062	612.94
436.284	704.94
436.505	568.94
436.727	514.94
436.949	476.94
437.17	474.94
437.392	475.94
437.614	478.94
437.835	508.94
438.057	635.94
438.278	707.94
438.5	708.94
438.721	760.94
438.943	733.94
439.165	573.94
439.386	511.94
439.608	506.94
439.829	519.94
440.05	537.94
440.272	589.94
440.493	538.94
440.715	503.94
440.936	458.94
441.158	457.94
441.379	473.94
441.6	467.94
441.822	490.94
442.043	526.94
442.264	598.94
442.486	641.94
442.707	567.94
442.928	516.94
443.149	492.94
443.371	530.94
443.592	552.94
443.813	643.94
444.034	714.94
444.255	600.94
444.476	513.94
444.698	494.94
444.919	501.94
445.14	558.94
445.361	538.94
445.582	542.94
445.803	588.94
446.024	703.94
446.245	705.94
446.466	645.94
446.687	553.94
446.908	496.94
447.129	465.94
447.35	453.94
447.571	462.94
447.792	466.94
448.013	462.94
448.234	474.94
448.455	521.94
448.675	644.94
448.896	712.94
449.117	630.94
449.338	619.94
449.559	693.94
449.779	770.94
450	645.94
450.221	531.94
450.442	475.94
450.662	476.94
450.883	486.94
451.104	485.94
451.324	475.94
451.545	466.94
451.766	435.94
451.986	396.94
452.207	409.94
452.428	434.94
452.648	405.94
452.869	409.94
453.089	419.94
453.31	452.94
453.53	422.94
453.751	414.94
453.971	437.94
454.192	445.94
454.412	439.94
454.633	409.94
454.853	396.94
455.073	421.94
455.294	434.94
455.514	505.94
455.734	505.94
455.955	409.94
456.175	387.94
456.395	384.94
456.616	372.94
456.836	390.94
457.056	373.94
457.276	369.94
457.497	382.94
457.717	390.94
457.937	391.94
458.157	381.94
458.377	395.94
458.598	410.94
458.818	480.94
459.038	581.94
459.258	591.94
459.478	480.94
459.698	414.94
459.918	428.94
460.138	401.94
460.358	408.94
460.578	408.94
460.798	417.94
461.018	401.94
461.238	405.94
461.458	417.94
461.678	405.94
461.898	390.94
462.118	393.94
462.338	425.94
462.558	421.94
462.777	417.94
462.997	434.94
463.217	439.94
463.437	408.94
463.657	426.94
463.876	409.94
464.096	418.94
464.316	454.94
464.536	434.94
464.755	444.94
464.975	456.94
465.195	506.94
465.414	598.94
465.634	533.94
465.854	453.94
466.073	429.94
466.293	426.94
466.512	406.94
466.732	398.94
466.951	410.94
467.171	406.94
467.391	421.94
467.61	420.94
467.829	442.94
468.049	474.94
468.268	442.94
468.488	420.94
468.707	408.94
468.927	395.94
469.146	398.94
469.365	398.94
469.585	410.94
469.804	408.94
470.023	422.94
470.243	416.94
470.462	418.94
470.681	446.94
470.901	421.94
471.12	434.94
471.339	405.94
471.558	425.94
471.777	438.94
471.997	443.94
472.216	446.94
472.435	544.94
472.654	512.94
472.873	474.94
473.092	433.94
473.311	435.94
473.53	440.94
473.749	454.94
473.968	489.94
474.187	597.94
474.406	609.94
474.625	489.94
474.844	445.94
475.063	424.94
475.282	402.94
475.501	428.94
475.72	434.94
475.939	437.94
476.158	449.94
476.377	439.94
476.596	435.94
476.814	433.94
477.033	423.94
477.252	454.94
477.471	437.94
477.69	440.94
477.908	442.94
478.127	448.94
478.346	430.94
478.564	469.94
478.783	466.94
479.002	464.94
479.22	450.94
479.439	484.94
479.658	513.94
479.876	489.94
480.095	521.94
480.313	543.94
480.532	536.94
480.751	521.94
480.969	542.94
481.188	673.94
481.406	843.94
481.624	650.94
481.843	598.94
482.061	562.94
482.28	543.94
482.498	509.94
482.717	519.94
482.935	498.94
483.153	526.94
483.372	521.94
483.59	517.94
483.808	494.94
484.027	516.94
484.245	504.94
484.463	521.94
484.681	511.94
484.9	501.94
485.118	500.94
485.336	527.94
485.554	517.94
485.772	520.94
485.99	522.94
486.209	531.94
486.427	538.94
486.645	555.94
486.863	560.94
487.081	568.94
487.299	536.94
487.517	537.94
487.735	555.94
487.953	541.94
488.171	552.94
488.389	546.94
488.607	547.94
488.825	548.94
489.043	532.94
489.261	546.94
489.479	580.94
489.696	570.94
489.914	554.94
490.132	555.94
490.35	554.94
490.568	581.94
490.786	581.94
491.003	587.94
491.221	602.94
491.439	622.94
491.657	627.94
491.874	633.94
492.092	667.94
492.31	641.94
492.527	653.94
492.745	645.94
492.963	656.94
493.18	658.94
493.398	670.94
493.615	670.94
493.833	681.94
494.05	666.94
494.268	668.94
494.485	680.94
494.703	654.94
494.92	653.94
495.138	674.94
495.355	678.94
495.573	626.94
495.79	665.94
496.008	662.94
496.225	649.94
496.442	621.94
496.66	640.94
496.877	669.94
497.094	670.94
497.312	644.94
497.529	649.94
497.746	655.94
497.963	676.94
498.181	673.94
498.398	703.94
498.615	693.94
498.832	710.94
499.049	669.94
499.267	700.94
499.484	706.94
499.701	715.94
499.918	728.94
500.135	772.94
500.352	797.94
500.569	754.94
500.786	765.94
501.003	778.94
501.22	772.94
501.437	754.94
501.654	755.94
501.871	774.94
