Data from 1986.PennyLincolnUp.Lamp.En5.5.200Scan.071819.P2_HRD10591_17-10-08-986.txt Node
Date: Thu Jul 18 17:10:08 EDT 2019
User: cochatt
Spectrometer: HR+D1059
Trigger mode: 1
Integration Time (sec): 1.000000E-1
Scans to average: 1
Electric dark correction enabled: true
Nonlinearity correction enabled: false
Boxcar width: 0
XAxis mode: Wavelengths
Number of Pixels in Spectrum: 2048
>>>>>Begin Spectral Data<<<<<
223.165	-8.94
223.4	-8.94
223.635	-8.94
223.869	-17.94
224.104	-1.94
224.338	-13.94
224.573	-16.94
224.808	-4.94
225.042	-4.94
225.277	-10.94
225.511	-13.94
225.746	-7.94
225.98	3.06
226.215	12.06
226.449	10.06
226.683	13.06
226.918	24.06
227.152	40.06
227.387	37.06
227.621	47.06
227.856	32.06
228.09	39.06
228.324	50.06
228.559	55.06
228.793	64.06
229.027	102.06
229.262	111.06
229.496	127.06
229.73	140.06
229.964	136.06
230.199	138.06
230.433	121.06
230.667	114.06
230.901	116.06
231.136	122.06
231.37	111.06
231.604	118.06
231.838	102.06
232.072	100.06
232.306	106.06
232.541	111.06
232.775	101.06
233.009	112.06
233.243	99.06
233.477	114.06
233.711	124.06
233.945	106.06
234.179	106.06
234.413	117.06
234.647	97.06
234.881	118.06
235.115	114.06
235.349	114.06
235.583	124.06
235.817	120.06
236.051	118.06
236.285	126.06
236.519	122.06
236.753	131.06
236.987	139.06
237.221	164.06
237.455	221.06
237.689	181.06
237.922	151.06
238.156	135.06
238.39	121.06
238.624	123.06
238.858	126.06
239.091	115.06
239.325	132.06
239.559	129.06
239.793	147.06
240.027	133.06
240.26	148.06
240.494	153.06
240.728	162.06
240.961	141.06
241.195	133.06
241.429	126.06
241.662	139.06
241.896	127.06
242.13	132.06
242.363	130.06
242.597	126.06
242.83	133.06
243.064	155.06
243.298	150.06
243.531	144.06
243.765	146.06
243.998	139.06
244.232	136.06
244.465	133.06
244.699	128.06
244.932	146.06
245.166	142.06
245.399	150.06
245.633	152.06
245.866	146.06
246.099	134.06
246.333	130.06
246.566	156.06
246.8	154.06
247.033	149.06
247.266	159.06
247.5	174.06
247.733	168.06
247.966	170.06
248.2	167.06
248.433	154.06
248.666	176.06
248.899	189.06
249.133	197.06
249.366	214.06
249.599	215.06
249.832	187.06
250.066	203.06
250.299	181.06
250.532	194.06
250.765	189.06
250.998	230.06
251.231	222.06
251.465	239.06
251.698	228.06
251.931	194.06
252.164	211.06
252.397	194.06
252.63	198.06
252.863	211.06
253.096	224.06
253.329	224.06
253.562	225.06
253.795	234.06
254.028	226.06
254.261	207.06
254.494	235.06
254.727	255.06
254.96	280.06
255.193	283.06
255.426	233.06
255.659	229.06
255.892	219.06
256.124	230.06
256.357	234.06
256.59	206.06
256.823	208.06
257.056	207.06
257.289	218.06
257.521	202.06
257.754	210.06
257.987	209.06
258.22	199.06
258.452	200.06
258.685	218.06
258.918	214.06
259.151	216.06
259.383	199.06
259.616	219.06
259.849	226.06
260.081	224.06
260.314	258.06
260.547	264.06
260.779	248.06
261.012	244.06
261.244	242.06
261.477	222.06
261.71	224.06
261.942	230.06
262.175	234.06
262.407	242.06
262.64	206.06
262.872	209.06
263.105	218.06
263.337	210.06
263.57	202.06
263.802	217.06
264.035	220.06
264.267	194.06
264.499	199.06
264.732	213.06
264.964	208.06
265.197	212.06
265.429	208.06
265.661	218.06
265.894	213.06
266.126	214.06
266.358	209.06
266.591	194.06
266.823	196.06
267.055	216.06
267.287	227.06
267.52	231.06
267.752	209.06
267.984	217.06
268.216	219.06
268.448	224.06
268.681	229.06
268.913	216.06
269.145	259.06
269.377	276.06
269.609	284.06
269.841	277.06
270.073	271.06
270.306	278.06
270.538	316.06
270.77	304.06
271.002	293.06
271.234	295.06
271.466	284.06
271.698	314.06
271.93	323.06
272.162	327.06
272.394	298.06
272.626	310.06
272.858	288.06
273.09	275.06
273.322	258.06
273.553	266.06
273.785	246.06
274.017	239.06
274.249	235.06
274.481	251.06
274.713	260.06
274.945	251.06
275.176	256.06
275.408	245.06
275.64	248.06
275.872	249.06
276.104	250.06
276.335	263.06
276.567	250.06
276.799	284.06
277.031	306.06
277.262	302.06
277.494	301.06
277.726	298.06
277.957	276.06
278.189	273.06
278.421	261.06
278.652	252.06
278.884	258.06
279.115	256.06
279.347	258.06
279.579	239.06
279.81	251.06
280.042	239.06
280.273	260.06
280.505	243.06
280.736	240.06
280.968	250.06
281.199	240.06
281.431	274.06
281.662	245.06
281.894	243.06
282.125	243.06
282.356	272.06
282.588	289.06
282.819	306.06
283.051	261.06
283.282	247.06
283.513	261.06
283.745	266.06
283.976	251.06
284.207	253.06
284.439	254.06
284.67	263.06
284.901	243.06
285.132	260.06
285.364	258.06
285.595	239.06
285.826	245.06
286.057	248.06
286.288	252.06
286.52	262.06
286.751	235.06
286.982	250.06
287.213	243.06
287.444	248.06
287.675	275.06
287.906	269.06
288.138	268.06
288.369	278.06
288.6	284.06
288.831	276.06
289.062	279.06
289.293	277.06
289.524	256.06
289.755	272.06
289.986	249.06
290.217	259.06
290.448	234.06
290.679	242.06
290.91	264.06
291.141	240.06
291.371	265.06
291.602	271.06
291.833	253.06
292.064	259.06
292.295	249.06
292.526	278.06
292.757	251.06
292.987	256.06
293.218	262.06
293.449	265.06
293.68	282.06
293.91	259.06
294.141	245.06
294.372	255.06
294.603	246.06
294.833	270.06
295.064	263.06
295.295	263.06
295.525	277.06
295.756	284.06
295.987	288.06
296.217	317.06
296.448	312.06
296.679	288.06
296.909	285.06
297.14	270.06
297.37	255.06
297.601	283.06
297.831	263.06
298.062	269.06
298.292	280.06
298.523	276.06
298.753	270.06
298.984	265.06
299.214	278.06
299.445	264.06
299.675	285.06
299.905	288.06
300.136	290.06
300.366	264.06
300.597	257.06
300.827	279.06
301.057	283.06
301.288	279.06
301.518	295.06
301.748	270.06
301.979	280.06
302.209	307.06
302.439	305.06
302.669	288.06
302.9	295.06
303.13	287.06
303.36	293.06
303.59	299.06
303.82	322.06
304.051	308.06
304.281	299.06
304.511	300.06
304.741	291.06
304.971	289.06
305.201	290.06
305.431	295.06
305.661	291.06
305.891	289.06
306.121	300.06
306.352	300.06
306.582	299.06
306.812	293.06
307.042	314.06
307.272	302.06
307.502	298.06
307.731	283.06
307.961	296.06
308.191	308.06
308.421	313.06
308.651	316.06
308.881	308.06
309.111	313.06
309.341	311.06
309.571	314.06
309.8	353.06
310.03	334.06
310.26	350.06
310.49	327.06
310.72	343.06
310.949	369.06
311.179	371.06
311.409	362.06
311.639	358.06
311.868	343.06
312.098	346.06
312.328	348.06
312.557	356.06
312.787	378.06
313.017	394.06
313.246	368.06
313.476	363.06
313.706	350.06
313.935	359.06
314.165	375.06
314.394	374.06
314.624	363.06
314.853	352.06
315.083	329.06
315.312	352.06
315.542	332.06
315.771	331.06
316.001	347.06
316.23	343.06
316.46	330.06
316.689	336.06
316.919	340.06
317.148	360.06
317.377	350.06
317.607	354.06
317.836	359.06
318.065	348.06
318.295	341.06
318.524	344.06
318.753	350.06
318.983	337.06
319.212	343.06
319.441	356.06
319.67	366.06
319.9	360.06
320.129	342.06
320.358	344.06
320.587	359.06
320.816	358.06
321.046	361.06
321.275	379.06
321.504	378.06
321.733	372.06
321.962	410.06
322.191	406.06
322.42	412.06
322.649	425.06
322.878	434.06
323.108	462.06
323.337	463.06
323.566	498.06
323.795	527.06
324.024	586.06
324.253	702.06
324.482	1029.06
324.71	1561.06
324.939	2219.06
325.168	2027.06
325.397	1070.06
325.626	694.06
325.855	573.06
326.084	520.06
326.313	498.06
326.542	505.06
326.77	543.06
326.999	685.06
327.228	907.06
327.457	1385.06
327.686	1700.06
327.914	1186.06
328.143	766.06
328.372	622.06
328.6	611.06
328.829	572.06
329.058	572.06
329.287	604.06
329.515	555.06
329.744	500.06
329.972	470.06
330.201	487.06
330.43	509.06
330.658	526.06
330.887	611.06
331.115	616.06
331.344	522.06
331.572	482.06
331.801	465.06
332.03	459.06
332.258	430.06
332.486	421.06
332.715	420.06
332.943	380.06
333.172	414.06
333.4	396.06
333.629	411.06
333.857	422.06
334.085	425.06
334.314	428.06
334.542	421.06
334.771	428.06
334.999	420.06
335.227	409.06
335.455	398.06
335.684	402.06
335.912	406.06
336.14	397.06
336.369	388.06
336.597	404.06
336.825	384.06
337.053	382.06
337.281	386.06
337.51	368.06
337.738	384.06
337.966	397.06
338.194	389.06
338.422	399.06
338.65	406.06
338.878	390.06
339.106	378.06
339.334	370.06
339.562	375.06
339.79	380.06
340.018	372.06
340.246	381.06
340.474	395.06
340.702	383.06
340.93	381.06
341.158	380.06
341.386	372.06
341.614	403.06
341.842	389.06
342.07	395.06
342.298	363.06
342.526	368.06
342.754	358.06
342.981	370.06
343.209	356.06
343.437	342.06
343.665	354.06
343.893	381.06
344.12	390.06
344.348	377.06
344.576	380.06
344.804	361.06
345.031	388.06
345.259	417.06
345.487	398.06
345.714	403.06
345.942	367.06
346.17	370.06
346.397	366.06
346.625	372.06
346.853	366.06
347.08	386.06
347.308	370.06
347.535	390.06
347.763	407.06
347.99	392.06
348.218	390.06
348.445	389.06
348.673	399.06
348.9	378.06
349.128	370.06
349.355	367.06
349.583	371.06
349.81	358.06
350.037	365.06
350.265	374.06
350.492	372.06
350.72	359.06
350.947	370.06
351.174	386.06
351.402	378.06
351.629	389.06
351.856	385.06
352.083	385.06
352.311	415.06
352.538	407.06
352.765	388.06
352.992	390.06
353.22	377.06
353.447	386.06
353.674	368.06
353.901	365.06
354.128	345.06
354.355	357.06
354.583	340.06
354.81	368.06
355.037	350.06
355.264	332.06
355.491	345.06
355.718	327.06
355.945	351.06
356.172	350.06
356.399	339.06
356.626	336.06
356.853	346.06
357.08	326.06
357.307	338.06
357.534	348.06
357.761	343.06
357.988	339.06
358.215	339.06
358.441	343.06
358.668	344.06
358.895	337.06
359.122	346.06
359.349	357.06
359.576	365.06
359.802	383.06
360.029	420.06
360.256	433.06
360.483	415.06
360.709	384.06
360.936	384.06
361.163	372.06
361.39	386.06
361.616	369.06
361.843	381.06
362.07	386.06
362.296	382.06
362.523	384.06
362.749	393.06
362.976	355.06
363.203	359.06
363.429	374.06
363.656	358.06
363.882	336.06
364.109	356.06
364.335	358.06
364.562	363.06
364.788	350.06
365.015	342.06
365.241	370.06
365.468	353.06
365.694	370.06
365.92	354.06
366.147	382.06
366.373	342.06
366.599	348.06
366.826	331.06
367.052	354.06
367.278	341.06
367.505	334.06
367.731	356.06
367.957	369.06
368.184	358.06
368.41	344.06
368.636	362.06
368.862	360.06
369.089	352.06
369.315	339.06
369.541	354.06
369.767	344.06
369.993	347.06
370.219	333.06
370.445	326.06
370.672	328.06
370.898	333.06
371.124	334.06
371.35	338.06
371.576	354.06
371.802	336.06
372.028	330.06
372.254	349.06
372.48	342.06
372.706	349.06
372.932	365.06
373.158	322.06
373.384	359.06
373.61	342.06
373.835	338.06
374.061	339.06
374.287	333.06
374.513	340.06
374.739	351.06
374.965	334.06
375.191	336.06
375.416	344.06
375.642	350.06
375.868	342.06
376.094	341.06
376.319	333.06
376.545	332.06
376.771	340.06
376.997	341.06
377.222	343.06
377.448	335.06
377.674	344.06
377.899	331.06
378.125	333.06
378.35	326.06
378.576	343.06
378.802	324.06
379.027	328.06
379.253	338.06
379.478	340.06
379.704	344.06
379.929	320.06
380.155	334.06
380.38	351.06
380.606	323.06
380.831	359.06
381.057	342.06
381.282	324.06
381.507	335.06
381.733	345.06
381.958	349.06
382.184	344.06
382.409	336.06
382.634	340.06
382.86	333.06
383.085	356.06
383.31	353.06
383.535	357.06
383.761	368.06
383.986	329.06
384.211	348.06
384.436	356.06
384.662	374.06
384.887	342.06
385.112	340.06
385.337	352.06
385.562	362.06
385.787	345.06
386.013	354.06
386.238	355.06
386.463	365.06
386.688	349.06
386.913	335.06
387.138	349.06
387.363	370.06
387.588	363.06
387.813	363.06
388.038	355.06
388.263	348.06
388.488	355.06
388.713	343.06
388.938	351.06
389.163	366.06
389.387	353.06
389.612	370.06
389.837	340.06
390.062	336.06
390.287	345.06
390.512	354.06
390.736	362.06
390.961	335.06
391.186	350.06
391.411	335.06
391.636	362.06
391.86	357.06
392.085	359.06
392.31	351.06
392.534	374.06
392.759	357.06
392.984	360.06
393.208	337.06
393.433	340.06
393.658	366.06
393.882	356.06
394.107	362.06
394.331	376.06
394.556	348.06
394.78	350.06
395.005	359.06
395.229	340.06
395.454	352.06
395.678	377.06
395.903	367.06
396.127	406.06
396.352	374.06
396.576	356.06
396.801	352.06
397.025	365.06
397.249	392.06
397.474	370.06
397.698	390.06
397.922	396.06
398.147	416.06
398.371	403.06
398.595	375.06
398.82	391.06
399.044	416.06
399.268	400.06
399.492	399.06
399.717	434.06
399.941	445.06
400.165	492.06
400.389	489.06
400.613	453.06
400.837	423.06
401.062	427.06
401.286	421.06
401.51	410.06
401.734	390.06
401.958	392.06
402.182	401.06
402.406	406.06
402.63	432.06
402.854	393.06
403.078	404.06
403.302	407.06
403.526	409.06
403.75	426.06
403.974	419.06
404.198	398.06
404.422	412.06
404.645	403.06
404.869	415.06
405.093	440.06
405.317	471.06
405.541	475.06
405.765	465.06
405.988	435.06
406.212	429.06
406.436	480.06
406.66	484.06
406.883	455.06
407.107	478.06
407.331	498.06
407.555	567.06
407.778	583.06
408.002	517.06
408.226	488.06
408.449	448.06
408.673	450.06
408.896	491.06
409.12	501.06
409.344	499.06
409.567	450.06
409.791	411.06
410.014	422.06
410.238	420.06
410.461	438.06
410.685	413.06
410.908	446.06
411.132	466.06
411.355	525.06
411.578	458.06
411.802	438.06
412.025	411.06
412.249	409.06
412.472	412.06
412.695	439.06
412.919	446.06
413.142	408.06
413.365	410.06
413.589	394.06
413.812	374.06
414.035	408.06
414.258	396.06
414.482	383.06
414.705	394.06
414.928	393.06
415.151	379.06
415.374	398.06
415.597	381.06
415.821	381.06
416.044	398.06
416.267	392.06
416.49	379.06
416.713	401.06
416.936	390.06
417.159	385.06
417.382	388.06
417.605	404.06
417.828	407.06
418.051	445.06
418.274	414.06
418.497	411.06
418.72	411.06
418.943	385.06
419.166	388.06
419.389	398.06
419.611	410.06
419.834	417.06
420.057	413.06
420.28	403.06
420.503	408.06
420.726	417.06
420.948	444.06
421.171	476.06
421.394	490.06
421.617	461.06
421.839	413.06
422.062	441.06
422.285	437.06
422.507	480.06
422.73	562.06
422.953	545.06
423.175	446.06
423.398	457.06
423.621	453.06
423.843	468.06
424.066	483.06
424.288	460.06
424.511	478.06
424.733	519.06
424.956	602.06
425.178	593.06
425.401	571.06
425.623	596.06
425.846	494.06
426.068	479.06
426.291	470.06
426.513	474.06
426.735	473.06
426.958	512.06
427.18	578.06
427.402	681.06
427.625	811.06
427.847	715.06
428.069	578.06
428.292	526.06
428.514	488.06
428.736	456.06
428.958	456.06
429.181	420.06
429.403	417.06
429.625	450.06
429.847	471.06
430.069	523.06
430.292	537.06
430.514	460.06
430.736	442.06
430.958	440.06
431.18	411.06
431.402	401.06
431.624	411.06
431.846	406.06
432.068	394.06
432.29	405.06
432.512	405.06
432.734	430.06
432.956	426.06
433.178	408.06
433.4	420.06
433.622	420.06
433.844	407.06
434.066	398.06
434.287	414.06
434.509	419.06
434.731	415.06
434.953	422.06
435.175	430.06
435.397	480.06
435.618	514.06
435.84	505.06
436.062	599.06
436.284	658.06
436.505	543.06
436.727	488.06
436.949	464.06
437.17	437.06
437.392	439.06
437.614	444.06
437.835	507.06
438.057	579.06
438.278	700.06
438.5	674.06
438.721	728.06
438.943	687.06
439.165	557.06
439.386	513.06
439.608	484.06
439.829	497.06
440.05	503.06
440.272	545.06
440.493	501.06
440.715	480.06
440.936	463.06
441.158	440.06
441.379	459.06
441.6	452.06
441.822	467.06
442.043	511.06
442.264	570.06
442.486	631.06
442.707	550.06
442.928	500.06
443.149	495.06
443.371	519.06
443.592	554.06
443.813	614.06
444.034	697.06
444.255	571.06
444.476	517.06
444.698	487.06
444.919	464.06
445.14	542.06
445.361	516.06
445.582	522.06
445.803	606.06
446.024	656.06
446.245	685.06
446.466	611.06
446.687	528.06
446.908	494.06
447.129	461.06
447.35	448.06
447.571	450.06
447.792	431.06
448.013	426.06
448.234	472.06
448.455	515.06
448.675	608.06
448.896	721.06
449.117	614.06
449.338	578.06
449.559	667.06
449.779	719.06
450	615.06
450.221	514.06
450.442	461.06
450.662	460.06
450.883	456.06
451.104	491.06
451.324	470.06
451.545	425.06
451.766	408.06
451.986	401.06
452.207	416.06
452.428	405.06
452.648	405.06
452.869	392.06
453.089	412.06
453.31	447.06
453.53	413.06
453.751	402.06
453.971	384.06
454.192	449.06
454.412	412.06
454.633	402.06
454.853	392.06
455.073	388.06
455.294	404.06
455.514	469.06
455.734	467.06
455.955	407.06
456.175	381.06
456.395	388.06
456.616	384.06
456.836	364.06
457.056	364.06
457.276	344.06
457.497	387.06
457.717	346.06
457.937	398.06
458.157	367.06
458.377	374.06
458.598	403.06
458.818	465.06
459.038	543.06
459.258	567.06
459.478	452.06
459.698	421.06
459.918	414.06
460.138	387.06
460.358	407.06
460.578	394.06
460.798	392.06
461.018	406.06
461.238	395.06
461.458	406.06
461.678	368.06
461.898	396.06
462.118	379.06
462.338	403.06
462.558	394.06
462.777	407.06
462.997	406.06
463.217	405.06
463.437	407.06
463.657	396.06
463.876	420.06
464.096	399.06
464.316	392.06
464.536	407.06
464.755	439.06
464.975	438.06
465.195	496.06
465.414	568.06
465.634	507.06
465.854	459.06
466.073	420.06
466.293	387.06
466.512	403.06
466.732	382.06
466.951	415.06
467.171	389.06
467.391	407.06
467.61	412.06
467.829	426.06
468.049	396.06
468.268	393.06
468.488	407.06
468.707	379.06
468.927	368.06
469.146	367.06
469.365	372.06
469.585	370.06
469.804	383.06
470.023	400.06
470.243	399.06
470.462	386.06
470.681	424.06
470.901	435.06
471.12	392.06
471.339	412.06
471.558	388.06
471.777	394.06
471.997	393.06
472.216	385.06
472.435	391.06
472.654	391.06
472.873	396.06
473.092	375.06
473.311	409.06
473.53	406.06
473.749	394.06
473.968	471.06
474.187	554.06
474.406	600.06
474.625	457.06
474.844	425.06
475.063	425.06
475.282	420.06
475.501	408.06
475.72	412.06
475.939	401.06
476.158	428.06
476.377	406.06
476.596	428.06
476.814	420.06
477.033	426.06
477.252	442.06
477.471	424.06
477.69	418.06
477.908	442.06
478.127	419.06
478.346	420.06
478.564	449.06
478.783	444.06
479.002	441.06
479.22	455.06
479.439	441.06
479.658	447.06
479.876	463.06
480.095	487.06
480.313	482.06
480.532	492.06
480.751	488.06
480.969	482.06
481.188	502.06
481.406	505.06
481.624	492.06
481.843	454.06
482.061	472.06
482.28	475.06
482.498	475.06
482.717	467.06
482.935	444.06
483.153	438.06
483.372	480.06
483.59	462.06
483.808	446.06
484.027	456.06
484.245	459.06
484.463	475.06
484.681	483.06
484.9	472.06
485.118	482.06
485.336	489.06
485.554	476.06
485.772	468.06
485.99	459.06
486.209	494.06
486.427	479.06
486.645	493.06
486.863	496.06
487.081	523.06
487.299	519.06
487.517	520.06
487.735	506.06
487.953	514.06
488.171	528.06
488.389	521.06
488.607	510.06
488.825	535.06
489.043	509.06
489.261	512.06
489.479	515.06
489.696	522.06
489.914	508.06
490.132	529.06
490.35	523.06
490.568	527.06
490.786	543.06
491.003	545.06
491.221	570.06
491.439	566.06
491.657	549.06
491.874	567.06
492.092	587.06
492.31	596.06
492.527	572.06
492.745	591.06
492.963	584.06
493.18	603.06
493.398	594.06
493.615	596.06
493.833	583.06
494.05	610.06
494.268	629.06
494.485	598.06
494.703	630.06
494.92	620.06
495.138	637.06
495.355	615.06
495.573	601.06
495.79	602.06
496.008	613.06
496.225	617.06
496.442	619.06
496.66	613.06
496.877	594.06
497.094	604.06
497.312	602.06
497.529	629.06
497.746	643.06
497.963	642.06
498.181	638.06
498.398	652.06
498.615	650.06
498.832	670.06
499.049	643.06
499.267	668.06
499.484	696.06
499.701	684.06
499.918	710.06
500.135	718.06
500.352	744.06
500.569	738.06
500.786	747.06
501.003	746.06
501.22	740.06
501.437	730.06
501.654	740.06
501.871	738.06
