Data from 1986.PennyLincolnUp.Lamp.En5.5.200Scan.071819.P2_HRD10591_17-10-19-974.txt Node
Date: Thu Jul 18 17:10:19 EDT 2019
User: cochatt
Spectrometer: HR+D1059
Trigger mode: 1
Integration Time (sec): 1.000000E-1
Scans to average: 1
Electric dark correction enabled: true
Nonlinearity correction enabled: false
Boxcar width: 0
XAxis mode: Wavelengths
Number of Pixels in Spectrum: 2048
>>>>>Begin Spectral Data<<<<<
223.165	-14.31
223.4	-14.31
223.635	-14.31
223.869	-11.31
224.104	-8.31
224.338	-23.31
224.573	-21.31
224.808	-19.31
225.042	-7.31
225.277	7.69
225.511	-9.31
225.746	-6.31
225.98	5.69
226.215	10.69
226.449	4.69
226.683	26.69
226.918	28.69
227.152	36.69
227.387	42.69
227.621	39.69
227.856	41.69
228.09	40.69
228.324	51.69
228.559	57.69
228.793	61.69
229.027	86.69
229.262	102.69
229.496	113.69
229.73	129.69
229.964	152.69
230.199	129.69
230.433	117.69
230.667	126.69
230.901	127.69
231.136	116.69
231.37	104.69
231.604	113.69
231.838	101.69
232.072	104.69
232.306	102.69
232.541	101.69
232.775	122.69
233.009	126.69
233.243	114.69
233.477	122.69
233.711	113.69
233.945	107.69
234.179	113.69
234.413	109.69
234.647	119.69
234.881	107.69
235.115	111.69
235.349	125.69
235.583	121.69
235.817	122.69
236.051	118.69
236.285	99.69
236.519	123.69
236.753	134.69
236.987	127.69
237.221	174.69
237.455	219.69
237.689	213.69
237.922	143.69
238.156	140.69
238.39	107.69
238.624	133.69
238.858	125.69
239.091	117.69
239.325	120.69
239.559	123.69
239.793	121.69
240.027	136.69
240.26	155.69
240.494	171.69
240.728	163.69
240.961	140.69
241.195	145.69
241.429	136.69
241.662	135.69
241.896	137.69
242.13	125.69
242.363	136.69
242.597	130.69
242.83	123.69
243.064	139.69
243.298	137.69
243.531	130.69
243.765	130.69
243.998	128.69
244.232	149.69
244.465	133.69
244.699	143.69
244.932	137.69
245.166	145.69
245.399	147.69
245.633	147.69
245.866	139.69
246.099	140.69
246.333	133.69
246.566	136.69
246.8	146.69
247.033	157.69
247.266	154.69
247.5	164.69
247.733	169.69
247.966	172.69
248.2	169.69
248.433	170.69
248.666	181.69
248.899	202.69
249.133	213.69
249.366	212.69
249.599	186.69
249.832	181.69
250.066	194.69
250.299	180.69
250.532	199.69
250.765	211.69
250.998	240.69
251.231	221.69
251.465	222.69
251.698	202.69
251.931	198.69
252.164	194.69
252.397	212.69
252.63	206.69
252.863	211.69
253.096	220.69
253.329	241.69
253.562	232.69
253.795	230.69
254.028	223.69
254.261	221.69
254.494	226.69
254.727	266.69
254.96	281.69
255.193	282.69
255.426	250.69
255.659	226.69
255.892	234.69
256.124	244.69
256.357	221.69
256.59	235.69
256.823	219.69
257.056	214.69
257.289	214.69
257.521	197.69
257.754	201.69
257.987	221.69
258.22	194.69
258.452	227.69
258.685	216.69
258.918	213.69
259.151	189.69
259.383	222.69
259.616	218.69
259.849	224.69
260.081	236.69
260.314	260.69
260.547	255.69
260.779	261.69
261.012	230.69
261.244	218.69
261.477	214.69
261.71	220.69
261.942	244.69
262.175	242.69
262.407	221.69
262.64	197.69
262.872	202.69
263.105	210.69
263.337	219.69
263.57	208.69
263.802	202.69
264.035	191.69
264.267	210.69
264.499	218.69
264.732	210.69
264.964	197.69
265.197	206.69
265.429	200.69
265.661	203.69
265.894	206.69
266.126	222.69
266.358	209.69
266.591	216.69
266.823	207.69
267.055	224.69
267.287	217.69
267.52	207.69
267.752	195.69
267.984	225.69
268.216	219.69
268.448	216.69
268.681	234.69
268.913	230.69
269.145	251.69
269.377	268.69
269.609	265.69
269.841	240.69
270.073	278.69
270.306	288.69
270.538	309.69
270.77	303.69
271.002	315.69
271.234	291.69
271.466	291.69
271.698	301.69
271.93	338.69
272.162	318.69
272.394	314.69
272.626	308.69
272.858	290.69
273.09	263.69
273.322	255.69
273.553	271.69
273.785	268.69
274.017	239.69
274.249	253.69
274.481	274.69
274.713	267.69
274.945	246.69
275.176	265.69
275.408	258.69
275.64	243.69
275.872	255.69
276.104	250.69
276.335	238.69
276.567	249.69
276.799	277.69
277.031	297.69
277.262	309.69
277.494	286.69
277.726	291.69
277.957	294.69
278.189	261.69
278.421	243.69
278.652	254.69
278.884	247.69
279.115	248.69
279.347	268.69
279.579	264.69
279.81	235.69
280.042	237.69
280.273	255.69
280.505	251.69
280.736	237.69
280.968	237.69
281.199	234.69
281.431	234.69
281.662	236.69
281.894	237.69
282.125	253.69
282.356	276.69
282.588	272.69
282.819	297.69
283.051	266.69
283.282	249.69
283.513	246.69
283.745	255.69
283.976	268.69
284.207	260.69
284.439	262.69
284.67	257.69
284.901	245.69
285.132	253.69
285.364	247.69
285.595	251.69
285.826	261.69
286.057	242.69
286.288	251.69
286.52	260.69
286.751	271.69
286.982	244.69
287.213	261.69
287.444	266.69
287.675	256.69
287.906	265.69
288.138	268.69
288.369	285.69
288.6	270.69
288.831	271.69
289.062	278.69
289.293	270.69
289.524	259.69
289.755	250.69
289.986	269.69
290.217	265.69
290.448	257.69
290.679	258.69
290.91	254.69
291.141	258.69
291.371	273.69
291.602	252.69
291.833	250.69
292.064	263.69
292.295	263.69
292.526	262.69
292.757	265.69
292.987	243.69
293.218	252.69
293.449	257.69
293.68	265.69
293.91	251.69
294.141	255.69
294.372	234.69
294.603	257.69
294.833	238.69
295.064	270.69
295.295	256.69
295.525	261.69
295.756	254.69
295.987	289.69
296.217	313.69
296.448	311.69
296.679	278.69
296.909	266.69
297.14	262.69
297.37	261.69
297.601	281.69
297.831	265.69
298.062	269.69
298.292	247.69
298.523	282.69
298.753	288.69
298.984	271.69
299.214	268.69
299.445	274.69
299.675	280.69
299.905	275.69
300.136	273.69
300.366	284.69
300.597	297.69
300.827	293.69
301.057	289.69
301.288	291.69
301.518	283.69
301.748	277.69
301.979	295.69
302.209	291.69
302.439	276.69
302.669	292.69
302.9	282.69
303.13	290.69
303.36	294.69
303.59	300.69
303.82	317.69
304.051	307.69
304.281	299.69
304.511	261.69
304.741	289.69
304.971	280.69
305.201	298.69
305.431	289.69
305.661	287.69
305.891	296.69
306.121	291.69
306.352	306.69
306.582	307.69
306.812	312.69
307.042	298.69
307.272	301.69
307.502	295.69
307.731	289.69
307.961	283.69
308.191	306.69
308.421	283.69
308.651	310.69
308.881	305.69
309.111	292.69
309.341	323.69
309.571	317.69
309.8	338.69
310.03	340.69
310.26	332.69
310.49	341.69
310.72	370.69
310.949	361.69
311.179	379.69
311.409	346.69
311.639	330.69
311.868	343.69
312.098	360.69
312.328	369.69
312.557	353.69
312.787	386.69
313.017	381.69
313.246	364.69
313.476	355.69
313.706	362.69
313.935	351.69
314.165	370.69
314.394	381.69
314.624	369.69
314.853	344.69
315.083	313.69
315.312	341.69
315.542	347.69
315.771	329.69
316.001	356.69
316.23	335.69
316.46	324.69
316.689	337.69
316.919	336.69
317.148	351.69
317.377	348.69
317.607	339.69
317.836	347.69
318.065	351.69
318.295	342.69
318.524	329.69
318.753	349.69
318.983	340.69
319.212	353.69
319.441	335.69
319.67	348.69
319.9	339.69
320.129	347.69
320.358	347.69
320.587	347.69
320.816	345.69
321.046	364.69
321.275	371.69
321.504	372.69
321.733	366.69
321.962	375.69
322.191	382.69
322.42	410.69
322.649	441.69
322.878	447.69
323.108	451.69
323.337	465.69
323.566	481.69
323.795	564.69
324.024	599.69
324.253	742.69
324.482	1024.69
324.71	1532.69
324.939	2220.69
325.168	1977.69
325.397	1065.69
325.626	693.69
325.855	585.69
326.084	509.69
326.313	499.69
326.542	510.69
326.77	549.69
326.999	668.69
327.228	904.69
327.457	1378.69
327.686	1679.69
327.914	1143.69
328.143	745.69
328.372	638.69
328.6	593.69
328.829	578.69
329.058	580.69
329.287	568.69
329.515	563.69
329.744	502.69
329.972	495.69
330.201	506.69
330.43	539.69
330.658	566.69
330.887	618.69
331.115	603.69
331.344	521.69
331.572	458.69
331.801	445.69
332.03	450.69
332.258	442.69
332.486	411.69
332.715	428.69
332.943	403.69
333.172	407.69
333.4	413.69
333.629	397.69
333.857	405.69
334.085	426.69
334.314	415.69
334.542	435.69
334.771	436.69
334.999	426.69
335.227	399.69
335.455	378.69
335.684	382.69
335.912	410.69
336.14	411.69
336.369	380.69
336.597	413.69
336.825	398.69
337.053	390.69
337.281	388.69
337.51	397.69
337.738	383.69
337.966	365.69
338.194	385.69
338.422	413.69
338.65	389.69
338.878	379.69
339.106	358.69
339.334	349.69
339.562	383.69
339.79	375.69
340.018	380.69
340.246	385.69
340.474	389.69
340.702	393.69
340.93	380.69
341.158	365.69
341.386	379.69
341.614	374.69
341.842	363.69
342.07	370.69
342.298	388.69
342.526	351.69
342.754	345.69
342.981	363.69
343.209	351.69
343.437	359.69
343.665	357.69
343.893	360.69
344.12	366.69
344.348	350.69
344.576	382.69
344.804	387.69
345.031	389.69
345.259	409.69
345.487	393.69
345.714	392.69
345.942	391.69
346.17	370.69
346.397	353.69
346.625	370.69
346.853	387.69
347.08	401.69
347.308	386.69
347.535	390.69
347.763	394.69
347.99	385.69
348.218	394.69
348.445	397.69
348.673	390.69
348.9	397.69
349.128	349.69
349.355	371.69
349.583	348.69
349.81	353.69
350.037	367.69
350.265	372.69
350.492	369.69
350.72	371.69
350.947	373.69
351.174	366.69
351.402	379.69
351.629	378.69
351.856	388.69
352.083	394.69
352.311	400.69
352.538	394.69
352.765	403.69
352.992	390.69
353.22	374.69
353.447	366.69
353.674	373.69
353.901	369.69
354.128	359.69
354.355	360.69
354.583	338.69
354.81	361.69
355.037	330.69
355.264	338.69
355.491	319.69
355.718	333.69
355.945	346.69
356.172	312.69
356.399	339.69
356.626	332.69
356.853	351.69
357.08	335.69
357.307	332.69
357.534	321.69
357.761	330.69
357.988	332.69
358.215	333.69
358.441	338.69
358.668	333.69
358.895	346.69
359.122	359.69
359.349	355.69
359.576	381.69
359.802	412.69
360.029	437.69
360.256	457.69
360.483	417.69
360.709	380.69
360.936	389.69
361.163	353.69
361.39	372.69
361.616	380.69
361.843	359.69
362.07	361.69
362.296	364.69
362.523	381.69
362.749	372.69
362.976	354.69
363.203	371.69
363.429	343.69
363.656	348.69
363.882	335.69
364.109	355.69
364.335	364.69
364.562	356.69
364.788	329.69
365.015	364.69
365.241	353.69
365.468	360.69
365.694	354.69
365.92	342.69
366.147	329.69
366.373	354.69
366.599	353.69
366.826	330.69
367.052	337.69
367.278	326.69
367.505	346.69
367.731	343.69
367.957	345.69
368.184	343.69
368.41	354.69
368.636	358.69
368.862	363.69
369.089	351.69
369.315	351.69
369.541	336.69
369.767	349.69
369.993	348.69
370.219	342.69
370.445	337.69
370.672	326.69
370.898	334.69
371.124	336.69
371.35	341.69
371.576	345.69
371.802	342.69
372.028	344.69
372.254	351.69
372.48	328.69
372.706	343.69
372.932	328.69
373.158	335.69
373.384	339.69
373.61	338.69
373.835	342.69
374.061	354.69
374.287	346.69
374.513	346.69
374.739	325.69
374.965	325.69
375.191	329.69
375.416	318.69
375.642	329.69
375.868	359.69
376.094	346.69
376.319	352.69
376.545	328.69
376.771	331.69
376.997	338.69
377.222	328.69
377.448	327.69
377.674	311.69
377.899	321.69
378.125	323.69
378.35	335.69
378.576	339.69
378.802	330.69
379.027	323.69
379.253	324.69
379.478	323.69
379.704	351.69
379.929	329.69
380.155	334.69
380.38	334.69
380.606	342.69
380.831	339.69
381.057	348.69
381.282	325.69
381.507	329.69
381.733	343.69
381.958	335.69
382.184	356.69
382.409	354.69
382.634	326.69
382.86	333.69
383.085	357.69
383.31	331.69
383.535	337.69
383.761	336.69
383.986	348.69
384.211	333.69
384.436	346.69
384.662	340.69
384.887	364.69
385.112	327.69
385.337	347.69
385.562	339.69
385.787	358.69
386.013	352.69
386.238	359.69
386.463	358.69
386.688	357.69
386.913	350.69
387.138	376.69
387.363	355.69
387.588	351.69
387.813	344.69
388.038	345.69
388.263	348.69
388.488	330.69
388.713	345.69
388.938	343.69
389.163	342.69
389.387	335.69
389.612	340.69
389.837	342.69
390.062	350.69
390.287	347.69
390.512	356.69
390.736	333.69
390.961	345.69
391.186	359.69
391.411	356.69
391.636	344.69
391.86	353.69
392.085	347.69
392.31	361.69
392.534	357.69
392.759	355.69
392.984	348.69
393.208	334.69
393.433	350.69
393.658	361.69
393.882	355.69
394.107	352.69
394.331	351.69
394.556	353.69
394.78	349.69
395.005	337.69
395.229	338.69
395.454	364.69
395.678	359.69
395.903	378.69
396.127	370.69
396.352	366.69
396.576	371.69
396.801	362.69
397.025	353.69
397.249	360.69
397.474	351.69
397.698	375.69
397.922	377.69
398.147	389.69
398.371	406.69
398.595	389.69
398.82	390.69
399.044	390.69
399.268	413.69
399.492	389.69
399.717	403.69
399.941	449.69
400.165	467.69
400.389	501.69
400.613	457.69
400.837	413.69
401.062	403.69
401.286	384.69
401.51	395.69
401.734	397.69
401.958	386.69
402.182	382.69
402.406	441.69
402.63	422.69
402.854	395.69
403.078	414.69
403.302	384.69
403.526	413.69
403.75	425.69
403.974	409.69
404.198	397.69
404.422	404.69
404.645	421.69
404.869	420.69
405.093	440.69
405.317	460.69
405.541	485.69
405.765	466.69
405.988	446.69
406.212	445.69
406.436	473.69
406.66	454.69
406.883	444.69
407.107	473.69
407.331	521.69
407.555	563.69
407.778	569.69
408.002	507.69
408.226	470.69
408.449	452.69
408.673	457.69
408.896	490.69
409.12	527.69
409.344	478.69
409.567	441.69
409.791	424.69
410.014	426.69
410.238	404.69
410.461	403.69
410.685	433.69
410.908	428.69
411.132	450.69
411.355	497.69
411.578	462.69
411.802	431.69
412.025	401.69
412.249	425.69
412.472	413.69
412.695	424.69
412.919	413.69
413.142	417.69
413.365	389.69
413.589	398.69
413.812	373.69
414.035	382.69
414.258	366.69
414.482	405.69
414.705	407.69
414.928	398.69
415.151	380.69
415.374	372.69
415.597	376.69
415.821	380.69
416.044	387.69
416.267	395.69
416.49	395.69
416.713	391.69
416.936	383.69
417.159	400.69
417.382	405.69
417.605	391.69
417.828	404.69
418.051	412.69
418.274	416.69
418.497	393.69
418.72	391.69
418.943	397.69
419.166	402.69
419.389	405.69
419.611	406.69
419.834	401.69
420.057	413.69
420.28	413.69
420.503	419.69
420.726	417.69
420.948	433.69
421.171	464.69
421.394	506.69
421.617	419.69
421.839	408.69
422.062	401.69
422.285	426.69
422.507	500.69
422.73	554.69
422.953	540.69
423.175	476.69
423.398	436.69
423.621	443.69
423.843	449.69
424.066	468.69
424.288	472.69
424.511	483.69
424.733	537.69
424.956	574.69
425.178	569.69
425.401	573.69
425.623	563.69
425.846	497.69
426.068	481.69
426.291	458.69
426.513	479.69
426.735	475.69
426.958	521.69
427.18	580.69
427.402	708.69
427.625	779.69
427.847	697.69
428.069	623.69
428.292	549.69
428.514	460.69
428.736	467.69
428.958	444.69
429.181	455.69
429.403	421.69
429.625	472.69
429.847	465.69
430.069	519.69
430.292	548.69
430.514	430.69
430.736	434.69
430.958	411.69
431.18	403.69
431.402	415.69
431.624	398.69
431.846	387.69
432.068	394.69
432.29	403.69
432.512	393.69
432.734	419.69
432.956	405.69
433.178	418.69
433.4	405.69
433.622	394.69
433.844	389.69
434.066	386.69
434.287	402.69
434.509	406.69
434.731	412.69
434.953	411.69
435.175	435.69
435.397	472.69
435.618	459.69
435.84	514.69
436.062	580.69
436.284	642.69
436.505	557.69
436.727	482.69
436.949	469.69
437.17	430.69
437.392	421.69
437.614	453.69
437.835	484.69
438.057	565.69
438.278	675.69
438.5	660.69
438.721	716.69
438.943	682.69
439.165	533.69
439.386	471.69
439.608	495.69
439.829	495.69
440.05	495.69
440.272	546.69
440.493	519.69
440.715	478.69
440.936	469.69
441.158	425.69
441.379	430.69
441.6	447.69
441.822	458.69
442.043	496.69
442.264	596.69
442.486	621.69
442.707	514.69
442.928	486.69
443.149	499.69
443.371	488.69
443.592	566.69
443.813	628.69
444.034	687.69
444.255	563.69
444.476	518.69
444.698	467.69
444.919	453.69
445.14	559.69
445.361	527.69
445.582	516.69
445.803	586.69
446.024	670.69
446.245	679.69
446.466	593.69
446.687	531.69
446.908	493.69
447.129	462.69
447.35	454.69
447.571	459.69
447.792	421.69
448.013	433.69
448.234	460.69
448.455	525.69
448.675	596.69
448.896	696.69
449.117	625.69
449.338	573.69
449.559	661.69
449.779	759.69
450	594.69
450.221	514.69
450.442	447.69
450.662	447.69
450.883	448.69
451.104	472.69
451.324	443.69
451.545	444.69
451.766	411.69
451.986	387.69
452.207	398.69
452.428	398.69
452.648	396.69
452.869	409.69
453.089	393.69
453.31	442.69
453.53	401.69
453.751	405.69
453.971	385.69
454.192	420.69
454.412	412.69
454.633	396.69
454.853	396.69
455.073	375.69
455.294	421.69
455.514	492.69
455.734	462.69
455.955	384.69
456.175	377.69
456.395	362.69
456.616	347.69
456.836	372.69
457.056	361.69
457.276	364.69
457.497	370.69
457.717	373.69
457.937	358.69
458.157	385.69
458.377	381.69
458.598	426.69
458.818	475.69
459.038	537.69
459.258	554.69
459.478	462.69
459.698	433.69
459.918	413.69
460.138	402.69
460.358	395.69
460.578	398.69
460.798	398.69
461.018	392.69
461.238	389.69
461.458	387.69
461.678	378.69
461.898	389.69
462.118	382.69
462.338	387.69
462.558	405.69
462.777	398.69
462.997	399.69
463.217	414.69
463.437	422.69
463.657	399.69
463.876	390.69
464.096	404.69
464.316	396.69
464.536	419.69
464.755	419.69
464.975	453.69
465.195	483.69
465.414	563.69
465.634	503.69
465.854	441.69
466.073	426.69
466.293	386.69
466.512	397.69
466.732	387.69
466.951	397.69
467.171	409.69
467.391	379.69
467.61	425.69
467.829	407.69
468.049	407.69
468.268	396.69
468.488	395.69
468.707	373.69
468.927	372.69
469.146	389.69
469.365	394.69
469.585	373.69
469.804	379.69
470.023	411.69
470.243	414.69
470.462	401.69
470.681	411.69
470.901	417.69
471.12	385.69
471.339	396.69
471.558	403.69
471.777	398.69
471.997	391.69
472.216	384.69
472.435	418.69
472.654	392.69
472.873	397.69
473.092	399.69
473.311	388.69
473.53	387.69
473.749	405.69
473.968	431.69
474.187	547.69
474.406	584.69
474.625	479.69
474.844	409.69
475.063	409.69
475.282	404.69
475.501	400.69
475.72	405.69
475.939	403.69
476.158	397.69
476.377	397.69
476.596	405.69
476.814	393.69
477.033	424.69
477.252	436.69
477.471	409.69
477.69	412.69
477.908	418.69
478.127	427.69
478.346	419.69
478.564	436.69
478.783	433.69
479.002	432.69
479.22	443.69
479.439	464.69
479.658	468.69
479.876	475.69
480.095	485.69
480.313	509.69
480.532	497.69
480.751	476.69
480.969	482.69
481.188	499.69
481.406	550.69
481.624	497.69
481.843	480.69
482.061	447.69
482.28	468.69
482.498	469.69
482.717	479.69
482.935	469.69
483.153	476.69
483.372	441.69
483.59	463.69
483.808	462.69
484.027	459.69
484.245	473.69
484.463	469.69
484.681	477.69
484.9	466.69
485.118	465.69
485.336	457.69
485.554	455.69
485.772	468.69
485.99	492.69
486.209	493.69
486.427	483.69
486.645	502.69
486.863	515.69
487.081	501.69
487.299	494.69
487.517	493.69
487.735	508.69
487.953	491.69
488.171	485.69
488.389	490.69
488.607	519.69
488.825	520.69
489.043	526.69
489.261	536.69
489.479	515.69
489.696	513.69
489.914	527.69
490.132	533.69
490.35	519.69
490.568	525.69
490.786	543.69
491.003	542.69
491.221	562.69
491.439	555.69
491.657	579.69
491.874	581.69
492.092	575.69
492.31	609.69
492.527	597.69
492.745	585.69
492.963	585.69
493.18	584.69
493.398	619.69
493.615	594.69
493.833	591.69
494.05	598.69
494.268	613.69
494.485	604.69
494.703	590.69
494.92	615.69
495.138	591.69
495.355	590.69
495.573	620.69
495.79	635.69
496.008	621.69
496.225	609.69
496.442	611.69
496.66	621.69
496.877	599.69
497.094	612.69
497.312	607.69
497.529	603.69
497.746	623.69
497.963	629.69
498.181	645.69
498.398	647.69
498.615	644.69
498.832	673.69
499.049	666.69
499.267	661.69
499.484	677.69
499.701	702.69
499.918	678.69
500.135	725.69
500.352	715.69
500.569	740.69
500.786	743.69
501.003	726.69
501.22	723.69
501.437	700.69
501.654	718.69
501.871	716.69
