Data from 1986.PennyLincolnUp.Lamp.En5.5.200Scan.071819.P2_HRD10591_17-10-55-974.txt Node
Date: Thu Jul 18 17:10:55 EDT 2019
User: cochatt
Spectrometer: HR+D1059
Trigger mode: 1
Integration Time (sec): 1.000000E-1
Scans to average: 1
Electric dark correction enabled: true
Nonlinearity correction enabled: false
Boxcar width: 0
XAxis mode: Wavelengths
Number of Pixels in Spectrum: 2048
>>>>>Begin Spectral Data<<<<<
223.165	-17.38
223.4	-17.38
223.635	-17.38
223.869	-7.38
224.104	-11.38
224.338	-15.38
224.573	-22.38
224.808	-9.38
225.042	-8.38
225.277	-13.38
225.511	4.62
225.746	-2.38
225.98	6.62
226.215	14.62
226.449	15.62
226.683	20.62
226.918	21.62
227.152	23.62
227.387	33.62
227.621	35.62
227.856	30.62
228.09	41.62
228.324	43.62
228.559	54.62
228.793	81.62
229.027	101.62
229.262	98.62
229.496	119.62
229.73	114.62
229.964	144.62
230.199	136.62
230.433	114.62
230.667	118.62
230.901	112.62
231.136	106.62
231.37	118.62
231.604	115.62
231.838	105.62
232.072	117.62
232.306	128.62
232.541	103.62
232.775	116.62
233.009	121.62
233.243	99.62
233.477	116.62
233.711	118.62
233.945	106.62
234.179	122.62
234.413	104.62
234.647	105.62
234.881	112.62
235.115	110.62
235.349	96.62
235.583	122.62
235.817	118.62
236.051	114.62
236.285	113.62
236.519	110.62
236.753	130.62
236.987	145.62
237.221	195.62
237.455	226.62
237.689	183.62
237.922	143.62
238.156	128.62
238.39	113.62
238.624	137.62
238.858	133.62
239.091	119.62
239.325	130.62
239.559	115.62
239.793	130.62
240.027	119.62
240.26	146.62
240.494	162.62
240.728	144.62
240.961	162.62
241.195	137.62
241.429	131.62
241.662	134.62
241.896	141.62
242.13	149.62
242.363	121.62
242.597	146.62
242.83	136.62
243.064	136.62
243.298	130.62
243.531	126.62
243.765	141.62
243.998	135.62
244.232	142.62
244.465	148.62
244.699	142.62
244.932	135.62
245.166	124.62
245.399	146.62
245.633	142.62
245.866	137.62
246.099	146.62
246.333	143.62
246.566	153.62
246.8	156.62
247.033	163.62
247.266	159.62
247.5	156.62
247.733	170.62
247.966	165.62
248.2	160.62
248.433	177.62
248.666	179.62
248.899	195.62
249.133	196.62
249.366	207.62
249.599	198.62
249.832	178.62
250.066	172.62
250.299	179.62
250.532	203.62
250.765	192.62
250.998	232.62
251.231	238.62
251.465	210.62
251.698	225.62
251.931	196.62
252.164	197.62
252.397	203.62
252.63	192.62
252.863	192.62
253.096	218.62
253.329	224.62
253.562	234.62
253.795	227.62
254.028	226.62
254.261	219.62
254.494	239.62
254.727	263.62
254.96	291.62
255.193	282.62
255.426	263.62
255.659	246.62
255.892	244.62
256.124	238.62
256.357	252.62
256.59	239.62
256.823	234.62
257.056	217.62
257.289	210.62
257.521	219.62
257.754	222.62
257.987	211.62
258.22	211.62
258.452	225.62
258.685	199.62
258.918	208.62
259.151	215.62
259.383	226.62
259.616	221.62
259.849	220.62
260.081	224.62
260.314	252.62
260.547	255.62
260.779	252.62
261.012	243.62
261.244	251.62
261.477	219.62
261.71	222.62
261.942	216.62
262.175	236.62
262.407	230.62
262.64	220.62
262.872	211.62
263.105	215.62
263.337	219.62
263.57	205.62
263.802	201.62
264.035	209.62
264.267	204.62
264.499	214.62
264.732	210.62
264.964	203.62
265.197	204.62
265.429	181.62
265.661	230.62
265.894	203.62
266.126	228.62
266.358	189.62
266.591	213.62
266.823	218.62
267.055	214.62
267.287	232.62
267.52	199.62
267.752	225.62
267.984	215.62
268.216	214.62
268.448	233.62
268.681	246.62
268.913	242.62
269.145	264.62
269.377	271.62
269.609	249.62
269.841	276.62
270.073	281.62
270.306	287.62
270.538	302.62
270.77	321.62
271.002	310.62
271.234	283.62
271.466	280.62
271.698	311.62
271.93	318.62
272.162	312.62
272.394	309.62
272.626	317.62
272.858	269.62
273.09	286.62
273.322	263.62
273.553	258.62
273.785	265.62
274.017	254.62
274.249	273.62
274.481	254.62
274.713	248.62
274.945	268.62
275.176	246.62
275.408	252.62
275.64	239.62
275.872	242.62
276.104	244.62
276.335	254.62
276.567	258.62
276.799	265.62
277.031	291.62
277.262	333.62
277.494	321.62
277.726	306.62
277.957	287.62
278.189	281.62
278.421	282.62
278.652	255.62
278.884	257.62
279.115	234.62
279.347	240.62
279.579	251.62
279.81	242.62
280.042	249.62
280.273	257.62
280.505	268.62
280.736	248.62
280.968	254.62
281.199	254.62
281.431	264.62
281.662	244.62
281.894	238.62
282.125	252.62
282.356	269.62
282.588	284.62
282.819	293.62
283.051	280.62
283.282	267.62
283.513	247.62
283.745	247.62
283.976	244.62
284.207	255.62
284.439	254.62
284.67	250.62
284.901	266.62
285.132	246.62
285.364	254.62
285.595	235.62
285.826	259.62
286.057	234.62
286.288	250.62
286.52	254.62
286.751	262.62
286.982	261.62
287.213	246.62
287.444	256.62
287.675	266.62
287.906	274.62
288.138	279.62
288.369	276.62
288.6	269.62
288.831	284.62
289.062	267.62
289.293	266.62
289.524	268.62
289.755	253.62
289.986	275.62
290.217	236.62
290.448	268.62
290.679	277.62
290.91	272.62
291.141	263.62
291.371	249.62
291.602	271.62
291.833	261.62
292.064	274.62
292.295	269.62
292.526	267.62
292.757	267.62
292.987	261.62
293.218	265.62
293.449	268.62
293.68	263.62
293.91	265.62
294.141	269.62
294.372	248.62
294.603	254.62
294.833	274.62
295.064	256.62
295.295	253.62
295.525	270.62
295.756	282.62
295.987	281.62
296.217	292.62
296.448	305.62
296.679	282.62
296.909	259.62
297.14	251.62
297.37	268.62
297.601	271.62
297.831	264.62
298.062	261.62
298.292	291.62
298.523	268.62
298.753	259.62
298.984	266.62
299.214	282.62
299.445	258.62
299.675	289.62
299.905	282.62
300.136	269.62
300.366	272.62
300.597	278.62
300.827	274.62
301.057	306.62
301.288	303.62
301.518	303.62
301.748	286.62
301.979	289.62
302.209	284.62
302.439	299.62
302.669	297.62
302.9	290.62
303.13	282.62
303.36	289.62
303.59	302.62
303.82	315.62
304.051	309.62
304.281	293.62
304.511	279.62
304.741	279.62
304.971	280.62
305.201	286.62
305.431	303.62
305.661	297.62
305.891	286.62
306.121	295.62
306.352	300.62
306.582	301.62
306.812	316.62
307.042	304.62
307.272	288.62
307.502	306.62
307.731	306.62
307.961	308.62
308.191	298.62
308.421	295.62
308.651	281.62
308.881	300.62
309.111	312.62
309.341	323.62
309.571	341.62
309.8	342.62
310.03	329.62
310.26	363.62
310.49	362.62
310.72	344.62
310.949	360.62
311.179	362.62
311.409	353.62
311.639	351.62
311.868	356.62
312.098	372.62
312.328	366.62
312.557	372.62
312.787	392.62
313.017	386.62
313.246	361.62
313.476	342.62
313.706	353.62
313.935	340.62
314.165	352.62
314.394	408.62
314.624	382.62
314.853	363.62
315.083	362.62
315.312	331.62
315.542	343.62
315.771	339.62
316.001	331.62
316.23	334.62
316.46	339.62
316.689	328.62
316.919	355.62
317.148	361.62
317.377	336.62
317.607	338.62
317.836	358.62
318.065	351.62
318.295	337.62
318.524	346.62
318.753	346.62
318.983	361.62
319.212	330.62
319.441	362.62
319.67	364.62
319.9	371.62
320.129	348.62
320.358	345.62
320.587	355.62
320.816	358.62
321.046	388.62
321.275	394.62
321.504	375.62
321.733	376.62
321.962	393.62
322.191	377.62
322.42	405.62
322.649	422.62
322.878	427.62
323.108	455.62
323.337	473.62
323.566	489.62
323.795	533.62
324.024	582.62
324.253	719.62
324.482	1004.62
324.71	1617.62
324.939	2235.62
325.168	1963.62
325.397	1081.62
325.626	708.62
325.855	592.62
326.084	523.62
326.313	510.62
326.542	536.62
326.77	575.62
326.999	660.62
327.228	902.62
327.457	1390.62
327.686	1735.62
327.914	1176.62
328.143	779.62
328.372	678.62
328.6	628.62
328.829	599.62
329.058	599.62
329.287	612.62
329.515	573.62
329.744	522.62
329.972	499.62
330.201	571.62
330.43	615.62
330.658	634.62
330.887	647.62
331.115	616.62
331.344	503.62
331.572	490.62
331.801	484.62
332.03	459.62
332.258	462.62
332.486	428.62
332.715	422.62
332.943	421.62
333.172	412.62
333.4	410.62
333.629	430.62
333.857	438.62
334.085	431.62
334.314	483.62
334.542	536.62
334.771	554.62
334.999	496.62
335.227	458.62
335.455	434.62
335.684	395.62
335.912	406.62
336.14	395.62
336.369	420.62
336.597	411.62
336.825	427.62
337.053	399.62
337.281	414.62
337.51	382.62
337.738	392.62
337.966	388.62
338.194	408.62
338.422	416.62
338.65	380.62
338.878	380.62
339.106	394.62
339.334	385.62
339.562	390.62
339.79	382.62
340.018	385.62
340.246	386.62
340.474	392.62
340.702	407.62
340.93	384.62
341.158	356.62
341.386	375.62
341.614	392.62
341.842	378.62
342.07	411.62
342.298	383.62
342.526	372.62
342.754	356.62
342.981	368.62
343.209	388.62
343.437	379.62
343.665	373.62
343.893	376.62
344.12	399.62
344.348	368.62
344.576	376.62
344.804	394.62
345.031	414.62
345.259	417.62
345.487	377.62
345.714	406.62
345.942	388.62
346.17	377.62
346.397	380.62
346.625	378.62
346.853	366.62
347.08	396.62
347.308	376.62
347.535	377.62
347.763	414.62
347.99	388.62
348.218	407.62
348.445	388.62
348.673	379.62
348.9	371.62
349.128	359.62
349.355	367.62
349.583	353.62
349.81	347.62
350.037	362.62
350.265	352.62
350.492	362.62
350.72	350.62
350.947	367.62
351.174	374.62
351.402	384.62
351.629	379.62
351.856	386.62
352.083	376.62
352.311	392.62
352.538	383.62
352.765	397.62
352.992	375.62
353.22	382.62
353.447	376.62
353.674	362.62
353.901	356.62
354.128	372.62
354.355	359.62
354.583	361.62
354.81	347.62
355.037	352.62
355.264	344.62
355.491	334.62
355.718	326.62
355.945	328.62
356.172	357.62
356.399	317.62
356.626	322.62
356.853	341.62
357.08	340.62
357.307	336.62
357.534	351.62
357.761	339.62
357.988	342.62
358.215	337.62
358.441	336.62
358.668	350.62
358.895	343.62
359.122	332.62
359.349	369.62
359.576	376.62
359.802	399.62
360.029	443.62
360.256	439.62
360.483	416.62
360.709	384.62
360.936	374.62
361.163	370.62
361.39	367.62
361.616	370.62
361.843	376.62
362.07	369.62
362.296	368.62
362.523	362.62
362.749	378.62
362.976	358.62
363.203	370.62
363.429	345.62
363.656	344.62
363.882	368.62
364.109	359.62
364.335	365.62
364.562	352.62
364.788	359.62
365.015	344.62
365.241	347.62
365.468	356.62
365.694	388.62
365.92	375.62
366.147	343.62
366.373	362.62
366.599	352.62
366.826	335.62
367.052	343.62
367.278	350.62
367.505	348.62
367.731	342.62
367.957	359.62
368.184	325.62
368.41	352.62
368.636	359.62
368.862	380.62
369.089	363.62
369.315	348.62
369.541	344.62
369.767	331.62
369.993	329.62
370.219	343.62
370.445	335.62
370.672	318.62
370.898	348.62
371.124	340.62
371.35	344.62
371.576	336.62
371.802	340.62
372.028	332.62
372.254	339.62
372.48	336.62
372.706	338.62
372.932	329.62
373.158	341.62
373.384	342.62
373.61	338.62
373.835	334.62
374.061	337.62
374.287	338.62
374.513	340.62
374.739	350.62
374.965	339.62
375.191	340.62
375.416	321.62
375.642	324.62
375.868	331.62
376.094	335.62
376.319	333.62
376.545	332.62
376.771	320.62
376.997	343.62
377.222	328.62
377.448	326.62
377.674	320.62
377.899	325.62
378.125	315.62
378.35	332.62
378.576	312.62
378.802	317.62
379.027	334.62
379.253	330.62
379.478	306.62
379.704	333.62
379.929	344.62
380.155	338.62
380.38	353.62
380.606	335.62
380.831	337.62
381.057	345.62
381.282	336.62
381.507	346.62
381.733	334.62
381.958	330.62
382.184	340.62
382.409	342.62
382.634	339.62
382.86	350.62
383.085	342.62
383.31	354.62
383.535	333.62
383.761	340.62
383.986	347.62
384.211	354.62
384.436	340.62
384.662	357.62
384.887	367.62
385.112	332.62
385.337	365.62
385.562	332.62
385.787	340.62
386.013	365.62
386.238	360.62
386.463	348.62
386.688	348.62
386.913	366.62
387.138	347.62
387.363	355.62
387.588	348.62
387.813	338.62
388.038	343.62
388.263	336.62
388.488	341.62
388.713	353.62
388.938	356.62
389.163	369.62
389.387	340.62
389.612	343.62
389.837	339.62
390.062	353.62
390.287	357.62
390.512	328.62
390.736	336.62
390.961	338.62
391.186	323.62
391.411	340.62
391.636	344.62
391.86	356.62
392.085	362.62
392.31	349.62
392.534	355.62
392.759	340.62
392.984	356.62
393.208	341.62
393.433	361.62
393.658	353.62
393.882	343.62
394.107	343.62
394.331	343.62
394.556	352.62
394.78	340.62
395.005	341.62
395.229	317.62
395.454	359.62
395.678	331.62
395.903	363.62
396.127	378.62
396.352	398.62
396.576	363.62
396.801	356.62
397.025	359.62
397.249	364.62
397.474	361.62
397.698	356.62
397.922	393.62
398.147	382.62
398.371	383.62
398.595	396.62
398.82	387.62
399.044	384.62
399.268	386.62
399.492	403.62
399.717	421.62
399.941	436.62
400.165	464.62
400.389	500.62
400.613	430.62
400.837	432.62
401.062	397.62
401.286	410.62
401.51	404.62
401.734	380.62
401.958	400.62
402.182	413.62
402.406	398.62
402.63	400.62
402.854	420.62
403.078	398.62
403.302	415.62
403.526	425.62
403.75	415.62
403.974	420.62
404.198	396.62
404.422	425.62
404.645	411.62
404.869	424.62
405.093	462.62
405.317	481.62
405.541	527.62
405.765	483.62
405.988	461.62
406.212	445.62
406.436	474.62
406.66	472.62
406.883	466.62
407.107	492.62
407.331	522.62
407.555	527.62
407.778	550.62
408.002	517.62
408.226	476.62
408.449	455.62
408.673	457.62
408.896	473.62
409.12	507.62
409.344	477.62
409.567	428.62
409.791	416.62
410.014	403.62
410.238	427.62
410.461	405.62
410.685	402.62
410.908	426.62
411.132	458.62
411.355	498.62
411.578	452.62
411.802	446.62
412.025	417.62
412.249	448.62
412.472	441.62
412.695	496.62
412.919	487.62
413.142	452.62
413.365	440.62
413.589	404.62
413.812	394.62
414.035	375.62
414.258	390.62
414.482	376.62
414.705	386.62
414.928	386.62
415.151	372.62
415.374	389.62
415.597	370.62
415.821	377.62
416.044	388.62
416.267	384.62
416.49	393.62
416.713	370.62
416.936	405.62
417.159	382.62
417.382	379.62
417.605	402.62
417.828	422.62
418.051	395.62
418.274	404.62
418.497	390.62
418.72	390.62
418.943	390.62
419.166	405.62
419.389	418.62
419.611	420.62
419.834	400.62
420.057	418.62
420.28	436.62
420.503	430.62
420.726	421.62
420.948	436.62
421.171	473.62
421.394	502.62
421.617	464.62
421.839	423.62
422.062	424.62
422.285	433.62
422.507	463.62
422.73	564.62
422.953	546.62
423.175	485.62
423.398	456.62
423.621	425.62
423.843	460.62
424.066	476.62
424.288	455.62
424.511	479.62
424.733	538.62
424.956	578.62
425.178	549.62
425.401	571.62
425.623	586.62
425.846	501.62
426.068	459.62
426.291	465.62
426.513	452.62
426.735	490.62
426.958	517.62
427.18	571.62
427.402	712.62
427.625	759.62
427.847	726.62
428.069	624.62
428.292	546.62
428.514	476.62
428.736	450.62
428.958	452.62
429.181	433.62
429.403	424.62
429.625	445.62
429.847	471.62
430.069	539.62
430.292	543.62
430.514	460.62
430.736	410.62
430.958	412.62
431.18	391.62
431.402	386.62
431.624	382.62
431.846	395.62
432.068	403.62
432.29	404.62
432.512	381.62
432.734	404.62
432.956	387.62
433.178	397.62
433.4	412.62
433.622	410.62
433.844	395.62
434.066	375.62
434.287	398.62
434.509	402.62
434.731	415.62
434.953	407.62
435.175	436.62
435.397	438.62
435.618	459.62
435.84	508.62
436.062	602.62
436.284	639.62
436.505	544.62
436.727	475.62
436.949	453.62
437.17	444.62
437.392	420.62
437.614	434.62
437.835	475.62
438.057	567.62
438.278	646.62
438.5	658.62
438.721	688.62
438.943	707.62
439.165	531.62
439.386	498.62
439.608	464.62
439.829	488.62
440.05	508.62
440.272	556.62
440.493	523.62
440.715	464.62
440.936	444.62
441.158	426.62
441.379	424.62
441.6	457.62
441.822	482.62
442.043	507.62
442.264	562.62
442.486	600.62
442.707	527.62
442.928	483.62
443.149	494.62
443.371	486.62
443.592	535.62
443.813	612.62
444.034	661.62
444.255	576.62
444.476	498.62
444.698	462.62
444.919	458.62
445.14	538.62
445.361	522.62
445.582	510.62
445.803	564.62
446.024	639.62
446.245	680.62
446.466	627.62
446.687	532.62
446.908	490.62
447.129	460.62
447.35	438.62
447.571	436.62
447.792	428.62
448.013	436.62
448.234	467.62
448.455	503.62
448.675	608.62
448.896	698.62
449.117	622.62
449.338	566.62
449.559	663.62
449.779	760.62
450	588.62
450.221	512.62
450.442	443.62
450.662	450.62
450.883	451.62
451.104	439.62
451.324	470.62
451.545	429.62
451.766	415.62
451.986	412.62
452.207	375.62
452.428	384.62
452.648	397.62
452.869	396.62
453.089	412.62
453.31	415.62
453.53	402.62
453.751	415.62
453.971	408.62
454.192	404.62
454.412	412.62
454.633	387.62
454.853	389.62
455.073	392.62
455.294	414.62
455.514	477.62
455.734	471.62
455.955	392.62
456.175	370.62
456.395	345.62
456.616	366.62
456.836	355.62
457.056	377.62
457.276	346.62
457.497	359.62
457.717	353.62
457.937	354.62
458.157	366.62
458.377	364.62
458.598	399.62
458.818	460.62
459.038	552.62
459.258	544.62
459.478	467.62
459.698	423.62
459.918	399.62
460.138	396.62
460.358	390.62
460.578	398.62
460.798	384.62
461.018	382.62
461.238	378.62
461.458	397.62
461.678	371.62
461.898	392.62
462.118	380.62
462.338	379.62
462.558	385.62
462.777	392.62
462.997	405.62
463.217	404.62
463.437	417.62
463.657	397.62
463.876	412.62
464.096	416.62
464.316	407.62
464.536	401.62
464.755	417.62
464.975	425.62
465.195	472.62
465.414	585.62
465.634	478.62
465.854	433.62
466.073	383.62
466.293	390.62
466.512	393.62
466.732	374.62
466.951	380.62
467.171	372.62
467.391	400.62
467.61	375.62
467.829	420.62
468.049	416.62
468.268	394.62
468.488	408.62
468.707	390.62
468.927	375.62
469.146	382.62
469.365	360.62
469.585	384.62
469.804	379.62
470.023	393.62
470.243	400.62
470.462	401.62
470.681	427.62
470.901	408.62
471.12	382.62
471.339	407.62
471.558	393.62
471.777	384.62
471.997	400.62
472.216	431.62
472.435	489.62
472.654	447.62
472.873	417.62
473.092	402.62
473.311	382.62
473.53	414.62
473.749	404.62
473.968	453.62
474.187	562.62
474.406	590.62
474.625	446.62
474.844	411.62
475.063	397.62
475.282	399.62
475.501	391.62
475.72	388.62
475.939	411.62
476.158	400.62
476.377	426.62
476.596	398.62
476.814	417.62
477.033	413.62
477.252	426.62
477.471	434.62
477.69	419.62
477.908	422.62
478.127	414.62
478.346	428.62
478.564	415.62
478.783	445.62
479.002	441.62
479.22	454.62
479.439	457.62
479.658	474.62
479.876	494.62
480.095	476.62
480.313	508.62
480.532	496.62
480.751	498.62
480.969	517.62
481.188	605.62
481.406	686.62
481.624	574.62
481.843	496.62
482.061	490.62
482.28	466.62
482.498	485.62
482.717	466.62
482.935	485.62
483.153	476.62
483.372	453.62
483.59	472.62
483.808	476.62
484.027	460.62
484.245	480.62
484.463	484.62
484.681	469.62
484.9	473.62
485.118	479.62
485.336	489.62
485.554	465.62
485.772	486.62
485.99	484.62
486.209	508.62
486.427	499.62
486.645	503.62
486.863	521.62
487.081	522.62
487.299	503.62
487.517	518.62
487.735	516.62
487.953	496.62
488.171	516.62
488.389	532.62
488.607	539.62
488.825	505.62
489.043	520.62
489.261	520.62
489.479	514.62
489.696	496.62
489.914	513.62
490.132	524.62
490.35	527.62
490.568	550.62
490.786	576.62
491.003	573.62
491.221	587.62
491.439	587.62
491.657	588.62
491.874	606.62
492.092	611.62
492.31	597.62
492.527	613.62
492.745	608.62
492.963	611.62
493.18	628.62
493.398	616.62
493.615	603.62
493.833	622.62
494.05	626.62
494.268	611.62
494.485	620.62
494.703	622.62
494.92	597.62
495.138	634.62
495.355	627.62
495.573	627.62
495.79	628.62
496.008	631.62
496.225	626.62
496.442	612.62
496.66	632.62
496.877	648.62
497.094	624.62
497.312	623.62
497.529	602.62
497.746	646.62
497.963	638.62
498.181	649.62
498.398	655.62
498.615	652.62
498.832	640.62
499.049	664.62
499.267	650.62
499.484	677.62
499.701	675.62
499.918	688.62
500.135	680.62
500.352	751.62
500.569	688.62
500.786	729.62
501.003	706.62
501.22	732.62
501.437	730.62
501.654	710.62
501.871	728.62
