Data from 1986.PennyLincolnUp.Lamp.En5.5.200Scan.071819.P2_HRD10591_17-11-36-972.txt Node
Date: Thu Jul 18 17:11:36 EDT 2019
User: cochatt
Spectrometer: HR+D1059
Trigger mode: 1
Integration Time (sec): 1.000000E-1
Scans to average: 1
Electric dark correction enabled: true
Nonlinearity correction enabled: false
Boxcar width: 0
XAxis mode: Wavelengths
Number of Pixels in Spectrum: 2048
>>>>>Begin Spectral Data<<<<<
223.165	-4.19
223.4	-4.19
223.635	-4.19
223.869	-11.19
224.104	-9.19
224.338	-24.19
224.573	-11.19
224.808	-23.19
225.042	-0.19
225.277	7.81
225.511	-3.19
225.746	-10.19
225.98	1.81
226.215	18.81
226.449	11.81
226.683	18.81
226.918	17.81
227.152	19.81
227.387	40.81
227.621	30.81
227.856	42.81
228.09	35.81
228.324	50.81
228.559	60.81
228.793	67.81
229.027	101.81
229.262	121.81
229.496	132.81
229.73	140.81
229.964	152.81
230.199	133.81
230.433	119.81
230.667	119.81
230.901	104.81
231.136	118.81
231.37	103.81
231.604	112.81
231.838	103.81
232.072	114.81
232.306	126.81
232.541	127.81
232.775	124.81
233.009	128.81
233.243	119.81
233.477	130.81
233.711	114.81
233.945	115.81
234.179	118.81
234.413	114.81
234.647	122.81
234.881	110.81
235.115	132.81
235.349	122.81
235.583	124.81
235.817	120.81
236.051	120.81
236.285	139.81
236.519	128.81
236.753	140.81
236.987	146.81
237.221	178.81
237.455	258.81
237.689	196.81
237.922	154.81
238.156	152.81
238.39	142.81
238.624	136.81
238.858	135.81
239.091	117.81
239.325	136.81
239.559	138.81
239.793	116.81
240.027	133.81
240.26	140.81
240.494	159.81
240.728	167.81
240.961	166.81
241.195	150.81
241.429	140.81
241.662	128.81
241.896	156.81
242.13	145.81
242.363	138.81
242.597	127.81
242.83	143.81
243.064	144.81
243.298	129.81
243.531	137.81
243.765	145.81
243.998	150.81
244.232	136.81
244.465	160.81
244.699	139.81
244.932	140.81
245.166	148.81
245.399	141.81
245.633	148.81
245.866	145.81
246.099	169.81
246.333	168.81
246.566	162.81
246.8	159.81
247.033	169.81
247.266	169.81
247.5	187.81
247.733	193.81
247.966	188.81
248.2	171.81
248.433	174.81
248.666	188.81
248.899	218.81
249.133	205.81
249.366	237.81
249.599	221.81
249.832	204.81
250.066	199.81
250.299	209.81
250.532	220.81
250.765	234.81
250.998	268.81
251.231	266.81
251.465	228.81
251.698	233.81
251.931	232.81
252.164	211.81
252.397	218.81
252.63	214.81
252.863	228.81
253.096	236.81
253.329	255.81
253.562	229.81
253.795	252.81
254.028	238.81
254.261	246.81
254.494	228.81
254.727	280.81
254.96	311.81
255.193	298.81
255.426	279.81
255.659	284.81
255.892	276.81
256.124	292.81
256.357	321.81
256.59	271.81
256.823	270.81
257.056	268.81
257.289	230.81
257.521	248.81
257.754	255.81
257.987	243.81
258.22	251.81
258.452	231.81
258.685	216.81
258.918	218.81
259.151	228.81
259.383	240.81
259.616	246.81
259.849	237.81
260.081	247.81
260.314	260.81
260.547	302.81
260.779	276.81
261.012	252.81
261.244	254.81
261.477	239.81
261.71	258.81
261.942	251.81
262.175	240.81
262.407	247.81
262.64	230.81
262.872	212.81
263.105	211.81
263.337	207.81
263.57	234.81
263.802	217.81
264.035	222.81
264.267	205.81
264.499	229.81
264.732	227.81
264.964	227.81
265.197	224.81
265.429	210.81
265.661	217.81
265.894	217.81
266.126	214.81
266.358	235.81
266.591	230.81
266.823	220.81
267.055	230.81
267.287	231.81
267.52	256.81
267.752	239.81
267.984	237.81
268.216	227.81
268.448	220.81
268.681	249.81
268.913	246.81
269.145	259.81
269.377	271.81
269.609	289.81
269.841	279.81
270.073	274.81
270.306	304.81
270.538	330.81
270.77	317.81
271.002	326.81
271.234	319.81
271.466	317.81
271.698	330.81
271.93	330.81
272.162	347.81
272.394	321.81
272.626	318.81
272.858	303.81
273.09	302.81
273.322	271.81
273.553	295.81
273.785	260.81
274.017	271.81
274.249	268.81
274.481	266.81
274.713	270.81
274.945	275.81
275.176	280.81
275.408	285.81
275.64	311.81
275.872	264.81
276.104	276.81
276.335	280.81
276.567	283.81
276.799	298.81
277.031	328.81
277.262	328.81
277.494	331.81
277.726	331.81
277.957	299.81
278.189	306.81
278.421	272.81
278.652	282.81
278.884	280.81
279.115	280.81
279.347	278.81
279.579	277.81
279.81	269.81
280.042	279.81
280.273	269.81
280.505	288.81
280.736	279.81
280.968	282.81
281.199	255.81
281.431	268.81
281.662	281.81
281.894	269.81
282.125	288.81
282.356	299.81
282.588	322.81
282.819	324.81
283.051	284.81
283.282	270.81
283.513	266.81
283.745	282.81
283.976	282.81
284.207	300.81
284.439	280.81
284.67	287.81
284.901	280.81
285.132	283.81
285.364	275.81
285.595	287.81
285.826	259.81
286.057	287.81
286.288	285.81
286.52	254.81
286.751	259.81
286.982	272.81
287.213	273.81
287.444	282.81
287.675	290.81
287.906	312.81
288.138	294.81
288.369	296.81
288.6	288.81
288.831	289.81
289.062	296.81
289.293	289.81
289.524	272.81
289.755	279.81
289.986	264.81
290.217	296.81
290.448	279.81
290.679	275.81
290.91	297.81
291.141	290.81
291.371	283.81
291.602	283.81
291.833	294.81
292.064	275.81
292.295	282.81
292.526	262.81
292.757	273.81
292.987	301.81
293.218	264.81
293.449	285.81
293.68	278.81
293.91	287.81
294.141	271.81
294.372	279.81
294.603	255.81
294.833	279.81
295.064	299.81
295.295	284.81
295.525	287.81
295.756	285.81
295.987	287.81
296.217	325.81
296.448	320.81
296.679	293.81
296.909	289.81
297.14	297.81
297.37	289.81
297.601	292.81
297.831	290.81
298.062	287.81
298.292	293.81
298.523	288.81
298.753	297.81
298.984	294.81
299.214	285.81
299.445	300.81
299.675	290.81
299.905	297.81
300.136	308.81
300.366	306.81
300.597	319.81
300.827	306.81
301.057	312.81
301.288	318.81
301.518	320.81
301.748	278.81
301.979	310.81
302.209	315.81
302.439	304.81
302.669	308.81
302.9	307.81
303.13	323.81
303.36	312.81
303.59	314.81
303.82	327.81
304.051	322.81
304.281	311.81
304.511	307.81
304.741	320.81
304.971	308.81
305.201	309.81
305.431	310.81
305.661	300.81
305.891	311.81
306.121	322.81
306.352	318.81
306.582	310.81
306.812	339.81
307.042	322.81
307.272	342.81
307.502	341.81
307.731	327.81
307.961	327.81
308.191	322.81
308.421	314.81
308.651	339.81
308.881	332.81
309.111	318.81
309.341	327.81
309.571	347.81
309.8	339.81
310.03	349.81
310.26	374.81
310.49	361.81
310.72	374.81
310.949	383.81
311.179	401.81
311.409	370.81
311.639	393.81
311.868	381.81
312.098	372.81
312.328	363.81
312.557	399.81
312.787	434.81
313.017	422.81
313.246	398.81
313.476	380.81
313.706	396.81
313.935	382.81
314.165	403.81
314.394	396.81
314.624	395.81
314.853	388.81
315.083	377.81
315.312	372.81
315.542	387.81
315.771	389.81
316.001	378.81
316.23	367.81
316.46	359.81
316.689	368.81
316.919	378.81
317.148	379.81
317.377	398.81
317.607	378.81
317.836	393.81
318.065	359.81
318.295	363.81
318.524	357.81
318.753	362.81
318.983	355.81
319.212	388.81
319.441	373.81
319.67	376.81
319.9	378.81
320.129	383.81
320.358	379.81
320.587	367.81
320.816	378.81
321.046	400.81
321.275	392.81
321.504	390.81
321.733	403.81
321.962	425.81
322.191	422.81
322.42	461.81
322.649	440.81
322.878	470.81
323.108	492.81
323.337	518.81
323.566	522.81
323.795	584.81
324.024	646.81
324.253	751.81
324.482	1084.81
324.71	1684.81
324.939	2429.81
325.168	2094.81
325.397	1138.81
325.626	758.81
325.855	628.81
326.084	539.81
326.313	551.81
326.542	544.81
326.77	618.81
326.999	702.81
327.228	975.81
327.457	1484.81
327.686	1846.81
327.914	1274.81
328.143	852.81
328.372	749.81
328.6	692.81
328.829	620.81
329.058	635.81
329.287	634.81
329.515	617.81
329.744	597.81
329.972	613.81
330.201	691.81
330.43	738.81
330.658	732.81
330.887	727.81
331.115	680.81
331.344	562.81
331.572	550.81
331.801	527.81
332.03	515.81
332.258	482.81
332.486	474.81
332.715	470.81
332.943	469.81
333.172	473.81
333.4	466.81
333.629	484.81
333.857	500.81
334.085	566.81
334.314	613.81
334.542	690.81
334.771	775.81
334.999	608.81
335.227	524.81
335.455	476.81
335.684	454.81
335.912	440.81
336.14	450.81
336.369	446.81
336.597	440.81
336.825	441.81
337.053	425.81
337.281	438.81
337.51	419.81
337.738	431.81
337.966	430.81
338.194	424.81
338.422	429.81
338.65	412.81
338.878	427.81
339.106	410.81
339.334	405.81
339.562	424.81
339.79	422.81
340.018	397.81
340.246	405.81
340.474	410.81
340.702	408.81
340.93	410.81
341.158	410.81
341.386	415.81
341.614	418.81
341.842	418.81
342.07	408.81
342.298	410.81
342.526	417.81
342.754	386.81
342.981	398.81
343.209	377.81
343.437	397.81
343.665	400.81
343.893	413.81
344.12	399.81
344.348	402.81
344.576	389.81
344.804	406.81
345.031	431.81
345.259	419.81
345.487	414.81
345.714	423.81
345.942	396.81
346.17	420.81
346.397	407.81
346.625	380.81
346.853	399.81
347.08	402.81
347.308	388.81
347.535	402.81
347.763	424.81
347.99	420.81
348.218	416.81
348.445	416.81
348.673	417.81
348.9	401.81
349.128	397.81
349.355	388.81
349.583	404.81
349.81	381.81
350.037	405.81
350.265	406.81
350.492	392.81
350.72	381.81
350.947	375.81
351.174	406.81
351.402	430.81
351.629	391.81
351.856	410.81
352.083	416.81
352.311	430.81
352.538	429.81
352.765	424.81
352.992	422.81
353.22	410.81
353.447	391.81
353.674	392.81
353.901	368.81
354.128	373.81
354.355	371.81
354.583	381.81
354.81	373.81
355.037	367.81
355.264	351.81
355.491	359.81
355.718	366.81
355.945	367.81
356.172	376.81
356.399	343.81
356.626	370.81
356.853	358.81
357.08	376.81
357.307	367.81
357.534	353.81
357.761	366.81
357.988	352.81
358.215	351.81
358.441	375.81
358.668	360.81
358.895	390.81
359.122	342.81
359.349	381.81
359.576	396.81
359.802	413.81
360.029	453.81
360.256	452.81
360.483	450.81
360.709	426.81
360.936	409.81
361.163	398.81
361.39	400.81
361.616	395.81
361.843	386.81
362.07	395.81
362.296	390.81
362.523	384.81
362.749	384.81
362.976	401.81
363.203	396.81
363.429	373.81
363.656	372.81
363.882	372.81
364.109	367.81
364.335	365.81
364.562	365.81
364.788	347.81
365.015	377.81
365.241	391.81
365.468	384.81
365.694	395.81
365.92	390.81
366.147	371.81
366.373	376.81
366.599	365.81
366.826	355.81
367.052	354.81
367.278	353.81
367.505	366.81
367.731	372.81
367.957	370.81
368.184	378.81
368.41	393.81
368.636	382.81
368.862	399.81
369.089	377.81
369.315	344.81
369.541	356.81
369.767	356.81
369.993	382.81
370.219	382.81
370.445	376.81
370.672	366.81
370.898	386.81
371.124	373.81
371.35	362.81
371.576	372.81
371.802	345.81
372.028	349.81
372.254	370.81
372.48	361.81
372.706	378.81
372.932	367.81
373.158	369.81
373.384	360.81
373.61	356.81
373.835	371.81
374.061	372.81
374.287	363.81
374.513	357.81
374.739	375.81
374.965	333.81
375.191	360.81
375.416	358.81
375.642	361.81
375.868	358.81
376.094	342.81
376.319	359.81
376.545	351.81
376.771	335.81
376.997	359.81
377.222	357.81
377.448	365.81
377.674	344.81
377.899	365.81
378.125	340.81
378.35	354.81
378.576	356.81
378.802	335.81
379.027	352.81
379.253	357.81
379.478	361.81
379.704	364.81
379.929	343.81
380.155	355.81
380.38	374.81
380.606	356.81
380.831	360.81
381.057	361.81
381.282	360.81
381.507	358.81
381.733	362.81
381.958	350.81
382.184	351.81
382.409	346.81
382.634	362.81
382.86	357.81
383.085	364.81
383.31	355.81
383.535	364.81
383.761	361.81
383.986	360.81
384.211	372.81
384.436	345.81
384.662	360.81
384.887	359.81
385.112	360.81
385.337	366.81
385.562	364.81
385.787	374.81
386.013	362.81
386.238	388.81
386.463	384.81
386.688	379.81
386.913	351.81
387.138	375.81
387.363	377.81
387.588	352.81
387.813	390.81
388.038	368.81
388.263	372.81
388.488	381.81
388.713	371.81
388.938	371.81
389.163	372.81
389.387	400.81
389.612	382.81
389.837	378.81
390.062	366.81
390.287	364.81
390.512	351.81
390.736	370.81
390.961	363.81
391.186	388.81
391.411	367.81
391.636	374.81
391.86	376.81
392.085	380.81
392.31	354.81
392.534	376.81
392.759	365.81
392.984	390.81
393.208	349.81
393.433	374.81
393.658	371.81
393.882	376.81
394.107	378.81
394.331	379.81
394.556	355.81
394.78	378.81
395.005	382.81
395.229	375.81
395.454	383.81
395.678	391.81
395.903	400.81
396.127	415.81
396.352	425.81
396.576	404.81
396.801	368.81
397.025	382.81
397.249	380.81
397.474	381.81
397.698	393.81
397.922	390.81
398.147	420.81
398.371	421.81
398.595	414.81
398.82	409.81
399.044	413.81
399.268	416.81
399.492	443.81
399.717	468.81
399.941	462.81
400.165	501.81
400.389	490.81
400.613	458.81
400.837	442.81
401.062	430.81
401.286	421.81
401.51	420.81
401.734	428.81
401.958	422.81
402.182	414.81
402.406	447.81
402.63	445.81
402.854	436.81
403.078	411.81
403.302	439.81
403.526	457.81
403.75	442.81
403.974	440.81
404.198	429.81
404.422	456.81
404.645	446.81
404.869	472.81
405.093	495.81
405.317	551.81
405.541	594.81
405.765	534.81
405.988	514.81
406.212	488.81
406.436	503.81
406.66	543.81
406.883	483.81
407.107	509.81
407.331	522.81
407.555	585.81
407.778	601.81
408.002	529.81
408.226	494.81
408.449	495.81
408.673	474.81
408.896	516.81
409.12	544.81
409.344	536.81
409.567	482.81
409.791	461.81
410.014	468.81
410.238	442.81
410.461	464.81
410.685	453.81
410.908	469.81
411.132	498.81
411.355	529.81
411.578	500.81
411.802	464.81
412.025	452.81
412.249	480.81
412.472	511.81
412.695	560.81
412.919	548.81
413.142	490.81
413.365	458.81
413.589	468.81
413.812	446.81
414.035	434.81
414.258	424.81
414.482	429.81
414.705	406.81
414.928	411.81
415.151	421.81
415.374	420.81
415.597	430.81
415.821	414.81
416.044	413.81
416.267	415.81
416.49	439.81
416.713	423.81
416.936	400.81
417.159	423.81
417.382	420.81
417.605	438.81
417.828	453.81
418.051	451.81
418.274	432.81
418.497	438.81
418.72	451.81
418.943	434.81
419.166	455.81
419.389	442.81
419.611	449.81
419.834	458.81
420.057	489.81
420.28	472.81
420.503	496.81
420.726	478.81
420.948	473.81
421.171	517.81
421.394	528.81
421.617	487.81
421.839	466.81
422.062	452.81
422.285	468.81
422.507	519.81
422.73	601.81
422.953	560.81
423.175	499.81
423.398	485.81
423.621	472.81
423.843	500.81
424.066	479.81
424.288	496.81
424.511	502.81
424.733	552.81
424.956	622.81
425.178	614.81
425.401	620.81
425.623	638.81
425.846	560.81
426.068	532.81
426.291	501.81
426.513	466.81
426.735	500.81
426.958	540.81
427.18	606.81
427.402	723.81
427.625	820.81
427.847	768.81
428.069	710.81
428.292	604.81
428.514	534.81
428.736	496.81
428.958	490.81
429.181	464.81
429.403	456.81
429.625	464.81
429.847	503.81
430.069	582.81
430.292	564.81
430.514	464.81
430.736	463.81
430.958	442.81
431.18	439.81
431.402	431.81
431.624	412.81
431.846	416.81
432.068	421.81
432.29	412.81
432.512	443.81
432.734	436.81
432.956	429.81
433.178	436.81
433.4	444.81
433.622	431.81
433.844	434.81
434.066	414.81
434.287	422.81
434.509	440.81
434.731	434.81
434.953	442.81
435.175	448.81
435.397	478.81
435.618	484.81
435.84	525.81
436.062	642.81
436.284	695.81
436.505	582.81
436.727	516.81
436.949	483.81
437.17	464.81
437.392	469.81
437.614	461.81
437.835	509.81
438.057	604.81
438.278	694.81
438.5	714.81
438.721	770.81
438.943	746.81
439.165	586.81
439.386	526.81
439.608	506.81
439.829	501.81
440.05	551.81
440.272	586.81
440.493	570.81
440.715	486.81
440.936	483.81
441.158	474.81
441.379	483.81
441.6	477.81
441.822	504.81
442.043	536.81
442.264	635.81
442.486	659.81
442.707	550.81
442.928	505.81
443.149	536.81
443.371	547.81
443.592	582.81
443.813	683.81
444.034	708.81
444.255	604.81
444.476	518.81
444.698	482.81
444.919	478.81
445.14	583.81
445.361	542.81
445.582	551.81
445.803	611.81
446.024	694.81
446.245	714.81
446.466	656.81
446.687	557.81
446.908	494.81
447.129	474.81
447.35	472.81
447.571	450.81
447.792	450.81
448.013	474.81
448.234	488.81
448.455	547.81
448.675	633.81
448.896	730.81
449.117	602.81
449.338	590.81
449.559	705.81
449.779	798.81
450	662.81
450.221	517.81
450.442	483.81
450.662	479.81
450.883	473.81
451.104	503.81
451.324	457.81
451.545	453.81
451.766	424.81
451.986	441.81
452.207	397.81
452.428	406.81
452.648	426.81
452.869	428.81
453.089	424.81
453.31	445.81
453.53	446.81
453.751	414.81
453.971	406.81
454.192	443.81
454.412	438.81
454.633	416.81
454.853	422.81
455.073	428.81
455.294	437.81
455.514	519.81
455.734	504.81
455.955	427.81
456.175	400.81
456.395	394.81
456.616	385.81
456.836	388.81
457.056	383.81
457.276	365.81
457.497	382.81
457.717	398.81
457.937	396.81
458.157	406.81
458.377	408.81
458.598	424.81
458.818	483.81
459.038	594.81
459.258	596.81
459.478	482.81
459.698	438.81
459.918	427.81
460.138	421.81
460.358	404.81
460.578	426.81
460.798	406.81
461.018	413.81
461.238	407.81
461.458	405.81
461.678	383.81
461.898	412.81
462.118	395.81
462.338	396.81
462.558	416.81
462.777	438.81
462.997	429.81
463.217	428.81
463.437	436.81
463.657	449.81
463.876	439.81
464.096	426.81
464.316	440.81
464.536	445.81
464.755	442.81
464.975	464.81
465.195	494.81
465.414	576.81
465.634	511.81
465.854	470.81
466.073	460.81
466.293	419.81
466.512	417.81
466.732	397.81
466.951	423.81
467.171	401.81
467.391	431.81
467.61	413.81
467.829	452.81
468.049	420.81
468.268	448.81
468.488	424.81
468.707	399.81
468.927	416.81
469.146	398.81
469.365	414.81
469.585	392.81
469.804	420.81
470.023	419.81
470.243	440.81
470.462	422.81
470.681	456.81
470.901	445.81
471.12	427.81
471.339	444.81
471.558	430.81
471.777	430.81
471.997	444.81
472.216	475.81
472.435	579.81
472.654	559.81
472.873	441.81
473.092	461.81
473.311	436.81
473.53	453.81
473.749	482.81
473.968	502.81
474.187	609.81
474.406	621.81
474.625	527.81
474.844	470.81
475.063	440.81
475.282	412.81
475.501	454.81
475.72	459.81
475.939	461.81
476.158	444.81
476.377	431.81
476.596	462.81
476.814	449.81
477.033	442.81
477.252	453.81
477.471	466.81
477.69	458.81
477.908	450.81
478.127	442.81
478.346	458.81
478.564	446.81
478.783	463.81
479.002	494.81
479.22	480.81
479.439	497.81
479.658	506.81
479.876	534.81
480.095	519.81
480.313	557.81
480.532	544.81
480.751	540.81
480.969	566.81
481.188	750.81
481.406	859.81
481.624	677.81
481.843	600.81
482.061	550.81
482.28	548.81
482.498	548.81
482.717	519.81
482.935	528.81
483.153	504.81
483.372	513.81
483.59	504.81
483.808	510.81
484.027	520.81
484.245	525.81
484.463	503.81
484.681	529.81
484.9	529.81
485.118	523.81
485.336	532.81
485.554	541.81
485.772	543.81
485.99	534.81
486.209	523.81
486.427	527.81
486.645	537.81
486.863	569.81
487.081	589.81
487.299	566.81
487.517	559.81
487.735	556.81
487.953	555.81
488.171	573.81
488.389	542.81
488.607	566.81
488.825	551.81
489.043	558.81
489.261	574.81
489.479	563.81
489.696	567.81
489.914	576.81
490.132	579.81
490.35	578.81
490.568	597.81
490.786	591.81
491.003	596.81
491.221	623.81
491.439	622.81
491.657	659.81
491.874	654.81
492.092	677.81
492.31	665.81
492.527	687.81
492.745	693.81
492.963	673.81
493.18	684.81
493.398	686.81
493.615	675.81
493.833	698.81
494.05	676.81
494.268	690.81
494.485	654.81
494.703	664.81
494.92	691.81
495.138	673.81
495.355	674.81
495.573	658.81
495.79	698.81
496.008	679.81
496.225	674.81
496.442	664.81
496.66	659.81
496.877	676.81
497.094	683.81
497.312	686.81
497.529	662.81
497.746	669.81
497.963	671.81
498.181	719.81
498.398	703.81
498.615	692.81
498.832	721.81
499.049	716.81
499.267	714.81
499.484	722.81
499.701	742.81
499.918	742.81
500.135	760.81
500.352	772.81
500.569	773.81
500.786	796.81
501.003	809.81
501.22	811.81
501.437	769.81
501.654	765.81
501.871	796.81
