Data from 1986.PennyLincolnUp.Lamp.En5.5.200Scan.071819.P2_HRD10591_17-09-57-995.txt Node
Date: Thu Jul 18 17:09:57 EDT 2019
User: cochatt
Spectrometer: HR+D1059
Trigger mode: 1
Integration Time (sec): 1.000000E-1
Scans to average: 1
Electric dark correction enabled: true
Nonlinearity correction enabled: false
Boxcar width: 0
XAxis mode: Wavelengths
Number of Pixels in Spectrum: 2048
>>>>>Begin Spectral Data<<<<<
223.165	-22.44
223.4	-22.44
223.635	-22.44
223.869	-22.44
224.104	-21.44
224.338	-27.44
224.573	-19.44
224.808	-9.44
225.042	-0.44
225.277	-1.44
225.511	3.56
225.746	4.56
225.98	9.56
226.215	15.56
226.449	14.56
226.683	20.56
226.918	25.56
227.152	30.56
227.387	24.56
227.621	44.56
227.856	35.56
228.09	36.56
228.324	49.56
228.559	52.56
228.793	72.56
229.027	107.56
229.262	100.56
229.496	111.56
229.73	135.56
229.964	162.56
230.199	129.56
230.433	104.56
230.667	107.56
230.901	106.56
231.136	102.56
231.37	109.56
231.604	106.56
231.838	108.56
232.072	114.56
232.306	99.56
232.541	109.56
232.775	106.56
233.009	104.56
233.243	117.56
233.477	106.56
233.711	98.56
233.945	106.56
234.179	124.56
234.413	116.56
234.647	116.56
234.881	108.56
235.115	94.56
235.349	108.56
235.583	122.56
235.817	117.56
236.051	124.56
236.285	128.56
236.519	106.56
236.753	123.56
236.987	140.56
237.221	184.56
237.455	224.56
237.689	182.56
237.922	139.56
238.156	116.56
238.39	133.56
238.624	123.56
238.858	133.56
239.091	108.56
239.325	125.56
239.559	126.56
239.793	114.56
240.027	124.56
240.26	128.56
240.494	153.56
240.728	143.56
240.961	147.56
241.195	139.56
241.429	137.56
241.662	132.56
241.896	121.56
242.13	127.56
242.363	123.56
242.597	128.56
242.83	141.56
243.064	137.56
243.298	149.56
243.531	126.56
243.765	139.56
243.998	132.56
244.232	132.56
244.465	146.56
244.699	125.56
244.932	160.56
245.166	156.56
245.399	144.56
245.633	147.56
245.866	139.56
246.099	158.56
246.333	147.56
246.566	145.56
246.8	141.56
247.033	163.56
247.266	146.56
247.5	149.56
247.733	162.56
247.966	159.56
248.2	175.56
248.433	192.56
248.666	179.56
248.899	175.56
249.133	185.56
249.366	193.56
249.599	204.56
249.832	185.56
250.066	178.56
250.299	184.56
250.532	188.56
250.765	193.56
250.998	211.56
251.231	215.56
251.465	224.56
251.698	197.56
251.931	202.56
252.164	195.56
252.397	196.56
252.63	195.56
252.863	216.56
253.096	198.56
253.329	236.56
253.562	214.56
253.795	212.56
254.028	198.56
254.261	228.56
254.494	218.56
254.727	245.56
254.96	274.56
255.193	261.56
255.426	253.56
255.659	235.56
255.892	219.56
256.124	219.56
256.357	214.56
256.59	215.56
256.823	215.56
257.056	217.56
257.289	220.56
257.521	223.56
257.754	201.56
257.987	203.56
258.22	196.56
258.452	207.56
258.685	197.56
258.918	200.56
259.151	210.56
259.383	220.56
259.616	216.56
259.849	223.56
260.081	218.56
260.314	237.56
260.547	244.56
260.779	232.56
261.012	220.56
261.244	223.56
261.477	226.56
261.71	228.56
261.942	212.56
262.175	229.56
262.407	231.56
262.64	193.56
262.872	199.56
263.105	201.56
263.337	195.56
263.57	200.56
263.802	203.56
264.035	201.56
264.267	203.56
264.499	209.56
264.732	194.56
264.964	199.56
265.197	211.56
265.429	211.56
265.661	202.56
265.894	217.56
266.126	194.56
266.358	212.56
266.591	226.56
266.823	203.56
267.055	211.56
267.287	199.56
267.52	206.56
267.752	238.56
267.984	215.56
268.216	212.56
268.448	220.56
268.681	233.56
268.913	228.56
269.145	260.56
269.377	261.56
269.609	273.56
269.841	247.56
270.073	259.56
270.306	274.56
270.538	305.56
270.77	315.56
271.002	308.56
271.234	281.56
271.466	289.56
271.698	313.56
271.93	319.56
272.162	308.56
272.394	309.56
272.626	285.56
272.858	301.56
273.09	290.56
273.322	263.56
273.553	258.56
273.785	257.56
274.017	236.56
274.249	258.56
274.481	251.56
274.713	255.56
274.945	244.56
275.176	233.56
275.408	243.56
275.64	235.56
275.872	263.56
276.104	261.56
276.335	263.56
276.567	264.56
276.799	284.56
277.031	295.56
277.262	293.56
277.494	315.56
277.726	282.56
277.957	294.56
278.189	267.56
278.421	259.56
278.652	270.56
278.884	243.56
279.115	242.56
279.347	243.56
279.579	233.56
279.81	241.56
280.042	241.56
280.273	236.56
280.505	226.56
280.736	252.56
280.968	242.56
281.199	232.56
281.431	240.56
281.662	233.56
281.894	249.56
282.125	263.56
282.356	259.56
282.588	273.56
282.819	289.56
283.051	252.56
283.282	249.56
283.513	240.56
283.745	254.56
283.976	257.56
284.207	246.56
284.439	260.56
284.67	270.56
284.901	269.56
285.132	249.56
285.364	234.56
285.595	237.56
285.826	250.56
286.057	232.56
286.288	259.56
286.52	268.56
286.751	257.56
286.982	247.56
287.213	257.56
287.444	243.56
287.675	255.56
287.906	259.56
288.138	268.56
288.369	282.56
288.6	272.56
288.831	275.56
289.062	276.56
289.293	261.56
289.524	261.56
289.755	260.56
289.986	273.56
290.217	264.56
290.448	256.56
290.679	261.56
290.91	255.56
291.141	262.56
291.371	275.56
291.602	261.56
291.833	255.56
292.064	256.56
292.295	250.56
292.526	262.56
292.757	252.56
292.987	251.56
293.218	252.56
293.449	257.56
293.68	267.56
293.91	247.56
294.141	260.56
294.372	237.56
294.603	259.56
294.833	262.56
295.064	267.56
295.295	271.56
295.525	255.56
295.756	267.56
295.987	267.56
296.217	292.56
296.448	300.56
296.679	278.56
296.909	270.56
297.14	252.56
297.37	266.56
297.601	273.56
297.831	282.56
298.062	271.56
298.292	283.56
298.523	268.56
298.753	282.56
298.984	279.56
299.214	280.56
299.445	252.56
299.675	278.56
299.905	274.56
300.136	278.56
300.366	257.56
300.597	268.56
300.827	284.56
301.057	300.56
301.288	289.56
301.518	290.56
301.748	276.56
301.979	280.56
302.209	263.56
302.439	273.56
302.669	270.56
302.9	276.56
303.13	293.56
303.36	284.56
303.59	314.56
303.82	307.56
304.051	301.56
304.281	288.56
304.511	306.56
304.741	276.56
304.971	300.56
305.201	283.56
305.431	298.56
305.661	307.56
305.891	284.56
306.121	300.56
306.352	296.56
306.582	300.56
306.812	298.56
307.042	278.56
307.272	279.56
307.502	298.56
307.731	298.56
307.961	284.56
308.191	298.56
308.421	287.56
308.651	286.56
308.881	304.56
309.111	313.56
309.341	317.56
309.571	315.56
309.8	324.56
310.03	322.56
310.26	354.56
310.49	337.56
310.72	356.56
310.949	358.56
311.179	363.56
311.409	356.56
311.639	348.56
311.868	336.56
312.098	325.56
312.328	365.56
312.557	379.56
312.787	385.56
313.017	363.56
313.246	355.56
313.476	347.56
313.706	341.56
313.935	348.56
314.165	374.56
314.394	369.56
314.624	368.56
314.853	344.56
315.083	349.56
315.312	328.56
315.542	340.56
315.771	327.56
316.001	335.56
316.23	326.56
316.46	311.56
316.689	343.56
316.919	331.56
317.148	352.56
317.377	347.56
317.607	319.56
317.836	337.56
318.065	358.56
318.295	344.56
318.524	319.56
318.753	339.56
318.983	332.56
319.212	332.56
319.441	350.56
319.67	347.56
319.9	355.56
320.129	359.56
320.358	346.56
320.587	351.56
320.816	367.56
321.046	359.56
321.275	371.56
321.504	377.56
321.733	370.56
321.962	373.56
322.191	376.56
322.42	404.56
322.649	421.56
322.878	423.56
323.108	446.56
323.337	480.56
323.566	471.56
323.795	517.56
324.024	606.56
324.253	707.56
324.482	966.56
324.71	1504.56
324.939	2165.56
325.168	1903.56
325.397	982.56
325.626	651.56
325.855	553.56
326.084	511.56
326.313	469.56
326.542	486.56
326.77	521.56
326.999	646.56
327.228	871.56
327.457	1329.56
327.686	1643.56
327.914	1126.56
328.143	733.56
328.372	611.56
328.6	556.56
328.829	539.56
329.058	570.56
329.287	575.56
329.515	511.56
329.744	485.56
329.972	466.56
330.201	448.56
330.43	487.56
330.658	543.56
330.887	582.56
331.115	575.56
331.344	512.56
331.572	435.56
331.801	449.56
332.03	448.56
332.258	426.56
332.486	416.56
332.715	395.56
332.943	383.56
333.172	387.56
333.4	387.56
333.629	390.56
333.857	401.56
334.085	407.56
334.314	384.56
334.542	403.56
334.771	401.56
334.999	396.56
335.227	401.56
335.455	385.56
335.684	385.56
335.912	378.56
336.14	372.56
336.369	374.56
336.597	383.56
336.825	397.56
337.053	388.56
337.281	391.56
337.51	379.56
337.738	376.56
337.966	376.56
338.194	404.56
338.422	393.56
338.65	367.56
338.878	377.56
339.106	385.56
339.334	373.56
339.562	367.56
339.79	382.56
340.018	393.56
340.246	394.56
340.474	371.56
340.702	385.56
340.93	387.56
341.158	381.56
341.386	369.56
341.614	377.56
341.842	363.56
342.07	370.56
342.298	375.56
342.526	372.56
342.754	353.56
342.981	369.56
343.209	367.56
343.437	380.56
343.665	375.56
343.893	360.56
344.12	379.56
344.348	374.56
344.576	380.56
344.804	385.56
345.031	409.56
345.259	388.56
345.487	379.56
345.714	373.56
345.942	366.56
346.17	376.56
346.397	369.56
346.625	367.56
346.853	368.56
347.08	361.56
347.308	374.56
347.535	390.56
347.763	395.56
347.99	380.56
348.218	405.56
348.445	384.56
348.673	375.56
348.9	370.56
349.128	353.56
349.355	342.56
349.583	360.56
349.81	354.56
350.037	354.56
350.265	372.56
350.492	369.56
350.72	350.56
350.947	357.56
351.174	379.56
351.402	396.56
351.629	383.56
351.856	377.56
352.083	377.56
352.311	380.56
352.538	387.56
352.765	379.56
352.992	370.56
353.22	376.56
353.447	371.56
353.674	362.56
353.901	349.56
354.128	345.56
354.355	354.56
354.583	360.56
354.81	353.56
355.037	346.56
355.264	329.56
355.491	342.56
355.718	315.56
355.945	356.56
356.172	328.56
356.399	341.56
356.626	320.56
356.853	338.56
357.08	323.56
357.307	349.56
357.534	343.56
357.761	358.56
357.988	327.56
358.215	338.56
358.441	327.56
358.668	337.56
358.895	352.56
359.122	337.56
359.349	355.56
359.576	359.56
359.802	379.56
360.029	411.56
360.256	442.56
360.483	398.56
360.709	385.56
360.936	388.56
361.163	372.56
361.39	375.56
361.616	360.56
361.843	375.56
362.07	382.56
362.296	359.56
362.523	361.56
362.749	381.56
362.976	376.56
363.203	355.56
363.429	322.56
363.656	346.56
363.882	346.56
364.109	358.56
364.335	355.56
364.562	356.56
364.788	361.56
365.015	359.56
365.241	336.56
365.468	361.56
365.694	352.56
365.92	347.56
366.147	343.56
366.373	366.56
366.599	353.56
366.826	353.56
367.052	347.56
367.278	331.56
367.505	363.56
367.731	342.56
367.957	354.56
368.184	346.56
368.41	329.56
368.636	325.56
368.862	358.56
369.089	346.56
369.315	346.56
369.541	337.56
369.767	345.56
369.993	345.56
370.219	347.56
370.445	345.56
370.672	343.56
370.898	324.56
371.124	343.56
371.35	339.56
371.576	335.56
371.802	345.56
372.028	333.56
372.254	342.56
372.48	319.56
372.706	349.56
372.932	329.56
373.158	339.56
373.384	354.56
373.61	337.56
373.835	328.56
374.061	339.56
374.287	346.56
374.513	352.56
374.739	343.56
374.965	360.56
375.191	359.56
375.416	335.56
375.642	326.56
375.868	336.56
376.094	333.56
376.319	333.56
376.545	339.56
376.771	317.56
376.997	346.56
377.222	337.56
377.448	324.56
377.674	319.56
377.899	327.56
378.125	342.56
378.35	328.56
378.576	314.56
378.802	319.56
379.027	324.56
379.253	337.56
379.478	348.56
379.704	337.56
379.929	347.56
380.155	345.56
380.38	335.56
380.606	339.56
380.831	328.56
381.057	345.56
381.282	347.56
381.507	327.56
381.733	336.56
381.958	343.56
382.184	344.56
382.409	338.56
382.634	345.56
382.86	355.56
383.085	340.56
383.31	335.56
383.535	347.56
383.761	356.56
383.986	337.56
384.211	342.56
384.436	344.56
384.662	339.56
384.887	360.56
385.112	357.56
385.337	372.56
385.562	351.56
385.787	347.56
386.013	361.56
386.238	362.56
386.463	374.56
386.688	363.56
386.913	333.56
387.138	347.56
387.363	362.56
387.588	362.56
387.813	368.56
388.038	355.56
388.263	360.56
388.488	344.56
388.713	350.56
388.938	369.56
389.163	359.56
389.387	358.56
389.612	369.56
389.837	360.56
390.062	339.56
390.287	352.56
390.512	355.56
390.736	363.56
390.961	346.56
391.186	354.56
391.411	363.56
391.636	346.56
391.86	348.56
392.085	351.56
392.31	352.56
392.534	355.56
392.759	367.56
392.984	370.56
393.208	360.56
393.433	360.56
393.658	351.56
393.882	347.56
394.107	354.56
394.331	361.56
394.556	352.56
394.78	346.56
395.005	348.56
395.229	364.56
395.454	368.56
395.678	355.56
395.903	365.56
396.127	396.56
396.352	385.56
396.576	371.56
396.801	369.56
397.025	369.56
397.249	374.56
397.474	385.56
397.698	391.56
397.922	395.56
398.147	387.56
398.371	383.56
398.595	383.56
398.82	396.56
399.044	389.56
399.268	391.56
399.492	419.56
399.717	443.56
399.941	460.56
400.165	482.56
400.389	497.56
400.613	449.56
400.837	427.56
401.062	395.56
401.286	412.56
401.51	405.56
401.734	416.56
401.958	411.56
402.182	410.56
402.406	419.56
402.63	428.56
402.854	414.56
403.078	383.56
403.302	414.56
403.526	430.56
403.75	415.56
403.974	423.56
404.198	405.56
404.422	419.56
404.645	419.56
404.869	409.56
405.093	431.56
405.317	460.56
405.541	481.56
405.765	439.56
405.988	430.56
406.212	455.56
406.436	486.56
406.66	493.56
406.883	465.56
407.107	473.56
407.331	510.56
407.555	567.56
407.778	531.56
408.002	492.56
408.226	465.56
408.449	435.56
408.673	446.56
408.896	482.56
409.12	508.56
409.344	484.56
409.567	450.56
409.791	434.56
410.014	433.56
410.238	409.56
410.461	406.56
410.685	399.56
410.908	447.56
411.132	473.56
411.355	493.56
411.578	491.56
411.802	427.56
412.025	405.56
412.249	397.56
412.472	418.56
412.695	420.56
412.919	409.56
413.142	422.56
413.365	392.56
413.589	391.56
413.812	401.56
414.035	404.56
414.258	387.56
414.482	394.56
414.705	398.56
414.928	384.56
415.151	377.56
415.374	379.56
415.597	388.56
415.821	369.56
416.044	400.56
416.267	368.56
416.49	387.56
416.713	387.56
416.936	386.56
417.159	386.56
417.382	397.56
417.605	414.56
417.828	415.56
418.051	415.56
418.274	422.56
418.497	411.56
418.72	390.56
418.943	393.56
419.166	415.56
419.389	428.56
419.611	417.56
419.834	412.56
420.057	411.56
420.28	403.56
420.503	416.56
420.726	411.56
420.948	420.56
421.171	481.56
421.394	513.56
421.617	453.56
421.839	423.56
422.062	407.56
422.285	453.56
422.507	484.56
422.73	553.56
422.953	566.56
423.175	470.56
423.398	435.56
423.621	447.56
423.843	447.56
424.066	455.56
424.288	471.56
424.511	465.56
424.733	519.56
424.956	594.56
425.178	561.56
425.401	584.56
425.623	611.56
425.846	504.56
426.068	470.56
426.291	442.56
426.513	450.56
426.735	462.56
426.958	499.56
427.18	586.56
427.402	713.56
427.625	771.56
427.847	681.56
428.069	591.56
428.292	519.56
428.514	477.56
428.736	443.56
428.958	466.56
429.181	449.56
429.403	419.56
429.625	418.56
429.847	483.56
430.069	516.56
430.292	527.56
430.514	470.56
430.736	451.56
430.958	422.56
431.18	396.56
431.402	413.56
431.624	416.56
431.846	401.56
432.068	397.56
432.29	404.56
432.512	402.56
432.734	412.56
432.956	404.56
433.178	428.56
433.4	420.56
433.622	416.56
433.844	413.56
434.066	389.56
434.287	404.56
434.509	401.56
434.731	408.56
434.953	406.56
435.175	450.56
435.397	443.56
435.618	468.56
435.84	499.56
436.062	582.56
436.284	654.56
436.505	559.56
436.727	468.56
436.949	435.56
437.17	444.56
437.392	445.56
437.614	471.56
437.835	484.56
438.057	585.56
438.278	669.56
438.5	671.56
438.721	714.56
438.943	675.56
439.165	556.56
439.386	491.56
439.608	493.56
439.829	497.56
440.05	517.56
440.272	561.56
440.493	526.56
440.715	467.56
440.936	454.56
441.158	459.56
441.379	425.56
441.6	444.56
441.822	468.56
442.043	499.56
442.264	587.56
442.486	619.56
442.707	548.56
442.928	503.56
443.149	490.56
443.371	529.56
443.592	565.56
443.813	621.56
444.034	676.56
444.255	579.56
444.476	514.56
444.698	479.56
444.919	476.56
445.14	581.56
445.361	532.56
445.582	502.56
445.803	590.56
446.024	693.56
446.245	671.56
446.466	639.56
446.687	543.56
446.908	504.56
447.129	446.56
447.35	449.56
447.571	429.56
447.792	448.56
448.013	427.56
448.234	461.56
448.455	516.56
448.675	631.56
448.896	707.56
449.117	607.56
449.338	580.56
449.559	670.56
449.779	754.56
450	625.56
450.221	501.56
450.442	466.56
450.662	452.56
450.883	424.56
451.104	477.56
451.324	448.56
451.545	426.56
451.766	401.56
451.986	369.56
452.207	407.56
452.428	391.56
452.648	389.56
452.869	375.56
453.089	396.56
453.31	404.56
453.53	415.56
453.751	424.56
453.971	411.56
454.192	438.56
454.412	414.56
454.633	407.56
454.853	387.56
455.073	383.56
455.294	418.56
455.514	476.56
455.734	455.56
455.955	401.56
456.175	362.56
456.395	388.56
456.616	365.56
456.836	371.56
457.056	347.56
457.276	368.56
457.497	355.56
457.717	350.56
457.937	396.56
458.157	378.56
458.377	400.56
458.598	425.56
458.818	480.56
459.038	556.56
459.258	550.56
459.478	455.56
459.698	401.56
459.918	383.56
460.138	392.56
460.358	397.56
460.578	390.56
460.798	403.56
461.018	395.56
461.238	409.56
461.458	401.56
461.678	389.56
461.898	399.56
462.118	393.56
462.338	401.56
462.558	370.56
462.777	396.56
462.997	393.56
463.217	413.56
463.437	420.56
463.657	419.56
463.876	413.56
464.096	421.56
464.316	427.56
464.536	420.56
464.755	433.56
464.975	438.56
465.195	476.56
465.414	574.56
465.634	490.56
465.854	461.56
466.073	433.56
466.293	401.56
466.512	389.56
466.732	391.56
466.951	393.56
467.171	404.56
467.391	380.56
467.61	421.56
467.829	407.56
468.049	408.56
468.268	372.56
468.488	385.56
468.707	363.56
468.927	389.56
469.146	360.56
469.365	362.56
469.585	389.56
469.804	415.56
470.023	412.56
470.243	392.56
470.462	386.56
470.681	418.56
470.901	398.56
471.12	410.56
471.339	403.56
471.558	389.56
471.777	386.56
471.997	382.56
472.216	387.56
472.435	379.56
472.654	397.56
472.873	386.56
473.092	387.56
473.311	384.56
473.53	397.56
473.749	402.56
473.968	458.56
474.187	571.56
474.406	568.56
474.625	453.56
474.844	418.56
475.063	410.56
475.282	396.56
475.501	406.56
475.72	410.56
475.939	389.56
476.158	395.56
476.377	441.56
476.596	417.56
476.814	436.56
477.033	437.56
477.252	432.56
477.471	422.56
477.69	417.56
477.908	437.56
478.127	449.56
478.346	434.56
478.564	425.56
478.783	446.56
479.002	447.56
479.22	456.56
479.439	484.56
479.658	461.56
479.876	498.56
480.095	471.56
480.313	513.56
480.532	474.56
480.751	489.56
480.969	487.56
481.188	488.56
481.406	504.56
481.624	489.56
481.843	478.56
482.061	467.56
482.28	469.56
482.498	476.56
482.717	471.56
482.935	469.56
483.153	482.56
483.372	473.56
483.59	455.56
483.808	464.56
484.027	454.56
484.245	480.56
484.463	457.56
484.681	452.56
484.9	447.56
485.118	498.56
485.336	467.56
485.554	488.56
485.772	490.56
485.99	499.56
486.209	462.56
486.427	480.56
486.645	536.56
486.863	525.56
487.081	530.56
487.299	507.56
487.517	518.56
487.735	502.56
487.953	517.56
488.171	530.56
488.389	511.56
488.607	492.56
488.825	482.56
489.043	512.56
489.261	519.56
489.479	529.56
489.696	526.56
489.914	522.56
490.132	516.56
490.35	504.56
490.568	521.56
490.786	537.56
491.003	563.56
491.221	564.56
491.439	582.56
491.657	563.56
491.874	580.56
492.092	574.56
492.31	576.56
492.527	583.56
492.745	584.56
492.963	579.56
493.18	605.56
493.398	604.56
493.615	591.56
493.833	616.56
494.05	599.56
494.268	593.56
494.485	585.56
494.703	577.56
494.92	614.56
495.138	618.56
495.355	586.56
495.573	612.56
495.79	588.56
496.008	621.56
496.225	610.56
496.442	594.56
496.66	606.56
496.877	610.56
497.094	580.56
497.312	615.56
497.529	611.56
497.746	629.56
497.963	617.56
498.181	632.56
498.398	657.56
498.615	660.56
498.832	666.56
499.049	644.56
499.267	658.56
499.484	705.56
499.701	696.56
499.918	693.56
500.135	736.56
500.352	741.56
500.569	744.56
500.786	755.56
501.003	730.56
501.22	738.56
501.437	729.56
501.654	712.56
501.871	716.56
502.088	692.56
