Data from 1986.PennyLincolnUp.Lamp.En5.5.200Scan.071819.P2_HRD10591_17-10-36-974.txt Node
Date: Thu Jul 18 17:10:36 EDT 2019
User: cochatt
Spectrometer: HR+D1059
Trigger mode: 1
Integration Time (sec): 1.000000E-1
Scans to average: 1
Electric dark correction enabled: true
Nonlinearity correction enabled: false
Boxcar width: 0
XAxis mode: Wavelengths
Number of Pixels in Spectrum: 2048
>>>>>Begin Spectral Data<<<<<
223.165	-11.38
223.4	-11.38
223.635	-11.38
223.869	-10.38
224.104	-31.38
224.338	-5.38
224.573	-13.38
224.808	-8.38
225.042	-0.38
225.277	-7.38
225.511	-5.38
225.746	6.62
225.98	10.62
226.215	5.62
226.449	27.62
226.683	13.62
226.918	16.62
227.152	12.62
227.387	26.62
227.621	32.62
227.856	32.62
228.09	42.62
228.324	54.62
228.559	63.62
228.793	64.62
229.027	113.62
229.262	114.62
229.496	116.62
229.73	123.62
229.964	145.62
230.199	131.62
230.433	119.62
230.667	107.62
230.901	133.62
231.136	110.62
231.37	106.62
231.604	117.62
231.838	110.62
232.072	116.62
232.306	107.62
232.541	110.62
232.775	126.62
233.009	124.62
233.243	106.62
233.477	98.62
233.711	89.62
233.945	99.62
234.179	108.62
234.413	117.62
234.647	116.62
234.881	128.62
235.115	111.62
235.349	111.62
235.583	123.62
235.817	107.62
236.051	126.62
236.285	123.62
236.519	124.62
236.753	123.62
236.987	140.62
237.221	188.62
237.455	231.62
237.689	190.62
237.922	151.62
238.156	121.62
238.39	140.62
238.624	134.62
238.858	119.62
239.091	99.62
239.325	111.62
239.559	134.62
239.793	126.62
240.027	138.62
240.26	140.62
240.494	154.62
240.728	157.62
240.961	146.62
241.195	152.62
241.429	146.62
241.662	140.62
241.896	133.62
242.13	120.62
242.363	137.62
242.597	120.62
242.83	131.62
243.064	126.62
243.298	146.62
243.531	127.62
243.765	130.62
243.998	139.62
244.232	138.62
244.465	141.62
244.699	133.62
244.932	153.62
245.166	158.62
245.399	144.62
245.633	142.62
245.866	144.62
246.099	127.62
246.333	135.62
246.566	144.62
246.8	153.62
247.033	139.62
247.266	160.62
247.5	158.62
247.733	151.62
247.966	178.62
248.2	163.62
248.433	168.62
248.666	171.62
248.899	177.62
249.133	176.62
249.366	217.62
249.599	205.62
249.832	198.62
250.066	190.62
250.299	181.62
250.532	182.62
250.765	209.62
250.998	239.62
251.231	232.62
251.465	212.62
251.698	216.62
251.931	207.62
252.164	215.62
252.397	201.62
252.63	212.62
252.863	220.62
253.096	255.62
253.329	235.62
253.562	240.62
253.795	227.62
254.028	226.62
254.261	213.62
254.494	227.62
254.727	277.62
254.96	280.62
255.193	303.62
255.426	256.62
255.659	250.62
255.892	243.62
256.124	221.62
256.357	245.62
256.59	240.62
256.823	226.62
257.056	220.62
257.289	203.62
257.521	212.62
257.754	212.62
257.987	225.62
258.22	214.62
258.452	216.62
258.685	215.62
258.918	203.62
259.151	218.62
259.383	209.62
259.616	227.62
259.849	224.62
260.081	241.62
260.314	238.62
260.547	266.62
260.779	233.62
261.012	242.62
261.244	227.62
261.477	234.62
261.71	228.62
261.942	212.62
262.175	245.62
262.407	244.62
262.64	230.62
262.872	208.62
263.105	212.62
263.337	222.62
263.57	199.62
263.802	207.62
264.035	209.62
264.267	193.62
264.499	204.62
264.732	199.62
264.964	210.62
265.197	202.62
265.429	199.62
265.661	214.62
265.894	212.62
266.126	204.62
266.358	204.62
266.591	204.62
266.823	218.62
267.055	220.62
267.287	211.62
267.52	222.62
267.752	227.62
267.984	229.62
268.216	234.62
268.448	228.62
268.681	222.62
268.913	224.62
269.145	256.62
269.377	264.62
269.609	265.62
269.841	271.62
270.073	277.62
270.306	302.62
270.538	312.62
270.77	329.62
271.002	315.62
271.234	300.62
271.466	304.62
271.698	304.62
271.93	313.62
272.162	324.62
272.394	336.62
272.626	302.62
272.858	287.62
273.09	283.62
273.322	275.62
273.553	269.62
273.785	247.62
274.017	266.62
274.249	258.62
274.481	268.62
274.713	248.62
274.945	264.62
275.176	271.62
275.408	268.62
275.64	242.62
275.872	269.62
276.104	267.62
276.335	260.62
276.567	270.62
276.799	280.62
277.031	297.62
277.262	324.62
277.494	335.62
277.726	308.62
277.957	295.62
278.189	274.62
278.421	273.62
278.652	260.62
278.884	268.62
279.115	251.62
279.347	249.62
279.579	231.62
279.81	259.62
280.042	264.62
280.273	251.62
280.505	246.62
280.736	248.62
280.968	238.62
281.199	262.62
281.431	259.62
281.662	251.62
281.894	257.62
282.125	266.62
282.356	285.62
282.588	291.62
282.819	294.62
283.051	254.62
283.282	254.62
283.513	265.62
283.745	240.62
283.976	255.62
284.207	246.62
284.439	263.62
284.67	266.62
284.901	265.62
285.132	257.62
285.364	257.62
285.595	251.62
285.826	258.62
286.057	246.62
286.288	262.62
286.52	266.62
286.751	252.62
286.982	264.62
287.213	268.62
287.444	262.62
287.675	264.62
287.906	269.62
288.138	281.62
288.369	275.62
288.6	289.62
288.831	271.62
289.062	273.62
289.293	271.62
289.524	265.62
289.755	256.62
289.986	258.62
290.217	247.62
290.448	267.62
290.679	279.62
290.91	271.62
291.141	266.62
291.371	260.62
291.602	261.62
291.833	259.62
292.064	262.62
292.295	266.62
292.526	271.62
292.757	247.62
292.987	241.62
293.218	254.62
293.449	272.62
293.68	273.62
293.91	267.62
294.141	278.62
294.372	265.62
294.603	255.62
294.833	248.62
295.064	275.62
295.295	275.62
295.525	251.62
295.756	279.62
295.987	289.62
296.217	299.62
296.448	325.62
296.679	257.62
296.909	272.62
297.14	274.62
297.37	279.62
297.601	274.62
297.831	280.62
298.062	271.62
298.292	290.62
298.523	279.62
298.753	256.62
298.984	285.62
299.214	278.62
299.445	293.62
299.675	286.62
299.905	279.62
300.136	292.62
300.366	287.62
300.597	276.62
300.827	303.62
301.057	291.62
301.288	290.62
301.518	309.62
301.748	308.62
301.979	286.62
302.209	289.62
302.439	305.62
302.669	314.62
302.9	300.62
303.13	286.62
303.36	282.62
303.59	304.62
303.82	315.62
304.051	299.62
304.281	303.62
304.511	301.62
304.741	306.62
304.971	302.62
305.201	283.62
305.431	289.62
305.661	304.62
305.891	278.62
306.121	295.62
306.352	328.62
306.582	300.62
306.812	295.62
307.042	288.62
307.272	295.62
307.502	298.62
307.731	314.62
307.961	307.62
308.191	293.62
308.421	289.62
308.651	315.62
308.881	303.62
309.111	289.62
309.341	313.62
309.571	328.62
309.8	318.62
310.03	339.62
310.26	344.62
310.49	352.62
310.72	356.62
310.949	378.62
311.179	395.62
311.409	357.62
311.639	357.62
311.868	369.62
312.098	355.62
312.328	371.62
312.557	389.62
312.787	392.62
313.017	383.62
313.246	369.62
313.476	370.62
313.706	352.62
313.935	350.62
314.165	365.62
314.394	382.62
314.624	376.62
314.853	364.62
315.083	366.62
315.312	360.62
315.542	350.62
315.771	327.62
316.001	342.62
316.23	352.62
316.46	334.62
316.689	346.62
316.919	361.62
317.148	362.62
317.377	369.62
317.607	355.62
317.836	350.62
318.065	342.62
318.295	354.62
318.524	349.62
318.753	339.62
318.983	371.62
319.212	351.62
319.441	354.62
319.67	364.62
319.9	368.62
320.129	347.62
320.358	349.62
320.587	348.62
320.816	368.62
321.046	366.62
321.275	395.62
321.504	356.62
321.733	382.62
321.962	388.62
322.191	400.62
322.42	431.62
322.649	424.62
322.878	430.62
323.108	454.62
323.337	471.62
323.566	498.62
323.795	566.62
324.024	606.62
324.253	730.62
324.482	1045.62
324.71	1594.62
324.939	2292.62
325.168	2046.62
325.397	1086.62
325.626	742.62
325.855	564.62
326.084	530.62
326.313	520.62
326.542	525.62
326.77	578.62
326.999	673.62
327.228	921.62
327.457	1390.62
327.686	1728.62
327.914	1176.62
328.143	795.62
328.372	672.62
328.6	616.62
328.829	579.62
329.058	594.62
329.287	607.62
329.515	532.62
329.744	528.62
329.972	514.62
330.201	523.62
330.43	570.62
330.658	616.62
330.887	642.62
331.115	624.62
331.344	547.62
331.572	490.62
331.801	472.62
332.03	473.62
332.258	460.62
332.486	438.62
332.715	410.62
332.943	412.62
333.172	426.62
333.4	412.62
333.629	420.62
333.857	444.62
334.085	454.62
334.314	466.62
334.542	491.62
334.771	477.62
334.999	448.62
335.227	421.62
335.455	422.62
335.684	408.62
335.912	407.62
336.14	417.62
336.369	378.62
336.597	430.62
336.825	394.62
337.053	404.62
337.281	397.62
337.51	409.62
337.738	397.62
337.966	377.62
338.194	394.62
338.422	404.62
338.65	382.62
338.878	394.62
339.106	390.62
339.334	378.62
339.562	355.62
339.79	372.62
340.018	392.62
340.246	390.62
340.474	387.62
340.702	395.62
340.93	381.62
341.158	394.62
341.386	386.62
341.614	403.62
341.842	400.62
342.07	373.62
342.298	362.62
342.526	382.62
342.754	382.62
342.981	372.62
343.209	355.62
343.437	346.62
343.665	388.62
343.893	366.62
344.12	376.62
344.348	376.62
344.576	384.62
344.804	390.62
345.031	419.62
345.259	404.62
345.487	405.62
345.714	399.62
345.942	386.62
346.17	380.62
346.397	369.62
346.625	375.62
346.853	385.62
347.08	383.62
347.308	394.62
347.535	385.62
347.763	397.62
347.99	402.62
348.218	391.62
348.445	392.62
348.673	409.62
348.9	397.62
349.128	386.62
349.355	375.62
349.583	361.62
349.81	369.62
350.037	352.62
350.265	376.62
350.492	362.62
350.72	351.62
350.947	366.62
351.174	370.62
351.402	388.62
351.629	392.62
351.856	375.62
352.083	393.62
352.311	417.62
352.538	411.62
352.765	407.62
352.992	393.62
353.22	369.62
353.447	367.62
353.674	369.62
353.901	374.62
354.128	321.62
354.355	341.62
354.583	342.62
354.81	335.62
355.037	351.62
355.264	342.62
355.491	338.62
355.718	332.62
355.945	360.62
356.172	358.62
356.399	338.62
356.626	330.62
356.853	350.62
357.08	339.62
357.307	342.62
357.534	342.62
357.761	345.62
357.988	338.62
358.215	345.62
358.441	344.62
358.668	359.62
358.895	358.62
359.122	342.62
359.349	373.62
359.576	378.62
359.802	396.62
360.029	437.62
360.256	446.62
360.483	444.62
360.709	388.62
360.936	383.62
361.163	376.62
361.39	403.62
361.616	390.62
361.843	384.62
362.07	383.62
362.296	397.62
362.523	385.62
362.749	372.62
362.976	376.62
363.203	386.62
363.429	384.62
363.656	338.62
363.882	356.62
364.109	350.62
364.335	372.62
364.562	356.62
364.788	352.62
365.015	346.62
365.241	335.62
365.468	370.62
365.694	379.62
365.92	374.62
366.147	371.62
366.373	352.62
366.599	350.62
366.826	347.62
367.052	368.62
367.278	350.62
367.505	342.62
367.731	370.62
367.957	336.62
368.184	353.62
368.41	356.62
368.636	358.62
368.862	379.62
369.089	352.62
369.315	362.62
369.541	355.62
369.767	352.62
369.993	356.62
370.219	339.62
370.445	344.62
370.672	356.62
370.898	341.62
371.124	322.62
371.35	339.62
371.576	326.62
371.802	354.62
372.028	327.62
372.254	325.62
372.48	329.62
372.706	333.62
372.932	343.62
373.158	356.62
373.384	353.62
373.61	350.62
373.835	344.62
374.061	350.62
374.287	350.62
374.513	335.62
374.739	344.62
374.965	366.62
375.191	324.62
375.416	332.62
375.642	363.62
375.868	355.62
376.094	349.62
376.319	335.62
376.545	338.62
376.771	357.62
376.997	335.62
377.222	336.62
377.448	346.62
377.674	345.62
377.899	326.62
378.125	339.62
378.35	349.62
378.576	325.62
378.802	320.62
379.027	327.62
379.253	341.62
379.478	326.62
379.704	336.62
379.929	328.62
380.155	330.62
380.38	342.62
380.606	346.62
380.831	350.62
381.057	332.62
381.282	337.62
381.507	359.62
381.733	357.62
381.958	337.62
382.184	352.62
382.409	347.62
382.634	337.62
382.86	331.62
383.085	355.62
383.31	347.62
383.535	356.62
383.761	357.62
383.986	356.62
384.211	354.62
384.436	335.62
384.662	347.62
384.887	355.62
385.112	335.62
385.337	363.62
385.562	352.62
385.787	350.62
386.013	359.62
386.238	364.62
386.463	380.62
386.688	361.62
386.913	351.62
387.138	358.62
387.363	345.62
387.588	361.62
387.813	368.62
388.038	351.62
388.263	345.62
388.488	369.62
388.713	368.62
388.938	375.62
389.163	361.62
389.387	362.62
389.612	342.62
389.837	375.62
390.062	350.62
390.287	342.62
390.512	354.62
390.736	352.62
390.961	343.62
391.186	331.62
391.411	364.62
391.636	363.62
391.86	353.62
392.085	337.62
392.31	353.62
392.534	362.62
392.759	345.62
392.984	372.62
393.208	350.62
393.433	358.62
393.658	364.62
393.882	339.62
394.107	353.62
394.331	350.62
394.556	352.62
394.78	342.62
395.005	367.62
395.229	338.62
395.454	350.62
395.678	378.62
395.903	364.62
396.127	381.62
396.352	400.62
396.576	379.62
396.801	371.62
397.025	353.62
397.249	356.62
397.474	383.62
397.698	376.62
397.922	394.62
398.147	407.62
398.371	414.62
398.595	406.62
398.82	396.62
399.044	416.62
399.268	416.62
399.492	414.62
399.717	425.62
399.941	437.62
400.165	500.62
400.389	472.62
400.613	447.62
400.837	444.62
401.062	436.62
401.286	410.62
401.51	393.62
401.734	397.62
401.958	410.62
402.182	422.62
402.406	416.62
402.63	437.62
402.854	410.62
403.078	431.62
403.302	414.62
403.526	425.62
403.75	423.62
403.974	418.62
404.198	409.62
404.422	406.62
404.645	433.62
404.869	436.62
405.093	455.62
405.317	477.62
405.541	504.62
405.765	469.62
405.988	446.62
406.212	460.62
406.436	471.62
406.66	488.62
406.883	448.62
407.107	482.62
407.331	482.62
407.555	584.62
407.778	564.62
408.002	536.62
408.226	481.62
408.449	449.62
408.673	464.62
408.896	500.62
409.12	547.62
409.344	496.62
409.567	459.62
409.791	436.62
410.014	414.62
410.238	411.62
410.461	416.62
410.685	410.62
410.908	434.62
411.132	473.62
411.355	515.62
411.578	495.62
411.802	442.62
412.025	436.62
412.249	409.62
412.472	458.62
412.695	467.62
412.919	457.62
413.142	425.62
413.365	426.62
413.589	413.62
413.812	410.62
414.035	401.62
414.258	396.62
414.482	382.62
414.705	382.62
414.928	372.62
415.151	387.62
415.374	374.62
415.597	387.62
415.821	378.62
416.044	400.62
416.267	376.62
416.49	394.62
416.713	400.62
416.936	410.62
417.159	409.62
417.382	400.62
417.605	406.62
417.828	401.62
418.051	446.62
418.274	422.62
418.497	392.62
418.72	409.62
418.943	425.62
419.166	396.62
419.389	428.62
419.611	424.62
419.834	425.62
420.057	408.62
420.28	432.62
420.503	432.62
420.726	426.62
420.948	446.62
421.171	484.62
421.394	508.62
421.617	458.62
421.839	427.62
422.062	430.62
422.285	434.62
422.507	504.62
422.73	573.62
422.953	555.62
423.175	483.62
423.398	458.62
423.621	461.62
423.843	466.62
424.066	487.62
424.288	472.62
424.511	480.62
424.733	524.62
424.956	627.62
425.178	587.62
425.401	604.62
425.623	591.62
425.846	506.62
426.068	484.62
426.291	468.62
426.513	483.62
426.735	483.62
426.958	511.62
427.18	632.62
427.402	696.62
427.625	792.62
427.847	734.62
428.069	619.62
428.292	510.62
428.514	496.62
428.736	467.62
428.958	479.62
429.181	441.62
429.403	446.62
429.625	440.62
429.847	485.62
430.069	564.62
430.292	550.62
430.514	474.62
430.736	420.62
430.958	414.62
431.18	411.62
431.402	394.62
431.624	409.62
431.846	387.62
432.068	399.62
432.29	389.62
432.512	410.62
432.734	438.62
432.956	432.62
433.178	427.62
433.4	430.62
433.622	410.62
433.844	404.62
434.066	423.62
434.287	390.62
434.509	387.62
434.731	417.62
434.953	411.62
435.175	447.62
435.397	460.62
435.618	496.62
435.84	540.62
436.062	601.62
436.284	666.62
436.505	534.62
436.727	496.62
436.949	455.62
437.17	417.62
437.392	439.62
437.614	440.62
437.835	483.62
438.057	592.62
438.278	679.62
438.5	698.62
438.721	746.62
438.943	693.62
439.165	561.62
439.386	511.62
439.608	489.62
439.829	506.62
440.05	514.62
440.272	563.62
440.493	543.62
440.715	485.62
440.936	473.62
441.158	459.62
441.379	451.62
441.6	462.62
441.822	479.62
442.043	502.62
442.264	582.62
442.486	631.62
442.707	547.62
442.928	495.62
443.149	506.62
443.371	519.62
443.592	568.62
443.813	642.62
444.034	673.62
444.255	580.62
444.476	504.62
444.698	474.62
444.919	465.62
445.14	565.62
445.361	528.62
445.582	546.62
445.803	585.62
446.024	652.62
446.245	669.62
446.466	619.62
446.687	520.62
446.908	500.62
447.129	473.62
447.35	461.62
447.571	459.62
447.792	441.62
448.013	464.62
448.234	467.62
448.455	516.62
448.675	613.62
448.896	722.62
449.117	614.62
449.338	595.62
449.559	651.62
449.779	742.62
450	618.62
450.221	489.62
450.442	455.62
450.662	443.62
450.883	458.62
451.104	486.62
451.324	475.62
451.545	429.62
451.766	420.62
451.986	400.62
452.207	390.62
452.428	386.62
452.648	420.62
452.869	406.62
453.089	405.62
453.31	401.62
453.53	422.62
453.751	394.62
453.971	417.62
454.192	428.62
454.412	401.62
454.633	410.62
454.853	390.62
455.073	387.62
455.294	436.62
455.514	480.62
455.734	473.62
455.955	416.62
456.175	390.62
456.395	363.62
456.616	362.62
456.836	352.62
457.056	367.62
457.276	346.62
457.497	366.62
457.717	352.62
457.937	376.62
458.157	384.62
458.377	379.62
458.598	401.62
458.818	481.62
459.038	569.62
459.258	569.62
459.478	459.62
459.698	439.62
459.918	407.62
460.138	415.62
460.358	409.62
460.578	409.62
460.798	407.62
461.018	406.62
461.238	382.62
461.458	384.62
461.678	375.62
461.898	389.62
462.118	397.62
462.338	402.62
462.558	383.62
462.777	396.62
462.997	410.62
463.217	407.62
463.437	418.62
463.657	396.62
463.876	390.62
464.096	408.62
464.316	447.62
464.536	423.62
464.755	446.62
464.975	444.62
465.195	495.62
465.414	580.62
465.634	489.62
465.854	458.62
466.073	424.62
466.293	394.62
466.512	395.62
466.732	392.62
466.951	405.62
467.171	400.62
467.391	406.62
467.61	396.62
467.829	420.62
468.049	413.62
468.268	374.62
468.488	402.62
468.707	391.62
468.927	387.62
469.146	384.62
469.365	386.62
469.585	384.62
469.804	395.62
470.023	418.62
470.243	408.62
470.462	410.62
470.681	432.62
470.901	416.62
471.12	406.62
471.339	396.62
471.558	414.62
471.777	412.62
471.997	405.62
472.216	426.62
472.435	463.62
472.654	439.62
472.873	398.62
473.092	402.62
473.311	391.62
473.53	404.62
473.749	425.62
473.968	448.62
474.187	560.62
474.406	591.62
474.625	480.62
474.844	419.62
475.063	402.62
475.282	428.62
475.501	403.62
475.72	407.62
475.939	432.62
476.158	411.62
476.377	409.62
476.596	394.62
476.814	424.62
477.033	422.62
477.252	423.62
477.471	422.62
477.69	416.62
477.908	446.62
478.127	431.62
478.346	430.62
478.564	423.62
478.783	425.62
479.002	443.62
479.22	440.62
479.439	465.62
479.658	497.62
479.876	483.62
480.095	491.62
480.313	535.62
480.532	508.62
480.751	486.62
480.969	520.62
481.188	567.62
481.406	605.62
481.624	516.62
481.843	489.62
482.061	482.62
482.28	475.62
482.498	469.62
482.717	477.62
482.935	465.62
483.153	467.62
483.372	473.62
483.59	464.62
483.808	471.62
484.027	472.62
484.245	467.62
484.463	478.62
484.681	478.62
484.9	471.62
485.118	484.62
485.336	497.62
485.554	481.62
485.772	468.62
485.99	485.62
486.209	499.62
486.427	495.62
486.645	517.62
486.863	515.62
487.081	539.62
487.299	528.62
487.517	496.62
487.735	517.62
487.953	525.62
488.171	526.62
488.389	518.62
488.607	519.62
488.825	528.62
489.043	515.62
489.261	530.62
489.479	532.62
489.696	518.62
489.914	532.62
490.132	518.62
490.35	542.62
490.568	569.62
490.786	554.62
491.003	567.62
491.221	564.62
491.439	591.62
491.657	575.62
491.874	604.62
492.092	595.62
492.31	622.62
492.527	608.62
492.745	604.62
492.963	610.62
493.18	615.62
493.398	620.62
493.615	631.62
493.833	623.62
494.05	628.62
494.268	593.62
494.485	624.62
494.703	612.62
494.92	617.62
495.138	633.62
495.355	609.62
495.573	634.62
495.79	617.62
496.008	619.62
496.225	631.62
496.442	619.62
496.66	612.62
496.877	604.62
497.094	653.62
497.312	640.62
497.529	638.62
497.746	648.62
497.963	646.62
498.181	670.62
498.398	674.62
498.615	674.62
498.832	657.62
499.049	657.62
499.267	714.62
499.484	706.62
499.701	700.62
499.918	715.62
500.135	743.62
500.352	729.62
500.569	741.62
500.786	753.62
501.003	754.62
501.22	739.62
501.437	732.62
501.654	747.62
501.871	756.62
