Data from 1986.PennyLincolnUp.Lamp.En5.5.200Scan.071819.P2_HRD10591_17-10-06-974.txt Node
Date: Thu Jul 18 17:10:06 EDT 2019
User: cochatt
Spectrometer: HR+D1059
Trigger mode: 1
Integration Time (sec): 1.000000E-1
Scans to average: 1
Electric dark correction enabled: true
Nonlinearity correction enabled: false
Boxcar width: 0
XAxis mode: Wavelengths
Number of Pixels in Spectrum: 2048
>>>>>Begin Spectral Data<<<<<
223.165	-7.12
223.4	-7.12
223.635	-7.12
223.869	-5.12
224.104	-17.12
224.338	-9.12
224.573	-10.12
224.808	-22.12
225.042	-2.12
225.277	3.88
225.511	1.88
225.746	-17.12
225.98	-11.12
226.215	3.88
226.449	21.88
226.683	27.88
226.918	11.88
227.152	29.88
227.387	41.88
227.621	50.88
227.856	45.88
228.09	54.88
228.324	58.88
228.559	54.88
228.793	68.88
229.027	92.88
229.262	89.88
229.496	113.88
229.73	133.88
229.964	147.88
230.199	122.88
230.433	107.88
230.667	104.88
230.901	116.88
231.136	113.88
231.37	106.88
231.604	102.88
231.838	113.88
232.072	106.88
232.306	113.88
232.541	115.88
232.775	115.88
233.009	100.88
233.243	121.88
233.477	124.88
233.711	119.88
233.945	118.88
234.179	105.88
234.413	121.88
234.647	111.88
234.881	113.88
235.115	122.88
235.349	123.88
235.583	120.88
235.817	133.88
236.051	124.88
236.285	109.88
236.519	115.88
236.753	126.88
236.987	132.88
237.221	177.88
237.455	249.88
237.689	183.88
237.922	148.88
238.156	134.88
238.39	128.88
238.624	126.88
238.858	121.88
239.091	113.88
239.325	117.88
239.559	130.88
239.793	113.88
240.027	129.88
240.26	136.88
240.494	155.88
240.728	158.88
240.961	151.88
241.195	132.88
241.429	123.88
241.662	131.88
241.896	131.88
242.13	119.88
242.363	131.88
242.597	132.88
242.83	135.88
243.064	134.88
243.298	141.88
243.531	139.88
243.765	134.88
243.998	136.88
244.232	126.88
244.465	145.88
244.699	133.88
244.932	127.88
245.166	146.88
245.399	123.88
245.633	144.88
245.866	139.88
246.099	164.88
246.333	139.88
246.566	138.88
246.8	160.88
247.033	169.88
247.266	157.88
247.5	150.88
247.733	171.88
247.966	171.88
248.2	172.88
248.433	181.88
248.666	169.88
248.899	179.88
249.133	209.88
249.366	199.88
249.599	210.88
249.832	183.88
250.066	183.88
250.299	198.88
250.532	184.88
250.765	197.88
250.998	203.88
251.231	239.88
251.465	198.88
251.698	210.88
251.931	199.88
252.164	193.88
252.397	196.88
252.63	210.88
252.863	216.88
253.096	226.88
253.329	249.88
253.562	237.88
253.795	231.88
254.028	232.88
254.261	228.88
254.494	231.88
254.727	254.88
254.96	303.88
255.193	265.88
255.426	247.88
255.659	241.88
255.892	253.88
256.124	217.88
256.357	210.88
256.59	223.88
256.823	210.88
257.056	205.88
257.289	222.88
257.521	203.88
257.754	193.88
257.987	190.88
258.22	209.88
258.452	228.88
258.685	197.88
258.918	212.88
259.151	216.88
259.383	230.88
259.616	216.88
259.849	225.88
260.081	249.88
260.314	245.88
260.547	267.88
260.779	243.88
261.012	227.88
261.244	241.88
261.477	225.88
261.71	216.88
261.942	242.88
262.175	233.88
262.407	230.88
262.64	203.88
262.872	201.88
263.105	211.88
263.337	209.88
263.57	214.88
263.802	217.88
264.035	208.88
264.267	203.88
264.499	205.88
264.732	214.88
264.964	217.88
265.197	214.88
265.429	195.88
265.661	201.88
265.894	215.88
266.126	200.88
266.358	218.88
266.591	208.88
266.823	205.88
267.055	217.88
267.287	250.88
267.52	223.88
267.752	218.88
267.984	221.88
268.216	233.88
268.448	208.88
268.681	222.88
268.913	259.88
269.145	258.88
269.377	257.88
269.609	262.88
269.841	273.88
270.073	274.88
270.306	294.88
270.538	288.88
270.77	306.88
271.002	298.88
271.234	287.88
271.466	307.88
271.698	297.88
271.93	307.88
272.162	300.88
272.394	325.88
272.626	314.88
272.858	289.88
273.09	285.88
273.322	279.88
273.553	260.88
273.785	233.88
274.017	243.88
274.249	261.88
274.481	261.88
274.713	249.88
274.945	256.88
275.176	252.88
275.408	245.88
275.64	244.88
275.872	253.88
276.104	253.88
276.335	249.88
276.567	265.88
276.799	252.88
277.031	310.88
277.262	311.88
277.494	305.88
277.726	301.88
277.957	279.88
278.189	257.88
278.421	241.88
278.652	252.88
278.884	248.88
279.115	245.88
279.347	264.88
279.579	249.88
279.81	273.88
280.042	268.88
280.273	242.88
280.505	239.88
280.736	226.88
280.968	228.88
281.199	234.88
281.431	246.88
281.662	228.88
281.894	249.88
282.125	232.88
282.356	265.88
282.588	291.88
282.819	300.88
283.051	269.88
283.282	237.88
283.513	268.88
283.745	241.88
283.976	265.88
284.207	249.88
284.439	254.88
284.67	245.88
284.901	245.88
285.132	250.88
285.364	260.88
285.595	246.88
285.826	236.88
286.057	253.88
286.288	263.88
286.52	258.88
286.751	253.88
286.982	251.88
287.213	248.88
287.444	255.88
287.675	255.88
287.906	249.88
288.138	256.88
288.369	266.88
288.6	284.88
288.831	271.88
289.062	264.88
289.293	273.88
289.524	261.88
289.755	264.88
289.986	261.88
290.217	259.88
290.448	265.88
290.679	247.88
290.91	258.88
291.141	266.88
291.371	261.88
291.602	257.88
291.833	246.88
292.064	259.88
292.295	271.88
292.526	243.88
292.757	247.88
292.987	257.88
293.218	262.88
293.449	256.88
293.68	275.88
293.91	271.88
294.141	265.88
294.372	265.88
294.603	260.88
294.833	258.88
295.064	258.88
295.295	264.88
295.525	276.88
295.756	277.88
295.987	284.88
296.217	291.88
296.448	305.88
296.679	294.88
296.909	272.88
297.14	285.88
297.37	284.88
297.601	275.88
297.831	263.88
298.062	270.88
298.292	268.88
298.523	271.88
298.753	258.88
298.984	279.88
299.214	280.88
299.445	279.88
299.675	271.88
299.905	262.88
300.136	286.88
300.366	272.88
300.597	267.88
300.827	278.88
301.057	296.88
301.288	289.88
301.518	313.88
301.748	290.88
301.979	286.88
302.209	295.88
302.439	275.88
302.669	283.88
302.9	291.88
303.13	266.88
303.36	288.88
303.59	293.88
303.82	295.88
304.051	315.88
304.281	310.88
304.511	275.88
304.741	289.88
304.971	286.88
305.201	291.88
305.431	277.88
305.661	277.88
305.891	300.88
306.121	298.88
306.352	315.88
306.582	315.88
306.812	290.88
307.042	295.88
307.272	277.88
307.502	287.88
307.731	288.88
307.961	305.88
308.191	295.88
308.421	303.88
308.651	329.88
308.881	303.88
309.111	317.88
309.341	326.88
309.571	330.88
309.8	355.88
310.03	342.88
310.26	346.88
310.49	338.88
310.72	351.88
310.949	375.88
311.179	360.88
311.409	349.88
311.639	357.88
311.868	351.88
312.098	343.88
312.328	350.88
312.557	349.88
312.787	385.88
313.017	376.88
313.246	357.88
313.476	344.88
313.706	335.88
313.935	355.88
314.165	379.88
314.394	373.88
314.624	367.88
314.853	371.88
315.083	357.88
315.312	332.88
315.542	326.88
315.771	340.88
316.001	338.88
316.23	332.88
316.46	327.88
316.689	339.88
316.919	333.88
317.148	353.88
317.377	372.88
317.607	377.88
317.836	364.88
318.065	347.88
318.295	340.88
318.524	344.88
318.753	348.88
318.983	356.88
319.212	337.88
319.441	343.88
319.67	366.88
319.9	355.88
320.129	350.88
320.358	363.88
320.587	339.88
320.816	344.88
321.046	352.88
321.275	369.88
321.504	375.88
321.733	368.88
321.962	379.88
322.191	382.88
322.42	391.88
322.649	415.88
322.878	432.88
323.108	457.88
323.337	483.88
323.566	490.88
323.795	519.88
324.024	586.88
324.253	706.88
324.482	1019.88
324.71	1522.88
324.939	2172.88
325.168	1889.88
325.397	1030.88
325.626	659.88
325.855	565.88
326.084	485.88
326.313	498.88
326.542	485.88
326.77	559.88
326.999	638.88
327.228	899.88
327.457	1367.88
327.686	1637.88
327.914	1147.88
328.143	739.88
328.372	619.88
328.6	582.88
328.829	563.88
329.058	556.88
329.287	585.88
329.515	542.88
329.744	485.88
329.972	468.88
330.201	461.88
330.43	531.88
330.658	562.88
330.887	598.88
331.115	607.88
331.344	494.88
331.572	489.88
331.801	453.88
332.03	447.88
332.258	421.88
332.486	395.88
332.715	412.88
332.943	393.88
333.172	404.88
333.4	400.88
333.629	407.88
333.857	400.88
334.085	400.88
334.314	425.88
334.542	429.88
334.771	431.88
334.999	413.88
335.227	420.88
335.455	398.88
335.684	397.88
335.912	404.88
336.14	379.88
336.369	364.88
336.597	391.88
336.825	385.88
337.053	398.88
337.281	398.88
337.51	397.88
337.738	392.88
337.966	376.88
338.194	383.88
338.422	384.88
338.65	402.88
338.878	373.88
339.106	382.88
339.334	381.88
339.562	371.88
339.79	372.88
340.018	374.88
340.246	379.88
340.474	385.88
340.702	371.88
340.93	387.88
341.158	379.88
341.386	390.88
341.614	381.88
341.842	379.88
342.07	392.88
342.298	360.88
342.526	363.88
342.754	377.88
342.981	359.88
343.209	358.88
343.437	354.88
343.665	374.88
343.893	379.88
344.12	384.88
344.348	385.88
344.576	369.88
344.804	397.88
345.031	401.88
345.259	387.88
345.487	400.88
345.714	391.88
345.942	373.88
346.17	370.88
346.397	376.88
346.625	370.88
346.853	352.88
347.08	365.88
347.308	366.88
347.535	365.88
347.763	381.88
347.99	382.88
348.218	369.88
348.445	378.88
348.673	406.88
348.9	357.88
349.128	364.88
349.355	348.88
349.583	362.88
349.81	362.88
350.037	363.88
350.265	355.88
350.492	364.88
350.72	374.88
350.947	368.88
351.174	380.88
351.402	392.88
351.629	393.88
351.856	398.88
352.083	385.88
352.311	385.88
352.538	377.88
352.765	381.88
352.992	366.88
353.22	357.88
353.447	377.88
353.674	362.88
353.901	367.88
354.128	351.88
354.355	348.88
354.583	348.88
354.81	359.88
355.037	356.88
355.264	358.88
355.491	324.88
355.718	329.88
355.945	344.88
356.172	347.88
356.399	335.88
356.626	338.88
356.853	324.88
357.08	324.88
357.307	339.88
357.534	351.88
357.761	349.88
357.988	334.88
358.215	333.88
358.441	342.88
358.668	350.88
358.895	348.88
359.122	348.88
359.349	374.88
359.576	349.88
359.802	403.88
360.029	429.88
360.256	419.88
360.483	407.88
360.709	388.88
360.936	382.88
361.163	388.88
361.39	373.88
361.616	372.88
361.843	363.88
362.07	357.88
362.296	369.88
362.523	362.88
362.749	377.88
362.976	349.88
363.203	361.88
363.429	365.88
363.656	353.88
363.882	357.88
364.109	355.88
364.335	339.88
364.562	355.88
364.788	348.88
365.015	329.88
365.241	358.88
365.468	345.88
365.694	357.88
365.92	351.88
366.147	367.88
366.373	357.88
366.599	354.88
366.826	349.88
367.052	330.88
367.278	348.88
367.505	361.88
367.731	335.88
367.957	359.88
368.184	340.88
368.41	355.88
368.636	370.88
368.862	367.88
369.089	345.88
369.315	338.88
369.541	351.88
369.767	336.88
369.993	346.88
370.219	355.88
370.445	333.88
370.672	351.88
370.898	359.88
371.124	345.88
371.35	346.88
371.576	340.88
371.802	342.88
372.028	335.88
372.254	323.88
372.48	329.88
372.706	324.88
372.932	323.88
373.158	328.88
373.384	342.88
373.61	355.88
373.835	337.88
374.061	332.88
374.287	355.88
374.513	348.88
374.739	351.88
374.965	329.88
375.191	348.88
375.416	337.88
375.642	346.88
375.868	342.88
376.094	358.88
376.319	334.88
376.545	327.88
376.771	322.88
376.997	347.88
377.222	327.88
377.448	316.88
377.674	332.88
377.899	331.88
378.125	352.88
378.35	342.88
378.576	326.88
378.802	333.88
379.027	329.88
379.253	325.88
379.478	346.88
379.704	340.88
379.929	354.88
380.155	333.88
380.38	325.88
380.606	355.88
380.831	340.88
381.057	347.88
381.282	326.88
381.507	329.88
381.733	350.88
381.958	338.88
382.184	348.88
382.409	327.88
382.634	358.88
382.86	350.88
383.085	344.88
383.31	345.88
383.535	351.88
383.761	344.88
383.986	341.88
384.211	357.88
384.436	343.88
384.662	338.88
384.887	360.88
385.112	336.88
385.337	357.88
385.562	342.88
385.787	364.88
386.013	369.88
386.238	366.88
386.463	357.88
386.688	360.88
386.913	351.88
387.138	330.88
387.363	341.88
387.588	353.88
387.813	339.88
388.038	379.88
388.263	334.88
388.488	347.88
388.713	353.88
388.938	349.88
389.163	366.88
389.387	340.88
389.612	350.88
389.837	376.88
390.062	350.88
390.287	346.88
390.512	343.88
390.736	356.88
390.961	361.88
391.186	344.88
391.411	322.88
391.636	335.88
391.86	339.88
392.085	360.88
392.31	329.88
392.534	361.88
392.759	367.88
392.984	339.88
393.208	352.88
393.433	334.88
393.658	355.88
393.882	329.88
394.107	355.88
394.331	366.88
394.556	354.88
394.78	335.88
395.005	351.88
395.229	340.88
395.454	370.88
395.678	357.88
395.903	373.88
396.127	407.88
396.352	391.88
396.576	372.88
396.801	374.88
397.025	360.88
397.249	372.88
397.474	378.88
397.698	372.88
397.922	379.88
398.147	402.88
398.371	397.88
398.595	376.88
398.82	405.88
399.044	397.88
399.268	411.88
399.492	394.88
399.717	420.88
399.941	459.88
400.165	492.88
400.389	495.88
400.613	450.88
400.837	405.88
401.062	421.88
401.286	389.88
401.51	400.88
401.734	376.88
401.958	382.88
402.182	404.88
402.406	415.88
402.63	433.88
402.854	408.88
403.078	417.88
403.302	403.88
403.526	408.88
403.75	397.88
403.974	420.88
404.198	396.88
404.422	402.88
404.645	421.88
404.869	421.88
405.093	430.88
405.317	473.88
405.541	485.88
405.765	459.88
405.988	434.88
406.212	465.88
406.436	453.88
406.66	470.88
406.883	458.88
407.107	479.88
407.331	521.88
407.555	578.88
407.778	572.88
408.002	499.88
408.226	439.88
408.449	420.88
408.673	461.88
408.896	483.88
409.12	521.88
409.344	491.88
409.567	441.88
409.791	422.88
410.014	415.88
410.238	411.88
410.461	405.88
410.685	418.88
410.908	445.88
411.132	458.88
411.355	497.88
411.578	473.88
411.802	442.88
412.025	427.88
412.249	416.88
412.472	417.88
412.695	425.88
412.919	413.88
413.142	403.88
413.365	381.88
413.589	396.88
413.812	379.88
414.035	381.88
414.258	390.88
414.482	381.88
414.705	381.88
414.928	396.88
415.151	402.88
415.374	375.88
415.597	376.88
415.821	376.88
416.044	384.88
416.267	390.88
416.49	405.88
416.713	380.88
416.936	397.88
417.159	375.88
417.382	397.88
417.605	406.88
417.828	389.88
418.051	425.88
418.274	399.88
418.497	419.88
418.72	417.88
418.943	393.88
419.166	396.88
419.389	420.88
419.611	412.88
419.834	419.88
420.057	412.88
420.28	398.88
420.503	418.88
420.726	415.88
420.948	404.88
421.171	458.88
421.394	483.88
421.617	443.88
421.839	404.88
422.062	421.88
422.285	431.88
422.507	494.88
422.73	535.88
422.953	540.88
423.175	470.88
423.398	437.88
423.621	407.88
423.843	449.88
424.066	445.88
424.288	472.88
424.511	479.88
424.733	516.88
424.956	618.88
425.178	580.88
425.401	569.88
425.623	600.88
425.846	503.88
426.068	483.88
426.291	442.88
426.513	464.88
426.735	495.88
426.958	513.88
427.18	596.88
427.402	694.88
427.625	765.88
427.847	716.88
428.069	568.88
428.292	530.88
428.514	486.88
428.736	447.88
428.958	460.88
429.181	444.88
429.403	437.88
429.625	455.88
429.847	491.88
430.069	543.88
430.292	515.88
430.514	452.88
430.736	435.88
430.958	418.88
431.18	419.88
431.402	420.88
431.624	407.88
431.846	403.88
432.068	402.88
432.29	406.88
432.512	406.88
432.734	410.88
432.956	400.88
433.178	413.88
433.4	438.88
433.622	405.88
433.844	393.88
434.066	405.88
434.287	393.88
434.509	392.88
434.731	406.88
434.953	398.88
435.175	428.88
435.397	463.88
435.618	470.88
435.84	521.88
436.062	593.88
436.284	655.88
436.505	541.88
436.727	496.88
436.949	463.88
437.17	444.88
437.392	431.88
437.614	454.88
437.835	476.88
438.057	572.88
438.278	655.88
438.5	662.88
438.721	701.88
438.943	684.88
439.165	569.88
439.386	504.88
439.608	488.88
439.829	487.88
440.05	524.88
440.272	541.88
440.493	533.88
440.715	498.88
440.936	455.88
441.158	414.88
441.379	442.88
441.6	457.88
441.822	474.88
442.043	489.88
442.264	578.88
442.486	611.88
442.707	519.88
442.928	481.88
443.149	484.88
443.371	502.88
443.592	569.88
443.813	615.88
444.034	661.88
444.255	565.88
444.476	494.88
444.698	462.88
444.919	475.88
445.14	569.88
445.361	526.88
445.582	517.88
445.803	567.88
446.024	673.88
446.245	657.88
446.466	604.88
446.687	519.88
446.908	478.88
447.129	446.88
447.35	449.88
447.571	439.88
447.792	442.88
448.013	451.88
448.234	449.88
448.455	506.88
448.675	623.88
448.896	683.88
449.117	602.88
449.338	577.88
449.559	635.88
449.779	765.88
450	602.88
450.221	493.88
450.442	445.88
450.662	442.88
450.883	459.88
451.104	463.88
451.324	455.88
451.545	409.88
451.766	397.88
451.986	392.88
452.207	390.88
452.428	392.88
452.648	383.88
452.869	382.88
453.089	405.88
453.31	407.88
453.53	397.88
453.751	397.88
453.971	385.88
454.192	420.88
454.412	405.88
454.633	400.88
454.853	362.88
455.073	409.88
455.294	429.88
455.514	482.88
455.734	490.88
455.955	379.88
456.175	378.88
456.395	351.88
456.616	372.88
456.836	385.88
457.056	369.88
457.276	373.88
457.497	368.88
457.717	350.88
457.937	364.88
458.157	374.88
458.377	383.88
458.598	379.88
458.818	454.88
459.038	559.88
459.258	555.88
459.478	465.88
459.698	410.88
459.918	407.88
460.138	390.88
460.358	383.88
460.578	413.88
460.798	399.88
461.018	401.88
461.238	393.88
461.458	389.88
461.678	380.88
461.898	405.88
462.118	361.88
462.338	383.88
462.558	394.88
462.777	384.88
462.997	406.88
463.217	404.88
463.437	400.88
463.657	410.88
463.876	394.88
464.096	399.88
464.316	395.88
464.536	434.88
464.755	443.88
464.975	428.88
465.195	499.88
465.414	551.88
465.634	500.88
465.854	446.88
466.073	415.88
466.293	394.88
466.512	399.88
466.732	382.88
466.951	394.88
467.171	388.88
467.391	387.88
467.61	417.88
467.829	398.88
468.049	403.88
468.268	380.88
468.488	391.88
468.707	393.88
468.927	381.88
469.146	374.88
469.365	363.88
469.585	381.88
469.804	397.88
470.023	406.88
470.243	417.88
470.462	413.88
470.681	428.88
470.901	400.88
471.12	413.88
471.339	391.88
471.558	392.88
471.777	399.88
471.997	397.88
472.216	390.88
472.435	411.88
472.654	380.88
472.873	389.88
473.092	373.88
473.311	406.88
473.53	408.88
473.749	401.88
473.968	439.88
474.187	537.88
474.406	569.88
474.625	475.88
474.844	415.88
475.063	423.88
475.282	397.88
475.501	380.88
475.72	428.88
475.939	397.88
476.158	418.88
476.377	409.88
476.596	393.88
476.814	431.88
477.033	435.88
477.252	429.88
477.471	425.88
477.69	400.88
477.908	424.88
478.127	416.88
478.346	419.88
478.564	418.88
478.783	436.88
479.002	435.88
479.22	441.88
479.439	479.88
479.658	489.88
479.876	486.88
480.095	480.88
480.313	506.88
480.532	484.88
480.751	450.88
480.969	452.88
481.188	495.88
481.406	515.88
481.624	468.88
481.843	484.88
482.061	475.88
482.28	465.88
482.498	468.88
482.717	476.88
482.935	453.88
483.153	463.88
483.372	488.88
483.59	469.88
483.808	475.88
484.027	465.88
484.245	462.88
484.463	466.88
484.681	464.88
484.9	462.88
485.118	474.88
485.336	475.88
485.554	518.88
485.772	487.88
485.99	503.88
486.209	482.88
486.427	472.88
486.645	485.88
486.863	530.88
487.081	524.88
487.299	528.88
487.517	513.88
487.735	499.88
487.953	521.88
488.171	480.88
488.389	491.88
488.607	514.88
488.825	519.88
489.043	503.88
489.261	506.88
489.479	511.88
489.696	503.88
489.914	503.88
490.132	536.88
490.35	551.88
490.568	519.88
490.786	551.88
491.003	529.88
491.221	553.88
491.439	567.88
491.657	583.88
491.874	568.88
492.092	583.88
492.31	579.88
492.527	590.88
492.745	566.88
492.963	573.88
493.18	588.88
493.398	602.88
493.615	579.88
493.833	582.88
494.05	602.88
494.268	619.88
494.485	583.88
494.703	596.88
494.92	605.88
495.138	567.88
495.355	605.88
495.573	593.88
495.79	579.88
496.008	589.88
496.225	581.88
496.442	591.88
496.66	620.88
496.877	598.88
497.094	610.88
497.312	626.88
497.529	614.88
497.746	622.88
497.963	613.88
498.181	630.88
498.398	632.88
498.615	644.88
498.832	676.88
499.049	650.88
499.267	683.88
499.484	676.88
499.701	665.88
499.918	699.88
500.135	719.88
500.352	740.88
500.569	748.88
500.786	739.88
501.003	742.88
501.22	711.88
501.437	739.88
501.654	710.88
501.871	732.88
