Data from 1986.PennyLincolnUp.Lamp.En5.5.200Scan.071819.P2_HRD10591_17-10-10-975.txt Node
Date: Thu Jul 18 17:10:10 EDT 2019
User: cochatt
Spectrometer: HR+D1059
Trigger mode: 1
Integration Time (sec): 1.000000E-1
Scans to average: 1
Electric dark correction enabled: true
Nonlinearity correction enabled: false
Boxcar width: 0
XAxis mode: Wavelengths
Number of Pixels in Spectrum: 2048
>>>>>Begin Spectral Data<<<<<
223.165	-12.62
223.4	-12.62
223.635	-12.62
223.869	-9.62
224.104	-20.62
224.338	-14.62
224.573	-13.62
224.808	-14.62
225.042	-9.62
225.277	-0.62
225.511	-11.62
225.746	-4.62
225.98	8.38
226.215	8.38
226.449	25.38
226.683	23.38
226.918	24.38
227.152	22.38
227.387	27.38
227.621	47.38
227.856	46.38
228.09	36.38
228.324	60.38
228.559	43.38
228.793	64.38
229.027	105.38
229.262	100.38
229.496	118.38
229.73	147.38
229.964	166.38
230.199	143.38
230.433	112.38
230.667	119.38
230.901	112.38
231.136	128.38
231.37	123.38
231.604	103.38
231.838	117.38
232.072	113.38
232.306	109.38
232.541	126.38
232.775	123.38
233.009	108.38
233.243	113.38
233.477	111.38
233.711	111.38
233.945	114.38
234.179	116.38
234.413	106.38
234.647	113.38
234.881	124.38
235.115	115.38
235.349	101.38
235.583	120.38
235.817	118.38
236.051	137.38
236.285	123.38
236.519	131.38
236.753	138.38
236.987	146.38
237.221	191.38
237.455	238.38
237.689	180.38
237.922	140.38
238.156	122.38
238.39	120.38
238.624	120.38
238.858	119.38
239.091	122.38
239.325	120.38
239.559	132.38
239.793	122.38
240.027	123.38
240.26	128.38
240.494	163.38
240.728	156.38
240.961	146.38
241.195	159.38
241.429	138.38
241.662	130.38
241.896	131.38
242.13	138.38
242.363	124.38
242.597	139.38
242.83	149.38
243.064	142.38
243.298	139.38
243.531	142.38
243.765	147.38
243.998	150.38
244.232	148.38
244.465	142.38
244.699	155.38
244.932	146.38
245.166	127.38
245.399	140.38
245.633	149.38
245.866	146.38
246.099	139.38
246.333	153.38
246.566	158.38
246.8	147.38
247.033	162.38
247.266	160.38
247.5	161.38
247.733	154.38
247.966	178.38
248.2	188.38
248.433	176.38
248.666	174.38
248.899	202.38
249.133	207.38
249.366	214.38
249.599	207.38
249.832	186.38
250.066	186.38
250.299	196.38
250.532	206.38
250.765	197.38
250.998	208.38
251.231	242.38
251.465	222.38
251.698	226.38
251.931	224.38
252.164	196.38
252.397	194.38
252.63	210.38
252.863	209.38
253.096	232.38
253.329	237.38
253.562	237.38
253.795	222.38
254.028	232.38
254.261	232.38
254.494	249.38
254.727	258.38
254.96	283.38
255.193	280.38
255.426	243.38
255.659	259.38
255.892	222.38
256.124	220.38
256.357	225.38
256.59	219.38
256.823	216.38
257.056	228.38
257.289	223.38
257.521	228.38
257.754	225.38
257.987	229.38
258.22	212.38
258.452	216.38
258.685	222.38
258.918	196.38
259.151	200.38
259.383	221.38
259.616	230.38
259.849	237.38
260.081	253.38
260.314	238.38
260.547	260.38
260.779	234.38
261.012	236.38
261.244	237.38
261.477	236.38
261.71	227.38
261.942	222.38
262.175	254.38
262.407	230.38
262.64	215.38
262.872	216.38
263.105	225.38
263.337	215.38
263.57	212.38
263.802	217.38
264.035	226.38
264.267	204.38
264.499	217.38
264.732	211.38
264.964	198.38
265.197	196.38
265.429	222.38
265.661	220.38
265.894	207.38
266.126	226.38
266.358	194.38
266.591	213.38
266.823	220.38
267.055	222.38
267.287	223.38
267.52	214.38
267.752	226.38
267.984	240.38
268.216	223.38
268.448	224.38
268.681	222.38
268.913	247.38
269.145	244.38
269.377	266.38
269.609	269.38
269.841	264.38
270.073	283.38
270.306	275.38
270.538	330.38
270.77	342.38
271.002	302.38
271.234	303.38
271.466	310.38
271.698	322.38
271.93	325.38
272.162	338.38
272.394	321.38
272.626	317.38
272.858	279.38
273.09	305.38
273.322	286.38
273.553	258.38
273.785	264.38
274.017	255.38
274.249	248.38
274.481	279.38
274.713	266.38
274.945	265.38
275.176	275.38
275.408	246.38
275.64	254.38
275.872	261.38
276.104	258.38
276.335	250.38
276.567	276.38
276.799	273.38
277.031	311.38
277.262	310.38
277.494	306.38
277.726	297.38
277.957	289.38
278.189	288.38
278.421	264.38
278.652	266.38
278.884	267.38
279.115	264.38
279.347	257.38
279.579	239.38
279.81	268.38
280.042	262.38
280.273	240.38
280.505	271.38
280.736	261.38
280.968	224.38
281.199	253.38
281.431	256.38
281.662	258.38
281.894	250.38
282.125	256.38
282.356	272.38
282.588	301.38
282.819	312.38
283.051	268.38
283.282	259.38
283.513	256.38
283.745	251.38
283.976	250.38
284.207	260.38
284.439	264.38
284.67	228.38
284.901	276.38
285.132	264.38
285.364	265.38
285.595	256.38
285.826	264.38
286.057	264.38
286.288	247.38
286.52	276.38
286.751	267.38
286.982	247.38
287.213	267.38
287.444	271.38
287.675	260.38
287.906	304.38
288.138	265.38
288.369	284.38
288.6	272.38
288.831	274.38
289.062	277.38
289.293	266.38
289.524	279.38
289.755	259.38
289.986	276.38
290.217	274.38
290.448	269.38
290.679	255.38
290.91	270.38
291.141	264.38
291.371	255.38
291.602	241.38
291.833	260.38
292.064	265.38
292.295	254.38
292.526	267.38
292.757	272.38
292.987	274.38
293.218	251.38
293.449	262.38
293.68	276.38
293.91	271.38
294.141	270.38
294.372	284.38
294.603	275.38
294.833	267.38
295.064	248.38
295.295	270.38
295.525	291.38
295.756	280.38
295.987	288.38
296.217	296.38
296.448	324.38
296.679	289.38
296.909	269.38
297.14	262.38
297.37	275.38
297.601	267.38
297.831	268.38
298.062	288.38
298.292	279.38
298.523	278.38
298.753	277.38
298.984	281.38
299.214	272.38
299.445	284.38
299.675	283.38
299.905	287.38
300.136	267.38
300.366	267.38
300.597	275.38
300.827	296.38
301.057	281.38
301.288	316.38
301.518	294.38
301.748	276.38
301.979	275.38
302.209	300.38
302.439	286.38
302.669	282.38
302.9	317.38
303.13	286.38
303.36	292.38
303.59	327.38
303.82	308.38
304.051	304.38
304.281	294.38
304.511	292.38
304.741	277.38
304.971	271.38
305.201	275.38
305.431	284.38
305.661	296.38
305.891	301.38
306.121	305.38
306.352	294.38
306.582	302.38
306.812	301.38
307.042	303.38
307.272	284.38
307.502	283.38
307.731	282.38
307.961	314.38
308.191	297.38
308.421	314.38
308.651	304.38
308.881	324.38
309.111	314.38
309.341	291.38
309.571	315.38
309.8	329.38
310.03	320.38
310.26	362.38
310.49	357.38
310.72	368.38
310.949	376.38
311.179	385.38
311.409	362.38
311.639	349.38
311.868	350.38
312.098	357.38
312.328	372.38
312.557	388.38
312.787	398.38
313.017	401.38
313.246	368.38
313.476	351.38
313.706	378.38
313.935	359.38
314.165	380.38
314.394	356.38
314.624	368.38
314.853	365.38
315.083	363.38
315.312	354.38
315.542	337.38
315.771	346.38
316.001	326.38
316.23	332.38
316.46	332.38
316.689	353.38
316.919	356.38
317.148	355.38
317.377	369.38
317.607	376.38
317.836	361.38
318.065	353.38
318.295	336.38
318.524	359.38
318.753	345.38
318.983	329.38
319.212	352.38
319.441	371.38
319.67	381.38
319.9	354.38
320.129	342.38
320.358	366.38
320.587	360.38
320.816	375.38
321.046	354.38
321.275	378.38
321.504	371.38
321.733	380.38
321.962	388.38
322.191	394.38
322.42	407.38
322.649	433.38
322.878	436.38
323.108	439.38
323.337	482.38
323.566	511.38
323.795	537.38
324.024	586.38
324.253	721.38
324.482	1057.38
324.71	1578.38
324.939	2220.38
325.168	1958.38
325.397	1041.38
325.626	729.38
325.855	572.38
326.084	512.38
326.313	506.38
326.542	497.38
326.77	558.38
326.999	664.38
327.228	890.38
327.457	1372.38
327.686	1664.38
327.914	1142.38
328.143	778.38
328.372	649.38
328.6	579.38
328.829	555.38
329.058	566.38
329.287	597.38
329.515	550.38
329.744	492.38
329.972	469.38
330.201	470.38
330.43	508.38
330.658	540.38
330.887	631.38
331.115	599.38
331.344	520.38
331.572	466.38
331.801	460.38
332.03	464.38
332.258	435.38
332.486	432.38
332.715	414.38
332.943	397.38
333.172	422.38
333.4	403.38
333.629	398.38
333.857	416.38
334.085	415.38
334.314	404.38
334.542	428.38
334.771	422.38
334.999	429.38
335.227	438.38
335.455	424.38
335.684	395.38
335.912	386.38
336.14	396.38
336.369	390.38
336.597	398.38
336.825	387.38
337.053	394.38
337.281	402.38
337.51	403.38
337.738	386.38
337.966	381.38
338.194	410.38
338.422	386.38
338.65	393.38
338.878	387.38
339.106	388.38
339.334	387.38
339.562	378.38
339.79	382.38
340.018	386.38
340.246	361.38
340.474	382.38
340.702	392.38
340.93	388.38
341.158	374.38
341.386	379.38
341.614	394.38
341.842	386.38
342.07	393.38
342.298	383.38
342.526	377.38
342.754	392.38
342.981	362.38
343.209	364.38
343.437	363.38
343.665	379.38
343.893	384.38
344.12	372.38
344.348	382.38
344.576	384.38
344.804	391.38
345.031	401.38
345.259	418.38
345.487	385.38
345.714	384.38
345.942	370.38
346.17	374.38
346.397	390.38
346.625	383.38
346.853	385.38
347.08	384.38
347.308	382.38
347.535	370.38
347.763	401.38
347.99	402.38
348.218	408.38
348.445	410.38
348.673	415.38
348.9	366.38
349.128	386.38
349.355	353.38
349.583	361.38
349.81	355.38
350.037	358.38
350.265	384.38
350.492	360.38
350.72	363.38
350.947	371.38
351.174	367.38
351.402	377.38
351.629	371.38
351.856	382.38
352.083	390.38
352.311	418.38
352.538	422.38
352.765	393.38
352.992	403.38
353.22	395.38
353.447	400.38
353.674	381.38
353.901	360.38
354.128	359.38
354.355	336.38
354.583	352.38
354.81	349.38
355.037	326.38
355.264	355.38
355.491	331.38
355.718	345.38
355.945	354.38
356.172	347.38
356.399	341.38
356.626	339.38
356.853	362.38
357.08	349.38
357.307	348.38
357.534	343.38
357.761	340.38
357.988	335.38
358.215	365.38
358.441	349.38
358.668	341.38
358.895	354.38
359.122	362.38
359.349	363.38
359.576	378.38
359.802	422.38
360.029	427.38
360.256	451.38
360.483	435.38
360.709	388.38
360.936	360.38
361.163	378.38
361.39	384.38
361.616	382.38
361.843	379.38
362.07	374.38
362.296	377.38
362.523	382.38
362.749	372.38
362.976	366.38
363.203	363.38
363.429	365.38
363.656	350.38
363.882	352.38
364.109	359.38
364.335	348.38
364.562	345.38
364.788	348.38
365.015	340.38
365.241	359.38
365.468	366.38
365.694	366.38
365.92	379.38
366.147	374.38
366.373	356.38
366.599	334.38
366.826	348.38
367.052	336.38
367.278	374.38
367.505	373.38
367.731	355.38
367.957	348.38
368.184	340.38
368.41	364.38
368.636	382.38
368.862	368.38
369.089	367.38
369.315	358.38
369.541	361.38
369.767	350.38
369.993	335.38
370.219	352.38
370.445	343.38
370.672	349.38
370.898	356.38
371.124	344.38
371.35	338.38
371.576	342.38
371.802	353.38
372.028	336.38
372.254	340.38
372.48	331.38
372.706	361.38
372.932	342.38
373.158	351.38
373.384	340.38
373.61	343.38
373.835	346.38
374.061	352.38
374.287	353.38
374.513	360.38
374.739	341.38
374.965	340.38
375.191	343.38
375.416	322.38
375.642	339.38
375.868	351.38
376.094	350.38
376.319	338.38
376.545	335.38
376.771	354.38
376.997	345.38
377.222	349.38
377.448	358.38
377.674	340.38
377.899	335.38
378.125	334.38
378.35	324.38
378.576	338.38
378.802	332.38
379.027	337.38
379.253	338.38
379.478	351.38
379.704	331.38
379.929	330.38
380.155	342.38
380.38	354.38
380.606	362.38
380.831	345.38
381.057	350.38
381.282	335.38
381.507	348.38
381.733	321.38
381.958	332.38
382.184	343.38
382.409	332.38
382.634	344.38
382.86	366.38
383.085	341.38
383.31	344.38
383.535	330.38
383.761	342.38
383.986	348.38
384.211	339.38
384.436	355.38
384.662	339.38
384.887	358.38
385.112	354.38
385.337	356.38
385.562	350.38
385.787	351.38
386.013	371.38
386.238	386.38
386.463	390.38
386.688	367.38
386.913	354.38
387.138	358.38
387.363	368.38
387.588	354.38
387.813	374.38
388.038	350.38
388.263	370.38
388.488	361.38
388.713	369.38
388.938	363.38
389.163	355.38
389.387	374.38
389.612	344.38
389.837	363.38
390.062	354.38
390.287	354.38
390.512	356.38
390.736	356.38
390.961	350.38
391.186	351.38
391.411	344.38
391.636	368.38
391.86	351.38
392.085	359.38
392.31	360.38
392.534	354.38
392.759	346.38
392.984	363.38
393.208	347.38
393.433	361.38
393.658	364.38
393.882	362.38
394.107	364.38
394.331	366.38
394.556	360.38
394.78	358.38
395.005	361.38
395.229	340.38
395.454	355.38
395.678	361.38
395.903	366.38
396.127	379.38
396.352	389.38
396.576	369.38
396.801	375.38
397.025	388.38
397.249	364.38
397.474	384.38
397.698	362.38
397.922	396.38
398.147	416.38
398.371	414.38
398.595	409.38
398.82	388.38
399.044	406.38
399.268	394.38
399.492	423.38
399.717	434.38
399.941	466.38
400.165	484.38
400.389	516.38
400.613	451.38
400.837	426.38
401.062	397.38
401.286	399.38
401.51	404.38
401.734	414.38
401.958	397.38
402.182	410.38
402.406	430.38
402.63	412.38
402.854	389.38
403.078	414.38
403.302	410.38
403.526	432.38
403.75	418.38
403.974	423.38
404.198	415.38
404.422	425.38
404.645	411.38
404.869	439.38
405.093	433.38
405.317	494.38
405.541	487.38
405.765	455.38
405.988	448.38
406.212	434.38
406.436	493.38
406.66	480.38
406.883	473.38
407.107	472.38
407.331	502.38
407.555	561.38
407.778	587.38
408.002	514.38
408.226	465.38
408.449	459.38
408.673	455.38
408.896	490.38
409.12	539.38
409.344	509.38
409.567	450.38
409.791	440.38
410.014	415.38
410.238	424.38
410.461	410.38
410.685	424.38
410.908	430.38
411.132	473.38
411.355	505.38
411.578	474.38
411.802	440.38
412.025	414.38
412.249	413.38
412.472	433.38
412.695	443.38
412.919	425.38
413.142	394.38
413.365	399.38
413.589	394.38
413.812	424.38
414.035	396.38
414.258	386.38
414.482	366.38
414.705	384.38
414.928	392.38
415.151	392.38
415.374	393.38
415.597	380.38
415.821	374.38
416.044	382.38
416.267	401.38
416.49	392.38
416.713	394.38
416.936	400.38
417.159	406.38
417.382	404.38
417.605	394.38
417.828	412.38
418.051	442.38
418.274	418.38
418.497	388.38
418.72	391.38
418.943	390.38
419.166	394.38
419.389	417.38
419.611	420.38
419.834	413.38
420.057	423.38
420.28	415.38
420.503	434.38
420.726	419.38
420.948	455.38
421.171	464.38
421.394	488.38
421.617	449.38
421.839	418.38
422.062	432.38
422.285	448.38
422.507	477.38
422.73	559.38
422.953	532.38
423.175	466.38
423.398	448.38
423.621	433.38
423.843	450.38
424.066	465.38
424.288	456.38
424.511	465.38
424.733	536.38
424.956	609.38
425.178	600.38
425.401	564.38
425.623	603.38
425.846	514.38
426.068	472.38
426.291	480.38
426.513	474.38
426.735	483.38
426.958	506.38
427.18	592.38
427.402	696.38
427.625	806.38
427.847	686.38
428.069	588.38
428.292	524.38
428.514	483.38
428.736	451.38
428.958	434.38
429.181	434.38
429.403	425.38
429.625	458.38
429.847	478.38
430.069	536.38
430.292	516.38
430.514	450.38
430.736	452.38
430.958	430.38
431.18	402.38
431.402	425.38
431.624	414.38
431.846	412.38
432.068	403.38
432.29	408.38
432.512	423.38
432.734	414.38
432.956	414.38
433.178	411.38
433.4	444.38
433.622	407.38
433.844	390.38
434.066	401.38
434.287	386.38
434.509	404.38
434.731	402.38
434.953	428.38
435.175	444.38
435.397	480.38
435.618	483.38
435.84	525.38
436.062	606.38
436.284	642.38
436.505	560.38
436.727	479.38
436.949	451.38
437.17	441.38
437.392	443.38
437.614	451.38
437.835	478.38
438.057	574.38
438.278	658.38
438.5	676.38
438.721	720.38
438.943	674.38
439.165	572.38
439.386	520.38
439.608	499.38
439.829	478.38
440.05	514.38
440.272	570.38
440.493	545.38
440.715	494.38
440.936	476.38
441.158	449.38
441.379	446.38
441.6	440.38
441.822	473.38
442.043	504.38
442.264	584.38
442.486	630.38
442.707	551.38
442.928	497.38
443.149	494.38
443.371	515.38
443.592	563.38
443.813	629.38
444.034	685.38
444.255	575.38
444.476	492.38
444.698	456.38
444.919	478.38
445.14	556.38
445.361	520.38
445.582	510.38
445.803	583.38
446.024	649.38
446.245	674.38
446.466	614.38
446.687	524.38
446.908	492.38
447.129	476.38
447.35	443.38
447.571	443.38
447.792	454.38
448.013	461.38
448.234	468.38
448.455	534.38
448.675	618.38
448.896	705.38
449.117	624.38
449.338	588.38
449.559	648.38
449.779	722.38
450	588.38
450.221	516.38
450.442	463.38
450.662	460.38
450.883	466.38
451.104	475.38
451.324	467.38
451.545	415.38
451.766	420.38
451.986	394.38
452.207	374.38
452.428	394.38
452.648	399.38
452.869	414.38
453.089	416.38
453.31	396.38
453.53	404.38
453.751	395.38
453.971	394.38
454.192	421.38
454.412	420.38
454.633	376.38
454.853	401.38
455.073	382.38
455.294	432.38
455.514	491.38
455.734	469.38
455.955	392.38
456.175	396.38
456.395	369.38
456.616	360.38
456.836	380.38
457.056	368.38
457.276	358.38
457.497	372.38
457.717	366.38
457.937	379.38
458.157	382.38
458.377	372.38
458.598	421.38
458.818	479.38
459.038	545.38
459.258	562.38
459.478	443.38
459.698	415.38
459.918	426.38
460.138	394.38
460.358	396.38
460.578	392.38
460.798	412.38
461.018	402.38
461.238	395.38
461.458	378.38
461.678	378.38
461.898	408.38
462.118	408.38
462.338	414.38
462.558	407.38
462.777	397.38
462.997	406.38
463.217	424.38
463.437	410.38
463.657	401.38
463.876	403.38
464.096	411.38
464.316	403.38
464.536	436.38
464.755	441.38
464.975	426.38
465.195	496.38
465.414	587.38
465.634	500.38
465.854	462.38
466.073	431.38
466.293	419.38
466.512	388.38
466.732	379.38
466.951	394.38
467.171	389.38
467.391	375.38
467.61	423.38
467.829	415.38
468.049	391.38
468.268	377.38
468.488	390.38
468.707	372.38
468.927	362.38
469.146	369.38
469.365	375.38
469.585	382.38
469.804	391.38
470.023	418.38
470.243	388.38
470.462	411.38
470.681	426.38
470.901	420.38
471.12	414.38
471.339	396.38
471.558	418.38
471.777	423.38
471.997	385.38
472.216	385.38
472.435	399.38
472.654	394.38
472.873	380.38
473.092	385.38
473.311	403.38
473.53	394.38
473.749	412.38
473.968	454.38
474.187	544.38
474.406	579.38
474.625	481.38
474.844	410.38
475.063	408.38
475.282	418.38
475.501	412.38
475.72	413.38
475.939	407.38
476.158	408.38
476.377	421.38
476.596	412.38
476.814	415.38
477.033	418.38
477.252	424.38
477.471	422.38
477.69	416.38
477.908	431.38
478.127	426.38
478.346	419.38
478.564	425.38
478.783	459.38
479.002	435.38
479.22	443.38
479.439	476.38
479.658	478.38
479.876	480.38
480.095	507.38
480.313	498.38
480.532	493.38
480.751	485.38
480.969	466.38
481.188	501.38
481.406	526.38
481.624	483.38
481.843	482.38
482.061	465.38
482.28	479.38
482.498	460.38
482.717	462.38
482.935	479.38
483.153	464.38
483.372	475.38
483.59	472.38
483.808	481.38
484.027	487.38
484.245	475.38
484.463	478.38
484.681	504.38
484.9	476.38
485.118	474.38
485.336	493.38
485.554	478.38
485.772	489.38
485.99	475.38
486.209	503.38
486.427	493.38
486.645	505.38
486.863	538.38
487.081	546.38
487.299	503.38
487.517	497.38
487.735	482.38
487.953	522.38
488.171	507.38
488.389	522.38
488.607	514.38
488.825	517.38
489.043	504.38
489.261	509.38
489.479	509.38
489.696	514.38
489.914	517.38
490.132	537.38
490.35	534.38
490.568	565.38
490.786	550.38
491.003	534.38
491.221	559.38
491.439	552.38
491.657	584.38
491.874	592.38
492.092	587.38
492.31	591.38
492.527	570.38
492.745	588.38
492.963	604.38
493.18	580.38
493.398	595.38
493.615	587.38
493.833	594.38
494.05	616.38
494.268	604.38
494.485	595.38
494.703	592.38
494.92	575.38
495.138	586.38
495.355	637.38
495.573	595.38
495.79	605.38
496.008	611.38
496.225	604.38
496.442	624.38
496.66	634.38
496.877	615.38
497.094	612.38
497.312	632.38
497.529	636.38
497.746	653.38
497.963	656.38
498.181	659.38
498.398	660.38
498.615	683.38
498.832	680.38
499.049	662.38
499.267	698.38
499.484	692.38
499.701	697.38
499.918	715.38
500.135	713.38
500.352	713.38
500.569	741.38
500.786	739.38
501.003	760.38
501.22	722.38
501.437	747.38
501.654	738.38
501.871	728.38
