Data from 1986.PennyLincolnUp.Lamp.En5.5.200Scan.071819.P2_HRD10591_17-11-11-973.txt Node
Date: Thu Jul 18 17:11:11 EDT 2019
User: cochatt
Spectrometer: HR+D1059
Trigger mode: 1
Integration Time (sec): 1.000000E-1
Scans to average: 1
Electric dark correction enabled: true
Nonlinearity correction enabled: false
Boxcar width: 0
XAxis mode: Wavelengths
Number of Pixels in Spectrum: 2048
>>>>>Begin Spectral Data<<<<<
223.165	-2.62
223.4	-2.62
223.635	-2.62
223.869	-15.62
224.104	1.38
224.338	-11.62
224.573	-23.62
224.808	-19.62
225.042	-27.62
225.277	-0.62
225.511	-6.62
225.746	17.38
225.98	13.38
226.215	4.38
226.449	4.38
226.683	15.38
226.918	27.38
227.152	24.38
227.387	51.38
227.621	32.38
227.856	53.38
228.09	47.38
228.324	55.38
228.559	52.38
228.793	73.38
229.027	109.38
229.262	112.38
229.496	123.38
229.73	140.38
229.964	164.38
230.199	145.38
230.433	126.38
230.667	115.38
230.901	119.38
231.136	107.38
231.37	109.38
231.604	111.38
231.838	95.38
232.072	125.38
232.306	121.38
232.541	120.38
232.775	114.38
233.009	105.38
233.243	118.38
233.477	127.38
233.711	108.38
233.945	109.38
234.179	118.38
234.413	120.38
234.647	116.38
234.881	118.38
235.115	118.38
235.349	119.38
235.583	120.38
235.817	115.38
236.051	129.38
236.285	109.38
236.519	147.38
236.753	143.38
236.987	152.38
237.221	189.38
237.455	248.38
237.689	207.38
237.922	147.38
238.156	123.38
238.39	133.38
238.624	136.38
238.858	125.38
239.091	131.38
239.325	135.38
239.559	123.38
239.793	126.38
240.027	129.38
240.26	136.38
240.494	160.38
240.728	153.38
240.961	164.38
241.195	140.38
241.429	137.38
241.662	127.38
241.896	138.38
242.13	128.38
242.363	136.38
242.597	128.38
242.83	134.38
243.064	152.38
243.298	133.38
243.531	131.38
243.765	137.38
243.998	128.38
244.232	140.38
244.465	153.38
244.699	160.38
244.932	149.38
245.166	132.38
245.399	151.38
245.633	147.38
245.866	150.38
246.099	151.38
246.333	149.38
246.566	156.38
246.8	167.38
247.033	141.38
247.266	147.38
247.5	151.38
247.733	172.38
247.966	187.38
248.2	177.38
248.433	177.38
248.666	184.38
248.899	191.38
249.133	213.38
249.366	228.38
249.599	213.38
249.832	207.38
250.066	190.38
250.299	186.38
250.532	209.38
250.765	224.38
250.998	255.38
251.231	251.38
251.465	243.38
251.698	228.38
251.931	216.38
252.164	208.38
252.397	209.38
252.63	213.38
252.863	213.38
253.096	241.38
253.329	242.38
253.562	250.38
253.795	232.38
254.028	225.38
254.261	255.38
254.494	230.38
254.727	281.38
254.96	295.38
255.193	313.38
255.426	290.38
255.659	247.38
255.892	265.38
256.124	277.38
256.357	287.38
256.59	291.38
256.823	228.38
257.056	237.38
257.289	234.38
257.521	224.38
257.754	229.38
257.987	221.38
258.22	234.38
258.452	214.38
258.685	228.38
258.918	221.38
259.151	213.38
259.383	241.38
259.616	224.38
259.849	225.38
260.081	242.38
260.314	256.38
260.547	265.38
260.779	284.38
261.012	257.38
261.244	229.38
261.477	230.38
261.71	224.38
261.942	230.38
262.175	254.38
262.407	266.38
262.64	226.38
262.872	219.38
263.105	225.38
263.337	227.38
263.57	221.38
263.802	216.38
264.035	207.38
264.267	213.38
264.499	209.38
264.732	208.38
264.964	204.38
265.197	207.38
265.429	219.38
265.661	201.38
265.894	207.38
266.126	223.38
266.358	228.38
266.591	204.38
266.823	235.38
267.055	214.38
267.287	220.38
267.52	235.38
267.752	216.38
267.984	199.38
268.216	229.38
268.448	227.38
268.681	230.38
268.913	260.38
269.145	257.38
269.377	276.38
269.609	283.38
269.841	284.38
270.073	288.38
270.306	317.38
270.538	325.38
270.77	327.38
271.002	327.38
271.234	289.38
271.466	320.38
271.698	319.38
271.93	345.38
272.162	342.38
272.394	322.38
272.626	295.38
272.858	287.38
273.09	269.38
273.322	265.38
273.553	270.38
273.785	268.38
274.017	278.38
274.249	269.38
274.481	275.38
274.713	267.38
274.945	279.38
275.176	283.38
275.408	274.38
275.64	259.38
275.872	265.38
276.104	279.38
276.335	260.38
276.567	276.38
276.799	296.38
277.031	297.38
277.262	323.38
277.494	326.38
277.726	292.38
277.957	300.38
278.189	308.38
278.421	300.38
278.652	277.38
278.884	280.38
279.115	265.38
279.347	280.38
279.579	282.38
279.81	255.38
280.042	262.38
280.273	260.38
280.505	250.38
280.736	269.38
280.968	265.38
281.199	257.38
281.431	268.38
281.662	260.38
281.894	253.38
282.125	279.38
282.356	310.38
282.588	297.38
282.819	311.38
283.051	282.38
283.282	263.38
283.513	260.38
283.745	273.38
283.976	273.38
284.207	265.38
284.439	251.38
284.67	267.38
284.901	269.38
285.132	272.38
285.364	256.38
285.595	283.38
285.826	273.38
286.057	270.38
286.288	283.38
286.52	261.38
286.751	255.38
286.982	286.38
287.213	270.38
287.444	276.38
287.675	282.38
287.906	278.38
288.138	279.38
288.369	280.38
288.6	287.38
288.831	262.38
289.062	261.38
289.293	275.38
289.524	271.38
289.755	295.38
289.986	257.38
290.217	288.38
290.448	268.38
290.679	267.38
290.91	276.38
291.141	258.38
291.371	289.38
291.602	265.38
291.833	274.38
292.064	295.38
292.295	275.38
292.526	300.38
292.757	283.38
292.987	279.38
293.218	270.38
293.449	257.38
293.68	279.38
293.91	286.38
294.141	269.38
294.372	263.38
294.603	278.38
294.833	259.38
295.064	260.38
295.295	288.38
295.525	277.38
295.756	287.38
295.987	300.38
296.217	317.38
296.448	344.38
296.679	292.38
296.909	281.38
297.14	284.38
297.37	285.38
297.601	276.38
297.831	282.38
298.062	312.38
298.292	287.38
298.523	289.38
298.753	296.38
298.984	292.38
299.214	277.38
299.445	287.38
299.675	291.38
299.905	289.38
300.136	291.38
300.366	296.38
300.597	275.38
300.827	311.38
301.057	307.38
301.288	296.38
301.518	318.38
301.748	320.38
301.979	297.38
302.209	326.38
302.439	293.38
302.669	299.38
302.9	308.38
303.13	303.38
303.36	303.38
303.59	321.38
303.82	333.38
304.051	318.38
304.281	299.38
304.511	307.38
304.741	317.38
304.971	295.38
305.201	303.38
305.431	313.38
305.661	311.38
305.891	309.38
306.121	304.38
306.352	297.38
306.582	335.38
306.812	327.38
307.042	320.38
307.272	315.38
307.502	326.38
307.731	318.38
307.961	316.38
308.191	331.38
308.421	311.38
308.651	341.38
308.881	310.38
309.111	315.38
309.341	320.38
309.571	330.38
309.8	339.38
310.03	376.38
310.26	371.38
310.49	377.38
310.72	381.38
310.949	401.38
311.179	380.38
311.409	377.38
311.639	352.38
311.868	379.38
312.098	370.38
312.328	364.38
312.557	389.38
312.787	417.38
313.017	411.38
313.246	379.38
313.476	361.38
313.706	375.38
313.935	368.38
314.165	367.38
314.394	410.38
314.624	397.38
314.853	380.38
315.083	388.38
315.312	349.38
315.542	363.38
315.771	361.38
316.001	352.38
316.23	348.38
316.46	344.38
316.689	349.38
316.919	373.38
317.148	393.38
317.377	387.38
317.607	386.38
317.836	364.38
318.065	359.38
318.295	366.38
318.524	351.38
318.753	367.38
318.983	367.38
319.212	374.38
319.441	371.38
319.67	388.38
319.9	368.38
320.129	382.38
320.358	395.38
320.587	371.38
320.816	392.38
321.046	395.38
321.275	411.38
321.504	389.38
321.733	387.38
321.962	395.38
322.191	404.38
322.42	428.38
322.649	460.38
322.878	477.38
323.108	489.38
323.337	499.38
323.566	529.38
323.795	589.38
324.024	633.38
324.253	768.38
324.482	1116.38
324.71	1729.38
324.939	2415.38
325.168	2136.38
325.397	1148.38
325.626	780.38
325.855	628.38
326.084	540.38
326.313	525.38
326.542	576.38
326.77	605.38
326.999	700.38
327.228	981.38
327.457	1445.38
327.686	1847.38
327.914	1249.38
328.143	855.38
328.372	729.38
328.6	661.38
328.829	630.38
329.058	659.38
329.287	667.38
329.515	598.38
329.744	557.38
329.972	559.38
330.201	626.38
330.43	676.38
330.658	696.38
330.887	689.38
331.115	641.38
331.344	559.38
331.572	525.38
331.801	512.38
332.03	511.38
332.258	489.38
332.486	454.38
332.715	454.38
332.943	455.38
333.172	469.38
333.4	452.38
333.629	463.38
333.857	498.38
334.085	511.38
334.314	551.38
334.542	617.38
334.771	648.38
334.999	549.38
335.227	491.38
335.455	445.38
335.684	445.38
335.912	418.38
336.14	421.38
336.369	458.38
336.597	423.38
336.825	424.38
337.053	409.38
337.281	414.38
337.51	405.38
337.738	418.38
337.966	424.38
338.194	429.38
338.422	436.38
338.65	419.38
338.878	405.38
339.106	413.38
339.334	400.38
339.562	399.38
339.79	391.38
340.018	399.38
340.246	412.38
340.474	415.38
340.702	433.38
340.93	405.38
341.158	407.38
341.386	414.38
341.614	407.38
341.842	413.38
342.07	392.38
342.298	397.38
342.526	412.38
342.754	392.38
342.981	375.38
343.209	357.38
343.437	377.38
343.665	403.38
343.893	395.38
344.12	401.38
344.348	391.38
344.576	396.38
344.804	439.38
345.031	433.38
345.259	421.38
345.487	437.38
345.714	377.38
345.942	393.38
346.17	401.38
346.397	410.38
346.625	379.38
346.853	378.38
347.08	397.38
347.308	411.38
347.535	415.38
347.763	405.38
347.99	402.38
348.218	407.38
348.445	415.38
348.673	418.38
348.9	406.38
349.128	386.38
349.355	385.38
349.583	395.38
349.81	389.38
350.037	377.38
350.265	394.38
350.492	373.38
350.72	373.38
350.947	376.38
351.174	415.38
351.402	418.38
351.629	423.38
351.856	405.38
352.083	414.38
352.311	411.38
352.538	411.38
352.765	425.38
352.992	411.38
353.22	393.38
353.447	409.38
353.674	402.38
353.901	372.38
354.128	346.38
354.355	367.38
354.583	374.38
354.81	364.38
355.037	372.38
355.264	363.38
355.491	359.38
355.718	372.38
355.945	333.38
356.172	359.38
356.399	356.38
356.626	363.38
356.853	344.38
357.08	339.38
357.307	352.38
357.534	354.38
357.761	350.38
357.988	355.38
358.215	345.38
358.441	383.38
358.668	363.38
358.895	356.38
359.122	369.38
359.349	390.38
359.576	407.38
359.802	393.38
360.029	464.38
360.256	461.38
360.483	433.38
360.709	390.38
360.936	399.38
361.163	388.38
361.39	397.38
361.616	405.38
361.843	387.38
362.07	378.38
362.296	395.38
362.523	393.38
362.749	401.38
362.976	385.38
363.203	363.38
363.429	368.38
363.656	383.38
363.882	368.38
364.109	372.38
364.335	378.38
364.562	380.38
364.788	363.38
365.015	375.38
365.241	360.38
365.468	358.38
365.694	371.38
365.92	391.38
366.147	364.38
366.373	375.38
366.599	378.38
366.826	376.38
367.052	346.38
367.278	364.38
367.505	375.38
367.731	359.38
367.957	334.38
368.184	375.38
368.41	369.38
368.636	385.38
368.862	383.38
369.089	380.38
369.315	351.38
369.541	371.38
369.767	363.38
369.993	377.38
370.219	384.38
370.445	369.38
370.672	373.38
370.898	373.38
371.124	355.38
371.35	355.38
371.576	361.38
371.802	350.38
372.028	355.38
372.254	358.38
372.48	356.38
372.706	362.38
372.932	361.38
373.158	367.38
373.384	354.38
373.61	356.38
373.835	349.38
374.061	379.38
374.287	349.38
374.513	353.38
374.739	364.38
374.965	345.38
375.191	345.38
375.416	372.38
375.642	376.38
375.868	355.38
376.094	355.38
376.319	348.38
376.545	356.38
376.771	339.38
376.997	349.38
377.222	342.38
377.448	362.38
377.674	359.38
377.899	351.38
378.125	350.38
378.35	349.38
378.576	357.38
378.802	344.38
379.027	345.38
379.253	350.38
379.478	353.38
379.704	355.38
379.929	367.38
380.155	357.38
380.38	369.38
380.606	339.38
380.831	337.38
381.057	341.38
381.282	351.38
381.507	375.38
381.733	354.38
381.958	339.38
382.184	357.38
382.409	353.38
382.634	359.38
382.86	325.38
383.085	347.38
383.31	368.38
383.535	362.38
383.761	337.38
383.986	355.38
384.211	354.38
384.436	351.38
384.662	360.38
384.887	360.38
385.112	345.38
385.337	361.38
385.562	359.38
385.787	367.38
386.013	364.38
386.238	380.38
386.463	374.38
386.688	364.38
386.913	373.38
387.138	375.38
387.363	354.38
387.588	357.38
387.813	368.38
388.038	361.38
388.263	342.38
388.488	348.38
388.713	379.38
388.938	358.38
389.163	351.38
389.387	367.38
389.612	360.38
389.837	363.38
390.062	358.38
390.287	351.38
390.512	376.38
390.736	353.38
390.961	361.38
391.186	376.38
391.411	364.38
391.636	359.38
391.86	367.38
392.085	367.38
392.31	358.38
392.534	372.38
392.759	356.38
392.984	365.38
393.208	370.38
393.433	364.38
393.658	370.38
393.882	375.38
394.107	367.38
394.331	361.38
394.556	379.38
394.78	362.38
395.005	351.38
395.229	356.38
395.454	387.38
395.678	382.38
395.903	396.38
396.127	420.38
396.352	407.38
396.576	391.38
396.801	371.38
397.025	362.38
397.249	376.38
397.474	385.38
397.698	394.38
397.922	408.38
398.147	425.38
398.371	417.38
398.595	405.38
398.82	399.38
399.044	381.38
399.268	432.38
399.492	423.38
399.717	431.38
399.941	467.38
400.165	506.38
400.389	533.38
400.613	487.38
400.837	438.38
401.062	435.38
401.286	447.38
401.51	391.38
401.734	411.38
401.958	413.38
402.182	417.38
402.406	424.38
402.63	433.38
402.854	425.38
403.078	412.38
403.302	442.38
403.526	436.38
403.75	440.38
403.974	444.38
404.198	421.38
404.422	443.38
404.645	454.38
404.869	455.38
405.093	491.38
405.317	524.38
405.541	564.38
405.765	511.38
405.988	469.38
406.212	470.38
406.436	515.38
406.66	521.38
406.883	488.38
407.107	478.38
407.331	515.38
407.555	579.38
407.778	593.38
408.002	537.38
408.226	516.38
408.449	482.38
408.673	482.38
408.896	503.38
409.12	537.38
409.344	516.38
409.567	464.38
409.791	455.38
410.014	429.38
410.238	433.38
410.461	431.38
410.685	416.38
410.908	448.38
411.132	498.38
411.355	520.38
411.578	520.38
411.802	480.38
412.025	465.38
412.249	448.38
412.472	475.38
412.695	532.38
412.919	535.38
413.142	461.38
413.365	459.38
413.589	437.38
413.812	427.38
414.035	444.38
414.258	412.38
414.482	416.38
414.705	402.38
414.928	411.38
415.151	403.38
415.374	396.38
415.597	409.38
415.821	411.38
416.044	426.38
416.267	437.38
416.49	423.38
416.713	417.38
416.936	401.38
417.159	394.38
417.382	404.38
417.605	442.38
417.828	447.38
418.051	426.38
418.274	439.38
418.497	421.38
418.72	407.38
418.943	410.38
419.166	426.38
419.389	450.38
419.611	458.38
419.834	428.38
420.057	450.38
420.28	457.38
420.503	445.38
420.726	453.38
420.948	469.38
421.171	508.38
421.394	532.38
421.617	465.38
421.839	456.38
422.062	462.38
422.285	464.38
422.507	519.38
422.73	577.38
422.953	575.38
423.175	495.38
423.398	459.38
423.621	459.38
423.843	484.38
424.066	502.38
424.288	503.38
424.511	501.38
424.733	555.38
424.956	639.38
425.178	606.38
425.401	585.38
425.623	621.38
425.846	531.38
426.068	503.38
426.291	474.38
426.513	491.38
426.735	523.38
426.958	541.38
427.18	597.38
427.402	736.38
427.625	802.38
427.847	764.38
428.069	679.38
428.292	583.38
428.514	508.38
428.736	494.38
428.958	471.38
429.181	468.38
429.403	458.38
429.625	463.38
429.847	501.38
430.069	571.38
430.292	559.38
430.514	475.38
430.736	476.38
430.958	426.38
431.18	449.38
431.402	412.38
431.624	415.38
431.846	405.38
432.068	387.38
432.29	423.38
432.512	425.38
432.734	433.38
432.956	432.38
433.178	441.38
433.4	441.38
433.622	412.38
433.844	409.38
434.066	418.38
434.287	410.38
434.509	424.38
434.731	431.38
434.953	439.38
435.175	454.38
435.397	489.38
435.618	488.38
435.84	542.38
436.062	625.38
436.284	678.38
436.505	588.38
436.727	522.38
436.949	491.38
437.17	452.38
437.392	469.38
437.614	464.38
437.835	523.38
438.057	629.38
438.278	726.38
438.5	703.38
438.721	753.38
438.943	734.38
439.165	593.38
439.386	530.38
439.608	537.38
439.829	514.38
440.05	529.38
440.272	584.38
440.493	555.38
440.715	529.38
440.936	468.38
441.158	473.38
441.379	468.38
441.6	474.38
441.822	508.38
442.043	529.38
442.264	599.38
442.486	639.38
442.707	568.38
442.928	523.38
443.149	517.38
443.371	547.38
443.592	588.38
443.813	657.38
444.034	710.38
444.255	581.38
444.476	515.38
444.698	487.38
444.919	473.38
445.14	592.38
445.361	532.38
445.582	542.38
445.803	594.38
446.024	715.38
446.245	735.38
446.466	650.38
446.687	551.38
446.908	520.38
447.129	488.38
447.35	479.38
447.571	460.38
447.792	460.38
448.013	474.38
448.234	475.38
448.455	551.38
448.675	634.38
448.896	729.38
449.117	632.38
449.338	575.38
449.559	728.38
449.779	783.38
450	623.38
450.221	524.38
450.442	474.38
450.662	451.38
450.883	465.38
451.104	488.38
451.324	481.38
451.545	447.38
451.766	429.38
451.986	419.38
452.207	413.38
452.428	401.38
452.648	414.38
452.869	411.38
453.089	431.38
453.31	443.38
453.53	416.38
453.751	413.38
453.971	393.38
454.192	441.38
454.412	439.38
454.633	411.38
454.853	413.38
455.073	407.38
455.294	427.38
455.514	489.38
455.734	487.38
455.955	408.38
456.175	390.38
456.395	386.38
456.616	364.38
456.836	395.38
457.056	386.38
457.276	379.38
457.497	379.38
457.717	381.38
457.937	404.38
458.157	391.38
458.377	405.38
458.598	422.38
458.818	471.38
459.038	588.38
459.258	594.38
459.478	496.38
459.698	445.38
459.918	418.38
460.138	414.38
460.358	403.38
460.578	405.38
460.798	420.38
461.018	418.38
461.238	413.38
461.458	410.38
461.678	390.38
461.898	399.38
462.118	406.38
462.338	402.38
462.558	415.38
462.777	411.38
462.997	421.38
463.217	417.38
463.437	428.38
463.657	415.38
463.876	422.38
464.096	427.38
464.316	423.38
464.536	426.38
464.755	452.38
464.975	438.38
465.195	520.38
465.414	602.38
465.634	525.38
465.854	473.38
466.073	428.38
466.293	409.38
466.512	405.38
466.732	415.38
466.951	437.38
467.171	401.38
467.391	402.38
467.61	425.38
467.829	431.38
468.049	429.38
468.268	443.38
468.488	439.38
468.707	416.38
468.927	416.38
469.146	382.38
469.365	398.38
469.585	405.38
469.804	401.38
470.023	413.38
470.243	400.38
470.462	405.38
470.681	434.38
470.901	447.38
471.12	400.38
471.339	419.38
471.558	410.38
471.777	433.38
471.997	405.38
472.216	450.38
472.435	555.38
472.654	505.38
472.873	462.38
473.092	447.38
473.311	433.38
473.53	414.38
473.749	423.38
473.968	487.38
474.187	597.38
474.406	624.38
474.625	519.38
474.844	443.38
475.063	410.38
475.282	431.38
475.501	436.38
475.72	433.38
475.939	437.38
476.158	442.38
476.377	443.38
476.596	435.38
476.814	428.38
477.033	434.38
477.252	449.38
477.471	454.38
477.69	469.38
477.908	441.38
478.127	444.38
478.346	462.38
478.564	456.38
478.783	457.38
479.002	466.38
479.22	482.38
479.439	494.38
479.658	498.38
479.876	492.38
480.095	523.38
480.313	560.38
480.532	527.38
480.751	540.38
480.969	531.38
481.188	680.38
481.406	760.38
481.624	611.38
481.843	549.38
482.061	536.38
482.28	535.38
482.498	522.38
482.717	527.38
482.935	515.38
483.153	507.38
483.372	488.38
483.59	485.38
483.808	499.38
484.027	487.38
484.245	505.38
484.463	498.38
484.681	496.38
484.9	509.38
485.118	516.38
485.336	512.38
485.554	519.38
485.772	501.38
485.99	525.38
486.209	511.38
486.427	535.38
486.645	533.38
486.863	568.38
487.081	556.38
487.299	539.38
487.517	513.38
487.735	529.38
487.953	541.38
488.171	555.38
488.389	569.38
488.607	554.38
488.825	561.38
489.043	523.38
489.261	554.38
489.479	541.38
489.696	564.38
489.914	561.38
490.132	577.38
490.35	555.38
490.568	601.38
490.786	608.38
491.003	602.38
491.221	607.38
491.439	608.38
491.657	630.38
491.874	633.38
492.092	637.38
492.31	644.38
492.527	645.38
492.745	673.38
492.963	664.38
493.18	663.38
493.398	657.38
493.615	663.38
493.833	660.38
494.05	667.38
494.268	643.38
494.485	651.38
494.703	659.38
494.92	663.38
495.138	654.38
495.355	687.38
495.573	646.38
495.79	666.38
496.008	680.38
496.225	668.38
496.442	637.38
496.66	660.38
496.877	634.38
497.094	665.38
497.312	665.38
497.529	668.38
497.746	672.38
497.963	687.38
498.181	715.38
498.398	709.38
498.615	693.38
498.832	724.38
499.049	696.38
499.267	688.38
499.484	721.38
499.701	730.38
499.918	755.38
500.135	756.38
500.352	784.38
500.569	769.38
500.786	771.38
501.003	772.38
501.22	751.38
501.437	794.38
501.654	761.38
501.871	795.38
