Data from 1986.PennyLincolnUp.Lamp.En5.5.200Scan.071819.P2_HRD10591_17-11-40-973.txt Node
Date: Thu Jul 18 17:11:40 EDT 2019
User: cochatt
Spectrometer: HR+D1059
Trigger mode: 1
Integration Time (sec): 1.000000E-1
Scans to average: 1
Electric dark correction enabled: true
Nonlinearity correction enabled: false
Boxcar width: 0
XAxis mode: Wavelengths
Number of Pixels in Spectrum: 2048
>>>>>Begin Spectral Data<<<<<
223.165	-25.75
223.4	-25.75
223.635	-25.75
223.869	-12.75
224.104	-1.75
224.338	-11.75
224.573	-1.75
224.808	-17.75
225.042	-16.75
225.277	-16.75
225.511	-4.75
225.746	-7.75
225.98	5.25
226.215	14.25
226.449	21.25
226.683	29.25
226.918	11.25
227.152	36.25
227.387	31.25
227.621	43.25
227.856	28.25
228.09	50.25
228.324	45.25
228.559	54.25
228.793	67.25
229.027	98.25
229.262	116.25
229.496	129.25
229.73	135.25
229.964	161.25
230.199	136.25
230.433	112.25
230.667	112.25
230.901	116.25
231.136	105.25
231.37	120.25
231.604	110.25
231.838	110.25
232.072	106.25
232.306	129.25
232.541	114.25
232.775	107.25
233.009	127.25
233.243	106.25
233.477	117.25
233.711	107.25
233.945	110.25
234.179	121.25
234.413	114.25
234.647	124.25
234.881	128.25
235.115	121.25
235.349	118.25
235.583	119.25
235.817	130.25
236.051	139.25
236.285	137.25
236.519	138.25
236.753	127.25
236.987	148.25
237.221	177.25
237.455	247.25
237.689	209.25
237.922	143.25
238.156	130.25
238.39	120.25
238.624	139.25
238.858	122.25
239.091	129.25
239.325	131.25
239.559	134.25
239.793	126.25
240.027	129.25
240.26	152.25
240.494	179.25
240.728	165.25
240.961	150.25
241.195	149.25
241.429	144.25
241.662	151.25
241.896	140.25
242.13	127.25
242.363	135.25
242.597	159.25
242.83	144.25
243.064	155.25
243.298	151.25
243.531	149.25
243.765	156.25
243.998	148.25
244.232	151.25
244.465	140.25
244.699	166.25
244.932	158.25
245.166	146.25
245.399	154.25
245.633	152.25
245.866	138.25
246.099	165.25
246.333	149.25
246.566	168.25
246.8	147.25
247.033	165.25
247.266	176.25
247.5	160.25
247.733	167.25
247.966	217.25
248.2	175.25
248.433	189.25
248.666	184.25
248.899	199.25
249.133	213.25
249.366	235.25
249.599	221.25
249.832	199.25
250.066	205.25
250.299	203.25
250.532	224.25
250.765	240.25
250.998	260.25
251.231	259.25
251.465	249.25
251.698	232.25
251.931	223.25
252.164	224.25
252.397	237.25
252.63	231.25
252.863	223.25
253.096	236.25
253.329	257.25
253.562	235.25
253.795	243.25
254.028	253.25
254.261	245.25
254.494	231.25
254.727	270.25
254.96	290.25
255.193	299.25
255.426	268.25
255.659	273.25
255.892	287.25
256.124	320.25
256.357	324.25
256.59	294.25
256.823	287.25
257.056	263.25
257.289	230.25
257.521	242.25
257.754	225.25
257.987	249.25
258.22	230.25
258.452	225.25
258.685	227.25
258.918	225.25
259.151	219.25
259.383	245.25
259.616	235.25
259.849	236.25
260.081	255.25
260.314	278.25
260.547	292.25
260.779	266.25
261.012	264.25
261.244	249.25
261.477	263.25
261.71	229.25
261.942	235.25
262.175	253.25
262.407	223.25
262.64	220.25
262.872	255.25
263.105	257.25
263.337	232.25
263.57	223.25
263.802	219.25
264.035	209.25
264.267	213.25
264.499	232.25
264.732	222.25
264.964	233.25
265.197	225.25
265.429	215.25
265.661	220.25
265.894	225.25
266.126	227.25
266.358	239.25
266.591	234.25
266.823	247.25
267.055	232.25
267.287	231.25
267.52	247.25
267.752	230.25
267.984	241.25
268.216	219.25
268.448	224.25
268.681	244.25
268.913	252.25
269.145	280.25
269.377	295.25
269.609	275.25
269.841	272.25
270.073	293.25
270.306	287.25
270.538	313.25
270.77	320.25
271.002	328.25
271.234	304.25
271.466	323.25
271.698	338.25
271.93	339.25
272.162	363.25
272.394	359.25
272.626	325.25
272.858	316.25
273.09	293.25
273.322	280.25
273.553	293.25
273.785	272.25
274.017	277.25
274.249	291.25
274.481	272.25
274.713	266.25
274.945	292.25
275.176	280.25
275.408	288.25
275.64	283.25
275.872	289.25
276.104	289.25
276.335	289.25
276.567	288.25
276.799	314.25
277.031	329.25
277.262	358.25
277.494	355.25
277.726	326.25
277.957	297.25
278.189	306.25
278.421	283.25
278.652	289.25
278.884	279.25
279.115	272.25
279.347	281.25
279.579	284.25
279.81	276.25
280.042	276.25
280.273	290.25
280.505	286.25
280.736	282.25
280.968	279.25
281.199	268.25
281.431	272.25
281.662	260.25
281.894	276.25
282.125	272.25
282.356	295.25
282.588	322.25
282.819	315.25
283.051	277.25
283.282	275.25
283.513	276.25
283.745	289.25
283.976	275.25
284.207	278.25
284.439	281.25
284.67	280.25
284.901	262.25
285.132	277.25
285.364	286.25
285.595	284.25
285.826	279.25
286.057	269.25
286.288	272.25
286.52	284.25
286.751	280.25
286.982	271.25
287.213	270.25
287.444	293.25
287.675	282.25
287.906	287.25
288.138	304.25
288.369	310.25
288.6	316.25
288.831	302.25
289.062	299.25
289.293	289.25
289.524	278.25
289.755	279.25
289.986	297.25
290.217	296.25
290.448	281.25
290.679	287.25
290.91	301.25
291.141	287.25
291.371	283.25
291.602	290.25
291.833	283.25
292.064	286.25
292.295	287.25
292.526	287.25
292.757	279.25
292.987	276.25
293.218	269.25
293.449	284.25
293.68	286.25
293.91	272.25
294.141	290.25
294.372	291.25
294.603	286.25
294.833	271.25
295.064	281.25
295.295	302.25
295.525	293.25
295.756	279.25
295.987	293.25
296.217	333.25
296.448	319.25
296.679	316.25
296.909	300.25
297.14	299.25
297.37	285.25
297.601	294.25
297.831	276.25
298.062	302.25
298.292	295.25
298.523	294.25
298.753	307.25
298.984	293.25
299.214	281.25
299.445	311.25
299.675	304.25
299.905	305.25
300.136	312.25
300.366	300.25
300.597	303.25
300.827	300.25
301.057	317.25
301.288	327.25
301.518	327.25
301.748	295.25
301.979	297.25
302.209	321.25
302.439	319.25
302.669	328.25
302.9	322.25
303.13	312.25
303.36	313.25
303.59	314.25
303.82	355.25
304.051	323.25
304.281	323.25
304.511	307.25
304.741	297.25
304.971	320.25
305.201	338.25
305.431	319.25
305.661	321.25
305.891	318.25
306.121	321.25
306.352	324.25
306.582	331.25
306.812	315.25
307.042	321.25
307.272	316.25
307.502	353.25
307.731	350.25
307.961	331.25
308.191	314.25
308.421	332.25
308.651	331.25
308.881	325.25
309.111	322.25
309.341	343.25
309.571	346.25
309.8	361.25
310.03	379.25
310.26	381.25
310.49	382.25
310.72	392.25
310.949	422.25
311.179	415.25
311.409	383.25
311.639	376.25
311.868	390.25
312.098	398.25
312.328	392.25
312.557	409.25
312.787	395.25
313.017	421.25
313.246	390.25
313.476	371.25
313.706	369.25
313.935	384.25
314.165	371.25
314.394	415.25
314.624	407.25
314.853	401.25
315.083	381.25
315.312	389.25
315.542	367.25
315.771	353.25
316.001	350.25
316.23	357.25
316.46	371.25
316.689	373.25
316.919	375.25
317.148	395.25
317.377	395.25
317.607	405.25
317.836	391.25
318.065	362.25
318.295	373.25
318.524	355.25
318.753	363.25
318.983	375.25
319.212	362.25
319.441	383.25
319.67	384.25
319.9	379.25
320.129	377.25
320.358	383.25
320.587	379.25
320.816	387.25
321.046	415.25
321.275	403.25
321.504	408.25
321.733	408.25
321.962	408.25
322.191	452.25
322.42	448.25
322.649	465.25
322.878	470.25
323.108	490.25
323.337	518.25
323.566	514.25
323.795	575.25
324.024	658.25
324.253	771.25
324.482	1117.25
324.71	1685.25
324.939	2398.25
325.168	2115.25
325.397	1151.25
325.626	784.25
325.855	620.25
326.084	561.25
326.313	551.25
326.542	564.25
326.77	615.25
326.999	722.25
327.228	977.25
327.457	1500.25
327.686	1847.25
327.914	1301.25
328.143	878.25
328.372	749.25
328.6	727.25
328.829	677.25
329.058	642.25
329.287	673.25
329.515	636.25
329.744	614.25
329.972	611.25
330.201	676.25
330.43	775.25
330.658	762.25
330.887	731.25
331.115	652.25
331.344	577.25
331.572	534.25
331.801	523.25
332.03	530.25
332.258	512.25
332.486	488.25
332.715	473.25
332.943	487.25
333.172	489.25
333.4	497.25
333.629	534.25
333.857	543.25
334.085	581.25
334.314	629.25
334.542	729.25
334.771	793.25
334.999	650.25
335.227	545.25
335.455	514.25
335.684	478.25
335.912	443.25
336.14	457.25
336.369	432.25
336.597	423.25
336.825	439.25
337.053	444.25
337.281	440.25
337.51	435.25
337.738	437.25
337.966	432.25
338.194	459.25
338.422	449.25
338.65	433.25
338.878	437.25
339.106	424.25
339.334	429.25
339.562	424.25
339.79	416.25
340.018	438.25
340.246	423.25
340.474	403.25
340.702	403.25
340.93	426.25
341.158	413.25
341.386	426.25
341.614	421.25
341.842	437.25
342.07	420.25
342.298	419.25
342.526	405.25
342.754	392.25
342.981	427.25
343.209	395.25
343.437	393.25
343.665	414.25
343.893	429.25
344.12	410.25
344.348	416.25
344.576	419.25
344.804	422.25
345.031	431.25
345.259	425.25
345.487	439.25
345.714	385.25
345.942	411.25
346.17	386.25
346.397	411.25
346.625	414.25
346.853	410.25
347.08	408.25
347.308	424.25
347.535	413.25
347.763	423.25
347.99	421.25
348.218	430.25
348.445	454.25
348.673	423.25
348.9	407.25
349.128	399.25
349.355	384.25
349.583	395.25
349.81	395.25
350.037	393.25
350.265	383.25
350.492	390.25
350.72	406.25
350.947	381.25
351.174	409.25
351.402	415.25
351.629	416.25
351.856	403.25
352.083	409.25
352.311	430.25
352.538	441.25
352.765	431.25
352.992	416.25
353.22	407.25
353.447	414.25
353.674	383.25
353.901	391.25
354.128	397.25
354.355	376.25
354.583	385.25
354.81	372.25
355.037	381.25
355.264	377.25
355.491	381.25
355.718	366.25
355.945	369.25
356.172	367.25
356.399	372.25
356.626	366.25
356.853	371.25
357.08	370.25
357.307	363.25
357.534	351.25
357.761	371.25
357.988	383.25
358.215	358.25
358.441	362.25
358.668	378.25
358.895	381.25
359.122	394.25
359.349	395.25
359.576	393.25
359.802	415.25
360.029	456.25
360.256	461.25
360.483	451.25
360.709	409.25
360.936	411.25
361.163	402.25
361.39	400.25
361.616	418.25
361.843	417.25
362.07	403.25
362.296	415.25
362.523	423.25
362.749	395.25
362.976	388.25
363.203	381.25
363.429	381.25
363.656	382.25
363.882	387.25
364.109	379.25
364.335	362.25
364.562	370.25
364.788	379.25
365.015	367.25
365.241	364.25
365.468	395.25
365.694	387.25
365.92	383.25
366.147	386.25
366.373	384.25
366.599	365.25
366.826	379.25
367.052	387.25
367.278	389.25
367.505	382.25
367.731	372.25
367.957	352.25
368.184	397.25
368.41	385.25
368.636	393.25
368.862	404.25
369.089	391.25
369.315	376.25
369.541	381.25
369.767	383.25
369.993	372.25
370.219	367.25
370.445	364.25
370.672	370.25
370.898	374.25
371.124	354.25
371.35	362.25
371.576	358.25
371.802	358.25
372.028	347.25
372.254	367.25
372.48	373.25
372.706	342.25
372.932	373.25
373.158	371.25
373.384	363.25
373.61	375.25
373.835	372.25
374.061	361.25
374.287	356.25
374.513	373.25
374.739	365.25
374.965	371.25
375.191	367.25
375.416	368.25
375.642	372.25
375.868	373.25
376.094	361.25
376.319	353.25
376.545	348.25
376.771	350.25
376.997	349.25
377.222	355.25
377.448	344.25
377.674	360.25
377.899	351.25
378.125	353.25
378.35	367.25
378.576	347.25
378.802	357.25
379.027	343.25
379.253	347.25
379.478	359.25
379.704	366.25
379.929	359.25
380.155	358.25
380.38	367.25
380.606	363.25
380.831	364.25
381.057	362.25
381.282	351.25
381.507	355.25
381.733	356.25
381.958	361.25
382.184	380.25
382.409	361.25
382.634	360.25
382.86	361.25
383.085	376.25
383.31	360.25
383.535	373.25
383.761	371.25
383.986	361.25
384.211	371.25
384.436	381.25
384.662	380.25
384.887	379.25
385.112	379.25
385.337	381.25
385.562	375.25
385.787	372.25
386.013	380.25
386.238	383.25
386.463	382.25
386.688	378.25
386.913	380.25
387.138	391.25
387.363	368.25
387.588	383.25
387.813	366.25
388.038	384.25
388.263	361.25
388.488	371.25
388.713	365.25
388.938	392.25
389.163	402.25
389.387	386.25
389.612	395.25
389.837	388.25
390.062	386.25
390.287	388.25
390.512	393.25
390.736	384.25
390.961	361.25
391.186	375.25
391.411	383.25
391.636	362.25
391.86	387.25
392.085	380.25
392.31	362.25
392.534	375.25
392.759	395.25
392.984	394.25
393.208	376.25
393.433	376.25
393.658	379.25
393.882	369.25
394.107	368.25
394.331	380.25
394.556	358.25
394.78	382.25
395.005	375.25
395.229	387.25
395.454	392.25
395.678	385.25
395.903	389.25
396.127	420.25
396.352	412.25
396.576	381.25
396.801	379.25
397.025	375.25
397.249	381.25
397.474	392.25
397.698	404.25
397.922	406.25
398.147	429.25
398.371	431.25
398.595	426.25
398.82	407.25
399.044	405.25
399.268	423.25
399.492	446.25
399.717	469.25
399.941	492.25
400.165	517.25
400.389	497.25
400.613	477.25
400.837	455.25
401.062	461.25
401.286	430.25
401.51	407.25
401.734	395.25
401.958	443.25
402.182	424.25
402.406	451.25
402.63	441.25
402.854	438.25
403.078	445.25
403.302	434.25
403.526	463.25
403.75	439.25
403.974	436.25
404.198	419.25
404.422	452.25
404.645	468.25
404.869	488.25
405.093	522.25
405.317	543.25
405.541	581.25
405.765	541.25
405.988	501.25
406.212	491.25
406.436	527.25
406.66	534.25
406.883	492.25
407.107	514.25
407.331	568.25
407.555	589.25
407.778	598.25
408.002	537.25
408.226	495.25
408.449	483.25
408.673	520.25
408.896	515.25
409.12	583.25
409.344	527.25
409.567	478.25
409.791	473.25
410.014	441.25
410.238	436.25
410.461	457.25
410.685	447.25
410.908	451.25
411.132	496.25
411.355	536.25
411.578	537.25
411.802	478.25
412.025	470.25
412.249	496.25
412.472	525.25
412.695	580.25
412.919	573.25
413.142	521.25
413.365	458.25
413.589	484.25
413.812	462.25
414.035	442.25
414.258	431.25
414.482	407.25
414.705	428.25
414.928	421.25
415.151	407.25
415.374	412.25
415.597	419.25
415.821	433.25
416.044	442.25
416.267	422.25
416.49	433.25
416.713	416.25
416.936	412.25
417.159	427.25
417.382	413.25
417.605	453.25
417.828	455.25
418.051	456.25
418.274	454.25
418.497	447.25
418.72	422.25
418.943	451.25
419.166	444.25
419.389	460.25
419.611	460.25
419.834	450.25
420.057	467.25
420.28	486.25
420.503	478.25
420.726	489.25
420.948	513.25
421.171	526.25
421.394	565.25
421.617	479.25
421.839	479.25
422.062	473.25
422.285	463.25
422.507	528.25
422.73	625.25
422.953	604.25
423.175	531.25
423.398	477.25
423.621	459.25
423.843	497.25
424.066	492.25
424.288	495.25
424.511	508.25
424.733	571.25
424.956	673.25
425.178	622.25
425.401	611.25
425.623	636.25
425.846	529.25
426.068	505.25
426.291	496.25
426.513	495.25
426.735	496.25
426.958	549.25
427.18	624.25
427.402	738.25
427.625	826.25
427.847	773.25
428.069	701.25
428.292	597.25
428.514	542.25
428.736	494.25
428.958	495.25
429.181	473.25
429.403	481.25
429.625	457.25
429.847	527.25
430.069	565.25
430.292	579.25
430.514	483.25
430.736	458.25
430.958	461.25
431.18	451.25
431.402	435.25
431.624	431.25
431.846	408.25
432.068	420.25
432.29	431.25
432.512	431.25
432.734	433.25
432.956	448.25
433.178	462.25
433.4	450.25
433.622	440.25
433.844	452.25
434.066	428.25
434.287	438.25
434.509	431.25
434.731	416.25
434.953	456.25
435.175	471.25
435.397	490.25
435.618	524.25
435.84	535.25
436.062	615.25
436.284	715.25
436.505	584.25
436.727	531.25
436.949	497.25
437.17	490.25
437.392	484.25
437.614	501.25
437.835	533.25
438.057	614.25
438.278	730.25
438.5	717.25
438.721	760.25
438.943	733.25
439.165	583.25
439.386	539.25
439.608	535.25
439.829	519.25
440.05	587.25
440.272	611.25
440.493	560.25
440.715	517.25
440.936	491.25
441.158	475.25
441.379	460.25
441.6	475.25
441.822	511.25
442.043	553.25
442.264	630.25
442.486	674.25
442.707	559.25
442.928	517.25
443.149	517.25
443.371	546.25
443.592	580.25
443.813	683.25
444.034	729.25
444.255	618.25
444.476	528.25
444.698	509.25
444.919	506.25
445.14	577.25
445.361	544.25
445.582	534.25
445.803	623.25
446.024	710.25
446.245	721.25
446.466	667.25
446.687	566.25
446.908	503.25
447.129	499.25
447.35	469.25
447.571	466.25
447.792	462.25
448.013	475.25
448.234	495.25
448.455	561.25
448.675	647.25
448.896	761.25
449.117	661.25
449.338	624.25
449.559	707.25
449.779	805.25
450	648.25
450.221	552.25
450.442	476.25
450.662	490.25
450.883	482.25
451.104	495.25
451.324	480.25
451.545	435.25
451.766	454.25
451.986	439.25
452.207	420.25
452.428	430.25
452.648	455.25
452.869	424.25
453.089	424.25
453.31	433.25
453.53	419.25
453.751	436.25
453.971	431.25
454.192	457.25
454.412	444.25
454.633	433.25
454.853	416.25
455.073	419.25
455.294	435.25
455.514	533.25
455.734	511.25
455.955	431.25
456.175	410.25
456.395	360.25
456.616	407.25
456.836	391.25
457.056	391.25
457.276	391.25
457.497	399.25
457.717	374.25
457.937	396.25
458.157	425.25
458.377	401.25
458.598	416.25
458.818	502.25
459.038	589.25
459.258	593.25
459.478	505.25
459.698	460.25
459.918	432.25
460.138	422.25
460.358	431.25
460.578	437.25
460.798	410.25
461.018	428.25
461.238	416.25
461.458	421.25
461.678	422.25
461.898	411.25
462.118	406.25
462.338	431.25
462.558	440.25
462.777	431.25
462.997	433.25
463.217	430.25
463.437	463.25
463.657	431.25
463.876	437.25
464.096	440.25
464.316	441.25
464.536	454.25
464.755	453.25
464.975	473.25
465.195	527.25
465.414	607.25
465.634	528.25
465.854	478.25
466.073	473.25
466.293	446.25
466.512	428.25
466.732	428.25
466.951	432.25
467.171	422.25
467.391	431.25
467.61	447.25
467.829	455.25
468.049	458.25
468.268	501.25
468.488	453.25
468.707	444.25
468.927	401.25
469.146	418.25
469.365	402.25
469.585	408.25
469.804	431.25
470.023	432.25
470.243	438.25
470.462	449.25
470.681	469.25
470.901	451.25
471.12	431.25
471.339	433.25
471.558	437.25
471.777	456.25
471.997	436.25
472.216	472.25
472.435	599.25
472.654	545.25
472.873	480.25
473.092	455.25
473.311	453.25
473.53	465.25
473.749	458.25
473.968	492.25
474.187	614.25
474.406	634.25
474.625	505.25
474.844	447.25
475.063	435.25
475.282	407.25
475.501	449.25
475.72	451.25
475.939	433.25
476.158	431.25
476.377	456.25
476.596	449.25
476.814	456.25
477.033	477.25
477.252	463.25
477.471	459.25
477.69	450.25
477.908	449.25
478.127	459.25
478.346	457.25
478.564	462.25
478.783	486.25
479.002	474.25
479.22	475.25
479.439	499.25
479.658	513.25
479.876	519.25
480.095	532.25
480.313	560.25
480.532	564.25
480.751	559.25
480.969	573.25
481.188	758.25
481.406	923.25
481.624	701.25
481.843	633.25
482.061	579.25
482.28	571.25
482.498	529.25
482.717	528.25
482.935	533.25
483.153	529.25
483.372	514.25
483.59	521.25
483.808	542.25
484.027	515.25
484.245	515.25
484.463	528.25
484.681	523.25
484.9	515.25
485.118	533.25
485.336	529.25
485.554	531.25
485.772	544.25
485.99	523.25
486.209	549.25
486.427	571.25
486.645	563.25
486.863	578.25
487.081	550.25
487.299	562.25
487.517	573.25
487.735	535.25
487.953	593.25
488.171	577.25
488.389	579.25
488.607	548.25
488.825	554.25
489.043	574.25
489.261	581.25
489.479	577.25
489.696	593.25
489.914	594.25
490.132	618.25
490.35	598.25
490.568	606.25
490.786	624.25
491.003	637.25
491.221	643.25
491.439	639.25
491.657	661.25
491.874	675.25
492.092	661.25
492.31	671.25
492.527	701.25
492.745	677.25
492.963	671.25
493.18	685.25
493.398	682.25
493.615	705.25
493.833	726.25
494.05	705.25
494.268	683.25
494.485	715.25
494.703	688.25
494.92	672.25
495.138	676.25
495.355	704.25
495.573	695.25
495.79	698.25
496.008	680.25
496.225	703.25
496.442	670.25
496.66	675.25
496.877	662.25
497.094	680.25
497.312	668.25
497.529	680.25
497.746	679.25
497.963	687.25
498.181	731.25
498.398	711.25
498.615	695.25
498.832	730.25
499.049	704.25
499.267	726.25
499.484	720.25
499.701	743.25
499.918	776.25
500.135	779.25
500.352	824.25
500.569	803.25
500.786	810.25
501.003	792.25
501.22	771.25
501.437	791.25
501.654	791.25
501.871	796.25
