Data from 1986.PennyLincolnUp.Lamp.En5.5.200Scan.071819.P2_HRD10591_17-10-54-974.txt Node
Date: Thu Jul 18 17:10:54 EDT 2019
User: cochatt
Spectrometer: HR+D1059
Trigger mode: 1
Integration Time (sec): 1.000000E-1
Scans to average: 1
Electric dark correction enabled: true
Nonlinearity correction enabled: false
Boxcar width: 0
XAxis mode: Wavelengths
Number of Pixels in Spectrum: 2048
>>>>>Begin Spectral Data<<<<<
223.165	-8.38
223.4	-8.38
223.635	-8.38
223.869	-32.38
224.104	-25.38
224.338	-12.38
224.573	-14.38
224.808	-22.38
225.042	-5.38
225.277	-9.38
225.511	9.62
225.746	3.62
225.98	17.62
226.215	14.62
226.449	3.62
226.683	22.62
226.918	31.62
227.152	26.62
227.387	21.62
227.621	34.62
227.856	41.62
228.09	55.62
228.324	39.62
228.559	51.62
228.793	61.62
229.027	105.62
229.262	109.62
229.496	117.62
229.73	149.62
229.964	175.62
230.199	141.62
230.433	126.62
230.667	125.62
230.901	103.62
231.136	119.62
231.37	121.62
231.604	108.62
231.838	109.62
232.072	114.62
232.306	111.62
232.541	116.62
232.775	91.62
233.009	117.62
233.243	121.62
233.477	108.62
233.711	110.62
233.945	113.62
234.179	105.62
234.413	115.62
234.647	121.62
234.881	117.62
235.115	141.62
235.349	123.62
235.583	96.62
235.817	117.62
236.051	123.62
236.285	130.62
236.519	124.62
236.753	127.62
236.987	139.62
237.221	171.62
237.455	232.62
237.689	193.62
237.922	144.62
238.156	137.62
238.39	129.62
238.624	147.62
238.858	123.62
239.091	137.62
239.325	125.62
239.559	140.62
239.793	138.62
240.027	141.62
240.26	135.62
240.494	177.62
240.728	158.62
240.961	153.62
241.195	152.62
241.429	154.62
241.662	127.62
241.896	147.62
242.13	127.62
242.363	141.62
242.597	135.62
242.83	150.62
243.064	127.62
243.298	138.62
243.531	125.62
243.765	142.62
243.998	123.62
244.232	127.62
244.465	130.62
244.699	145.62
244.932	137.62
245.166	138.62
245.399	137.62
245.633	142.62
245.866	146.62
246.099	156.62
246.333	147.62
246.566	154.62
246.8	156.62
247.033	148.62
247.266	135.62
247.5	151.62
247.733	181.62
247.966	171.62
248.2	166.62
248.433	187.62
248.666	167.62
248.899	187.62
249.133	198.62
249.366	228.62
249.599	197.62
249.832	201.62
250.066	184.62
250.299	183.62
250.532	205.62
250.765	208.62
250.998	225.62
251.231	248.62
251.465	237.62
251.698	225.62
251.931	213.62
252.164	210.62
252.397	187.62
252.63	219.62
252.863	222.62
253.096	212.62
253.329	265.62
253.562	233.62
253.795	234.62
254.028	231.62
254.261	227.62
254.494	229.62
254.727	265.62
254.96	306.62
255.193	279.62
255.426	270.62
255.659	271.62
255.892	232.62
256.124	263.62
256.357	269.62
256.59	258.62
256.823	227.62
257.056	231.62
257.289	228.62
257.521	228.62
257.754	220.62
257.987	202.62
258.22	235.62
258.452	211.62
258.685	208.62
258.918	225.62
259.151	196.62
259.383	221.62
259.616	215.62
259.849	226.62
260.081	239.62
260.314	263.62
260.547	267.62
260.779	260.62
261.012	233.62
261.244	231.62
261.477	228.62
261.71	217.62
261.942	229.62
262.175	223.62
262.407	255.62
262.64	212.62
262.872	234.62
263.105	217.62
263.337	213.62
263.57	220.62
263.802	211.62
264.035	214.62
264.267	213.62
264.499	206.62
264.732	219.62
264.964	199.62
265.197	226.62
265.429	226.62
265.661	223.62
265.894	226.62
266.126	225.62
266.358	220.62
266.591	219.62
266.823	220.62
267.055	203.62
267.287	226.62
267.52	217.62
267.752	224.62
267.984	226.62
268.216	222.62
268.448	219.62
268.681	234.62
268.913	248.62
269.145	266.62
269.377	275.62
269.609	272.62
269.841	264.62
270.073	283.62
270.306	308.62
270.538	332.62
270.77	323.62
271.002	319.62
271.234	299.62
271.466	285.62
271.698	320.62
271.93	328.62
272.162	321.62
272.394	343.62
272.626	327.62
272.858	305.62
273.09	274.62
273.322	261.62
273.553	262.62
273.785	275.62
274.017	275.62
274.249	282.62
274.481	269.62
274.713	277.62
274.945	259.62
275.176	273.62
275.408	264.62
275.64	256.62
275.872	261.62
276.104	276.62
276.335	285.62
276.567	278.62
276.799	276.62
277.031	301.62
277.262	323.62
277.494	329.62
277.726	306.62
277.957	291.62
278.189	271.62
278.421	290.62
278.652	264.62
278.884	241.62
279.115	272.62
279.347	251.62
279.579	257.62
279.81	253.62
280.042	261.62
280.273	255.62
280.505	275.62
280.736	258.62
280.968	245.62
281.199	251.62
281.431	241.62
281.662	259.62
281.894	244.62
282.125	254.62
282.356	268.62
282.588	306.62
282.819	308.62
283.051	262.62
283.282	264.62
283.513	259.62
283.745	247.62
283.976	282.62
284.207	280.62
284.439	270.62
284.67	277.62
284.901	261.62
285.132	270.62
285.364	242.62
285.595	264.62
285.826	251.62
286.057	251.62
286.288	256.62
286.52	266.62
286.751	275.62
286.982	263.62
287.213	277.62
287.444	276.62
287.675	273.62
287.906	271.62
288.138	279.62
288.369	292.62
288.6	278.62
288.831	280.62
289.062	264.62
289.293	275.62
289.524	283.62
289.755	255.62
289.986	274.62
290.217	284.62
290.448	265.62
290.679	276.62
290.91	279.62
291.141	271.62
291.371	260.62
291.602	271.62
291.833	269.62
292.064	277.62
292.295	256.62
292.526	265.62
292.757	284.62
292.987	269.62
293.218	251.62
293.449	259.62
293.68	276.62
293.91	261.62
294.141	272.62
294.372	269.62
294.603	284.62
294.833	284.62
295.064	288.62
295.295	274.62
295.525	265.62
295.756	279.62
295.987	291.62
296.217	307.62
296.448	320.62
296.679	277.62
296.909	261.62
297.14	289.62
297.37	308.62
297.601	279.62
297.831	268.62
298.062	270.62
298.292	288.62
298.523	273.62
298.753	277.62
298.984	290.62
299.214	290.62
299.445	287.62
299.675	277.62
299.905	283.62
300.136	296.62
300.366	289.62
300.597	280.62
300.827	287.62
301.057	273.62
301.288	296.62
301.518	293.62
301.748	286.62
301.979	294.62
302.209	283.62
302.439	297.62
302.669	296.62
302.9	279.62
303.13	293.62
303.36	313.62
303.59	312.62
303.82	311.62
304.051	321.62
304.281	296.62
304.511	299.62
304.741	294.62
304.971	315.62
305.201	308.62
305.431	297.62
305.661	299.62
305.891	315.62
306.121	293.62
306.352	304.62
306.582	304.62
306.812	317.62
307.042	305.62
307.272	307.62
307.502	323.62
307.731	313.62
307.961	302.62
308.191	305.62
308.421	307.62
308.651	317.62
308.881	326.62
309.111	338.62
309.341	337.62
309.571	322.62
309.8	332.62
310.03	362.62
310.26	368.62
310.49	356.62
310.72	375.62
310.949	392.62
311.179	395.62
311.409	369.62
311.639	372.62
311.868	365.62
312.098	367.62
312.328	364.62
312.557	377.62
312.787	389.62
313.017	417.62
313.246	369.62
313.476	344.62
313.706	382.62
313.935	366.62
314.165	377.62
314.394	371.62
314.624	372.62
314.853	368.62
315.083	383.62
315.312	353.62
315.542	367.62
315.771	336.62
316.001	353.62
316.23	353.62
316.46	337.62
316.689	343.62
316.919	346.62
317.148	380.62
317.377	377.62
317.607	372.62
317.836	364.62
318.065	353.62
318.295	352.62
318.524	356.62
318.753	337.62
318.983	347.62
319.212	348.62
319.441	386.62
319.67	362.62
319.9	351.62
320.129	364.62
320.358	360.62
320.587	362.62
320.816	373.62
321.046	357.62
321.275	379.62
321.504	379.62
321.733	386.62
321.962	375.62
322.191	389.62
322.42	423.62
322.649	438.62
322.878	452.62
323.108	461.62
323.337	483.62
323.566	536.62
323.795	552.62
324.024	601.62
324.253	743.62
324.482	1039.62
324.71	1616.62
324.939	2318.62
325.168	1996.62
325.397	1095.62
325.626	727.62
325.855	581.62
326.084	535.62
326.313	517.62
326.542	513.62
326.77	576.62
326.999	692.62
327.228	927.62
327.457	1413.62
327.686	1756.62
327.914	1213.62
328.143	793.62
328.372	661.62
328.6	629.62
328.829	584.62
329.058	628.62
329.287	636.62
329.515	547.62
329.744	517.62
329.972	501.62
330.201	555.62
330.43	601.62
330.658	634.62
330.887	676.62
331.115	616.62
331.344	530.62
331.572	478.62
331.801	515.62
332.03	515.62
332.258	467.62
332.486	450.62
332.715	442.62
332.943	439.62
333.172	410.62
333.4	433.62
333.629	454.62
333.857	454.62
334.085	456.62
334.314	490.62
334.542	542.62
334.771	553.62
334.999	501.62
335.227	456.62
335.455	412.62
335.684	419.62
335.912	421.62
336.14	414.62
336.369	421.62
336.597	395.62
336.825	424.62
337.053	394.62
337.281	402.62
337.51	376.62
337.738	395.62
337.966	408.62
338.194	399.62
338.422	393.62
338.65	395.62
338.878	392.62
339.106	371.62
339.334	409.62
339.562	394.62
339.79	396.62
340.018	402.62
340.246	409.62
340.474	395.62
340.702	415.62
340.93	389.62
341.158	391.62
341.386	406.62
341.614	394.62
341.842	380.62
342.07	398.62
342.298	407.62
342.526	395.62
342.754	384.62
342.981	372.62
343.209	383.62
343.437	383.62
343.665	374.62
343.893	388.62
344.12	370.62
344.348	376.62
344.576	393.62
344.804	400.62
345.031	411.62
345.259	411.62
345.487	423.62
345.714	400.62
345.942	381.62
346.17	391.62
346.397	385.62
346.625	396.62
346.853	373.62
347.08	370.62
347.308	384.62
347.535	402.62
347.763	392.62
347.99	387.62
348.218	409.62
348.445	407.62
348.673	400.62
348.9	392.62
349.128	395.62
349.355	364.62
349.583	376.62
349.81	363.62
350.037	357.62
350.265	372.62
350.492	368.62
350.72	381.62
350.947	380.62
351.174	402.62
351.402	394.62
351.629	393.62
351.856	390.62
352.083	390.62
352.311	413.62
352.538	402.62
352.765	400.62
352.992	408.62
353.22	410.62
353.447	417.62
353.674	387.62
353.901	386.62
354.128	355.62
354.355	339.62
354.583	352.62
354.81	366.62
355.037	360.62
355.264	340.62
355.491	342.62
355.718	330.62
355.945	347.62
356.172	327.62
356.399	353.62
356.626	341.62
356.853	356.62
357.08	338.62
357.307	346.62
357.534	358.62
357.761	354.62
357.988	325.62
358.215	349.62
358.441	343.62
358.668	349.62
358.895	356.62
359.122	369.62
359.349	369.62
359.576	382.62
359.802	412.62
360.029	428.62
360.256	444.62
360.483	416.62
360.709	409.62
360.936	386.62
361.163	383.62
361.39	394.62
361.616	387.62
361.843	376.62
362.07	374.62
362.296	376.62
362.523	380.62
362.749	375.62
362.976	373.62
363.203	367.62
363.429	343.62
363.656	365.62
363.882	376.62
364.109	356.62
364.335	338.62
364.562	352.62
364.788	362.62
365.015	357.62
365.241	364.62
365.468	390.62
365.694	363.62
365.92	367.62
366.147	358.62
366.373	356.62
366.599	354.62
366.826	353.62
367.052	362.62
367.278	345.62
367.505	363.62
367.731	352.62
367.957	343.62
368.184	363.62
368.41	354.62
368.636	360.62
368.862	355.62
369.089	353.62
369.315	367.62
369.541	361.62
369.767	336.62
369.993	353.62
370.219	363.62
370.445	337.62
370.672	337.62
370.898	357.62
371.124	354.62
371.35	361.62
371.576	349.62
371.802	337.62
372.028	354.62
372.254	354.62
372.48	342.62
372.706	343.62
372.932	335.62
373.158	354.62
373.384	347.62
373.61	329.62
373.835	349.62
374.061	352.62
374.287	333.62
374.513	349.62
374.739	361.62
374.965	355.62
375.191	332.62
375.416	345.62
375.642	339.62
375.868	349.62
376.094	348.62
376.319	338.62
376.545	325.62
376.771	343.62
376.997	348.62
377.222	340.62
377.448	319.62
377.674	336.62
377.899	335.62
378.125	341.62
378.35	338.62
378.576	352.62
378.802	330.62
379.027	339.62
379.253	329.62
379.478	327.62
379.704	335.62
379.929	345.62
380.155	349.62
380.38	360.62
380.606	357.62
380.831	346.62
381.057	361.62
381.282	340.62
381.507	331.62
381.733	348.62
381.958	361.62
382.184	335.62
382.409	339.62
382.634	343.62
382.86	337.62
383.085	355.62
383.31	343.62
383.535	341.62
383.761	332.62
383.986	339.62
384.211	363.62
384.436	359.62
384.662	338.62
384.887	345.62
385.112	348.62
385.337	356.62
385.562	347.62
385.787	356.62
386.013	383.62
386.238	367.62
386.463	360.62
386.688	344.62
386.913	377.62
387.138	362.62
387.363	366.62
387.588	351.62
387.813	363.62
388.038	361.62
388.263	372.62
388.488	341.62
388.713	365.62
388.938	387.62
389.163	372.62
389.387	373.62
389.612	369.62
389.837	357.62
390.062	354.62
390.287	356.62
390.512	361.62
390.736	346.62
390.961	343.62
391.186	367.62
391.411	341.62
391.636	356.62
391.86	363.62
392.085	362.62
392.31	367.62
392.534	357.62
392.759	352.62
392.984	346.62
393.208	376.62
393.433	368.62
393.658	333.62
393.882	349.62
394.107	348.62
394.331	345.62
394.556	359.62
394.78	354.62
395.005	354.62
395.229	353.62
395.454	373.62
395.678	374.62
395.903	376.62
396.127	405.62
396.352	390.62
396.576	387.62
396.801	367.62
397.025	364.62
397.249	359.62
397.474	367.62
397.698	379.62
397.922	387.62
398.147	375.62
398.371	393.62
398.595	391.62
398.82	372.62
399.044	403.62
399.268	403.62
399.492	409.62
399.717	419.62
399.941	451.62
400.165	461.62
400.389	490.62
400.613	454.62
400.837	440.62
401.062	421.62
401.286	387.62
401.51	404.62
401.734	402.62
401.958	388.62
402.182	420.62
402.406	400.62
402.63	427.62
402.854	424.62
403.078	433.62
403.302	418.62
403.526	422.62
403.75	424.62
403.974	410.62
404.198	415.62
404.422	443.62
404.645	440.62
404.869	459.62
405.093	470.62
405.317	512.62
405.541	521.62
405.765	502.62
405.988	458.62
406.212	476.62
406.436	485.62
406.66	499.62
406.883	476.62
407.107	472.62
407.331	513.62
407.555	585.62
407.778	595.62
408.002	497.62
408.226	505.62
408.449	479.62
408.673	489.62
408.896	516.62
409.12	521.62
409.344	488.62
409.567	448.62
409.791	400.62
410.014	417.62
410.238	419.62
410.461	416.62
410.685	417.62
410.908	447.62
411.132	498.62
411.355	502.62
411.578	471.62
411.802	438.62
412.025	428.62
412.249	453.62
412.472	465.62
412.695	501.62
412.919	480.62
413.142	457.62
413.365	423.62
413.589	434.62
413.812	420.62
414.035	415.62
414.258	410.62
414.482	399.62
414.705	377.62
414.928	370.62
415.151	407.62
415.374	392.62
415.597	397.62
415.821	392.62
416.044	397.62
416.267	419.62
416.49	407.62
416.713	395.62
416.936	391.62
417.159	415.62
417.382	400.62
417.605	395.62
417.828	414.62
418.051	444.62
418.274	409.62
418.497	388.62
418.72	403.62
418.943	390.62
419.166	416.62
419.389	433.62
419.611	437.62
419.834	439.62
420.057	427.62
420.28	438.62
420.503	444.62
420.726	435.62
420.948	437.62
421.171	484.62
421.394	504.62
421.617	471.62
421.839	407.62
422.062	392.62
422.285	451.62
422.507	503.62
422.73	548.62
422.953	554.62
423.175	466.62
423.398	460.62
423.621	443.62
423.843	469.62
424.066	481.62
424.288	470.62
424.511	501.62
424.733	547.62
424.956	608.62
425.178	592.62
425.401	596.62
425.623	614.62
425.846	515.62
426.068	488.62
426.291	466.62
426.513	484.62
426.735	480.62
426.958	520.62
427.18	599.62
427.402	725.62
427.625	787.62
427.847	714.62
428.069	623.62
428.292	543.62
428.514	497.62
428.736	480.62
428.958	461.62
429.181	454.62
429.403	439.62
429.625	437.62
429.847	488.62
430.069	548.62
430.292	564.62
430.514	457.62
430.736	439.62
430.958	420.62
431.18	415.62
431.402	397.62
431.624	409.62
431.846	403.62
432.068	400.62
432.29	399.62
432.512	417.62
432.734	432.62
432.956	397.62
433.178	425.62
433.4	451.62
433.622	415.62
433.844	403.62
434.066	395.62
434.287	410.62
434.509	418.62
434.731	396.62
434.953	410.62
435.175	439.62
435.397	459.62
435.618	462.62
435.84	523.62
436.062	585.62
436.284	677.62
436.505	571.62
436.727	529.62
436.949	444.62
437.17	445.62
437.392	432.62
437.614	460.62
437.835	490.62
438.057	614.62
438.278	694.62
438.5	675.62
438.721	729.62
438.943	721.62
439.165	592.62
439.386	538.62
439.608	495.62
439.829	500.62
440.05	548.62
440.272	571.62
440.493	558.62
440.715	484.62
440.936	476.62
441.158	453.62
441.379	449.62
441.6	458.62
441.822	467.62
442.043	518.62
442.264	583.62
442.486	612.62
442.707	531.62
442.928	471.62
443.149	497.62
443.371	516.62
443.592	558.62
443.813	656.62
444.034	720.62
444.255	596.62
444.476	516.62
444.698	473.62
444.919	485.62
445.14	561.62
445.361	506.62
445.582	519.62
445.803	579.62
446.024	668.62
446.245	677.62
446.466	628.62
446.687	530.62
446.908	505.62
447.129	450.62
447.35	463.62
447.571	453.62
447.792	445.62
448.013	442.62
448.234	458.62
448.455	507.62
448.675	629.62
448.896	694.62
449.117	650.62
449.338	581.62
449.559	683.62
449.779	748.62
450	616.62
450.221	524.62
450.442	486.62
450.662	461.62
450.883	472.62
451.104	471.62
451.324	443.62
451.545	435.62
451.766	425.62
451.986	422.62
452.207	385.62
452.428	378.62
452.648	394.62
452.869	414.62
453.089	413.62
453.31	432.62
453.53	417.62
453.751	419.62
453.971	405.62
454.192	433.62
454.412	426.62
454.633	384.62
454.853	405.62
455.073	380.62
455.294	425.62
455.514	496.62
455.734	487.62
455.955	407.62
456.175	389.62
456.395	367.62
456.616	373.62
456.836	388.62
457.056	363.62
457.276	372.62
457.497	365.62
457.717	380.62
457.937	375.62
458.157	376.62
458.377	393.62
458.598	411.62
458.818	475.62
459.038	564.62
459.258	572.62
459.478	444.62
459.698	419.62
459.918	417.62
460.138	405.62
460.358	408.62
460.578	383.62
460.798	396.62
461.018	397.62
461.238	384.62
461.458	394.62
461.678	387.62
461.898	401.62
462.118	392.62
462.338	402.62
462.558	401.62
462.777	417.62
462.997	427.62
463.217	417.62
463.437	403.62
463.657	383.62
463.876	421.62
464.096	423.62
464.316	397.62
464.536	426.62
464.755	430.62
464.975	416.62
465.195	505.62
465.414	559.62
465.634	496.62
465.854	468.62
466.073	438.62
466.293	407.62
466.512	379.62
466.732	386.62
466.951	409.62
467.171	406.62
467.391	395.62
467.61	407.62
467.829	427.62
468.049	423.62
468.268	407.62
468.488	413.62
468.707	396.62
468.927	396.62
469.146	389.62
469.365	403.62
469.585	385.62
469.804	398.62
470.023	407.62
470.243	417.62
470.462	401.62
470.681	416.62
470.901	437.62
471.12	436.62
471.339	421.62
471.558	407.62
471.777	392.62
471.997	410.62
472.216	417.62
472.435	489.62
472.654	461.62
472.873	421.62
473.092	400.62
473.311	397.62
473.53	434.62
473.749	436.62
473.968	466.62
474.187	547.62
474.406	595.62
474.625	488.62
474.844	423.62
475.063	428.62
475.282	403.62
475.501	422.62
475.72	432.62
475.939	414.62
476.158	431.62
476.377	408.62
476.596	401.62
476.814	429.62
477.033	435.62
477.252	431.62
477.471	419.62
477.69	444.62
477.908	445.62
478.127	440.62
478.346	443.62
478.564	440.62
478.783	449.62
479.002	446.62
479.22	432.62
479.439	474.62
479.658	485.62
479.876	491.62
480.095	477.62
480.313	498.62
480.532	516.62
480.751	499.62
480.969	514.62
481.188	589.62
481.406	649.62
481.624	565.62
481.843	517.62
482.061	513.62
482.28	515.62
482.498	491.62
482.717	482.62
482.935	491.62
483.153	501.62
483.372	488.62
483.59	484.62
483.808	494.62
484.027	484.62
484.245	482.62
484.463	497.62
484.681	522.62
484.9	490.62
485.118	484.62
485.336	512.62
485.554	503.62
485.772	505.62
485.99	489.62
486.209	527.62
486.427	495.62
486.645	524.62
486.863	550.62
487.081	543.62
487.299	548.62
487.517	537.62
487.735	499.62
487.953	523.62
488.171	531.62
488.389	519.62
488.607	533.62
488.825	519.62
489.043	548.62
489.261	525.62
489.479	550.62
489.696	535.62
489.914	531.62
490.132	555.62
490.35	545.62
490.568	585.62
490.786	581.62
491.003	592.62
491.221	579.62
491.439	604.62
491.657	591.62
491.874	610.62
492.092	600.62
492.31	620.62
492.527	625.62
492.745	645.62
492.963	631.62
493.18	631.62
493.398	633.62
493.615	656.62
493.833	648.62
494.05	661.62
494.268	673.62
494.485	647.62
494.703	645.62
494.92	639.62
495.138	641.62
495.355	644.62
495.573	634.62
495.79	645.62
496.008	632.62
496.225	658.62
496.442	638.62
496.66	641.62
496.877	637.62
497.094	631.62
497.312	640.62
497.529	647.62
497.746	642.62
497.963	663.62
498.181	652.62
498.398	676.62
498.615	681.62
498.832	658.62
499.049	648.62
499.267	671.62
499.484	691.62
499.701	687.62
499.918	710.62
500.135	726.62
500.352	735.62
500.569	775.62
500.786	744.62
501.003	766.62
501.22	774.62
501.437	751.62
501.654	724.62
501.871	721.62
