Data from 1986.PennyLincolnUp.Lamp.En5.5.200Scan.071819.P2_HRD10591_17-11-52-973.txt Node
Date: Thu Jul 18 17:11:52 EDT 2019
User: cochatt
Spectrometer: HR+D1059
Trigger mode: 1
Integration Time (sec): 1.000000E-1
Scans to average: 1
Electric dark correction enabled: true
Nonlinearity correction enabled: false
Boxcar width: 0
XAxis mode: Wavelengths
Number of Pixels in Spectrum: 2048
>>>>>Begin Spectral Data<<<<<
223.165	-2.25
223.4	-2.25
223.635	-2.25
223.869	-19.25
224.104	-16.25
224.338	-20.25
224.573	-12.25
224.808	-7.25
225.042	5.75
225.277	-5.25
225.511	-16.25
225.746	-0.25
225.98	4.75
226.215	0.75
226.449	23.75
226.683	10.75
226.918	17.75
227.152	35.75
227.387	27.75
227.621	41.75
227.856	36.75
228.09	34.75
228.324	50.75
228.559	64.75
228.793	64.75
229.027	104.75
229.262	125.75
229.496	127.75
229.73	141.75
229.964	167.75
230.199	139.75
230.433	120.75
230.667	124.75
230.901	98.75
231.136	106.75
231.37	116.75
231.604	105.75
231.838	109.75
232.072	118.75
232.306	113.75
232.541	106.75
232.775	117.75
233.009	108.75
233.243	114.75
233.477	90.75
233.711	107.75
233.945	135.75
234.179	120.75
234.413	124.75
234.647	113.75
234.881	93.75
235.115	113.75
235.349	125.75
235.583	129.75
235.817	118.75
236.051	140.75
236.285	128.75
236.519	114.75
236.753	133.75
236.987	144.75
237.221	196.75
237.455	226.75
237.689	182.75
237.922	146.75
238.156	129.75
238.39	132.75
238.624	134.75
238.858	130.75
239.091	120.75
239.325	133.75
239.559	126.75
239.793	126.75
240.027	122.75
240.26	138.75
240.494	160.75
240.728	156.75
240.961	150.75
241.195	141.75
241.429	135.75
241.662	116.75
241.896	136.75
242.13	145.75
242.363	125.75
242.597	124.75
242.83	151.75
243.064	133.75
243.298	148.75
243.531	138.75
243.765	146.75
243.998	127.75
244.232	152.75
244.465	145.75
244.699	151.75
244.932	151.75
245.166	152.75
245.399	155.75
245.633	152.75
245.866	147.75
246.099	161.75
246.333	159.75
246.566	150.75
246.8	156.75
247.033	152.75
247.266	171.75
247.5	160.75
247.733	162.75
247.966	188.75
248.2	175.75
248.433	172.75
248.666	177.75
248.899	208.75
249.133	203.75
249.366	226.75
249.599	208.75
249.832	200.75
250.066	207.75
250.299	215.75
250.532	214.75
250.765	257.75
250.998	264.75
251.231	265.75
251.465	243.75
251.698	229.75
251.931	218.75
252.164	219.75
252.397	214.75
252.63	216.75
252.863	206.75
253.096	234.75
253.329	249.75
253.562	235.75
253.795	232.75
254.028	239.75
254.261	242.75
254.494	258.75
254.727	291.75
254.96	317.75
255.193	313.75
255.426	281.75
255.659	278.75
255.892	293.75
256.124	324.75
256.357	296.75
256.59	314.75
256.823	275.75
257.056	237.75
257.289	235.75
257.521	241.75
257.754	248.75
257.987	235.75
258.22	212.75
258.452	222.75
258.685	223.75
258.918	230.75
259.151	235.75
259.383	247.75
259.616	239.75
259.849	237.75
260.081	250.75
260.314	254.75
260.547	276.75
260.779	257.75
261.012	256.75
261.244	238.75
261.477	241.75
261.71	233.75
261.942	262.75
262.175	259.75
262.407	247.75
262.64	248.75
262.872	216.75
263.105	215.75
263.337	241.75
263.57	231.75
263.802	214.75
264.035	218.75
264.267	226.75
264.499	213.75
264.732	229.75
264.964	211.75
265.197	219.75
265.429	209.75
265.661	212.75
265.894	227.75
266.126	226.75
266.358	210.75
266.591	241.75
266.823	223.75
267.055	216.75
267.287	231.75
267.52	231.75
267.752	233.75
267.984	227.75
268.216	227.75
268.448	258.75
268.681	237.75
268.913	255.75
269.145	288.75
269.377	274.75
269.609	287.75
269.841	291.75
270.073	289.75
270.306	319.75
270.538	323.75
270.77	335.75
271.002	324.75
271.234	290.75
271.466	329.75
271.698	329.75
271.93	336.75
272.162	332.75
272.394	347.75
272.626	303.75
272.858	307.75
273.09	304.75
273.322	292.75
273.553	291.75
273.785	279.75
274.017	269.75
274.249	279.75
274.481	289.75
274.713	290.75
274.945	287.75
275.176	290.75
275.408	267.75
275.64	291.75
275.872	275.75
276.104	281.75
276.335	273.75
276.567	269.75
276.799	309.75
277.031	321.75
277.262	348.75
277.494	341.75
277.726	321.75
277.957	320.75
278.189	306.75
278.421	305.75
278.652	288.75
278.884	273.75
279.115	273.75
279.347	287.75
279.579	274.75
279.81	271.75
280.042	257.75
280.273	281.75
280.505	280.75
280.736	271.75
280.968	272.75
281.199	281.75
281.431	263.75
281.662	250.75
281.894	278.75
282.125	276.75
282.356	316.75
282.588	310.75
282.819	328.75
283.051	281.75
283.282	278.75
283.513	278.75
283.745	281.75
283.976	285.75
284.207	288.75
284.439	278.75
284.67	278.75
284.901	296.75
285.132	276.75
285.364	288.75
285.595	267.75
285.826	272.75
286.057	285.75
286.288	265.75
286.52	282.75
286.751	288.75
286.982	277.75
287.213	282.75
287.444	282.75
287.675	289.75
287.906	293.75
288.138	299.75
288.369	318.75
288.6	269.75
288.831	298.75
289.062	309.75
289.293	295.75
289.524	303.75
289.755	301.75
289.986	308.75
290.217	293.75
290.448	285.75
290.679	295.75
290.91	265.75
291.141	273.75
291.371	295.75
291.602	284.75
291.833	284.75
292.064	278.75
292.295	268.75
292.526	290.75
292.757	260.75
292.987	283.75
293.218	294.75
293.449	289.75
293.68	297.75
293.91	275.75
294.141	271.75
294.372	275.75
294.603	298.75
294.833	259.75
295.064	287.75
295.295	291.75
295.525	292.75
295.756	288.75
295.987	290.75
296.217	319.75
296.448	339.75
296.679	324.75
296.909	284.75
297.14	275.75
297.37	288.75
297.601	279.75
297.831	297.75
298.062	285.75
298.292	305.75
298.523	276.75
298.753	303.75
298.984	284.75
299.214	300.75
299.445	302.75
299.675	303.75
299.905	308.75
300.136	308.75
300.366	299.75
300.597	291.75
300.827	313.75
301.057	322.75
301.288	315.75
301.518	329.75
301.748	303.75
301.979	305.75
302.209	320.75
302.439	308.75
302.669	311.75
302.9	313.75
303.13	309.75
303.36	324.75
303.59	318.75
303.82	333.75
304.051	323.75
304.281	327.75
304.511	303.75
304.741	315.75
304.971	322.75
305.201	303.75
305.431	327.75
305.661	323.75
305.891	300.75
306.121	321.75
306.352	343.75
306.582	336.75
306.812	325.75
307.042	326.75
307.272	318.75
307.502	341.75
307.731	351.75
307.961	317.75
308.191	352.75
308.421	333.75
308.651	336.75
308.881	323.75
309.111	337.75
309.341	340.75
309.571	347.75
309.8	361.75
310.03	372.75
310.26	367.75
310.49	378.75
310.72	387.75
310.949	379.75
311.179	397.75
311.409	383.75
311.639	379.75
311.868	370.75
312.098	374.75
312.328	394.75
312.557	412.75
312.787	423.75
313.017	415.75
313.246	390.75
313.476	373.75
313.706	371.75
313.935	375.75
314.165	401.75
314.394	397.75
314.624	416.75
314.853	387.75
315.083	398.75
315.312	373.75
315.542	370.75
315.771	371.75
316.001	379.75
316.23	377.75
316.46	389.75
316.689	374.75
316.919	370.75
317.148	384.75
317.377	388.75
317.607	407.75
317.836	391.75
318.065	373.75
318.295	396.75
318.524	352.75
318.753	364.75
318.983	386.75
319.212	373.75
319.441	378.75
319.67	393.75
319.9	404.75
320.129	380.75
320.358	376.75
320.587	379.75
320.816	379.75
321.046	405.75
321.275	408.75
321.504	390.75
321.733	393.75
321.962	428.75
322.191	461.75
322.42	440.75
322.649	435.75
322.878	455.75
323.108	478.75
323.337	493.75
323.566	520.75
323.795	567.75
324.024	616.75
324.253	782.75
324.482	1122.75
324.71	1641.75
324.939	2427.75
325.168	2161.75
325.397	1140.75
325.626	738.75
325.855	630.75
326.084	586.75
326.313	567.75
326.542	573.75
326.77	589.75
326.999	714.75
327.228	981.75
327.457	1506.75
327.686	1846.75
327.914	1256.75
328.143	837.75
328.372	748.75
328.6	707.75
328.829	673.75
329.058	660.75
329.287	697.75
329.515	633.75
329.744	612.75
329.972	616.75
330.201	702.75
330.43	795.75
330.658	767.75
330.887	728.75
331.115	681.75
331.344	588.75
331.572	545.75
331.801	526.75
332.03	525.75
332.258	500.75
332.486	482.75
332.715	472.75
332.943	479.75
333.172	484.75
333.4	491.75
333.629	517.75
333.857	545.75
334.085	580.75
334.314	636.75
334.542	785.75
334.771	812.75
334.999	629.75
335.227	563.75
335.455	489.75
335.684	469.75
335.912	459.75
336.14	439.75
336.369	459.75
336.597	457.75
336.825	458.75
337.053	437.75
337.281	442.75
337.51	441.75
337.738	435.75
337.966	426.75
338.194	447.75
338.422	440.75
338.65	419.75
338.878	424.75
339.106	412.75
339.334	412.75
339.562	414.75
339.79	419.75
340.018	408.75
340.246	430.75
340.474	433.75
340.702	427.75
340.93	397.75
341.158	423.75
341.386	415.75
341.614	425.75
341.842	407.75
342.07	421.75
342.298	427.75
342.526	409.75
342.754	403.75
342.981	383.75
343.209	404.75
343.437	398.75
343.665	414.75
343.893	426.75
344.12	392.75
344.348	395.75
344.576	395.75
344.804	412.75
345.031	429.75
345.259	433.75
345.487	440.75
345.714	436.75
345.942	401.75
346.17	407.75
346.397	403.75
346.625	406.75
346.853	408.75
347.08	402.75
347.308	408.75
347.535	418.75
347.763	412.75
347.99	415.75
348.218	423.75
348.445	424.75
348.673	416.75
348.9	411.75
349.128	388.75
349.355	388.75
349.583	400.75
349.81	385.75
350.037	376.75
350.265	391.75
350.492	380.75
350.72	391.75
350.947	405.75
351.174	415.75
351.402	396.75
351.629	424.75
351.856	416.75
352.083	442.75
352.311	425.75
352.538	422.75
352.765	387.75
352.992	419.75
353.22	400.75
353.447	393.75
353.674	407.75
353.901	380.75
354.128	404.75
354.355	360.75
354.583	381.75
354.81	362.75
355.037	383.75
355.264	373.75
355.491	340.75
355.718	356.75
355.945	366.75
356.172	357.75
356.399	342.75
356.626	359.75
356.853	376.75
357.08	369.75
357.307	383.75
357.534	371.75
357.761	374.75
357.988	369.75
358.215	352.75
358.441	357.75
358.668	375.75
358.895	381.75
359.122	378.75
359.349	403.75
359.576	407.75
359.802	441.75
360.029	471.75
360.256	471.75
360.483	443.75
360.709	403.75
360.936	415.75
361.163	397.75
361.39	385.75
361.616	395.75
361.843	388.75
362.07	402.75
362.296	426.75
362.523	405.75
362.749	390.75
362.976	389.75
363.203	372.75
363.429	372.75
363.656	384.75
363.882	366.75
364.109	383.75
364.335	373.75
364.562	363.75
364.788	362.75
365.015	368.75
365.241	367.75
365.468	360.75
365.694	401.75
365.92	392.75
366.147	383.75
366.373	372.75
366.599	365.75
366.826	372.75
367.052	371.75
367.278	372.75
367.505	376.75
367.731	386.75
367.957	353.75
368.184	362.75
368.41	368.75
368.636	395.75
368.862	381.75
369.089	391.75
369.315	373.75
369.541	363.75
369.767	347.75
369.993	363.75
370.219	376.75
370.445	377.75
370.672	350.75
370.898	371.75
371.124	347.75
371.35	345.75
371.576	349.75
371.802	360.75
372.028	352.75
372.254	357.75
372.48	346.75
372.706	371.75
372.932	344.75
373.158	357.75
373.384	371.75
373.61	355.75
373.835	342.75
374.061	368.75
374.287	386.75
374.513	369.75
374.739	379.75
374.965	362.75
375.191	351.75
375.416	375.75
375.642	358.75
375.868	365.75
376.094	356.75
376.319	350.75
376.545	351.75
376.771	328.75
376.997	356.75
377.222	371.75
377.448	358.75
377.674	356.75
377.899	354.75
378.125	347.75
378.35	346.75
378.576	345.75
378.802	339.75
379.027	366.75
379.253	357.75
379.478	356.75
379.704	377.75
379.929	359.75
380.155	360.75
380.38	342.75
380.606	359.75
380.831	359.75
381.057	371.75
381.282	363.75
381.507	351.75
381.733	365.75
381.958	373.75
382.184	358.75
382.409	369.75
382.634	375.75
382.86	374.75
383.085	357.75
383.31	363.75
383.535	357.75
383.761	358.75
383.986	353.75
384.211	372.75
384.436	381.75
384.662	378.75
384.887	378.75
385.112	355.75
385.337	365.75
385.562	367.75
385.787	365.75
386.013	398.75
386.238	395.75
386.463	380.75
386.688	379.75
386.913	397.75
387.138	363.75
387.363	397.75
387.588	371.75
387.813	372.75
388.038	372.75
388.263	377.75
388.488	379.75
388.713	365.75
388.938	367.75
389.163	387.75
389.387	373.75
389.612	384.75
389.837	393.75
390.062	396.75
390.287	379.75
390.512	379.75
390.736	359.75
390.961	345.75
391.186	378.75
391.411	381.75
391.636	371.75
391.86	379.75
392.085	377.75
392.31	384.75
392.534	389.75
392.759	388.75
392.984	381.75
393.208	352.75
393.433	373.75
393.658	381.75
393.882	374.75
394.107	379.75
394.331	390.75
394.556	375.75
394.78	380.75
395.005	371.75
395.229	371.75
395.454	385.75
395.678	381.75
395.903	412.75
396.127	407.75
396.352	415.75
396.576	378.75
396.801	394.75
397.025	382.75
397.249	392.75
397.474	390.75
397.698	405.75
397.922	412.75
398.147	402.75
398.371	428.75
398.595	425.75
398.82	416.75
399.044	401.75
399.268	423.75
399.492	449.75
399.717	473.75
399.941	483.75
400.165	511.75
400.389	541.75
400.613	491.75
400.837	447.75
401.062	448.75
401.286	408.75
401.51	412.75
401.734	403.75
401.958	415.75
402.182	433.75
402.406	449.75
402.63	416.75
402.854	431.75
403.078	432.75
403.302	427.75
403.526	456.75
403.75	459.75
403.974	466.75
404.198	415.75
404.422	466.75
404.645	483.75
404.869	475.75
405.093	528.75
405.317	578.75
405.541	593.75
405.765	565.75
405.988	511.75
406.212	502.75
406.436	532.75
406.66	523.75
406.883	497.75
407.107	515.75
407.331	545.75
407.555	600.75
407.778	635.75
408.002	546.75
408.226	509.75
408.449	488.75
408.673	481.75
408.896	518.75
409.12	550.75
409.344	532.75
409.567	478.75
409.791	455.75
410.014	440.75
410.238	451.75
410.461	446.75
410.685	466.75
410.908	487.75
411.132	516.75
411.355	534.75
411.578	525.75
411.802	477.75
412.025	474.75
412.249	497.75
412.472	503.75
412.695	580.75
412.919	573.75
413.142	517.75
413.365	515.75
413.589	474.75
413.812	447.75
414.035	460.75
414.258	433.75
414.482	435.75
414.705	437.75
414.928	436.75
415.151	416.75
415.374	421.75
415.597	392.75
415.821	410.75
416.044	436.75
416.267	447.75
416.49	419.75
416.713	415.75
416.936	405.75
417.159	419.75
417.382	440.75
417.605	432.75
417.828	456.75
418.051	453.75
418.274	460.75
418.497	443.75
418.72	428.75
418.943	440.75
419.166	439.75
419.389	465.75
419.611	453.75
419.834	471.75
420.057	458.75
420.28	495.75
420.503	491.75
420.726	499.75
420.948	509.75
421.171	547.75
421.394	539.75
421.617	487.75
421.839	455.75
422.062	457.75
422.285	453.75
422.507	529.75
422.73	594.75
422.953	575.75
423.175	517.75
423.398	473.75
423.621	479.75
423.843	484.75
424.066	495.75
424.288	492.75
424.511	513.75
424.733	549.75
424.956	647.75
425.178	635.75
425.401	612.75
425.623	631.75
425.846	542.75
426.068	512.75
426.291	496.75
426.513	503.75
426.735	532.75
426.958	555.75
427.18	625.75
427.402	745.75
427.625	849.75
427.847	772.75
428.069	706.75
428.292	633.75
428.514	544.75
428.736	497.75
428.958	481.75
429.181	478.75
429.403	488.75
429.625	468.75
429.847	512.75
430.069	559.75
430.292	558.75
430.514	490.75
430.736	454.75
430.958	429.75
431.18	433.75
431.402	443.75
431.624	428.75
431.846	417.75
432.068	426.75
432.29	436.75
432.512	436.75
432.734	465.75
432.956	445.75
433.178	436.75
433.4	454.75
433.622	427.75
433.844	407.75
434.066	406.75
434.287	411.75
434.509	432.75
434.731	425.75
434.953	440.75
435.175	468.75
435.397	492.75
435.618	500.75
435.84	527.75
436.062	626.75
436.284	702.75
436.505	568.75
436.727	524.75
436.949	459.75
437.17	460.75
437.392	473.75
437.614	489.75
437.835	534.75
438.057	629.75
438.278	710.75
438.5	689.75
438.721	771.75
438.943	732.75
439.165	584.75
439.386	527.75
439.608	534.75
439.829	540.75
440.05	559.75
440.272	589.75
440.493	556.75
440.715	486.75
440.936	476.75
441.158	476.75
441.379	461.75
441.6	469.75
441.822	496.75
442.043	525.75
442.264	614.75
442.486	678.75
442.707	566.75
442.928	522.75
443.149	516.75
443.371	552.75
443.592	599.75
443.813	692.75
444.034	731.75
444.255	584.75
444.476	526.75
444.698	490.75
444.919	487.75
445.14	577.75
445.361	532.75
445.582	537.75
445.803	614.75
446.024	689.75
446.245	738.75
446.466	657.75
446.687	569.75
446.908	512.75
447.129	484.75
447.35	457.75
447.571	471.75
447.792	456.75
448.013	483.75
448.234	485.75
448.455	546.75
448.675	663.75
448.896	760.75
449.117	671.75
449.338	602.75
449.559	716.75
449.779	795.75
450	677.75
450.221	517.75
450.442	509.75
450.662	473.75
450.883	455.75
451.104	492.75
451.324	467.75
451.545	459.75
451.766	424.75
451.986	412.75
452.207	398.75
452.428	409.75
452.648	402.75
452.869	405.75
453.089	439.75
453.31	445.75
453.53	423.75
453.751	414.75
453.971	421.75
454.192	464.75
454.412	457.75
454.633	425.75
454.853	420.75
455.073	416.75
455.294	457.75
455.514	529.75
455.734	527.75
455.955	440.75
456.175	401.75
456.395	400.75
456.616	401.75
456.836	402.75
457.056	385.75
457.276	393.75
457.497	387.75
457.717	386.75
457.937	393.75
458.157	403.75
458.377	408.75
458.598	421.75
458.818	489.75
459.038	583.75
459.258	592.75
459.478	476.75
459.698	425.75
459.918	417.75
460.138	420.75
460.358	418.75
460.578	422.75
460.798	403.75
461.018	431.75
461.238	417.75
461.458	413.75
461.678	420.75
461.898	421.75
462.118	418.75
462.338	418.75
462.558	418.75
462.777	429.75
462.997	435.75
463.217	440.75
463.437	437.75
463.657	419.75
463.876	434.75
464.096	441.75
464.316	443.75
464.536	431.75
464.755	448.75
464.975	463.75
465.195	509.75
465.414	597.75
465.634	543.75
465.854	470.75
466.073	469.75
466.293	438.75
466.512	407.75
466.732	399.75
466.951	432.75
467.171	401.75
467.391	421.75
467.61	457.75
467.829	447.75
468.049	467.75
468.268	475.75
468.488	459.75
468.707	420.75
468.927	415.75
469.146	425.75
469.365	409.75
469.585	420.75
469.804	412.75
470.023	426.75
470.243	440.75
470.462	440.75
470.681	460.75
470.901	422.75
471.12	420.75
471.339	423.75
471.558	431.75
471.777	436.75
471.997	465.75
472.216	495.75
472.435	609.75
472.654	601.75
472.873	490.75
473.092	461.75
473.311	441.75
473.53	426.75
473.749	465.75
473.968	508.75
474.187	613.75
474.406	640.75
474.625	524.75
474.844	468.75
475.063	457.75
475.282	463.75
475.501	463.75
475.72	456.75
475.939	447.75
476.158	471.75
476.377	454.75
476.596	460.75
476.814	454.75
477.033	474.75
477.252	470.75
477.471	460.75
477.69	457.75
477.908	458.75
478.127	456.75
478.346	468.75
478.564	452.75
478.783	481.75
479.002	481.75
479.22	492.75
479.439	503.75
479.658	517.75
479.876	518.75
480.095	527.75
480.313	549.75
480.532	570.75
480.751	545.75
480.969	599.75
481.188	797.75
481.406	981.75
481.624	739.75
481.843	623.75
482.061	575.75
482.28	575.75
482.498	561.75
482.717	535.75
482.935	555.75
483.153	529.75
483.372	549.75
483.59	543.75
483.808	516.75
484.027	540.75
484.245	539.75
484.463	532.75
484.681	519.75
484.9	547.75
485.118	555.75
485.336	529.75
485.554	539.75
485.772	522.75
485.99	547.75
486.209	551.75
486.427	563.75
486.645	576.75
486.863	581.75
487.081	602.75
487.299	590.75
487.517	563.75
487.735	559.75
487.953	580.75
488.171	557.75
488.389	561.75
488.607	560.75
488.825	571.75
489.043	586.75
489.261	575.75
489.479	577.75
489.696	586.75
489.914	593.75
490.132	596.75
490.35	629.75
490.568	607.75
490.786	619.75
491.003	624.75
491.221	671.75
491.439	685.75
491.657	667.75
491.874	672.75
492.092	665.75
492.31	667.75
492.527	668.75
492.745	690.75
492.963	666.75
493.18	676.75
493.398	681.75
493.615	697.75
493.833	699.75
494.05	695.75
494.268	704.75
494.485	696.75
494.703	677.75
494.92	712.75
495.138	680.75
495.355	689.75
495.573	720.75
495.79	704.75
496.008	683.75
496.225	667.75
496.442	683.75
496.66	724.75
496.877	713.75
497.094	690.75
497.312	682.75
497.529	708.75
497.746	684.75
497.963	684.75
498.181	690.75
498.398	713.75
498.615	703.75
498.832	741.75
499.049	727.75
499.267	731.75
499.484	724.75
499.701	729.75
499.918	772.75
500.135	759.75
500.352	811.75
500.569	791.75
500.786	808.75
501.003	801.75
501.22	804.75
501.437	809.75
501.654	784.75
501.871	799.75
502.088	777.75
