Data from 1986.PennyLincolnUp.Lamp.En5.5.200Scan.071819.P2_HRD10591_17-09-38-974.txt Node
Date: Thu Jul 18 17:09:38 EDT 2019
User: cochatt
Spectrometer: HR+D1059
Trigger mode: 1
Integration Time (sec): 1.000000E-1
Scans to average: 1
Electric dark correction enabled: true
Nonlinearity correction enabled: false
Boxcar width: 0
XAxis mode: Wavelengths
Number of Pixels in Spectrum: 2048
>>>>>Begin Spectral Data<<<<<
223.165	-11.19
223.4	-11.19
223.635	-11.19
223.869	-14.19
224.104	-29.19
224.338	-21.19
224.573	-15.19
224.808	-5.19
225.042	-5.19
225.277	-13.19
225.511	-3.19
225.746	5.81
225.98	-4.19
226.215	13.81
226.449	17.81
226.683	17.81
226.918	32.81
227.152	33.81
227.387	29.81
227.621	37.81
227.856	39.81
228.09	40.81
228.324	43.81
228.559	55.81
228.793	63.81
229.027	101.81
229.262	105.81
229.496	94.81
229.73	108.81
229.964	130.81
230.199	134.81
230.433	109.81
230.667	125.81
230.901	107.81
231.136	97.81
231.37	125.81
231.604	112.81
231.838	116.81
232.072	110.81
232.306	99.81
232.541	99.81
232.775	96.81
233.009	97.81
233.243	114.81
233.477	121.81
233.711	110.81
233.945	122.81
234.179	120.81
234.413	102.81
234.647	106.81
234.881	113.81
235.115	93.81
235.349	112.81
235.583	98.81
235.817	120.81
236.051	104.81
236.285	109.81
236.519	111.81
236.753	116.81
236.987	123.81
237.221	151.81
237.455	211.81
237.689	181.81
237.922	132.81
238.156	127.81
238.39	122.81
238.624	112.81
238.858	109.81
239.091	124.81
239.325	118.81
239.559	121.81
239.793	122.81
240.027	118.81
240.26	125.81
240.494	125.81
240.728	137.81
240.961	142.81
241.195	136.81
241.429	132.81
241.662	125.81
241.896	114.81
242.13	119.81
242.363	120.81
242.597	140.81
242.83	124.81
243.064	121.81
243.298	122.81
243.531	121.81
243.765	138.81
243.998	125.81
244.232	120.81
244.465	124.81
244.699	128.81
244.932	132.81
245.166	131.81
245.399	142.81
245.633	133.81
245.866	123.81
246.099	135.81
246.333	124.81
246.566	145.81
246.8	140.81
247.033	134.81
247.266	155.81
247.5	155.81
247.733	154.81
247.966	159.81
248.2	169.81
248.433	168.81
248.666	137.81
248.899	165.81
249.133	177.81
249.366	194.81
249.599	192.81
249.832	173.81
250.066	161.81
250.299	151.81
250.532	167.81
250.765	179.81
250.998	192.81
251.231	187.81
251.465	198.81
251.698	197.81
251.931	196.81
252.164	195.81
252.397	186.81
252.63	197.81
252.863	182.81
253.096	201.81
253.329	211.81
253.562	217.81
253.795	206.81
254.028	213.81
254.261	181.81
254.494	204.81
254.727	233.81
254.96	244.81
255.193	267.81
255.426	217.81
255.659	210.81
255.892	212.81
256.124	184.81
256.357	199.81
256.59	187.81
256.823	175.81
257.056	180.81
257.289	198.81
257.521	185.81
257.754	194.81
257.987	190.81
258.22	173.81
258.452	193.81
258.685	188.81
258.918	197.81
259.151	193.81
259.383	194.81
259.616	203.81
259.849	205.81
260.081	212.81
260.314	227.81
260.547	232.81
260.779	215.81
261.012	196.81
261.244	206.81
261.477	207.81
261.71	190.81
261.942	194.81
262.175	221.81
262.407	198.81
262.64	206.81
262.872	206.81
263.105	204.81
263.337	191.81
263.57	202.81
263.802	182.81
264.035	188.81
264.267	188.81
264.499	185.81
264.732	185.81
264.964	189.81
265.197	169.81
265.429	190.81
265.661	200.81
265.894	189.81
266.126	188.81
266.358	193.81
266.591	198.81
266.823	189.81
267.055	203.81
267.287	196.81
267.52	202.81
267.752	204.81
267.984	203.81
268.216	200.81
268.448	197.81
268.681	202.81
268.913	215.81
269.145	240.81
269.377	264.81
269.609	233.81
269.841	229.81
270.073	223.81
270.306	261.81
270.538	292.81
270.77	280.81
271.002	278.81
271.234	258.81
271.466	286.81
271.698	279.81
271.93	262.81
272.162	282.81
272.394	274.81
272.626	270.81
272.858	260.81
273.09	271.81
273.322	240.81
273.553	225.81
273.785	220.81
274.017	219.81
274.249	214.81
274.481	233.81
274.713	235.81
274.945	234.81
275.176	235.81
275.408	242.81
275.64	229.81
275.872	225.81
276.104	234.81
276.335	235.81
276.567	225.81
276.799	257.81
277.031	276.81
277.262	286.81
277.494	287.81
277.726	283.81
277.957	251.81
278.189	250.81
278.421	247.81
278.652	234.81
278.884	236.81
279.115	227.81
279.347	257.81
279.579	282.81
279.81	293.81
280.042	295.81
280.273	278.81
280.505	276.81
280.736	243.81
280.968	243.81
281.199	229.81
281.431	229.81
281.662	217.81
281.894	244.81
282.125	231.81
282.356	254.81
282.588	262.81
282.819	274.81
283.051	250.81
283.282	231.81
283.513	224.81
283.745	247.81
283.976	248.81
284.207	235.81
284.439	233.81
284.67	225.81
284.901	253.81
285.132	247.81
285.364	216.81
285.595	251.81
285.826	229.81
286.057	218.81
286.288	227.81
286.52	244.81
286.751	240.81
286.982	223.81
287.213	213.81
287.444	229.81
287.675	235.81
287.906	257.81
288.138	250.81
288.369	253.81
288.6	246.81
288.831	261.81
289.062	252.81
289.293	264.81
289.524	245.81
289.755	234.81
289.986	235.81
290.217	232.81
290.448	242.81
290.679	242.81
290.91	219.81
291.141	254.81
291.371	236.81
291.602	230.81
291.833	240.81
292.064	250.81
292.295	241.81
292.526	237.81
292.757	249.81
292.987	248.81
293.218	236.81
293.449	240.81
293.68	251.81
293.91	245.81
294.141	258.81
294.372	242.81
294.603	247.81
294.833	256.81
295.064	252.81
295.295	242.81
295.525	238.81
295.756	260.81
295.987	260.81
296.217	290.81
296.448	297.81
296.679	271.81
296.909	243.81
297.14	253.81
297.37	249.81
297.601	257.81
297.831	237.81
298.062	237.81
298.292	251.81
298.523	260.81
298.753	262.81
298.984	248.81
299.214	254.81
299.445	248.81
299.675	266.81
299.905	254.81
300.136	260.81
300.366	245.81
300.597	271.81
300.827	273.81
301.057	266.81
301.288	275.81
301.518	267.81
301.748	264.81
301.979	281.81
302.209	264.81
302.439	267.81
302.669	264.81
302.9	274.81
303.13	269.81
303.36	287.81
303.59	283.81
303.82	274.81
304.051	279.81
304.281	264.81
304.511	270.81
304.741	285.81
304.971	273.81
305.201	286.81
305.431	264.81
305.661	276.81
305.891	271.81
306.121	266.81
306.352	270.81
306.582	293.81
306.812	262.81
307.042	259.81
307.272	271.81
307.502	262.81
307.731	277.81
307.961	258.81
308.191	268.81
308.421	260.81
308.651	291.81
308.881	286.81
309.111	276.81
309.341	266.81
309.571	297.81
309.8	278.81
310.03	299.81
310.26	299.81
310.49	291.81
310.72	300.81
310.949	328.81
311.179	336.81
311.409	307.81
311.639	328.81
311.868	313.81
312.098	334.81
312.328	324.81
312.557	324.81
312.787	346.81
313.017	342.81
313.246	340.81
313.476	297.81
313.706	308.81
313.935	314.81
314.165	320.81
314.394	337.81
314.624	330.81
314.853	331.81
315.083	315.81
315.312	336.81
315.542	328.81
315.771	284.81
316.001	315.81
316.23	304.81
316.46	314.81
316.689	300.81
316.919	331.81
317.148	326.81
317.377	330.81
317.607	317.81
317.836	315.81
318.065	330.81
318.295	308.81
318.524	312.81
318.753	313.81
318.983	307.81
319.212	299.81
319.441	304.81
319.67	318.81
319.9	323.81
320.129	316.81
320.358	312.81
320.587	335.81
320.816	322.81
321.046	337.81
321.275	329.81
321.504	328.81
321.733	325.81
321.962	331.81
322.191	370.81
322.42	352.81
322.649	378.81
322.878	373.81
323.108	390.81
323.337	428.81
323.566	442.81
323.795	456.81
324.024	473.81
324.253	566.81
324.482	807.81
324.71	1226.81
324.939	1627.81
325.168	1458.81
325.397	842.81
325.626	577.81
325.855	494.81
326.084	428.81
326.313	443.81
326.542	424.81
326.77	474.81
326.999	553.81
327.228	717.81
327.457	1044.81
327.686	1284.81
327.914	912.81
328.143	633.81
328.372	508.81
328.6	497.81
328.829	472.81
329.058	490.81
329.287	498.81
329.515	455.81
329.744	429.81
329.972	410.81
330.201	417.81
330.43	423.81
330.658	453.81
330.887	510.81
331.115	481.81
331.344	450.81
331.572	418.81
331.801	417.81
332.03	398.81
332.258	370.81
332.486	357.81
332.715	361.81
332.943	355.81
333.172	362.81
333.4	337.81
333.629	373.81
333.857	380.81
334.085	373.81
334.314	364.81
334.542	353.81
334.771	362.81
334.999	379.81
335.227	370.81
335.455	355.81
335.684	370.81
335.912	377.81
336.14	349.81
336.369	353.81
336.597	374.81
336.825	379.81
337.053	359.81
337.281	360.81
337.51	348.81
337.738	359.81
337.966	360.81
338.194	361.81
338.422	377.81
338.65	346.81
338.878	341.81
339.106	342.81
339.334	344.81
339.562	325.81
339.79	340.81
340.018	363.81
340.246	337.81
340.474	374.81
340.702	362.81
340.93	348.81
341.158	330.81
341.386	352.81
341.614	341.81
341.842	322.81
342.07	347.81
342.298	340.81
342.526	315.81
342.754	325.81
342.981	335.81
343.209	325.81
343.437	323.81
343.665	341.81
343.893	326.81
344.12	356.81
344.348	352.81
344.576	367.81
344.804	358.81
345.031	353.81
345.259	374.81
345.487	362.81
345.714	365.81
345.942	362.81
346.17	338.81
346.397	341.81
346.625	347.81
346.853	336.81
347.08	337.81
347.308	331.81
347.535	331.81
347.763	346.81
347.99	358.81
348.218	337.81
348.445	345.81
348.673	345.81
348.9	354.81
349.128	325.81
349.355	339.81
349.583	347.81
349.81	338.81
350.037	347.81
350.265	313.81
350.492	334.81
350.72	340.81
350.947	324.81
351.174	356.81
351.402	369.81
351.629	334.81
351.856	347.81
352.083	350.81
352.311	375.81
352.538	349.81
352.765	368.81
352.992	339.81
353.22	341.81
353.447	344.81
353.674	323.81
353.901	340.81
354.128	313.81
354.355	320.81
354.583	334.81
354.81	322.81
355.037	338.81
355.264	315.81
355.491	315.81
355.718	318.81
355.945	315.81
356.172	293.81
356.399	309.81
356.626	321.81
356.853	309.81
357.08	318.81
357.307	315.81
357.534	314.81
357.761	313.81
357.988	326.81
358.215	331.81
358.441	325.81
358.668	315.81
358.895	330.81
359.122	324.81
359.349	325.81
359.576	350.81
359.802	361.81
360.029	390.81
360.256	388.81
360.483	369.81
360.709	361.81
360.936	358.81
361.163	356.81
361.39	326.81
361.616	332.81
361.843	337.81
362.07	340.81
362.296	349.81
362.523	332.81
362.749	331.81
362.976	331.81
363.203	326.81
363.429	322.81
363.656	330.81
363.882	320.81
364.109	318.81
364.335	316.81
364.562	310.81
364.788	311.81
365.015	334.81
365.241	329.81
365.468	339.81
365.694	328.81
365.92	312.81
366.147	325.81
366.373	325.81
366.599	323.81
366.826	337.81
367.052	314.81
367.278	336.81
367.505	310.81
367.731	327.81
367.957	323.81
368.184	341.81
368.41	336.81
368.636	328.81
368.862	330.81
369.089	338.81
369.315	332.81
369.541	315.81
369.767	310.81
369.993	325.81
370.219	323.81
370.445	329.81
370.672	341.81
370.898	315.81
371.124	326.81
371.35	320.81
371.576	322.81
371.802	314.81
372.028	314.81
372.254	322.81
372.48	321.81
372.706	315.81
372.932	315.81
373.158	330.81
373.384	317.81
373.61	337.81
373.835	314.81
374.061	322.81
374.287	292.81
374.513	325.81
374.739	341.81
374.965	338.81
375.191	317.81
375.416	337.81
375.642	317.81
375.868	318.81
376.094	330.81
376.319	327.81
376.545	329.81
376.771	325.81
376.997	316.81
377.222	327.81
377.448	317.81
377.674	312.81
377.899	314.81
378.125	300.81
378.35	321.81
378.576	314.81
378.802	319.81
379.027	317.81
379.253	300.81
379.478	330.81
379.704	331.81
379.929	319.81
380.155	326.81
380.38	303.81
380.606	313.81
380.831	319.81
381.057	323.81
381.282	338.81
381.507	321.81
381.733	313.81
381.958	299.81
382.184	336.81
382.409	322.81
382.634	330.81
382.86	322.81
383.085	340.81
383.31	347.81
383.535	328.81
383.761	336.81
383.986	337.81
384.211	334.81
384.436	348.81
384.662	326.81
384.887	340.81
385.112	330.81
385.337	342.81
385.562	342.81
385.787	341.81
386.013	338.81
386.238	355.81
386.463	349.81
386.688	341.81
386.913	325.81
387.138	352.81
387.363	365.81
387.588	338.81
387.813	349.81
388.038	340.81
388.263	361.81
388.488	348.81
388.713	314.81
388.938	340.81
389.163	343.81
389.387	338.81
389.612	325.81
389.837	338.81
390.062	336.81
390.287	341.81
390.512	314.81
390.736	329.81
390.961	344.81
391.186	350.81
391.411	337.81
391.636	328.81
391.86	339.81
392.085	345.81
392.31	337.81
392.534	339.81
392.759	347.81
392.984	359.81
393.208	367.81
393.433	418.81
393.658	406.81
393.882	372.81
394.107	354.81
394.331	346.81
394.556	347.81
394.78	368.81
395.005	339.81
395.229	336.81
395.454	345.81
395.678	350.81
395.903	358.81
396.127	368.81
396.352	378.81
396.576	371.81
396.801	374.81
397.025	386.81
397.249	375.81
397.474	364.81
397.698	361.81
397.922	352.81
398.147	375.81
398.371	371.81
398.595	366.81
398.82	361.81
399.044	364.81
399.268	381.81
399.492	388.81
399.717	400.81
399.941	440.81
400.165	457.81
400.389	435.81
400.613	422.81
400.837	417.81
401.062	389.81
401.286	389.81
401.51	374.81
401.734	373.81
401.958	381.81
402.182	382.81
402.406	393.81
402.63	379.81
402.854	372.81
403.078	379.81
403.302	394.81
403.526	408.81
403.75	377.81
403.974	394.81
404.198	386.81
404.422	386.81
404.645	387.81
404.869	373.81
405.093	409.81
405.317	416.81
405.541	455.81
405.765	426.81
405.988	412.81
406.212	428.81
406.436	439.81
406.66	452.81
406.883	444.81
407.107	448.81
407.331	484.81
407.555	524.81
407.778	540.81
408.002	472.81
408.226	448.81
408.449	436.81
408.673	436.81
408.896	475.81
409.12	504.81
409.344	478.81
409.567	423.81
409.791	390.81
410.014	412.81
410.238	388.81
410.461	402.81
410.685	390.81
410.908	394.81
411.132	444.81
411.355	470.81
411.578	435.81
411.802	398.81
412.025	398.81
412.249	376.81
412.472	392.81
412.695	375.81
412.919	381.81
413.142	399.81
413.365	378.81
413.589	378.81
413.812	365.81
414.035	371.81
414.258	370.81
414.482	374.81
414.705	370.81
414.928	355.81
415.151	361.81
415.374	368.81
415.597	371.81
415.821	374.81
416.044	380.81
416.267	382.81
416.49	366.81
416.713	372.81
416.936	371.81
417.159	365.81
417.382	368.81
417.605	374.81
417.828	378.81
418.051	406.81
418.274	388.81
418.497	389.81
418.72	376.81
418.943	386.81
419.166	397.81
419.389	405.81
419.611	395.81
419.834	385.81
420.057	392.81
420.28	390.81
420.503	384.81
420.726	374.81
420.948	403.81
421.171	450.81
421.394	473.81
421.617	428.81
421.839	384.81
422.062	393.81
422.285	418.81
422.507	459.81
422.73	528.81
422.953	500.81
423.175	451.81
423.398	410.81
423.621	410.81
423.843	425.81
424.066	428.81
424.288	431.81
424.511	449.81
424.733	481.81
424.956	567.81
425.178	539.81
425.401	550.81
425.623	544.81
425.846	460.81
426.068	446.81
426.291	438.81
426.513	437.81
426.735	436.81
426.958	463.81
427.18	527.81
427.402	645.81
427.625	712.81
427.847	642.81
428.069	523.81
428.292	479.81
428.514	443.81
428.736	416.81
428.958	415.81
429.181	386.81
429.403	403.81
429.625	422.81
429.847	452.81
430.069	512.81
430.292	507.81
430.514	442.81
430.736	406.81
430.958	414.81
431.18	391.81
431.402	378.81
431.624	378.81
431.846	368.81
432.068	382.81
432.29	371.81
432.512	361.81
432.734	368.81
432.956	370.81
433.178	386.81
433.4	382.81
433.622	386.81
433.844	364.81
434.066	372.81
434.287	393.81
434.509	383.81
434.731	391.81
434.953	391.81
435.175	424.81
435.397	430.81
435.618	440.81
435.84	462.81
436.062	522.81
436.284	574.81
436.505	522.81
436.727	451.81
436.949	422.81
437.17	416.81
437.392	407.81
437.614	422.81
437.835	435.81
438.057	515.81
438.278	631.81
438.5	618.81
438.721	685.81
438.943	642.81
439.165	532.81
439.386	458.81
439.608	451.81
439.829	428.81
440.05	475.81
440.272	498.81
440.493	468.81
440.715	428.81
440.936	413.81
441.158	426.81
441.379	417.81
441.6	418.81
441.822	413.81
442.043	444.81
442.264	547.81
442.486	568.81
442.707	486.81
442.928	450.81
443.149	434.81
443.371	469.81
443.592	490.81
443.813	616.81
444.034	621.81
444.255	512.81
444.476	464.81
444.698	439.81
444.919	424.81
445.14	535.81
445.361	471.81
445.582	484.81
445.803	516.81
446.024	597.81
446.245	590.81
446.466	550.81
446.687	484.81
446.908	454.81
447.129	419.81
447.35	414.81
447.571	423.81
447.792	391.81
448.013	411.81
448.234	450.81
448.455	487.81
448.675	586.81
448.896	650.81
449.117	562.81
449.338	512.81
449.559	586.81
449.779	692.81
450	561.81
450.221	452.81
450.442	428.81
450.662	396.81
450.883	390.81
451.104	439.81
451.324	408.81
451.545	390.81
451.766	380.81
451.986	364.81
452.207	362.81
452.428	378.81
452.648	360.81
452.869	373.81
453.089	367.81
453.31	381.81
453.53	376.81
453.751	375.81
453.971	382.81
454.192	380.81
454.412	359.81
454.633	380.81
454.853	350.81
455.073	363.81
455.294	394.81
455.514	461.81
455.734	455.81
455.955	381.81
456.175	346.81
456.395	334.81
456.616	325.81
456.836	347.81
457.056	334.81
457.276	320.81
457.497	326.81
457.717	331.81
457.937	343.81
458.157	364.81
458.377	356.81
458.598	373.81
458.818	429.81
459.038	500.81
459.258	523.81
459.478	439.81
459.698	398.81
459.918	366.81
460.138	355.81
460.358	380.81
460.578	359.81
460.798	367.81
461.018	372.81
461.238	384.81
461.458	355.81
461.678	372.81
461.898	385.81
462.118	382.81
462.338	377.81
462.558	354.81
462.777	380.81
462.997	378.81
463.217	411.81
463.437	401.81
463.657	385.81
463.876	386.81
464.096	384.81
464.316	386.81
464.536	402.81
464.755	421.81
464.975	399.81
465.195	453.81
465.414	516.81
465.634	449.81
465.854	398.81
466.073	383.81
466.293	391.81
466.512	364.81
466.732	355.81
466.951	373.81
467.171	342.81
467.391	378.81
467.61	378.81
467.829	392.81
468.049	371.81
468.268	354.81
468.488	358.81
468.707	348.81
468.927	355.81
469.146	352.81
469.365	341.81
469.585	352.81
469.804	372.81
470.023	370.81
470.243	368.81
470.462	358.81
470.681	394.81
470.901	398.81
471.12	358.81
471.339	372.81
471.558	360.81
471.777	374.81
471.997	368.81
472.216	365.81
472.435	372.81
472.654	358.81
472.873	364.81
473.092	373.81
473.311	380.81
473.53	369.81
473.749	384.81
473.968	415.81
474.187	500.81
474.406	536.81
474.625	446.81
474.844	384.81
475.063	373.81
475.282	361.81
475.501	370.81
475.72	371.81
475.939	384.81
476.158	386.81
476.377	382.81
476.596	406.81
476.814	390.81
477.033	403.81
477.252	378.81
477.471	394.81
477.69	410.81
477.908	406.81
478.127	412.81
478.346	405.81
478.564	402.81
478.783	413.81
479.002	420.81
479.22	412.81
479.439	439.81
479.658	453.81
479.876	453.81
480.095	449.81
480.313	481.81
480.532	453.81
480.751	450.81
480.969	438.81
481.188	456.81
481.406	476.81
481.624	458.81
481.843	455.81
482.061	428.81
482.28	428.81
482.498	437.81
482.717	447.81
482.935	443.81
483.153	419.81
483.372	476.81
483.59	432.81
483.808	410.81
484.027	426.81
484.245	444.81
484.463	456.81
484.681	469.81
484.9	429.81
485.118	429.81
485.336	437.81
485.554	452.81
485.772	464.81
485.99	457.81
486.209	450.81
486.427	459.81
486.645	475.81
486.863	477.81
487.081	492.81
487.299	474.81
487.517	467.81
487.735	468.81
487.953	488.81
488.171	486.81
488.389	484.81
488.607	487.81
488.825	485.81
489.043	465.81
489.261	481.81
489.479	467.81
489.696	484.81
489.914	489.81
490.132	500.81
490.35	514.81
490.568	513.81
490.786	510.81
491.003	516.81
491.221	524.81
491.439	522.81
491.657	532.81
491.874	544.81
492.092	525.81
492.31	540.81
492.527	540.81
492.745	522.81
492.963	528.81
493.18	544.81
493.398	548.81
493.615	558.81
493.833	566.81
494.05	568.81
494.268	547.81
494.485	536.81
494.703	544.81
494.92	562.81
495.138	553.81
495.355	572.81
495.573	572.81
495.79	536.81
496.008	566.81
496.225	598.81
496.442	569.81
496.66	558.81
496.877	556.81
497.094	544.81
497.312	567.81
497.529	560.81
497.746	573.81
497.963	559.81
498.181	610.81
498.398	605.81
498.615	596.81
498.832	613.81
499.049	597.81
499.267	637.81
499.484	652.81
499.701	654.81
499.918	650.81
500.135	697.81
500.352	712.81
500.569	700.81
500.786	692.81
501.003	720.81
501.22	717.81
501.437	690.81
501.654	668.81
501.871	688.81
502.088	674.81
