Data from 1986.PennyLincolnUp.Lamp.En5.5.200Scan.071819.P2_HRD10591_17-11-07-973.txt Node
Date: Thu Jul 18 17:11:07 EDT 2019
User: cochatt
Spectrometer: HR+D1059
Trigger mode: 1
Integration Time (sec): 1.000000E-1
Scans to average: 1
Electric dark correction enabled: true
Nonlinearity correction enabled: false
Boxcar width: 0
XAxis mode: Wavelengths
Number of Pixels in Spectrum: 2048
>>>>>Begin Spectral Data<<<<<
223.165	-31.56
223.4	-31.56
223.635	-31.56
223.869	-22.56
224.104	-17.56
224.338	-6.56
224.573	-5.56
224.808	-5.56
225.042	-17.56
225.277	-7.56
225.511	-6.56
225.746	3.44
225.98	18.44
226.215	8.44
226.449	18.44
226.683	17.44
226.918	25.44
227.152	29.44
227.387	27.44
227.621	16.44
227.856	39.44
228.09	47.44
228.324	55.44
228.559	50.44
228.793	67.44
229.027	109.44
229.262	77.44
229.496	111.44
229.73	137.44
229.964	143.44
230.199	121.44
230.433	102.44
230.667	107.44
230.901	116.44
231.136	114.44
231.37	97.44
231.604	109.44
231.838	111.44
232.072	101.44
232.306	108.44
232.541	106.44
232.775	101.44
233.009	121.44
233.243	106.44
233.477	105.44
233.711	108.44
233.945	100.44
234.179	113.44
234.413	120.44
234.647	93.44
234.881	100.44
235.115	104.44
235.349	121.44
235.583	133.44
235.817	113.44
236.051	103.44
236.285	117.44
236.519	125.44
236.753	118.44
236.987	137.44
237.221	176.44
237.455	226.44
237.689	191.44
237.922	139.44
238.156	125.44
238.39	113.44
238.624	128.44
238.858	129.44
239.091	104.44
239.325	130.44
239.559	123.44
239.793	126.44
240.027	134.44
240.26	139.44
240.494	152.44
240.728	155.44
240.961	149.44
241.195	153.44
241.429	146.44
241.662	133.44
241.896	133.44
242.13	122.44
242.363	134.44
242.597	121.44
242.83	137.44
243.064	129.44
243.298	137.44
243.531	132.44
243.765	144.44
243.998	140.44
244.232	143.44
244.465	162.44
244.699	131.44
244.932	150.44
245.166	138.44
245.399	149.44
245.633	133.44
245.866	146.44
246.099	140.44
246.333	147.44
246.566	152.44
246.8	147.44
247.033	157.44
247.266	146.44
247.5	151.44
247.733	173.44
247.966	176.44
248.2	169.44
248.433	167.44
248.666	182.44
248.899	186.44
249.133	208.44
249.366	221.44
249.599	221.44
249.832	211.44
250.066	179.44
250.299	191.44
250.532	204.44
250.765	215.44
250.998	253.44
251.231	249.44
251.465	242.44
251.698	229.44
251.931	213.44
252.164	214.44
252.397	197.44
252.63	210.44
252.863	227.44
253.096	231.44
253.329	255.44
253.562	238.44
253.795	242.44
254.028	225.44
254.261	217.44
254.494	231.44
254.727	254.44
254.96	281.44
255.193	303.44
255.426	257.44
255.659	247.44
255.892	267.44
256.124	266.44
256.357	281.44
256.59	255.44
256.823	240.44
257.056	249.44
257.289	226.44
257.521	209.44
257.754	208.44
257.987	213.44
258.22	216.44
258.452	208.44
258.685	233.44
258.918	217.44
259.151	208.44
259.383	223.44
259.616	227.44
259.849	255.44
260.081	253.44
260.314	259.44
260.547	268.44
260.779	253.44
261.012	234.44
261.244	215.44
261.477	241.44
261.71	213.44
261.942	233.44
262.175	245.44
262.407	227.44
262.64	220.44
262.872	206.44
263.105	206.44
263.337	213.44
263.57	217.44
263.802	215.44
264.035	199.44
264.267	217.44
264.499	211.44
264.732	211.44
264.964	208.44
265.197	212.44
265.429	207.44
265.661	215.44
265.894	201.44
266.126	229.44
266.358	219.44
266.591	197.44
266.823	234.44
267.055	240.44
267.287	231.44
267.52	238.44
267.752	224.44
267.984	218.44
268.216	237.44
268.448	249.44
268.681	219.44
268.913	232.44
269.145	258.44
269.377	280.44
269.609	264.44
269.841	263.44
270.073	265.44
270.306	317.44
270.538	325.44
270.77	313.44
271.002	317.44
271.234	292.44
271.466	279.44
271.698	302.44
271.93	335.44
272.162	320.44
272.394	331.44
272.626	311.44
272.858	305.44
273.09	292.44
273.322	279.44
273.553	262.44
273.785	266.44
274.017	247.44
274.249	276.44
274.481	262.44
274.713	250.44
274.945	268.44
275.176	263.44
275.408	258.44
275.64	266.44
275.872	248.44
276.104	273.44
276.335	258.44
276.567	275.44
276.799	307.44
277.031	319.44
277.262	334.44
277.494	324.44
277.726	314.44
277.957	303.44
278.189	290.44
278.421	281.44
278.652	283.44
278.884	265.44
279.115	282.44
279.347	264.44
279.579	245.44
279.81	255.44
280.042	265.44
280.273	249.44
280.505	253.44
280.736	263.44
280.968	259.44
281.199	253.44
281.431	237.44
281.662	255.44
281.894	256.44
282.125	259.44
282.356	274.44
282.588	314.44
282.819	298.44
283.051	276.44
283.282	273.44
283.513	260.44
283.745	271.44
283.976	269.44
284.207	272.44
284.439	263.44
284.67	269.44
284.901	273.44
285.132	259.44
285.364	253.44
285.595	270.44
285.826	269.44
286.057	259.44
286.288	251.44
286.52	267.44
286.751	250.44
286.982	259.44
287.213	266.44
287.444	262.44
287.675	270.44
287.906	278.44
288.138	282.44
288.369	290.44
288.6	278.44
288.831	279.44
289.062	293.44
289.293	296.44
289.524	275.44
289.755	272.44
289.986	285.44
290.217	281.44
290.448	279.44
290.679	270.44
290.91	278.44
291.141	267.44
291.371	259.44
291.602	267.44
291.833	264.44
292.064	248.44
292.295	263.44
292.526	279.44
292.757	274.44
292.987	273.44
293.218	271.44
293.449	272.44
293.68	269.44
293.91	285.44
294.141	257.44
294.372	273.44
294.603	266.44
294.833	279.44
295.064	291.44
295.295	265.44
295.525	261.44
295.756	288.44
295.987	281.44
296.217	314.44
296.448	324.44
296.679	290.44
296.909	287.44
297.14	281.44
297.37	286.44
297.601	281.44
297.831	277.44
298.062	286.44
298.292	290.44
298.523	272.44
298.753	285.44
298.984	285.44
299.214	292.44
299.445	294.44
299.675	286.44
299.905	296.44
300.136	301.44
300.366	291.44
300.597	303.44
300.827	290.44
301.057	301.44
301.288	309.44
301.518	302.44
301.748	287.44
301.979	309.44
302.209	318.44
302.439	307.44
302.669	295.44
302.9	312.44
303.13	286.44
303.36	294.44
303.59	304.44
303.82	340.44
304.051	310.44
304.281	306.44
304.511	301.44
304.741	294.44
304.971	285.44
305.201	305.44
305.431	302.44
305.661	286.44
305.891	306.44
306.121	281.44
306.352	305.44
306.582	330.44
306.812	314.44
307.042	323.44
307.272	300.44
307.502	299.44
307.731	306.44
307.961	311.44
308.191	324.44
308.421	295.44
308.651	317.44
308.881	308.44
309.111	331.44
309.341	351.44
309.571	334.44
309.8	345.44
310.03	361.44
310.26	371.44
310.49	353.44
310.72	375.44
310.949	383.44
311.179	414.44
311.409	362.44
311.639	373.44
311.868	348.44
312.098	362.44
312.328	362.44
312.557	386.44
312.787	403.44
313.017	404.44
313.246	385.44
313.476	370.44
313.706	350.44
313.935	353.44
314.165	381.44
314.394	400.44
314.624	366.44
314.853	376.44
315.083	377.44
315.312	349.44
315.542	335.44
315.771	345.44
316.001	345.44
316.23	334.44
316.46	340.44
316.689	340.44
316.919	369.44
317.148	357.44
317.377	374.44
317.607	380.44
317.836	360.44
318.065	366.44
318.295	346.44
318.524	343.44
318.753	357.44
318.983	335.44
319.212	356.44
319.441	359.44
319.67	386.44
319.9	360.44
320.129	361.44
320.358	373.44
320.587	349.44
320.816	383.44
321.046	389.44
321.275	396.44
321.504	402.44
321.733	408.44
321.962	401.44
322.191	422.44
322.42	419.44
322.649	443.44
322.878	445.44
323.108	466.44
323.337	489.44
323.566	523.44
323.795	563.44
324.024	638.44
324.253	750.44
324.482	1078.44
324.71	1645.44
324.939	2293.44
325.168	2059.44
325.397	1110.44
325.626	734.44
325.855	600.44
326.084	565.44
326.313	535.44
326.542	529.44
326.77	588.44
326.999	695.44
327.228	919.44
327.457	1442.44
327.686	1781.44
327.914	1221.44
328.143	804.44
328.372	699.44
328.6	677.44
328.829	604.44
329.058	639.44
329.287	617.44
329.515	592.44
329.744	553.44
329.972	555.44
330.201	586.44
330.43	669.44
330.658	659.44
330.887	683.44
331.115	650.44
331.344	549.44
331.572	509.44
331.801	509.44
332.03	477.44
332.258	465.44
332.486	456.44
332.715	427.44
332.943	441.44
333.172	418.44
333.4	442.44
333.629	453.44
333.857	472.44
334.085	492.44
334.314	529.44
334.542	583.44
334.771	612.44
334.999	525.44
335.227	490.44
335.455	453.44
335.684	438.44
335.912	409.44
336.14	393.44
336.369	417.44
336.597	426.44
336.825	422.44
337.053	426.44
337.281	406.44
337.51	400.44
337.738	396.44
337.966	412.44
338.194	419.44
338.422	420.44
338.65	400.44
338.878	407.44
339.106	391.44
339.334	401.44
339.562	386.44
339.79	385.44
340.018	410.44
340.246	392.44
340.474	426.44
340.702	410.44
340.93	386.44
341.158	393.44
341.386	391.44
341.614	409.44
341.842	397.44
342.07	386.44
342.298	389.44
342.526	390.44
342.754	384.44
342.981	381.44
343.209	361.44
343.437	356.44
343.665	391.44
343.893	370.44
344.12	405.44
344.348	385.44
344.576	389.44
344.804	391.44
345.031	406.44
345.259	428.44
345.487	395.44
345.714	395.44
345.942	394.44
346.17	382.44
346.397	397.44
346.625	390.44
346.853	391.44
347.08	382.44
347.308	389.44
347.535	418.44
347.763	402.44
347.99	400.44
348.218	404.44
348.445	406.44
348.673	425.44
348.9	392.44
349.128	393.44
349.355	358.44
349.583	356.44
349.81	359.44
350.037	370.44
350.265	393.44
350.492	390.44
350.72	375.44
350.947	374.44
351.174	391.44
351.402	397.44
351.629	401.44
351.856	397.44
352.083	407.44
352.311	440.44
352.538	401.44
352.765	422.44
352.992	391.44
353.22	395.44
353.447	397.44
353.674	392.44
353.901	373.44
354.128	352.44
354.355	369.44
354.583	379.44
354.81	350.44
355.037	362.44
355.264	353.44
355.491	354.44
355.718	343.44
355.945	360.44
356.172	351.44
356.399	355.44
356.626	355.44
356.853	351.44
357.08	362.44
357.307	334.44
357.534	350.44
357.761	360.44
357.988	354.44
358.215	342.44
358.441	342.44
358.668	352.44
358.895	360.44
359.122	349.44
359.349	385.44
359.576	395.44
359.802	410.44
360.029	431.44
360.256	456.44
360.483	426.44
360.709	379.44
360.936	396.44
361.163	405.44
361.39	396.44
361.616	391.44
361.843	385.44
362.07	378.44
362.296	393.44
362.523	365.44
362.749	387.44
362.976	387.44
363.203	384.44
363.429	389.44
363.656	386.44
363.882	352.44
364.109	386.44
364.335	367.44
364.562	355.44
364.788	369.44
365.015	365.44
365.241	359.44
365.468	369.44
365.694	381.44
365.92	373.44
366.147	374.44
366.373	357.44
366.599	343.44
366.826	363.44
367.052	361.44
367.278	356.44
367.505	353.44
367.731	379.44
367.957	348.44
368.184	357.44
368.41	374.44
368.636	359.44
368.862	371.44
369.089	386.44
369.315	355.44
369.541	350.44
369.767	322.44
369.993	338.44
370.219	347.44
370.445	361.44
370.672	351.44
370.898	346.44
371.124	334.44
371.35	365.44
371.576	347.44
371.802	349.44
372.028	357.44
372.254	328.44
372.48	340.44
372.706	341.44
372.932	339.44
373.158	356.44
373.384	340.44
373.61	366.44
373.835	347.44
374.061	361.44
374.287	352.44
374.513	347.44
374.739	363.44
374.965	338.44
375.191	342.44
375.416	350.44
375.642	365.44
375.868	359.44
376.094	349.44
376.319	343.44
376.545	367.44
376.771	354.44
376.997	339.44
377.222	338.44
377.448	348.44
377.674	343.44
377.899	339.44
378.125	351.44
378.35	329.44
378.576	342.44
378.802	335.44
379.027	339.44
379.253	348.44
379.478	334.44
379.704	365.44
379.929	350.44
380.155	359.44
380.38	368.44
380.606	353.44
380.831	328.44
381.057	345.44
381.282	329.44
381.507	357.44
381.733	353.44
381.958	351.44
382.184	357.44
382.409	353.44
382.634	341.44
382.86	336.44
383.085	354.44
383.31	350.44
383.535	369.44
383.761	351.44
383.986	362.44
384.211	366.44
384.436	346.44
384.662	356.44
384.887	375.44
385.112	369.44
385.337	381.44
385.562	364.44
385.787	349.44
386.013	386.44
386.238	375.44
386.463	370.44
386.688	355.44
386.913	351.44
387.138	341.44
387.363	372.44
387.588	352.44
387.813	341.44
388.038	372.44
388.263	364.44
388.488	377.44
388.713	370.44
388.938	357.44
389.163	345.44
389.387	340.44
389.612	388.44
389.837	365.44
390.062	354.44
390.287	371.44
390.512	341.44
390.736	337.44
390.961	366.44
391.186	362.44
391.411	367.44
391.636	360.44
391.86	365.44
392.085	379.44
392.31	355.44
392.534	382.44
392.759	349.44
392.984	353.44
393.208	365.44
393.433	365.44
393.658	358.44
393.882	353.44
394.107	366.44
394.331	359.44
394.556	353.44
394.78	376.44
395.005	343.44
395.229	362.44
395.454	382.44
395.678	350.44
395.903	365.44
396.127	394.44
396.352	394.44
396.576	386.44
396.801	361.44
397.025	371.44
397.249	391.44
397.474	375.44
397.698	376.44
397.922	409.44
398.147	401.44
398.371	404.44
398.595	409.44
398.82	396.44
399.044	406.44
399.268	406.44
399.492	430.44
399.717	439.44
399.941	451.44
400.165	474.44
400.389	494.44
400.613	466.44
400.837	453.44
401.062	426.44
401.286	434.44
401.51	405.44
401.734	403.44
401.958	397.44
402.182	428.44
402.406	435.44
402.63	433.44
402.854	442.44
403.078	426.44
403.302	410.44
403.526	424.44
403.75	431.44
403.974	429.44
404.198	433.44
404.422	428.44
404.645	431.44
404.869	459.44
405.093	487.44
405.317	517.44
405.541	539.44
405.765	513.44
405.988	473.44
406.212	472.44
406.436	482.44
406.66	498.44
406.883	466.44
407.107	503.44
407.331	506.44
407.555	568.44
407.778	594.44
408.002	508.44
408.226	473.44
408.449	470.44
408.673	466.44
408.896	509.44
409.12	558.44
409.344	487.44
409.567	470.44
409.791	454.44
410.014	431.44
410.238	429.44
410.461	419.44
410.685	426.44
410.908	451.44
411.132	479.44
411.355	527.44
411.578	504.44
411.802	444.44
412.025	434.44
412.249	437.44
412.472	478.44
412.695	535.44
412.919	513.44
413.142	466.44
413.365	451.44
413.589	430.44
413.812	419.44
414.035	413.44
414.258	440.44
414.482	411.44
414.705	386.44
414.928	417.44
415.151	414.44
415.374	389.44
415.597	385.44
415.821	401.44
416.044	426.44
416.267	405.44
416.49	422.44
416.713	410.44
416.936	417.44
417.159	406.44
417.382	400.44
417.605	410.44
417.828	424.44
418.051	454.44
418.274	426.44
418.497	411.44
418.72	429.44
418.943	414.44
419.166	405.44
419.389	415.44
419.611	428.44
419.834	441.44
420.057	446.44
420.28	452.44
420.503	443.44
420.726	449.44
420.948	448.44
421.171	506.44
421.394	520.44
421.617	426.44
421.839	433.44
422.062	441.44
422.285	457.44
422.507	508.44
422.73	577.44
422.953	553.44
423.175	509.44
423.398	479.44
423.621	435.44
423.843	494.44
424.066	471.44
424.288	464.44
424.511	481.44
424.733	545.44
424.956	632.44
425.178	608.44
425.401	605.44
425.623	611.44
425.846	550.44
426.068	493.44
426.291	489.44
426.513	489.44
426.735	511.44
426.958	558.44
427.18	622.44
427.402	696.44
427.625	813.44
427.847	751.44
428.069	650.44
428.292	552.44
428.514	507.44
428.736	475.44
428.958	500.44
429.181	446.44
429.403	450.44
429.625	481.44
429.847	501.44
430.069	558.44
430.292	541.44
430.514	477.44
430.736	442.44
430.958	421.44
431.18	409.44
431.402	442.44
431.624	417.44
431.846	414.44
432.068	421.44
432.29	414.44
432.512	415.44
432.734	447.44
432.956	425.44
433.178	433.44
433.4	430.44
433.622	431.44
433.844	421.44
434.066	401.44
434.287	402.44
434.509	426.44
434.731	414.44
434.953	415.44
435.175	478.44
435.397	459.44
435.618	471.44
435.84	514.44
436.062	616.44
436.284	686.44
436.505	583.44
436.727	541.44
436.949	485.44
437.17	483.44
437.392	459.44
437.614	458.44
437.835	494.44
438.057	597.44
438.278	705.44
438.5	693.44
438.721	731.44
438.943	707.44
439.165	573.44
439.386	533.44
439.608	515.44
439.829	513.44
440.05	537.44
440.272	575.44
440.493	547.44
440.715	486.44
440.936	464.44
441.158	454.44
441.379	449.44
441.6	458.44
441.822	471.44
442.043	523.44
442.264	594.44
442.486	644.44
442.707	536.44
442.928	509.44
443.149	509.44
443.371	514.44
443.592	570.44
443.813	650.44
444.034	716.44
444.255	567.44
444.476	509.44
444.698	489.44
444.919	469.44
445.14	575.44
445.361	540.44
445.582	508.44
445.803	578.44
446.024	656.44
446.245	707.44
446.466	639.44
446.687	549.44
446.908	485.44
447.129	486.44
447.35	463.44
447.571	458.44
447.792	453.44
448.013	481.44
448.234	479.44
448.455	513.44
448.675	637.44
448.896	732.44
449.117	627.44
449.338	579.44
449.559	699.44
449.779	747.44
450	638.44
450.221	529.44
450.442	461.44
450.662	457.44
450.883	468.44
451.104	477.44
451.324	478.44
451.545	434.44
451.766	420.44
451.986	394.44
452.207	389.44
452.428	396.44
452.648	408.44
452.869	408.44
453.089	411.44
453.31	442.44
453.53	413.44
453.751	389.44
453.971	414.44
454.192	417.44
454.412	423.44
454.633	429.44
454.853	421.44
455.073	405.44
455.294	448.44
455.514	474.44
455.734	469.44
455.955	433.44
456.175	375.44
456.395	379.44
456.616	387.44
456.836	382.44
457.056	378.44
457.276	376.44
457.497	387.44
457.717	385.44
457.937	375.44
458.157	393.44
458.377	368.44
458.598	424.44
458.818	476.44
459.038	579.44
459.258	591.44
459.478	495.44
459.698	422.44
459.918	417.44
460.138	407.44
460.358	402.44
460.578	402.44
460.798	394.44
461.018	403.44
461.238	407.44
461.458	404.44
461.678	378.44
461.898	394.44
462.118	413.44
462.338	410.44
462.558	400.44
462.777	408.44
462.997	402.44
463.217	403.44
463.437	415.44
463.657	435.44
463.876	425.44
464.096	395.44
464.316	401.44
464.536	435.44
464.755	430.44
464.975	441.44
465.195	501.44
465.414	593.44
465.634	496.44
465.854	442.44
466.073	447.44
466.293	427.44
466.512	447.44
466.732	401.44
466.951	403.44
467.171	413.44
467.391	391.44
467.61	409.44
467.829	437.44
468.049	413.44
468.268	433.44
468.488	388.44
468.707	400.44
468.927	379.44
469.146	396.44
469.365	408.44
469.585	401.44
469.804	405.44
470.023	415.44
470.243	408.44
470.462	414.44
470.681	424.44
470.901	418.44
471.12	410.44
471.339	423.44
471.558	411.44
471.777	418.44
471.997	419.44
472.216	433.44
472.435	516.44
472.654	494.44
472.873	441.44
473.092	419.44
473.311	415.44
473.53	418.44
473.749	421.44
473.968	471.44
474.187	591.44
474.406	587.44
474.625	500.44
474.844	443.44
475.063	427.44
475.282	418.44
475.501	414.44
475.72	410.44
475.939	431.44
476.158	440.44
476.377	438.44
476.596	408.44
476.814	415.44
477.033	417.44
477.252	424.44
477.471	430.44
477.69	425.44
477.908	445.44
478.127	467.44
478.346	454.44
478.564	452.44
478.783	469.44
479.002	461.44
479.22	448.44
479.439	473.44
479.658	496.44
479.876	509.44
480.095	511.44
480.313	532.44
480.532	507.44
480.751	501.44
480.969	543.44
481.188	643.44
481.406	744.44
481.624	621.44
481.843	561.44
482.061	534.44
482.28	526.44
482.498	505.44
482.717	503.44
482.935	496.44
483.153	490.44
483.372	481.44
483.59	495.44
483.808	500.44
484.027	481.44
484.245	481.44
484.463	479.44
484.681	484.44
484.9	512.44
485.118	526.44
485.336	508.44
485.554	492.44
485.772	487.44
485.99	519.44
486.209	514.44
486.427	519.44
486.645	531.44
486.863	539.44
487.081	550.44
487.299	543.44
487.517	555.44
487.735	526.44
487.953	517.44
488.171	533.44
488.389	548.44
488.607	547.44
488.825	538.44
489.043	549.44
489.261	547.44
489.479	536.44
489.696	558.44
489.914	569.44
490.132	554.44
490.35	566.44
490.568	553.44
490.786	593.44
491.003	586.44
491.221	598.44
491.439	631.44
491.657	628.44
491.874	616.44
492.092	637.44
492.31	612.44
492.527	636.44
492.745	657.44
492.963	627.44
493.18	635.44
493.398	642.44
493.615	619.44
493.833	645.44
494.05	672.44
494.268	658.44
494.485	640.44
494.703	657.44
494.92	647.44
495.138	636.44
495.355	665.44
495.573	660.44
495.79	641.44
496.008	658.44
496.225	638.44
496.442	638.44
496.66	642.44
496.877	629.44
497.094	651.44
497.312	633.44
497.529	648.44
497.746	649.44
497.963	658.44
498.181	685.44
498.398	652.44
498.615	673.44
498.832	669.44
499.049	709.44
499.267	689.44
499.484	695.44
499.701	696.44
499.918	743.44
500.135	743.44
500.352	768.44
500.569	753.44
500.786	788.44
501.003	767.44
501.22	779.44
501.437	758.44
501.654	755.44
501.871	752.44
