Data from 1986.PennyLincolnUp.Lamp.En5.5.200Scan.071819.P2_HRD10591_17-11-23-973.txt Node
Date: Thu Jul 18 17:11:23 EDT 2019
User: cochatt
Spectrometer: HR+D1059
Trigger mode: 1
Integration Time (sec): 1.000000E-1
Scans to average: 1
Electric dark correction enabled: true
Nonlinearity correction enabled: false
Boxcar width: 0
XAxis mode: Wavelengths
Number of Pixels in Spectrum: 2048
>>>>>Begin Spectral Data<<<<<
223.165	-3.12
223.4	-3.12
223.635	-3.12
223.869	-3.12
224.104	-34.12
224.338	-17.12
224.573	-19.12
224.808	-18.12
225.042	-19.12
225.277	6.88
225.511	-12.12
225.746	8.88
225.98	20.88
226.215	18.88
226.449	27.88
226.683	16.88
226.918	19.88
227.152	5.88
227.387	45.88
227.621	40.88
227.856	41.88
228.09	48.88
228.324	46.88
228.559	61.88
228.793	75.88
229.027	112.88
229.262	110.88
229.496	118.88
229.73	147.88
229.964	164.88
230.199	117.88
230.433	126.88
230.667	125.88
230.901	119.88
231.136	110.88
231.37	116.88
231.604	115.88
231.838	99.88
232.072	108.88
232.306	121.88
232.541	124.88
232.775	121.88
233.009	125.88
233.243	124.88
233.477	120.88
233.711	127.88
233.945	115.88
234.179	131.88
234.413	115.88
234.647	110.88
234.881	121.88
235.115	112.88
235.349	123.88
235.583	139.88
235.817	126.88
236.051	143.88
236.285	135.88
236.519	123.88
236.753	123.88
236.987	151.88
237.221	201.88
237.455	235.88
237.689	204.88
237.922	157.88
238.156	116.88
238.39	122.88
238.624	135.88
238.858	138.88
239.091	132.88
239.325	128.88
239.559	149.88
239.793	116.88
240.027	139.88
240.26	140.88
240.494	160.88
240.728	155.88
240.961	147.88
241.195	152.88
241.429	132.88
241.662	138.88
241.896	128.88
242.13	136.88
242.363	133.88
242.597	141.88
242.83	140.88
243.064	151.88
243.298	158.88
243.531	140.88
243.765	135.88
243.998	171.88
244.232	146.88
244.465	162.88
244.699	153.88
244.932	151.88
245.166	148.88
245.399	155.88
245.633	161.88
245.866	146.88
246.099	152.88
246.333	145.88
246.566	139.88
246.8	167.88
247.033	170.88
247.266	161.88
247.5	170.88
247.733	183.88
247.966	177.88
248.2	179.88
248.433	166.88
248.666	197.88
248.899	210.88
249.133	232.88
249.366	234.88
249.599	207.88
249.832	195.88
250.066	206.88
250.299	208.88
250.532	212.88
250.765	240.88
250.998	258.88
251.231	257.88
251.465	250.88
251.698	230.88
251.931	220.88
252.164	215.88
252.397	206.88
252.63	216.88
252.863	236.88
253.096	250.88
253.329	233.88
253.562	259.88
253.795	255.88
254.028	240.88
254.261	241.88
254.494	237.88
254.727	264.88
254.96	294.88
255.193	292.88
255.426	284.88
255.659	266.88
255.892	269.88
256.124	291.88
256.357	319.88
256.59	280.88
256.823	275.88
257.056	265.88
257.289	250.88
257.521	243.88
257.754	230.88
257.987	227.88
258.22	233.88
258.452	248.88
258.685	238.88
258.918	215.88
259.151	215.88
259.383	239.88
259.616	232.88
259.849	241.88
260.081	234.88
260.314	271.88
260.547	279.88
260.779	278.88
261.012	262.88
261.244	228.88
261.477	230.88
261.71	227.88
261.942	248.88
262.175	250.88
262.407	253.88
262.64	223.88
262.872	232.88
263.105	192.88
263.337	230.88
263.57	219.88
263.802	225.88
264.035	208.88
264.267	213.88
264.499	206.88
264.732	218.88
264.964	216.88
265.197	218.88
265.429	210.88
265.661	232.88
265.894	217.88
266.126	232.88
266.358	217.88
266.591	219.88
266.823	234.88
267.055	235.88
267.287	246.88
267.52	237.88
267.752	229.88
267.984	247.88
268.216	238.88
268.448	229.88
268.681	241.88
268.913	248.88
269.145	270.88
269.377	279.88
269.609	280.88
269.841	285.88
270.073	292.88
270.306	311.88
270.538	339.88
270.77	349.88
271.002	329.88
271.234	315.88
271.466	335.88
271.698	328.88
271.93	330.88
272.162	341.88
272.394	336.88
272.626	319.88
272.858	291.88
273.09	279.88
273.322	282.88
273.553	275.88
273.785	270.88
274.017	267.88
274.249	273.88
274.481	289.88
274.713	285.88
274.945	272.88
275.176	269.88
275.408	272.88
275.64	287.88
275.872	273.88
276.104	279.88
276.335	283.88
276.567	289.88
276.799	309.88
277.031	323.88
277.262	328.88
277.494	330.88
277.726	309.88
277.957	326.88
278.189	293.88
278.421	287.88
278.652	281.88
278.884	283.88
279.115	295.88
279.347	279.88
279.579	268.88
279.81	261.88
280.042	260.88
280.273	269.88
280.505	272.88
280.736	288.88
280.968	268.88
281.199	266.88
281.431	276.88
281.662	247.88
281.894	271.88
282.125	274.88
282.356	284.88
282.588	314.88
282.819	317.88
283.051	291.88
283.282	287.88
283.513	277.88
283.745	275.88
283.976	269.88
284.207	304.88
284.439	267.88
284.67	277.88
284.901	271.88
285.132	284.88
285.364	273.88
285.595	271.88
285.826	273.88
286.057	281.88
286.288	281.88
286.52	274.88
286.751	266.88
286.982	261.88
287.213	259.88
287.444	287.88
287.675	287.88
287.906	295.88
288.138	300.88
288.369	299.88
288.6	277.88
288.831	286.88
289.062	301.88
289.293	296.88
289.524	288.88
289.755	270.88
289.986	271.88
290.217	282.88
290.448	280.88
290.679	281.88
290.91	271.88
291.141	280.88
291.371	284.88
291.602	277.88
291.833	288.88
292.064	285.88
292.295	272.88
292.526	265.88
292.757	278.88
292.987	284.88
293.218	274.88
293.449	281.88
293.68	260.88
293.91	271.88
294.141	267.88
294.372	275.88
294.603	282.88
294.833	278.88
295.064	277.88
295.295	287.88
295.525	284.88
295.756	276.88
295.987	288.88
296.217	321.88
296.448	340.88
296.679	287.88
296.909	276.88
297.14	285.88
297.37	299.88
297.601	296.88
297.831	285.88
298.062	289.88
298.292	284.88
298.523	287.88
298.753	288.88
298.984	303.88
299.214	289.88
299.445	276.88
299.675	285.88
299.905	311.88
300.136	324.88
300.366	296.88
300.597	304.88
300.827	297.88
301.057	310.88
301.288	325.88
301.518	313.88
301.748	296.88
301.979	283.88
302.209	326.88
302.439	325.88
302.669	315.88
302.9	300.88
303.13	314.88
303.36	315.88
303.59	327.88
303.82	326.88
304.051	327.88
304.281	303.88
304.511	308.88
304.741	312.88
304.971	304.88
305.201	302.88
305.431	316.88
305.661	323.88
305.891	300.88
306.121	311.88
306.352	325.88
306.582	316.88
306.812	315.88
307.042	328.88
307.272	320.88
307.502	326.88
307.731	323.88
307.961	322.88
308.191	315.88
308.421	312.88
308.651	332.88
308.881	323.88
309.111	319.88
309.341	337.88
309.571	344.88
309.8	357.88
310.03	354.88
310.26	360.88
310.49	366.88
310.72	394.88
310.949	387.88
311.179	407.88
311.409	383.88
311.639	364.88
311.868	372.88
312.098	342.88
312.328	363.88
312.557	381.88
312.787	415.88
313.017	413.88
313.246	396.88
313.476	381.88
313.706	365.88
313.935	368.88
314.165	396.88
314.394	408.88
314.624	392.88
314.853	402.88
315.083	368.88
315.312	361.88
315.542	374.88
315.771	380.88
316.001	355.88
316.23	343.88
316.46	335.88
316.689	369.88
316.919	368.88
317.148	383.88
317.377	385.88
317.607	377.88
317.836	376.88
318.065	373.88
318.295	357.88
318.524	349.88
318.753	356.88
318.983	378.88
319.212	387.88
319.441	383.88
319.67	398.88
319.9	383.88
320.129	359.88
320.358	365.88
320.587	379.88
320.816	406.88
321.046	395.88
321.275	402.88
321.504	392.88
321.733	417.88
321.962	412.88
322.191	423.88
322.42	445.88
322.649	435.88
322.878	468.88
323.108	480.88
323.337	503.88
323.566	538.88
323.795	564.88
324.024	631.88
324.253	761.88
324.482	1125.88
324.71	1675.88
324.939	2337.88
325.168	2120.88
325.397	1103.88
325.626	748.88
325.855	599.88
326.084	580.88
326.313	542.88
326.542	559.88
326.77	584.88
326.999	702.88
327.228	985.88
327.457	1462.88
327.686	1809.88
327.914	1235.88
328.143	823.88
328.372	741.88
328.6	682.88
328.829	635.88
329.058	660.88
329.287	673.88
329.515	625.88
329.744	579.88
329.972	589.88
330.201	649.88
330.43	707.88
330.658	688.88
330.887	692.88
331.115	668.88
331.344	560.88
331.572	525.88
331.801	496.88
332.03	501.88
332.258	487.88
332.486	457.88
332.715	453.88
332.943	447.88
333.172	448.88
333.4	478.88
333.629	476.88
333.857	521.88
334.085	530.88
334.314	569.88
334.542	653.88
334.771	699.88
334.999	595.88
335.227	490.88
335.455	483.88
335.684	451.88
335.912	431.88
336.14	432.88
336.369	457.88
336.597	452.88
336.825	443.88
337.053	443.88
337.281	431.88
337.51	426.88
337.738	431.88
337.966	410.88
338.194	421.88
338.422	419.88
338.65	414.88
338.878	390.88
339.106	417.88
339.334	438.88
339.562	405.88
339.79	382.88
340.018	393.88
340.246	406.88
340.474	407.88
340.702	423.88
340.93	405.88
341.158	397.88
341.386	419.88
341.614	416.88
341.842	405.88
342.07	391.88
342.298	383.88
342.526	387.88
342.754	373.88
342.981	397.88
343.209	376.88
343.437	380.88
343.665	407.88
343.893	394.88
344.12	424.88
344.348	401.88
344.576	412.88
344.804	420.88
345.031	432.88
345.259	421.88
345.487	419.88
345.714	408.88
345.942	418.88
346.17	407.88
346.397	397.88
346.625	390.88
346.853	396.88
347.08	391.88
347.308	393.88
347.535	401.88
347.763	400.88
347.99	414.88
348.218	422.88
348.445	405.88
348.673	402.88
348.9	393.88
349.128	387.88
349.355	391.88
349.583	374.88
349.81	384.88
350.037	388.88
350.265	371.88
350.492	380.88
350.72	393.88
350.947	405.88
351.174	399.88
351.402	404.88
351.629	400.88
351.856	407.88
352.083	408.88
352.311	428.88
352.538	442.88
352.765	399.88
352.992	413.88
353.22	411.88
353.447	398.88
353.674	393.88
353.901	381.88
354.128	372.88
354.355	387.88
354.583	363.88
354.81	371.88
355.037	371.88
355.264	364.88
355.491	359.88
355.718	346.88
355.945	359.88
356.172	373.88
356.399	354.88
356.626	348.88
356.853	332.88
357.08	361.88
357.307	358.88
357.534	371.88
357.761	341.88
357.988	343.88
358.215	375.88
358.441	358.88
358.668	368.88
358.895	362.88
359.122	385.88
359.349	371.88
359.576	405.88
359.802	416.88
360.029	455.88
360.256	474.88
360.483	447.88
360.709	394.88
360.936	383.88
361.163	391.88
361.39	386.88
361.616	393.88
361.843	398.88
362.07	395.88
362.296	422.88
362.523	396.88
362.749	395.88
362.976	378.88
363.203	377.88
363.429	368.88
363.656	375.88
363.882	363.88
364.109	373.88
364.335	367.88
364.562	371.88
364.788	371.88
365.015	365.88
365.241	377.88
365.468	375.88
365.694	385.88
365.92	384.88
366.147	368.88
366.373	361.88
366.599	359.88
366.826	375.88
367.052	369.88
367.278	365.88
367.505	380.88
367.731	366.88
367.957	362.88
368.184	360.88
368.41	359.88
368.636	379.88
368.862	383.88
369.089	359.88
369.315	373.88
369.541	381.88
369.767	386.88
369.993	364.88
370.219	363.88
370.445	369.88
370.672	354.88
370.898	377.88
371.124	385.88
371.35	364.88
371.576	367.88
371.802	377.88
372.028	365.88
372.254	358.88
372.48	343.88
372.706	360.88
372.932	334.88
373.158	348.88
373.384	357.88
373.61	368.88
373.835	355.88
374.061	364.88
374.287	375.88
374.513	373.88
374.739	379.88
374.965	351.88
375.191	357.88
375.416	365.88
375.642	359.88
375.868	357.88
376.094	337.88
376.319	364.88
376.545	360.88
376.771	349.88
376.997	359.88
377.222	356.88
377.448	362.88
377.674	373.88
377.899	342.88
378.125	355.88
378.35	352.88
378.576	374.88
378.802	327.88
379.027	343.88
379.253	339.88
379.478	348.88
379.704	348.88
379.929	361.88
380.155	357.88
380.38	345.88
380.606	332.88
380.831	348.88
381.057	347.88
381.282	350.88
381.507	347.88
381.733	355.88
381.958	355.88
382.184	334.88
382.409	351.88
382.634	365.88
382.86	387.88
383.085	337.88
383.31	361.88
383.535	371.88
383.761	364.88
383.986	361.88
384.211	373.88
384.436	375.88
384.662	370.88
384.887	356.88
385.112	357.88
385.337	358.88
385.562	366.88
385.787	370.88
386.013	383.88
386.238	389.88
386.463	381.88
386.688	379.88
386.913	371.88
387.138	375.88
387.363	375.88
387.588	375.88
387.813	367.88
388.038	362.88
388.263	361.88
388.488	371.88
388.713	380.88
388.938	384.88
389.163	367.88
389.387	375.88
389.612	375.88
389.837	375.88
390.062	364.88
390.287	361.88
390.512	360.88
390.736	367.88
390.961	368.88
391.186	359.88
391.411	356.88
391.636	371.88
391.86	391.88
392.085	381.88
392.31	395.88
392.534	399.88
392.759	376.88
392.984	359.88
393.208	361.88
393.433	361.88
393.658	378.88
393.882	374.88
394.107	381.88
394.331	369.88
394.556	382.88
394.78	363.88
395.005	363.88
395.229	368.88
395.454	363.88
395.678	379.88
395.903	378.88
396.127	413.88
396.352	419.88
396.576	405.88
396.801	384.88
397.025	382.88
397.249	374.88
397.474	394.88
397.698	385.88
397.922	421.88
398.147	419.88
398.371	409.88
398.595	398.88
398.82	402.88
399.044	412.88
399.268	413.88
399.492	430.88
399.717	453.88
399.941	476.88
400.165	494.88
400.389	534.88
400.613	483.88
400.837	448.88
401.062	422.88
401.286	412.88
401.51	402.88
401.734	412.88
401.958	417.88
402.182	401.88
402.406	430.88
402.63	425.88
402.854	431.88
403.078	432.88
403.302	430.88
403.526	432.88
403.75	462.88
403.974	457.88
404.198	438.88
404.422	447.88
404.645	441.88
404.869	446.88
405.093	496.88
405.317	535.88
405.541	569.88
405.765	542.88
405.988	501.88
406.212	486.88
406.436	509.88
406.66	523.88
406.883	490.88
407.107	511.88
407.331	534.88
407.555	583.88
407.778	588.88
408.002	555.88
408.226	508.88
408.449	492.88
408.673	495.88
408.896	508.88
409.12	541.88
409.344	500.88
409.567	477.88
409.791	458.88
410.014	452.88
410.238	444.88
410.461	446.88
410.685	437.88
410.908	457.88
411.132	498.88
411.355	525.88
411.578	504.88
411.802	448.88
412.025	455.88
412.249	486.88
412.472	479.88
412.695	545.88
412.919	533.88
413.142	502.88
413.365	464.88
413.589	450.88
413.812	423.88
414.035	419.88
414.258	412.88
414.482	430.88
414.705	422.88
414.928	413.88
415.151	411.88
415.374	410.88
415.597	398.88
415.821	430.88
416.044	420.88
416.267	427.88
416.49	412.88
416.713	430.88
416.936	421.88
417.159	417.88
417.382	435.88
417.605	434.88
417.828	423.88
418.051	453.88
418.274	453.88
418.497	430.88
418.72	411.88
418.943	408.88
419.166	442.88
419.389	448.88
419.611	445.88
419.834	460.88
420.057	452.88
420.28	464.88
420.503	461.88
420.726	473.88
420.948	480.88
421.171	521.88
421.394	529.88
421.617	494.88
421.839	449.88
422.062	451.88
422.285	474.88
422.507	493.88
422.73	598.88
422.953	565.88
423.175	502.88
423.398	477.88
423.621	463.88
423.843	479.88
424.066	488.88
424.288	495.88
424.511	506.88
424.733	560.88
424.956	638.88
425.178	631.88
425.401	596.88
425.623	639.88
425.846	543.88
426.068	515.88
426.291	497.88
426.513	481.88
426.735	507.88
426.958	558.88
427.18	622.88
427.402	740.88
427.625	811.88
427.847	760.88
428.069	677.88
428.292	567.88
428.514	507.88
428.736	483.88
428.958	482.88
429.181	461.88
429.403	467.88
429.625	451.88
429.847	509.88
430.069	577.88
430.292	563.88
430.514	467.88
430.736	452.88
430.958	446.88
431.18	439.88
431.402	408.88
431.624	393.88
431.846	424.88
432.068	442.88
432.29	423.88
432.512	436.88
432.734	437.88
432.956	428.88
433.178	461.88
433.4	455.88
433.622	417.88
433.844	431.88
434.066	419.88
434.287	403.88
434.509	436.88
434.731	431.88
434.953	439.88
435.175	447.88
435.397	492.88
435.618	482.88
435.84	530.88
436.062	631.88
436.284	666.88
436.505	575.88
436.727	515.88
436.949	473.88
437.17	461.88
437.392	452.88
437.614	487.88
437.835	519.88
438.057	613.88
438.278	699.88
438.5	725.88
438.721	765.88
438.943	721.88
439.165	570.88
439.386	528.88
439.608	517.88
439.829	512.88
440.05	556.88
440.272	592.88
440.493	570.88
440.715	496.88
440.936	466.88
441.158	461.88
441.379	469.88
441.6	468.88
441.822	478.88
442.043	537.88
442.264	606.88
442.486	651.88
442.707	564.88
442.928	529.88
443.149	512.88
443.371	540.88
443.592	590.88
443.813	653.88
444.034	712.88
444.255	588.88
444.476	519.88
444.698	501.88
444.919	495.88
445.14	585.88
445.361	546.88
445.582	522.88
445.803	580.88
446.024	693.88
446.245	712.88
446.466	660.88
446.687	537.88
446.908	501.88
447.129	475.88
447.35	471.88
447.571	471.88
447.792	487.88
448.013	469.88
448.234	473.88
448.455	537.88
448.675	655.88
448.896	773.88
449.117	627.88
449.338	601.88
449.559	671.88
449.779	770.88
450	634.88
450.221	529.88
450.442	485.88
450.662	471.88
450.883	483.88
451.104	477.88
451.324	493.88
451.545	457.88
451.766	449.88
451.986	425.88
452.207	374.88
452.428	414.88
452.648	412.88
452.869	415.88
453.089	439.88
453.31	442.88
453.53	420.88
453.751	407.88
453.971	405.88
454.192	439.88
454.412	425.88
454.633	409.88
454.853	378.88
455.073	423.88
455.294	445.88
455.514	505.88
455.734	494.88
455.955	431.88
456.175	400.88
456.395	397.88
456.616	391.88
456.836	375.88
457.056	382.88
457.276	391.88
457.497	379.88
457.717	391.88
457.937	391.88
458.157	408.88
458.377	377.88
458.598	423.88
458.818	474.88
459.038	571.88
459.258	579.88
459.478	475.88
459.698	454.88
459.918	430.88
460.138	425.88
460.358	419.88
460.578	415.88
460.798	405.88
461.018	408.88
461.238	411.88
461.458	402.88
461.678	404.88
461.898	416.88
462.118	390.88
462.338	414.88
462.558	427.88
462.777	405.88
462.997	410.88
463.217	435.88
463.437	444.88
463.657	432.88
463.876	427.88
464.096	432.88
464.316	444.88
464.536	451.88
464.755	433.88
464.975	456.88
465.195	504.88
465.414	583.88
465.634	521.88
465.854	463.88
466.073	451.88
466.293	435.88
466.512	429.88
466.732	406.88
466.951	407.88
467.171	417.88
467.391	412.88
467.61	441.88
467.829	454.88
468.049	441.88
468.268	460.88
468.488	429.88
468.707	405.88
468.927	427.88
469.146	408.88
469.365	402.88
469.585	398.88
469.804	426.88
470.023	432.88
470.243	422.88
470.462	436.88
470.681	449.88
470.901	459.88
471.12	426.88
471.339	439.88
471.558	437.88
471.777	425.88
471.997	432.88
472.216	455.88
472.435	560.88
472.654	504.88
472.873	460.88
473.092	452.88
473.311	445.88
473.53	428.88
473.749	443.88
473.968	495.88
474.187	598.88
474.406	611.88
474.625	506.88
474.844	471.88
475.063	441.88
475.282	422.88
475.501	444.88
475.72	460.88
475.939	427.88
476.158	421.88
476.377	426.88
476.596	432.88
476.814	452.88
477.033	445.88
477.252	452.88
477.471	446.88
477.69	433.88
477.908	453.88
478.127	461.88
478.346	428.88
478.564	463.88
478.783	466.88
479.002	493.88
479.22	464.88
479.439	487.88
479.658	503.88
479.876	516.88
480.095	503.88
480.313	530.88
480.532	528.88
480.751	543.88
480.969	549.88
481.188	727.88
481.406	849.88
481.624	664.88
481.843	591.88
482.061	554.88
482.28	542.88
482.498	519.88
482.717	501.88
482.935	547.88
483.153	518.88
483.372	517.88
483.59	497.88
483.808	525.88
484.027	511.88
484.245	517.88
484.463	484.88
484.681	503.88
484.9	511.88
485.118	503.88
485.336	541.88
485.554	543.88
485.772	538.88
485.99	527.88
486.209	527.88
486.427	547.88
486.645	541.88
486.863	563.88
487.081	547.88
487.299	543.88
487.517	555.88
487.735	575.88
487.953	565.88
488.171	567.88
488.389	552.88
488.607	567.88
488.825	553.88
489.043	563.88
489.261	573.88
489.479	567.88
489.696	574.88
489.914	560.88
490.132	565.88
490.35	579.88
490.568	584.88
490.786	579.88
491.003	616.88
491.221	601.88
491.439	603.88
491.657	649.88
491.874	633.88
492.092	655.88
492.31	663.88
492.527	671.88
492.745	661.88
492.963	664.88
493.18	658.88
493.398	653.88
493.615	665.88
493.833	675.88
494.05	661.88
494.268	683.88
494.485	659.88
494.703	676.88
494.92	701.88
495.138	672.88
495.355	671.88
495.573	674.88
495.79	656.88
496.008	659.88
496.225	651.88
496.442	660.88
496.66	676.88
496.877	662.88
497.094	670.88
497.312	660.88
497.529	675.88
497.746	657.88
497.963	691.88
498.181	672.88
498.398	687.88
498.615	716.88
498.832	698.88
499.049	715.88
499.267	707.88
499.484	712.88
499.701	707.88
499.918	746.88
500.135	763.88
500.352	769.88
500.569	772.88
500.786	779.88
501.003	782.88
501.22	798.88
501.437	769.88
501.654	774.88
501.871	816.88
