Data from 1986.PennyLincolnUp.Lamp.En5.5.200Scan.071819.P2_HRD10591_17-09-52-973.txt Node
Date: Thu Jul 18 17:09:52 EDT 2019
User: cochatt
Spectrometer: HR+D1059
Trigger mode: 1
Integration Time (sec): 1.000000E-1
Scans to average: 1
Electric dark correction enabled: true
Nonlinearity correction enabled: false
Boxcar width: 0
XAxis mode: Wavelengths
Number of Pixels in Spectrum: 2048
>>>>>Begin Spectral Data<<<<<
223.165	-16.75
223.4	-16.75
223.635	-16.75
223.869	-24.75
224.104	-21.75
224.338	-13.75
224.573	-14.75
224.808	-18.75
225.042	-1.75
225.277	-7.75
225.511	-0.75
225.746	11.25
225.98	8.25
226.215	16.25
226.449	25.25
226.683	19.25
226.918	16.25
227.152	24.25
227.387	38.25
227.621	37.25
227.856	39.25
228.09	42.25
228.324	58.25
228.559	44.25
228.793	74.25
229.027	91.25
229.262	104.25
229.496	115.25
229.73	132.25
229.964	134.25
230.199	134.25
230.433	98.25
230.667	96.25
230.901	106.25
231.136	106.25
231.37	112.25
231.604	122.25
231.838	116.25
232.072	112.25
232.306	110.25
232.541	105.25
232.775	112.25
233.009	115.25
233.243	99.25
233.477	112.25
233.711	128.25
233.945	123.25
234.179	123.25
234.413	108.25
234.647	112.25
234.881	109.25
235.115	102.25
235.349	117.25
235.583	114.25
235.817	112.25
236.051	123.25
236.285	130.25
236.519	106.25
236.753	130.25
236.987	140.25
237.221	178.25
237.455	226.25
237.689	187.25
237.922	138.25
238.156	133.25
238.39	148.25
238.624	132.25
238.858	127.25
239.091	114.25
239.325	120.25
239.559	124.25
239.793	133.25
240.027	124.25
240.26	143.25
240.494	156.25
240.728	150.25
240.961	148.25
241.195	150.25
241.429	129.25
241.662	126.25
241.896	130.25
242.13	120.25
242.363	131.25
242.597	139.25
242.83	132.25
243.064	131.25
243.298	145.25
243.531	133.25
243.765	124.25
243.998	135.25
244.232	136.25
244.465	141.25
244.699	135.25
244.932	126.25
245.166	140.25
245.399	135.25
245.633	158.25
245.866	140.25
246.099	133.25
246.333	142.25
246.566	131.25
246.8	152.25
247.033	148.25
247.266	135.25
247.5	158.25
247.733	159.25
247.966	171.25
248.2	164.25
248.433	176.25
248.666	176.25
248.899	183.25
249.133	210.25
249.366	211.25
249.599	194.25
249.832	171.25
250.066	178.25
250.299	175.25
250.532	183.25
250.765	183.25
250.998	224.25
251.231	245.25
251.465	206.25
251.698	193.25
251.931	183.25
252.164	187.25
252.397	192.25
252.63	193.25
252.863	211.25
253.096	217.25
253.329	203.25
253.562	211.25
253.795	207.25
254.028	214.25
254.261	225.25
254.494	216.25
254.727	259.25
254.96	258.25
255.193	269.25
255.426	249.25
255.659	221.25
255.892	221.25
256.124	205.25
256.357	195.25
256.59	197.25
256.823	219.25
257.056	216.25
257.289	206.25
257.521	200.25
257.754	206.25
257.987	206.25
258.22	206.25
258.452	200.25
258.685	196.25
258.918	226.25
259.151	224.25
259.383	214.25
259.616	220.25
259.849	219.25
260.081	225.25
260.314	256.25
260.547	264.25
260.779	244.25
261.012	235.25
261.244	222.25
261.477	224.25
261.71	223.25
261.942	222.25
262.175	219.25
262.407	234.25
262.64	212.25
262.872	187.25
263.105	191.25
263.337	206.25
263.57	199.25
263.802	218.25
264.035	215.25
264.267	195.25
264.499	189.25
264.732	212.25
264.964	198.25
265.197	198.25
265.429	185.25
265.661	217.25
265.894	201.25
266.126	202.25
266.358	196.25
266.591	211.25
266.823	198.25
267.055	221.25
267.287	219.25
267.52	219.25
267.752	217.25
267.984	189.25
268.216	198.25
268.448	203.25
268.681	218.25
268.913	240.25
269.145	243.25
269.377	270.25
269.609	251.25
269.841	244.25
270.073	265.25
270.306	276.25
270.538	300.25
270.77	291.25
271.002	289.25
271.234	275.25
271.466	280.25
271.698	304.25
271.93	293.25
272.162	311.25
272.394	310.25
272.626	303.25
272.858	316.25
273.09	280.25
273.322	258.25
273.553	263.25
273.785	238.25
274.017	246.25
274.249	270.25
274.481	253.25
274.713	255.25
274.945	263.25
275.176	246.25
275.408	232.25
275.64	239.25
275.872	246.25
276.104	235.25
276.335	246.25
276.567	256.25
276.799	262.25
277.031	291.25
277.262	285.25
277.494	295.25
277.726	266.25
277.957	289.25
278.189	249.25
278.421	254.25
278.652	246.25
278.884	244.25
279.115	253.25
279.347	257.25
279.579	252.25
279.81	254.25
280.042	232.25
280.273	242.25
280.505	246.25
280.736	250.25
280.968	237.25
281.199	249.25
281.431	242.25
281.662	226.25
281.894	236.25
282.125	253.25
282.356	250.25
282.588	265.25
282.819	289.25
283.051	257.25
283.282	238.25
283.513	265.25
283.745	247.25
283.976	260.25
284.207	254.25
284.439	255.25
284.67	249.25
284.901	255.25
285.132	226.25
285.364	238.25
285.595	254.25
285.826	242.25
286.057	253.25
286.288	242.25
286.52	236.25
286.751	225.25
286.982	242.25
287.213	244.25
287.444	260.25
287.675	275.25
287.906	244.25
288.138	279.25
288.369	245.25
288.6	272.25
288.831	266.25
289.062	274.25
289.293	262.25
289.524	264.25
289.755	253.25
289.986	242.25
290.217	264.25
290.448	259.25
290.679	277.25
290.91	255.25
291.141	262.25
291.371	259.25
291.602	245.25
291.833	252.25
292.064	254.25
292.295	247.25
292.526	240.25
292.757	229.25
292.987	251.25
293.218	243.25
293.449	235.25
293.68	255.25
293.91	235.25
294.141	242.25
294.372	244.25
294.603	247.25
294.833	275.25
295.064	245.25
295.295	245.25
295.525	248.25
295.756	256.25
295.987	249.25
296.217	288.25
296.448	283.25
296.679	278.25
296.909	262.25
297.14	256.25
297.37	276.25
297.601	266.25
297.831	263.25
298.062	257.25
298.292	262.25
298.523	262.25
298.753	284.25
298.984	271.25
299.214	264.25
299.445	273.25
299.675	259.25
299.905	274.25
300.136	286.25
300.366	258.25
300.597	260.25
300.827	259.25
301.057	279.25
301.288	277.25
301.518	289.25
301.748	278.25
301.979	284.25
302.209	282.25
302.439	302.25
302.669	287.25
302.9	277.25
303.13	288.25
303.36	299.25
303.59	295.25
303.82	288.25
304.051	289.25
304.281	280.25
304.511	289.25
304.741	295.25
304.971	288.25
305.201	285.25
305.431	275.25
305.661	254.25
305.891	296.25
306.121	289.25
306.352	290.25
306.582	288.25
306.812	299.25
307.042	291.25
307.272	290.25
307.502	301.25
307.731	279.25
307.961	278.25
308.191	276.25
308.421	289.25
308.651	314.25
308.881	279.25
309.111	312.25
309.341	301.25
309.571	301.25
309.8	318.25
310.03	343.25
310.26	329.25
310.49	336.25
310.72	341.25
310.949	358.25
311.179	372.25
311.409	322.25
311.639	328.25
311.868	339.25
312.098	334.25
312.328	322.25
312.557	336.25
312.787	363.25
313.017	351.25
313.246	345.25
313.476	355.25
313.706	335.25
313.935	333.25
314.165	353.25
314.394	348.25
314.624	383.25
314.853	351.25
315.083	350.25
315.312	324.25
315.542	326.25
315.771	332.25
316.001	343.25
316.23	322.25
316.46	319.25
316.689	323.25
316.919	327.25
317.148	348.25
317.377	346.25
317.607	332.25
317.836	344.25
318.065	323.25
318.295	328.25
318.524	312.25
318.753	326.25
318.983	333.25
319.212	313.25
319.441	345.25
319.67	335.25
319.9	340.25
320.129	323.25
320.358	342.25
320.587	352.25
320.816	346.25
321.046	351.25
321.275	364.25
321.504	340.25
321.733	370.25
321.962	387.25
322.191	380.25
322.42	388.25
322.649	399.25
322.878	417.25
323.108	399.25
323.337	448.25
323.566	486.25
323.795	490.25
324.024	550.25
324.253	653.25
324.482	959.25
324.71	1450.25
324.939	2084.25
325.168	1799.25
325.397	957.25
325.626	656.25
325.855	524.25
326.084	471.25
326.313	455.25
326.542	471.25
326.77	543.25
326.999	614.25
327.228	834.25
327.457	1299.25
327.686	1603.25
327.914	1072.25
328.143	674.25
328.372	584.25
328.6	552.25
328.829	517.25
329.058	525.25
329.287	551.25
329.515	484.25
329.744	463.25
329.972	458.25
330.201	491.25
330.43	474.25
330.658	478.25
330.887	559.25
331.115	532.25
331.344	466.25
331.572	445.25
331.801	441.25
332.03	445.25
332.258	421.25
332.486	392.25
332.715	386.25
332.943	380.25
333.172	390.25
333.4	370.25
333.629	366.25
333.857	392.25
334.085	397.25
334.314	381.25
334.542	387.25
334.771	418.25
334.999	380.25
335.227	382.25
335.455	382.25
335.684	393.25
335.912	387.25
336.14	368.25
336.369	371.25
336.597	381.25
336.825	380.25
337.053	381.25
337.281	380.25
337.51	400.25
337.738	365.25
337.966	363.25
338.194	389.25
338.422	391.25
338.65	372.25
338.878	363.25
339.106	355.25
339.334	365.25
339.562	360.25
339.79	353.25
340.018	377.25
340.246	344.25
340.474	375.25
340.702	366.25
340.93	366.25
341.158	380.25
341.386	367.25
341.614	392.25
341.842	379.25
342.07	357.25
342.298	356.25
342.526	358.25
342.754	351.25
342.981	346.25
343.209	350.25
343.437	347.25
343.665	365.25
343.893	372.25
344.12	364.25
344.348	366.25
344.576	375.25
344.804	394.25
345.031	387.25
345.259	402.25
345.487	362.25
345.714	374.25
345.942	352.25
346.17	370.25
346.397	375.25
346.625	375.25
346.853	362.25
347.08	354.25
347.308	344.25
347.535	373.25
347.763	389.25
347.99	365.25
348.218	379.25
348.445	381.25
348.673	363.25
348.9	354.25
349.128	365.25
349.355	354.25
349.583	350.25
349.81	336.25
350.037	349.25
350.265	346.25
350.492	346.25
350.72	341.25
350.947	358.25
351.174	345.25
351.402	374.25
351.629	352.25
351.856	364.25
352.083	376.25
352.311	384.25
352.538	385.25
352.765	391.25
352.992	375.25
353.22	359.25
353.447	351.25
353.674	354.25
353.901	354.25
354.128	344.25
354.355	333.25
354.583	327.25
354.81	346.25
355.037	322.25
355.264	327.25
355.491	342.25
355.718	329.25
355.945	332.25
356.172	336.25
356.399	329.25
356.626	326.25
356.853	331.25
357.08	325.25
357.307	334.25
357.534	322.25
357.761	327.25
357.988	309.25
358.215	345.25
358.441	323.25
358.668	350.25
358.895	320.25
359.122	340.25
359.349	348.25
359.576	354.25
359.802	379.25
360.029	422.25
360.256	420.25
360.483	388.25
360.709	376.25
360.936	367.25
361.163	380.25
361.39	366.25
361.616	374.25
361.843	356.25
362.07	346.25
362.296	360.25
362.523	363.25
362.749	373.25
362.976	354.25
363.203	341.25
363.429	345.25
363.656	352.25
363.882	355.25
364.109	332.25
364.335	347.25
364.562	336.25
364.788	329.25
365.015	350.25
365.241	321.25
365.468	344.25
365.694	336.25
365.92	334.25
366.147	328.25
366.373	336.25
366.599	339.25
366.826	328.25
367.052	325.25
367.278	327.25
367.505	329.25
367.731	339.25
367.957	339.25
368.184	331.25
368.41	359.25
368.636	346.25
368.862	342.25
369.089	329.25
369.315	341.25
369.541	352.25
369.767	337.25
369.993	336.25
370.219	338.25
370.445	323.25
370.672	333.25
370.898	321.25
371.124	332.25
371.35	319.25
371.576	338.25
371.802	323.25
372.028	337.25
372.254	329.25
372.48	330.25
372.706	331.25
372.932	344.25
373.158	327.25
373.384	335.25
373.61	322.25
373.835	341.25
374.061	326.25
374.287	330.25
374.513	326.25
374.739	345.25
374.965	336.25
375.191	333.25
375.416	316.25
375.642	327.25
375.868	319.25
376.094	332.25
376.319	325.25
376.545	332.25
376.771	331.25
376.997	326.25
377.222	345.25
377.448	335.25
377.674	327.25
377.899	323.25
378.125	326.25
378.35	322.25
378.576	331.25
378.802	325.25
379.027	353.25
379.253	303.25
379.478	310.25
379.704	339.25
379.929	323.25
380.155	322.25
380.38	336.25
380.606	336.25
380.831	336.25
381.057	335.25
381.282	326.25
381.507	332.25
381.733	322.25
381.958	323.25
382.184	336.25
382.409	325.25
382.634	315.25
382.86	325.25
383.085	339.25
383.31	333.25
383.535	331.25
383.761	327.25
383.986	333.25
384.211	335.25
384.436	325.25
384.662	330.25
384.887	341.25
385.112	323.25
385.337	344.25
385.562	344.25
385.787	346.25
386.013	370.25
386.238	367.25
386.463	361.25
386.688	352.25
386.913	342.25
387.138	351.25
387.363	347.25
387.588	364.25
387.813	370.25
388.038	362.25
388.263	335.25
388.488	342.25
388.713	332.25
388.938	357.25
389.163	344.25
389.387	363.25
389.612	330.25
389.837	334.25
390.062	351.25
390.287	343.25
390.512	342.25
390.736	342.25
390.961	350.25
391.186	350.25
391.411	335.25
391.636	338.25
391.86	355.25
392.085	345.25
392.31	350.25
392.534	357.25
392.759	359.25
392.984	352.25
393.208	341.25
393.433	360.25
393.658	361.25
393.882	351.25
394.107	336.25
394.331	325.25
394.556	333.25
394.78	343.25
395.005	360.25
395.229	331.25
395.454	356.25
395.678	364.25
395.903	350.25
396.127	380.25
396.352	410.25
396.576	374.25
396.801	371.25
397.025	362.25
397.249	350.25
397.474	352.25
397.698	388.25
397.922	388.25
398.147	377.25
398.371	380.25
398.595	359.25
398.82	388.25
399.044	388.25
399.268	384.25
399.492	407.25
399.717	428.25
399.941	462.25
400.165	456.25
400.389	468.25
400.613	453.25
400.837	414.25
401.062	400.25
401.286	408.25
401.51	388.25
401.734	410.25
401.958	397.25
402.182	409.25
402.406	401.25
402.63	413.25
402.854	403.25
403.078	382.25
403.302	394.25
403.526	416.25
403.75	406.25
403.974	393.25
404.198	386.25
404.422	409.25
404.645	399.25
404.869	384.25
405.093	411.25
405.317	434.25
405.541	470.25
405.765	425.25
405.988	419.25
406.212	436.25
406.436	482.25
406.66	463.25
406.883	436.25
407.107	471.25
407.331	508.25
407.555	566.25
407.778	536.25
408.002	483.25
408.226	480.25
408.449	448.25
408.673	458.25
408.896	461.25
409.12	521.25
409.344	493.25
409.567	438.25
409.791	417.25
410.014	396.25
410.238	399.25
410.461	408.25
410.685	413.25
410.908	418.25
411.132	444.25
411.355	474.25
411.578	452.25
411.802	406.25
412.025	417.25
412.249	397.25
412.472	399.25
412.695	409.25
412.919	414.25
413.142	414.25
413.365	375.25
413.589	380.25
413.812	385.25
414.035	398.25
414.258	378.25
414.482	364.25
414.705	377.25
414.928	380.25
415.151	371.25
415.374	384.25
415.597	391.25
415.821	364.25
416.044	369.25
416.267	390.25
416.49	378.25
416.713	406.25
416.936	362.25
417.159	390.25
417.382	400.25
417.605	412.25
417.828	387.25
418.051	406.25
418.274	409.25
418.497	395.25
418.72	382.25
418.943	388.25
419.166	406.25
419.389	409.25
419.611	410.25
419.834	408.25
420.057	431.25
420.28	395.25
420.503	387.25
420.726	403.25
420.948	429.25
421.171	442.25
421.394	485.25
421.617	431.25
421.839	428.25
422.062	425.25
422.285	441.25
422.507	475.25
422.73	557.25
422.953	540.25
423.175	456.25
423.398	433.25
423.621	428.25
423.843	459.25
424.066	446.25
424.288	449.25
424.511	463.25
424.733	510.25
424.956	583.25
425.178	553.25
425.401	570.25
425.623	574.25
425.846	498.25
426.068	459.25
426.291	451.25
426.513	457.25
426.735	457.25
426.958	507.25
427.18	582.25
427.402	672.25
427.625	756.25
427.847	671.25
428.069	562.25
428.292	517.25
428.514	452.25
428.736	424.25
428.958	437.25
429.181	423.25
429.403	432.25
429.625	430.25
429.847	467.25
430.069	521.25
430.292	512.25
430.514	448.25
430.736	440.25
430.958	407.25
431.18	400.25
431.402	396.25
431.624	407.25
431.846	380.25
432.068	400.25
432.29	393.25
432.512	380.25
432.734	407.25
432.956	412.25
433.178	403.25
433.4	403.25
433.622	413.25
433.844	394.25
434.066	414.25
434.287	406.25
434.509	412.25
434.731	382.25
434.953	427.25
435.175	423.25
435.397	429.25
435.618	470.25
435.84	490.25
436.062	587.25
436.284	662.25
436.505	532.25
436.727	499.25
436.949	461.25
437.17	421.25
437.392	434.25
437.614	463.25
437.835	484.25
438.057	562.25
438.278	655.25
438.5	645.25
438.721	697.25
438.943	648.25
439.165	534.25
439.386	512.25
439.608	476.25
439.829	478.25
440.05	480.25
440.272	538.25
440.493	492.25
440.715	466.25
440.936	451.25
441.158	423.25
441.379	422.25
441.6	438.25
441.822	464.25
442.043	494.25
442.264	569.25
442.486	630.25
442.707	534.25
442.928	485.25
443.149	514.25
443.371	502.25
443.592	520.25
443.813	651.25
444.034	666.25
444.255	552.25
444.476	488.25
444.698	468.25
444.919	457.25
445.14	578.25
445.361	525.25
445.582	512.25
445.803	562.25
446.024	634.25
446.245	650.25
446.466	611.25
446.687	502.25
446.908	462.25
447.129	445.25
447.35	427.25
447.571	437.25
447.792	425.25
448.013	436.25
448.234	436.25
448.455	504.25
448.675	594.25
448.896	699.25
449.117	588.25
449.338	574.25
449.559	664.25
449.779	736.25
450	580.25
450.221	490.25
450.442	450.25
450.662	427.25
450.883	427.25
451.104	446.25
451.324	437.25
451.545	426.25
451.766	413.25
451.986	390.25
452.207	393.25
452.428	389.25
452.648	368.25
452.869	385.25
453.089	392.25
453.31	425.25
453.53	404.25
453.751	388.25
453.971	373.25
454.192	412.25
454.412	396.25
454.633	383.25
454.853	360.25
455.073	386.25
455.294	394.25
455.514	451.25
455.734	453.25
455.955	373.25
456.175	388.25
456.395	363.25
456.616	354.25
456.836	348.25
457.056	359.25
457.276	365.25
457.497	348.25
457.717	352.25
457.937	372.25
458.157	357.25
458.377	374.25
458.598	377.25
458.818	458.25
459.038	529.25
459.258	549.25
459.478	452.25
459.698	399.25
459.918	403.25
460.138	386.25
460.358	377.25
460.578	407.25
460.798	401.25
461.018	383.25
461.238	390.25
461.458	390.25
461.678	370.25
461.898	378.25
462.118	398.25
462.338	388.25
462.558	393.25
462.777	386.25
462.997	401.25
463.217	421.25
463.437	427.25
463.657	408.25
463.876	401.25
464.096	400.25
464.316	416.25
464.536	423.25
464.755	419.25
464.975	404.25
465.195	471.25
465.414	564.25
465.634	474.25
465.854	406.25
466.073	410.25
466.293	403.25
466.512	403.25
466.732	365.25
466.951	367.25
467.171	384.25
467.391	379.25
467.61	412.25
467.829	423.25
468.049	400.25
468.268	375.25
468.488	358.25
468.707	380.25
468.927	391.25
469.146	350.25
469.365	382.25
469.585	368.25
469.804	387.25
470.023	366.25
470.243	382.25
470.462	411.25
470.681	402.25
470.901	402.25
471.12	391.25
471.339	390.25
471.558	401.25
471.777	395.25
471.997	392.25
472.216	364.25
472.435	378.25
472.654	387.25
472.873	368.25
473.092	373.25
473.311	386.25
473.53	395.25
473.749	410.25
473.968	440.25
474.187	528.25
474.406	567.25
474.625	468.25
474.844	414.25
475.063	394.25
475.282	406.25
475.501	406.25
475.72	393.25
475.939	402.25
476.158	390.25
476.377	396.25
476.596	412.25
476.814	395.25
477.033	394.25
477.252	411.25
477.471	408.25
477.69	409.25
477.908	420.25
478.127	408.25
478.346	408.25
478.564	418.25
478.783	432.25
479.002	424.25
479.22	435.25
479.439	445.25
479.658	465.25
479.876	472.25
480.095	465.25
480.313	498.25
480.532	462.25
480.751	470.25
480.969	446.25
481.188	494.25
481.406	481.25
481.624	466.25
481.843	461.25
482.061	452.25
482.28	444.25
482.498	463.25
482.717	449.25
482.935	439.25
483.153	427.25
483.372	455.25
483.59	453.25
483.808	474.25
484.027	459.25
484.245	466.25
484.463	469.25
484.681	487.25
484.9	457.25
485.118	484.25
485.336	474.25
485.554	470.25
485.772	469.25
485.99	465.25
486.209	479.25
486.427	486.25
486.645	487.25
486.863	486.25
487.081	508.25
487.299	495.25
487.517	507.25
487.735	506.25
487.953	471.25
488.171	492.25
488.389	508.25
488.607	519.25
488.825	511.25
489.043	507.25
489.261	489.25
489.479	485.25
489.696	513.25
489.914	485.25
490.132	523.25
490.35	514.25
490.568	517.25
490.786	510.25
491.003	535.25
491.221	545.25
491.439	567.25
491.657	538.25
491.874	546.25
492.092	557.25
492.31	553.25
492.527	571.25
492.745	544.25
492.963	567.25
493.18	587.25
493.398	611.25
493.615	572.25
493.833	597.25
494.05	585.25
494.268	563.25
494.485	598.25
494.703	581.25
494.92	610.25
495.138	572.25
495.355	599.25
495.573	573.25
495.79	571.25
496.008	596.25
496.225	586.25
496.442	562.25
496.66	583.25
496.877	606.25
497.094	602.25
497.312	578.25
497.529	598.25
497.746	613.25
497.963	627.25
498.181	632.25
498.398	633.25
498.615	655.25
498.832	646.25
499.049	635.25
499.267	639.25
499.484	642.25
499.701	674.25
499.918	698.25
500.135	717.25
500.352	731.25
500.569	719.25
500.786	722.25
501.003	724.25
501.22	728.25
501.437	710.25
501.654	688.25
501.871	718.25
