Data from 1986.PennyLincolnUp.Lamp.En5.5.200Scan.071819.P2_HRD10591_17-12-55-972.txt Node
Date: Thu Jul 18 17:12:55 EDT 2019
User: cochatt
Spectrometer: HR+D1059
Trigger mode: 1
Integration Time (sec): 1.000000E-1
Scans to average: 1
Electric dark correction enabled: true
Nonlinearity correction enabled: false
Boxcar width: 0
XAxis mode: Wavelengths
Number of Pixels in Spectrum: 2048
>>>>>Begin Spectral Data<<<<<
223.165	-18.38
223.4	-18.38
223.635	-18.38
223.869	-19.38
224.104	-10.38
224.338	-6.38
224.573	-12.38
224.808	-9.38
225.042	1.62
225.277	-9.38
225.511	-8.38
225.746	-2.38
225.98	6.62
226.215	11.62
226.449	15.62
226.683	9.62
226.918	21.62
227.152	29.62
227.387	34.62
227.621	39.62
227.856	44.62
228.09	50.62
228.324	43.62
228.559	62.62
228.793	61.62
229.027	111.62
229.262	110.62
229.496	116.62
229.73	147.62
229.964	156.62
230.199	137.62
230.433	111.62
230.667	127.62
230.901	111.62
231.136	131.62
231.37	120.62
231.604	116.62
231.838	110.62
232.072	120.62
232.306	106.62
232.541	126.62
232.775	125.62
233.009	129.62
233.243	114.62
233.477	119.62
233.711	127.62
233.945	119.62
234.179	126.62
234.413	127.62
234.647	128.62
234.881	125.62
235.115	123.62
235.349	125.62
235.583	123.62
235.817	134.62
236.051	130.62
236.285	130.62
236.519	134.62
236.753	155.62
236.987	154.62
237.221	206.62
237.455	237.62
237.689	222.62
237.922	145.62
238.156	152.62
238.39	128.62
238.624	120.62
238.858	144.62
239.091	136.62
239.325	124.62
239.559	134.62
239.793	128.62
240.027	133.62
240.26	157.62
240.494	169.62
240.728	163.62
240.961	151.62
241.195	159.62
241.429	159.62
241.662	148.62
241.896	157.62
242.13	136.62
242.363	150.62
242.597	139.62
242.83	145.62
243.064	152.62
243.298	153.62
243.531	143.62
243.765	168.62
243.998	141.62
244.232	167.62
244.465	156.62
244.699	155.62
244.932	164.62
245.166	176.62
245.399	174.62
245.633	153.62
245.866	165.62
246.099	141.62
246.333	156.62
246.566	160.62
246.8	168.62
247.033	160.62
247.266	174.62
247.5	190.62
247.733	179.62
247.966	173.62
248.2	195.62
248.433	171.62
248.666	183.62
248.899	192.62
249.133	208.62
249.366	257.62
249.599	211.62
249.832	210.62
250.066	237.62
250.299	250.62
250.532	266.62
250.765	291.62
250.998	314.62
251.231	295.62
251.465	281.62
251.698	246.62
251.931	247.62
252.164	244.62
252.397	231.62
252.63	236.62
252.863	240.62
253.096	236.62
253.329	257.62
253.562	274.62
253.795	264.62
254.028	253.62
254.261	238.62
254.494	252.62
254.727	282.62
254.96	321.62
255.193	310.62
255.426	303.62
255.659	318.62
255.892	332.62
256.124	386.62
256.357	441.62
256.59	383.62
256.823	359.62
257.056	328.62
257.289	295.62
257.521	284.62
257.754	276.62
257.987	258.62
258.22	260.62
258.452	269.62
258.685	259.62
258.918	243.62
259.151	258.62
259.383	245.62
259.616	237.62
259.849	256.62
260.081	264.62
260.314	272.62
260.547	297.62
260.779	291.62
261.012	278.62
261.244	237.62
261.477	249.62
261.71	262.62
261.942	243.62
262.175	288.62
262.407	267.62
262.64	246.62
262.872	239.62
263.105	239.62
263.337	238.62
263.57	231.62
263.802	238.62
264.035	232.62
264.267	239.62
264.499	228.62
264.732	232.62
264.964	240.62
265.197	223.62
265.429	232.62
265.661	222.62
265.894	242.62
266.126	227.62
266.358	250.62
266.591	231.62
266.823	239.62
267.055	237.62
267.287	247.62
267.52	232.62
267.752	251.62
267.984	267.62
268.216	248.62
268.448	253.62
268.681	260.62
268.913	271.62
269.145	299.62
269.377	278.62
269.609	314.62
269.841	290.62
270.073	317.62
270.306	326.62
270.538	331.62
270.77	326.62
271.002	334.62
271.234	302.62
271.466	323.62
271.698	320.62
271.93	331.62
272.162	348.62
272.394	335.62
272.626	338.62
272.858	323.62
273.09	300.62
273.322	318.62
273.553	292.62
273.785	321.62
274.017	293.62
274.249	291.62
274.481	282.62
274.713	276.62
274.945	297.62
275.176	299.62
275.408	291.62
275.64	283.62
275.872	300.62
276.104	310.62
276.335	303.62
276.567	302.62
276.799	308.62
277.031	347.62
277.262	361.62
277.494	353.62
277.726	348.62
277.957	329.62
278.189	329.62
278.421	312.62
278.652	303.62
278.884	286.62
279.115	298.62
279.347	298.62
279.579	300.62
279.81	314.62
280.042	311.62
280.273	322.62
280.505	325.62
280.736	284.62
280.968	296.62
281.199	291.62
281.431	299.62
281.662	303.62
281.894	310.62
282.125	314.62
282.356	323.62
282.588	310.62
282.819	332.62
283.051	316.62
283.282	293.62
283.513	286.62
283.745	290.62
283.976	288.62
284.207	299.62
284.439	309.62
284.67	310.62
284.901	318.62
285.132	297.62
285.364	300.62
285.595	283.62
285.826	292.62
286.057	320.62
286.288	311.62
286.52	295.62
286.751	293.62
286.982	289.62
287.213	298.62
287.444	301.62
287.675	298.62
287.906	309.62
288.138	315.62
288.369	328.62
288.6	338.62
288.831	334.62
289.062	335.62
289.293	331.62
289.524	315.62
289.755	317.62
289.986	308.62
290.217	318.62
290.448	295.62
290.679	313.62
290.91	309.62
291.141	303.62
291.371	323.62
291.602	316.62
291.833	300.62
292.064	298.62
292.295	303.62
292.526	306.62
292.757	296.62
292.987	308.62
293.218	300.62
293.449	306.62
293.68	306.62
293.91	302.62
294.141	302.62
294.372	290.62
294.603	307.62
294.833	310.62
295.064	313.62
295.295	310.62
295.525	308.62
295.756	322.62
295.987	302.62
296.217	357.62
296.448	375.62
296.679	329.62
296.909	312.62
297.14	314.62
297.37	328.62
297.601	320.62
297.831	320.62
298.062	321.62
298.292	310.62
298.523	324.62
298.753	309.62
298.984	318.62
299.214	327.62
299.445	310.62
299.675	296.62
299.905	334.62
300.136	332.62
300.366	323.62
300.597	311.62
300.827	318.62
301.057	354.62
301.288	345.62
301.518	330.62
301.748	356.62
301.979	341.62
302.209	345.62
302.439	332.62
302.669	332.62
302.9	346.62
303.13	339.62
303.36	355.62
303.59	342.62
303.82	371.62
304.051	366.62
304.281	342.62
304.511	335.62
304.741	340.62
304.971	309.62
305.201	340.62
305.431	348.62
305.661	346.62
305.891	334.62
306.121	361.62
306.352	352.62
306.582	358.62
306.812	352.62
307.042	357.62
307.272	362.62
307.502	376.62
307.731	367.62
307.961	357.62
308.191	368.62
308.421	357.62
308.651	341.62
308.881	374.62
309.111	376.62
309.341	364.62
309.571	386.62
309.8	378.62
310.03	375.62
310.26	401.62
310.49	399.62
310.72	376.62
310.949	426.62
311.179	428.62
311.409	431.62
311.639	382.62
311.868	387.62
312.098	408.62
312.328	411.62
312.557	413.62
312.787	434.62
313.017	439.62
313.246	402.62
313.476	416.62
313.706	419.62
313.935	420.62
314.165	423.62
314.394	427.62
314.624	427.62
314.853	413.62
315.083	403.62
315.312	420.62
315.542	381.62
315.771	405.62
316.001	402.62
316.23	418.62
316.46	391.62
316.689	401.62
316.919	403.62
317.148	423.62
317.377	417.62
317.607	412.62
317.836	406.62
318.065	394.62
318.295	400.62
318.524	415.62
318.753	405.62
318.983	394.62
319.212	388.62
319.441	416.62
319.67	439.62
319.9	394.62
320.129	406.62
320.358	415.62
320.587	422.62
320.816	424.62
321.046	444.62
321.275	434.62
321.504	426.62
321.733	437.62
321.962	456.62
322.191	456.62
322.42	469.62
322.649	503.62
322.878	488.62
323.108	518.62
323.337	553.62
323.566	576.62
323.795	612.62
324.024	676.62
324.253	798.62
324.482	1165.62
324.71	1778.62
324.939	2610.62
325.168	2278.62
325.397	1172.62
325.626	820.62
325.855	660.62
326.084	612.62
326.313	577.62
326.542	615.62
326.77	666.62
326.999	792.62
327.228	1054.62
327.457	1583.62
327.686	1959.62
327.914	1358.62
328.143	960.62
328.372	894.62
328.6	841.62
328.829	767.62
329.058	734.62
329.287	759.62
329.515	743.62
329.744	750.62
329.972	820.62
330.201	938.62
330.43	1076.62
330.658	1035.62
330.887	886.62
331.115	782.62
331.344	671.62
331.572	612.62
331.801	624.62
332.03	608.62
332.258	579.62
332.486	586.62
332.715	560.62
332.943	589.62
333.172	576.62
333.4	581.62
333.629	616.62
333.857	678.62
334.085	773.62
334.314	960.62
334.542	1165.62
334.771	1230.62
334.999	914.62
335.227	706.62
335.455	572.62
335.684	589.62
335.912	534.62
336.14	534.62
336.369	514.62
336.597	504.62
336.825	510.62
337.053	486.62
337.281	481.62
337.51	465.62
337.738	484.62
337.966	490.62
338.194	482.62
338.422	475.62
338.65	484.62
338.878	473.62
339.106	447.62
339.334	460.62
339.562	450.62
339.79	471.62
340.018	462.62
340.246	448.62
340.474	464.62
340.702	483.62
340.93	456.62
341.158	435.62
341.386	445.62
341.614	452.62
341.842	431.62
342.07	427.62
342.298	444.62
342.526	425.62
342.754	422.62
342.981	413.62
343.209	421.62
343.437	431.62
343.665	431.62
343.893	423.62
344.12	431.62
344.348	425.62
344.576	443.62
344.804	444.62
345.031	436.62
345.259	464.62
345.487	452.62
345.714	427.62
345.942	423.62
346.17	432.62
346.397	444.62
346.625	441.62
346.853	422.62
347.08	422.62
347.308	425.62
347.535	451.62
347.763	425.62
347.99	436.62
348.218	435.62
348.445	457.62
348.673	448.62
348.9	436.62
349.128	446.62
349.355	408.62
349.583	401.62
349.81	395.62
350.037	410.62
350.265	412.62
350.492	429.62
350.72	417.62
350.947	426.62
351.174	436.62
351.402	450.62
351.629	442.62
351.856	420.62
352.083	444.62
352.311	451.62
352.538	428.62
352.765	452.62
352.992	454.62
353.22	437.62
353.447	419.62
353.674	414.62
353.901	432.62
354.128	416.62
354.355	429.62
354.583	402.62
354.81	416.62
355.037	416.62
355.264	395.62
355.491	376.62
355.718	382.62
355.945	381.62
356.172	385.62
356.399	382.62
356.626	396.62
356.853	390.62
357.08	393.62
357.307	405.62
357.534	387.62
357.761	392.62
357.988	389.62
358.215	381.62
358.441	402.62
358.668	379.62
358.895	394.62
359.122	385.62
359.349	423.62
359.576	440.62
359.802	442.62
360.029	499.62
360.256	489.62
360.483	479.62
360.709	446.62
360.936	428.62
361.163	419.62
361.39	417.62
361.616	416.62
361.843	424.62
362.07	415.62
362.296	436.62
362.523	427.62
362.749	421.62
362.976	403.62
363.203	418.62
363.429	398.62
363.656	396.62
363.882	412.62
364.109	405.62
364.335	402.62
364.562	391.62
364.788	398.62
365.015	409.62
365.241	376.62
365.468	423.62
365.694	403.62
365.92	403.62
366.147	379.62
366.373	399.62
366.599	406.62
366.826	380.62
367.052	390.62
367.278	391.62
367.505	387.62
367.731	404.62
367.957	404.62
368.184	400.62
368.41	405.62
368.636	412.62
368.862	421.62
369.089	415.62
369.315	418.62
369.541	399.62
369.767	396.62
369.993	387.62
370.219	409.62
370.445	384.62
370.672	392.62
370.898	382.62
371.124	396.62
371.35	394.62
371.576	399.62
371.802	374.62
372.028	389.62
372.254	380.62
372.48	391.62
372.706	382.62
372.932	384.62
373.158	383.62
373.384	410.62
373.61	384.62
373.835	380.62
374.061	382.62
374.287	399.62
374.513	378.62
374.739	387.62
374.965	407.62
375.191	402.62
375.416	395.62
375.642	380.62
375.868	390.62
376.094	366.62
376.319	379.62
376.545	394.62
376.771	388.62
376.997	403.62
377.222	379.62
377.448	394.62
377.674	395.62
377.899	381.62
378.125	367.62
378.35	376.62
378.576	364.62
378.802	382.62
379.027	382.62
379.253	372.62
379.478	395.62
379.704	399.62
379.929	381.62
380.155	389.62
380.38	380.62
380.606	392.62
380.831	382.62
381.057	388.62
381.282	380.62
381.507	378.62
381.733	386.62
381.958	382.62
382.184	385.62
382.409	387.62
382.634	381.62
382.86	384.62
383.085	398.62
383.31	388.62
383.535	386.62
383.761	399.62
383.986	385.62
384.211	379.62
384.436	390.62
384.662	386.62
384.887	393.62
385.112	406.62
385.337	390.62
385.562	403.62
385.787	407.62
386.013	406.62
386.238	408.62
386.463	413.62
386.688	418.62
386.913	404.62
387.138	407.62
387.363	399.62
387.588	405.62
387.813	408.62
388.038	402.62
388.263	410.62
388.488	394.62
388.713	386.62
388.938	387.62
389.163	412.62
389.387	415.62
389.612	400.62
389.837	390.62
390.062	399.62
390.287	389.62
390.512	393.62
390.736	400.62
390.961	384.62
391.186	392.62
391.411	408.62
391.636	405.62
391.86	401.62
392.085	400.62
392.31	401.62
392.534	393.62
392.759	406.62
392.984	406.62
393.208	414.62
393.433	396.62
393.658	407.62
393.882	398.62
394.107	399.62
394.331	412.62
394.556	400.62
394.78	398.62
395.005	416.62
395.229	408.62
395.454	399.62
395.678	416.62
395.903	425.62
396.127	444.62
396.352	457.62
396.576	409.62
396.801	382.62
397.025	416.62
397.249	421.62
397.474	420.62
397.698	419.62
397.922	439.62
398.147	458.62
398.371	442.62
398.595	440.62
398.82	427.62
399.044	451.62
399.268	480.62
399.492	457.62
399.717	484.62
399.941	510.62
400.165	538.62
400.389	553.62
400.613	526.62
400.837	486.62
401.062	467.62
401.286	450.62
401.51	436.62
401.734	468.62
401.958	465.62
402.182	454.62
402.406	452.62
402.63	482.62
402.854	467.62
403.078	462.62
403.302	479.62
403.526	482.62
403.75	482.62
403.974	472.62
404.198	490.62
404.422	513.62
404.645	536.62
404.869	546.62
405.093	579.62
405.317	634.62
405.541	668.62
405.765	596.62
405.988	572.62
406.212	554.62
406.436	564.62
406.66	570.62
406.883	512.62
407.107	531.62
407.331	580.62
407.555	624.62
407.778	633.62
408.002	580.62
408.226	542.62
408.449	524.62
408.673	512.62
408.896	567.62
409.12	602.62
409.344	564.62
409.567	511.62
409.791	492.62
410.014	487.62
410.238	468.62
410.461	474.62
410.685	486.62
410.908	506.62
411.132	527.62
411.355	572.62
411.578	558.62
411.802	531.62
412.025	521.62
412.249	548.62
412.472	586.62
412.695	663.62
412.919	653.62
413.142	587.62
413.365	554.62
413.589	532.62
413.812	506.62
414.035	494.62
414.258	490.62
414.482	477.62
414.705	491.62
414.928	454.62
415.151	471.62
415.374	454.62
415.597	453.62
415.821	446.62
416.044	458.62
416.267	461.62
416.49	454.62
416.713	461.62
416.936	480.62
417.159	433.62
417.382	487.62
417.605	487.62
417.828	522.62
418.051	486.62
418.274	494.62
418.497	452.62
418.72	470.62
418.943	453.62
419.166	483.62
419.389	491.62
419.611	491.62
419.834	522.62
420.057	520.62
420.28	549.62
420.503	594.62
420.726	584.62
420.948	570.62
421.171	585.62
421.394	603.62
421.617	529.62
421.839	495.62
422.062	513.62
422.285	510.62
422.507	562.62
422.73	631.62
422.953	615.62
423.175	543.62
423.398	499.62
423.621	506.62
423.843	530.62
424.066	523.62
424.288	521.62
424.511	572.62
424.733	584.62
424.956	684.62
425.178	642.62
425.401	660.62
425.623	659.62
425.846	593.62
426.068	548.62
426.291	547.62
426.513	536.62
426.735	546.62
426.958	583.62
427.18	681.62
427.402	794.62
427.625	868.62
427.847	826.62
428.069	760.62
428.292	696.62
428.514	580.62
428.736	542.62
428.958	518.62
429.181	500.62
429.403	509.62
429.625	513.62
429.847	557.62
430.069	589.62
430.292	606.62
430.514	535.62
430.736	475.62
430.958	465.62
431.18	469.62
431.402	454.62
431.624	471.62
431.846	450.62
432.068	465.62
432.29	440.62
432.512	455.62
432.734	463.62
432.956	470.62
433.178	490.62
433.4	462.62
433.622	469.62
433.844	460.62
434.066	462.62
434.287	474.62
434.509	459.62
434.731	468.62
434.953	474.62
435.175	497.62
435.397	498.62
435.618	516.62
435.84	564.62
436.062	670.62
436.284	724.62
436.505	602.62
436.727	572.62
436.949	537.62
437.17	477.62
437.392	482.62
437.614	510.62
437.835	558.62
438.057	629.62
438.278	728.62
438.5	762.62
438.721	808.62
438.943	763.62
439.165	608.62
439.386	551.62
439.608	522.62
439.829	565.62
440.05	564.62
440.272	607.62
440.493	592.62
440.715	537.62
440.936	493.62
441.158	482.62
441.379	479.62
441.6	524.62
441.822	527.62
442.043	571.62
442.264	654.62
442.486	677.62
442.707	596.62
442.928	549.62
443.149	550.62
443.371	587.62
443.592	601.62
443.813	707.62
444.034	762.62
444.255	650.62
444.476	542.62
444.698	526.62
444.919	516.62
445.14	618.62
445.361	575.62
445.582	569.62
445.803	645.62
446.024	759.62
446.245	774.62
446.466	685.62
446.687	588.62
446.908	556.62
447.129	522.62
447.35	494.62
447.571	486.62
447.792	480.62
448.013	503.62
448.234	528.62
448.455	568.62
448.675	639.62
448.896	774.62
449.117	680.62
449.338	635.62
449.559	740.62
449.779	842.62
450	672.62
450.221	582.62
450.442	516.62
450.662	485.62
450.883	494.62
451.104	493.62
451.324	507.62
451.545	495.62
451.766	466.62
451.986	457.62
452.207	457.62
452.428	419.62
452.648	450.62
452.869	452.62
453.089	444.62
453.31	472.62
453.53	442.62
453.751	435.62
453.971	446.62
454.192	454.62
454.412	462.62
454.633	422.62
454.853	445.62
455.073	443.62
455.294	454.62
455.514	525.62
455.734	525.62
455.955	444.62
456.175	429.62
456.395	429.62
456.616	407.62
456.836	408.62
457.056	392.62
457.276	405.62
457.497	434.62
457.717	421.62
457.937	430.62
458.157	439.62
458.377	439.62
458.598	453.62
458.818	520.62
459.038	582.62
459.258	595.62
459.478	520.62
459.698	464.62
459.918	456.62
460.138	428.62
460.358	463.62
460.578	416.62
460.798	449.62
461.018	440.62
461.238	463.62
461.458	443.62
461.678	427.62
461.898	436.62
462.118	452.62
462.338	459.62
462.558	467.62
462.777	488.62
462.997	442.62
463.217	462.62
463.437	478.62
463.657	462.62
463.876	461.62
464.096	460.62
464.316	462.62
464.536	461.62
464.755	488.62
464.975	491.62
465.195	538.62
465.414	617.62
465.634	527.62
465.854	472.62
466.073	468.62
466.293	462.62
466.512	451.62
466.732	447.62
466.951	428.62
467.171	439.62
467.391	450.62
467.61	479.62
467.829	492.62
468.049	522.62
468.268	583.62
468.488	533.62
468.707	482.62
468.927	454.62
469.146	460.62
469.365	464.62
469.585	455.62
469.804	461.62
470.023	472.62
470.243	456.62
470.462	466.62
470.681	475.62
470.901	491.62
471.12	464.62
471.339	475.62
471.558	473.62
471.777	491.62
471.997	520.62
472.216	560.62
472.435	860.62
472.654	794.62
472.873	609.62
473.092	568.62
473.311	532.62
473.53	516.62
473.749	511.62
473.968	552.62
474.187	656.62
474.406	687.62
474.625	552.62
474.844	510.62
475.063	503.62
475.282	488.62
475.501	468.62
475.72	492.62
475.939	466.62
476.158	492.62
476.377	489.62
476.596	488.62
476.814	488.62
477.033	502.62
477.252	522.62
477.471	512.62
477.69	493.62
477.908	514.62
478.127	494.62
478.346	491.62
478.564	510.62
478.783	522.62
479.002	508.62
479.22	528.62
479.439	535.62
479.658	582.62
479.876	559.62
480.095	584.62
480.313	638.62
480.532	608.62
480.751	608.62
480.969	722.62
481.188	1112.62
481.406	1405.62
481.624	946.62
481.843	790.62
482.061	693.62
482.28	674.62
482.498	646.62
482.717	620.62
482.935	622.62
483.153	596.62
483.372	595.62
483.59	607.62
483.808	597.62
484.027	582.62
484.245	588.62
484.463	607.62
484.681	611.62
484.9	586.62
485.118	592.62
485.336	571.62
485.554	594.62
485.772	579.62
485.99	596.62
486.209	590.62
486.427	604.62
486.645	622.62
486.863	634.62
487.081	635.62
487.299	631.62
487.517	616.62
487.735	628.62
487.953	607.62
488.171	615.62
488.389	613.62
488.607	622.62
488.825	622.62
489.043	639.62
489.261	622.62
489.479	627.62
489.696	640.62
489.914	646.62
490.132	665.62
490.35	657.62
490.568	674.62
490.786	690.62
491.003	685.62
491.221	713.62
491.439	721.62
491.657	749.62
491.874	760.62
492.092	760.62
492.31	775.62
492.527	773.62
492.745	784.62
492.963	778.62
493.18	820.62
493.398	783.62
493.615	803.62
493.833	781.62
494.05	751.62
494.268	799.62
494.485	765.62
494.703	748.62
494.92	761.62
495.138	756.62
495.355	766.62
495.573	779.62
495.79	756.62
496.008	755.62
496.225	748.62
496.442	766.62
496.66	749.62
496.877	740.62
497.094	736.62
497.312	758.62
497.529	740.62
497.746	740.62
497.963	752.62
498.181	780.62
498.398	756.62
498.615	769.62
498.832	781.62
499.049	779.62
499.267	782.62
499.484	787.62
499.701	799.62
499.918	788.62
500.135	859.62
500.352	864.62
500.569	843.62
500.786	887.62
501.003	882.62
501.22	890.62
501.437	866.62
501.654	856.62
501.871	873.62
