Data from 1986.PennyLincolnUp.Lamp.En5.5.200Scan.071819.P2_HRD10591_17-11-50-974.txt Node
Date: Thu Jul 18 17:11:50 EDT 2019
User: cochatt
Spectrometer: HR+D1059
Trigger mode: 1
Integration Time (sec): 1.000000E-1
Scans to average: 1
Electric dark correction enabled: true
Nonlinearity correction enabled: false
Boxcar width: 0
XAxis mode: Wavelengths
Number of Pixels in Spectrum: 2048
>>>>>Begin Spectral Data<<<<<
223.165	-16.69
223.4	-16.69
223.635	-16.69
223.869	-19.69
224.104	-16.69
224.338	-12.69
224.573	-18.69
224.808	-17.69
225.042	-12.69
225.277	-11.69
225.511	1.31
225.746	4.31
225.98	16.31
226.215	18.31
226.449	8.31
226.683	30.31
226.918	21.31
227.152	26.31
227.387	31.31
227.621	33.31
227.856	34.31
228.09	36.31
228.324	46.31
228.559	51.31
228.793	68.31
229.027	97.31
229.262	116.31
229.496	106.31
229.73	124.31
229.964	170.31
230.199	137.31
230.433	116.31
230.667	116.31
230.901	117.31
231.136	112.31
231.37	125.31
231.604	94.31
231.838	99.31
232.072	109.31
232.306	111.31
232.541	125.31
232.775	113.31
233.009	108.31
233.243	118.31
233.477	115.31
233.711	113.31
233.945	126.31
234.179	119.31
234.413	113.31
234.647	100.31
234.881	114.31
235.115	126.31
235.349	121.31
235.583	110.31
235.817	121.31
236.051	113.31
236.285	120.31
236.519	120.31
236.753	149.31
236.987	137.31
237.221	177.31
237.455	242.31
237.689	193.31
237.922	147.31
238.156	136.31
238.39	116.31
238.624	119.31
238.858	135.31
239.091	114.31
239.325	125.31
239.559	120.31
239.793	128.31
240.027	130.31
240.26	141.31
240.494	161.31
240.728	161.31
240.961	149.31
241.195	160.31
241.429	158.31
241.662	126.31
241.896	138.31
242.13	117.31
242.363	124.31
242.597	143.31
242.83	149.31
243.064	148.31
243.298	137.31
243.531	133.31
243.765	135.31
243.998	158.31
244.232	144.31
244.465	150.31
244.699	136.31
244.932	157.31
245.166	153.31
245.399	150.31
245.633	156.31
245.866	166.31
246.099	157.31
246.333	157.31
246.566	158.31
246.8	147.31
247.033	186.31
247.266	159.31
247.5	168.31
247.733	183.31
247.966	176.31
248.2	184.31
248.433	172.31
248.666	196.31
248.899	188.31
249.133	202.31
249.366	222.31
249.599	198.31
249.832	199.31
250.066	207.31
250.299	193.31
250.532	207.31
250.765	240.31
250.998	277.31
251.231	265.31
251.465	250.31
251.698	229.31
251.931	236.31
252.164	211.31
252.397	238.31
252.63	218.31
252.863	214.31
253.096	210.31
253.329	232.31
253.562	256.31
253.795	249.31
254.028	248.31
254.261	238.31
254.494	238.31
254.727	276.31
254.96	309.31
255.193	310.31
255.426	276.31
255.659	289.31
255.892	292.31
256.124	321.31
256.357	319.31
256.59	295.31
256.823	284.31
257.056	243.31
257.289	272.31
257.521	252.31
257.754	248.31
257.987	228.31
258.22	252.31
258.452	239.31
258.685	218.31
258.918	226.31
259.151	227.31
259.383	234.31
259.616	249.31
259.849	236.31
260.081	242.31
260.314	268.31
260.547	264.31
260.779	265.31
261.012	269.31
261.244	262.31
261.477	251.31
261.71	240.31
261.942	242.31
262.175	260.31
262.407	243.31
262.64	241.31
262.872	236.31
263.105	237.31
263.337	232.31
263.57	250.31
263.802	205.31
264.035	229.31
264.267	222.31
264.499	219.31
264.732	231.31
264.964	217.31
265.197	223.31
265.429	206.31
265.661	239.31
265.894	209.31
266.126	215.31
266.358	222.31
266.591	223.31
266.823	241.31
267.055	231.31
267.287	228.31
267.52	241.31
267.752	232.31
267.984	244.31
268.216	225.31
268.448	235.31
268.681	252.31
268.913	231.31
269.145	270.31
269.377	277.31
269.609	279.31
269.841	301.31
270.073	281.31
270.306	319.31
270.538	322.31
270.77	333.31
271.002	310.31
271.234	307.31
271.466	319.31
271.698	323.31
271.93	346.31
272.162	349.31
272.394	348.31
272.626	337.31
272.858	321.31
273.09	297.31
273.322	288.31
273.553	281.31
273.785	278.31
274.017	272.31
274.249	271.31
274.481	261.31
274.713	282.31
274.945	287.31
275.176	287.31
275.408	288.31
275.64	276.31
275.872	282.31
276.104	279.31
276.335	268.31
276.567	276.31
276.799	319.31
277.031	348.31
277.262	332.31
277.494	365.31
277.726	324.31
277.957	300.31
278.189	291.31
278.421	280.31
278.652	300.31
278.884	310.31
279.115	288.31
279.347	291.31
279.579	275.31
279.81	274.31
280.042	284.31
280.273	299.31
280.505	289.31
280.736	280.31
280.968	278.31
281.199	274.31
281.431	264.31
281.662	276.31
281.894	254.31
282.125	265.31
282.356	265.31
282.588	309.31
282.819	320.31
283.051	290.31
283.282	258.31
283.513	284.31
283.745	291.31
283.976	292.31
284.207	285.31
284.439	280.31
284.67	267.31
284.901	291.31
285.132	264.31
285.364	265.31
285.595	284.31
285.826	274.31
286.057	281.31
286.288	274.31
286.52	269.31
286.751	288.31
286.982	266.31
287.213	282.31
287.444	295.31
287.675	272.31
287.906	290.31
288.138	293.31
288.369	304.31
288.6	304.31
288.831	289.31
289.062	279.31
289.293	286.31
289.524	294.31
289.755	292.31
289.986	278.31
290.217	274.31
290.448	286.31
290.679	310.31
290.91	288.31
291.141	282.31
291.371	284.31
291.602	276.31
291.833	283.31
292.064	292.31
292.295	258.31
292.526	282.31
292.757	273.31
292.987	288.31
293.218	299.31
293.449	295.31
293.68	274.31
293.91	274.31
294.141	273.31
294.372	273.31
294.603	271.31
294.833	274.31
295.064	273.31
295.295	276.31
295.525	288.31
295.756	307.31
295.987	309.31
296.217	344.31
296.448	329.31
296.679	301.31
296.909	282.31
297.14	278.31
297.37	300.31
297.601	291.31
297.831	285.31
298.062	303.31
298.292	294.31
298.523	298.31
298.753	311.31
298.984	288.31
299.214	294.31
299.445	307.31
299.675	288.31
299.905	298.31
300.136	306.31
300.366	294.31
300.597	296.31
300.827	333.31
301.057	291.31
301.288	340.31
301.518	318.31
301.748	334.31
301.979	300.31
302.209	320.31
302.439	298.31
302.669	307.31
302.9	318.31
303.13	336.31
303.36	316.31
303.59	322.31
303.82	317.31
304.051	339.31
304.281	325.31
304.511	311.31
304.741	310.31
304.971	305.31
305.201	304.31
305.431	310.31
305.661	325.31
305.891	336.31
306.121	329.31
306.352	328.31
306.582	338.31
306.812	330.31
307.042	322.31
307.272	311.31
307.502	323.31
307.731	311.31
307.961	330.31
308.191	324.31
308.421	324.31
308.651	331.31
308.881	350.31
309.111	335.31
309.341	350.31
309.571	340.31
309.8	375.31
310.03	365.31
310.26	369.31
310.49	380.31
310.72	385.31
310.949	397.31
311.179	408.31
311.409	395.31
311.639	385.31
311.868	375.31
312.098	373.31
312.328	393.31
312.557	408.31
312.787	422.31
313.017	415.31
313.246	393.31
313.476	376.31
313.706	371.31
313.935	377.31
314.165	390.31
314.394	412.31
314.624	408.31
314.853	390.31
315.083	361.31
315.312	356.31
315.542	373.31
315.771	368.31
316.001	380.31
316.23	367.31
316.46	401.31
316.689	378.31
316.919	393.31
317.148	394.31
317.377	379.31
317.607	373.31
317.836	376.31
318.065	376.31
318.295	378.31
318.524	386.31
318.753	387.31
318.983	366.31
319.212	380.31
319.441	378.31
319.67	401.31
319.9	378.31
320.129	383.31
320.358	377.31
320.587	388.31
320.816	400.31
321.046	421.31
321.275	417.31
321.504	398.31
321.733	410.31
321.962	432.31
322.191	429.31
322.42	441.31
322.649	464.31
322.878	482.31
323.108	498.31
323.337	512.31
323.566	549.31
323.795	596.31
324.024	624.31
324.253	785.31
324.482	1117.31
324.71	1728.31
324.939	2476.31
325.168	2172.31
325.397	1161.31
325.626	748.31
325.855	624.31
326.084	556.31
326.313	552.31
326.542	562.31
326.77	620.31
326.999	744.31
327.228	979.31
327.457	1534.31
327.686	1843.31
327.914	1300.31
328.143	877.31
328.372	774.31
328.6	725.31
328.829	687.31
329.058	678.31
329.287	650.31
329.515	648.31
329.744	631.31
329.972	628.31
330.201	707.31
330.43	786.31
330.658	812.31
330.887	738.31
331.115	704.31
331.344	594.31
331.572	537.31
331.801	552.31
332.03	538.31
332.258	499.31
332.486	484.31
332.715	505.31
332.943	485.31
333.172	483.31
333.4	505.31
333.629	508.31
333.857	559.31
334.085	579.31
334.314	680.31
334.542	796.31
334.771	828.31
334.999	672.31
335.227	568.31
335.455	494.31
335.684	468.31
335.912	469.31
336.14	449.31
336.369	466.31
336.597	456.31
336.825	462.31
337.053	451.31
337.281	425.31
337.51	413.31
337.738	424.31
337.966	414.31
338.194	439.31
338.422	420.31
338.65	427.31
338.878	423.31
339.106	406.31
339.334	422.31
339.562	414.31
339.79	418.31
340.018	419.31
340.246	417.31
340.474	433.31
340.702	420.31
340.93	424.31
341.158	415.31
341.386	426.31
341.614	423.31
341.842	429.31
342.07	428.31
342.298	410.31
342.526	421.31
342.754	401.31
342.981	396.31
343.209	390.31
343.437	408.31
343.665	391.31
343.893	400.31
344.12	406.31
344.348	393.31
344.576	414.31
344.804	405.31
345.031	428.31
345.259	438.31
345.487	429.31
345.714	392.31
345.942	408.31
346.17	401.31
346.397	389.31
346.625	396.31
346.853	409.31
347.08	390.31
347.308	431.31
347.535	412.31
347.763	404.31
347.99	411.31
348.218	405.31
348.445	422.31
348.673	431.31
348.9	398.31
349.128	380.31
349.355	375.31
349.583	398.31
349.81	392.31
350.037	373.31
350.265	385.31
350.492	389.31
350.72	400.31
350.947	396.31
351.174	405.31
351.402	421.31
351.629	425.31
351.856	428.31
352.083	418.31
352.311	419.31
352.538	426.31
352.765	433.31
352.992	397.31
353.22	406.31
353.447	384.31
353.674	392.31
353.901	386.31
354.128	389.31
354.355	387.31
354.583	376.31
354.81	373.31
355.037	380.31
355.264	372.31
355.491	367.31
355.718	374.31
355.945	366.31
356.172	356.31
356.399	368.31
356.626	375.31
356.853	362.31
357.08	368.31
357.307	376.31
357.534	359.31
357.761	364.31
357.988	360.31
358.215	368.31
358.441	374.31
358.668	371.31
358.895	377.31
359.122	376.31
359.349	387.31
359.576	400.31
359.802	419.31
360.029	459.31
360.256	493.31
360.483	448.31
360.709	400.31
360.936	397.31
361.163	418.31
361.39	398.31
361.616	402.31
361.843	400.31
362.07	408.31
362.296	414.31
362.523	419.31
362.749	384.31
362.976	407.31
363.203	388.31
363.429	368.31
363.656	397.31
363.882	377.31
364.109	392.31
364.335	381.31
364.562	382.31
364.788	371.31
365.015	392.31
365.241	389.31
365.468	406.31
365.694	376.31
365.92	402.31
366.147	381.31
366.373	374.31
366.599	342.31
366.826	366.31
367.052	367.31
367.278	367.31
367.505	374.31
367.731	378.31
367.957	368.31
368.184	372.31
368.41	407.31
368.636	394.31
368.862	382.31
369.089	394.31
369.315	366.31
369.541	371.31
369.767	387.31
369.993	380.31
370.219	366.31
370.445	369.31
370.672	377.31
370.898	366.31
371.124	367.31
371.35	369.31
371.576	360.31
371.802	359.31
372.028	350.31
372.254	364.31
372.48	357.31
372.706	392.31
372.932	357.31
373.158	362.31
373.384	367.31
373.61	346.31
373.835	368.31
374.061	370.31
374.287	352.31
374.513	352.31
374.739	367.31
374.965	359.31
375.191	370.31
375.416	372.31
375.642	372.31
375.868	376.31
376.094	344.31
376.319	366.31
376.545	355.31
376.771	380.31
376.997	352.31
377.222	369.31
377.448	357.31
377.674	349.31
377.899	330.31
378.125	362.31
378.35	358.31
378.576	349.31
378.802	368.31
379.027	357.31
379.253	364.31
379.478	367.31
379.704	336.31
379.929	355.31
380.155	340.31
380.38	365.31
380.606	378.31
380.831	345.31
381.057	353.31
381.282	356.31
381.507	374.31
381.733	373.31
381.958	341.31
382.184	363.31
382.409	350.31
382.634	368.31
382.86	371.31
383.085	350.31
383.31	368.31
383.535	371.31
383.761	380.31
383.986	371.31
384.211	361.31
384.436	386.31
384.662	378.31
384.887	372.31
385.112	373.31
385.337	374.31
385.562	379.31
385.787	382.31
386.013	402.31
386.238	385.31
386.463	384.31
386.688	377.31
386.913	353.31
387.138	368.31
387.363	382.31
387.588	394.31
387.813	369.31
388.038	382.31
388.263	373.31
388.488	368.31
388.713	362.31
388.938	382.31
389.163	370.31
389.387	386.31
389.612	377.31
389.837	364.31
390.062	376.31
390.287	390.31
390.512	360.31
390.736	378.31
390.961	363.31
391.186	380.31
391.411	368.31
391.636	389.31
391.86	399.31
392.085	382.31
392.31	376.31
392.534	357.31
392.759	394.31
392.984	370.31
393.208	388.31
393.433	373.31
393.658	369.31
393.882	370.31
394.107	370.31
394.331	366.31
394.556	364.31
394.78	380.31
395.005	357.31
395.229	381.31
395.454	404.31
395.678	388.31
395.903	391.31
396.127	408.31
396.352	420.31
396.576	394.31
396.801	393.31
397.025	390.31
397.249	384.31
397.474	387.31
397.698	384.31
397.922	418.31
398.147	434.31
398.371	430.31
398.595	436.31
398.82	409.31
399.044	406.31
399.268	424.31
399.492	451.31
399.717	440.31
399.941	494.31
400.165	498.31
400.389	518.31
400.613	484.31
400.837	454.31
401.062	451.31
401.286	445.31
401.51	415.31
401.734	390.31
401.958	430.31
402.182	443.31
402.406	456.31
402.63	421.31
402.854	443.31
403.078	446.31
403.302	438.31
403.526	455.31
403.75	441.31
403.974	445.31
404.198	446.31
404.422	470.31
404.645	480.31
404.869	472.31
405.093	524.31
405.317	567.31
405.541	618.31
405.765	548.31
405.988	525.31
406.212	480.31
406.436	535.31
406.66	532.31
406.883	509.31
407.107	514.31
407.331	588.31
407.555	594.31
407.778	602.31
408.002	554.31
408.226	520.31
408.449	495.31
408.673	510.31
408.896	528.31
409.12	550.31
409.344	538.31
409.567	473.31
409.791	478.31
410.014	424.31
410.238	454.31
410.461	441.31
410.685	450.31
410.908	484.31
411.132	504.31
411.355	558.31
411.578	515.31
411.802	481.31
412.025	459.31
412.249	479.31
412.472	519.31
412.695	597.31
412.919	571.31
413.142	531.31
413.365	496.31
413.589	474.31
413.812	476.31
414.035	458.31
414.258	428.31
414.482	428.31
414.705	441.31
414.928	418.31
415.151	429.31
415.374	429.31
415.597	421.31
415.821	424.31
416.044	431.31
416.267	445.31
416.49	430.31
416.713	434.31
416.936	417.31
417.159	430.31
417.382	429.31
417.605	465.31
417.828	454.31
418.051	465.31
418.274	451.31
418.497	454.31
418.72	437.31
418.943	432.31
419.166	444.31
419.389	443.31
419.611	469.31
419.834	472.31
420.057	476.31
420.28	492.31
420.503	512.31
420.726	474.31
420.948	496.31
421.171	540.31
421.394	548.31
421.617	483.31
421.839	473.31
422.062	470.31
422.285	476.31
422.507	503.31
422.73	604.31
422.953	586.31
423.175	524.31
423.398	469.31
423.621	478.31
423.843	504.31
424.066	500.31
424.288	496.31
424.511	508.31
424.733	572.31
424.956	639.31
425.178	623.31
425.401	638.31
425.623	642.31
425.846	550.31
426.068	510.31
426.291	493.31
426.513	492.31
426.735	518.31
426.958	561.31
427.18	640.31
427.402	777.31
427.625	853.31
427.847	790.31
428.069	671.31
428.292	628.31
428.514	517.31
428.736	488.31
428.958	484.31
429.181	478.31
429.403	485.31
429.625	481.31
429.847	510.31
430.069	576.31
430.292	577.31
430.514	506.31
430.736	461.31
430.958	469.31
431.18	425.31
431.402	426.31
431.624	407.31
431.846	431.31
432.068	431.31
432.29	429.31
432.512	426.31
432.734	447.31
432.956	441.31
433.178	466.31
433.4	452.31
433.622	431.31
433.844	405.31
434.066	409.31
434.287	427.31
434.509	439.31
434.731	445.31
434.953	434.31
435.175	446.31
435.397	494.31
435.618	503.31
435.84	538.31
436.062	632.31
436.284	704.31
436.505	580.31
436.727	518.31
436.949	484.31
437.17	470.31
437.392	481.31
437.614	492.31
437.835	519.31
438.057	640.31
438.278	724.31
438.5	703.31
438.721	750.31
438.943	749.31
439.165	591.31
439.386	537.31
439.608	547.31
439.829	528.31
440.05	555.31
440.272	607.31
440.493	569.31
440.715	501.31
440.936	481.31
441.158	471.31
441.379	484.31
441.6	494.31
441.822	507.31
442.043	537.31
442.264	621.31
442.486	656.31
442.707	571.31
442.928	506.31
443.149	544.31
443.371	538.31
443.592	594.31
443.813	649.31
444.034	720.31
444.255	600.31
444.476	519.31
444.698	494.31
444.919	474.31
445.14	570.31
445.361	554.31
445.582	558.31
445.803	647.31
446.024	726.31
446.245	708.31
446.466	707.31
446.687	588.31
446.908	535.31
447.129	501.31
447.35	458.31
447.571	457.31
447.792	472.31
448.013	453.31
448.234	499.31
448.455	551.31
448.675	680.31
448.896	745.31
449.117	658.31
449.338	605.31
449.559	697.31
449.779	778.31
450	641.31
450.221	549.31
450.442	488.31
450.662	493.31
450.883	502.31
451.104	488.31
451.324	482.31
451.545	454.31
451.766	442.31
451.986	415.31
452.207	400.31
452.428	414.31
452.648	427.31
452.869	415.31
453.089	437.31
453.31	448.31
453.53	421.31
453.751	440.31
453.971	422.31
454.192	454.31
454.412	444.31
454.633	416.31
454.853	420.31
455.073	419.31
455.294	448.31
455.514	519.31
455.734	510.31
455.955	438.31
456.175	399.31
456.395	378.31
456.616	399.31
456.836	375.31
457.056	388.31
457.276	374.31
457.497	391.31
457.717	376.31
457.937	413.31
458.157	399.31
458.377	404.31
458.598	432.31
458.818	512.31
459.038	600.31
459.258	611.31
459.478	483.31
459.698	430.31
459.918	427.31
460.138	425.31
460.358	416.31
460.578	434.31
460.798	415.31
461.018	428.31
461.238	426.31
461.458	419.31
461.678	421.31
461.898	428.31
462.118	402.31
462.338	425.31
462.558	421.31
462.777	422.31
462.997	424.31
463.217	448.31
463.437	449.31
463.657	426.31
463.876	450.31
464.096	432.31
464.316	420.31
464.536	460.31
464.755	457.31
464.975	463.31
465.195	499.31
465.414	608.31
465.634	535.31
465.854	472.31
466.073	477.31
466.293	438.31
466.512	428.31
466.732	414.31
466.951	421.31
467.171	424.31
467.391	427.31
467.61	431.31
467.829	444.31
468.049	481.31
468.268	478.31
468.488	465.31
468.707	438.31
468.927	443.31
469.146	437.31
469.365	415.31
469.585	390.31
469.804	428.31
470.023	440.31
470.243	419.31
470.462	435.31
470.681	449.31
470.901	466.31
471.12	428.31
471.339	437.31
471.558	464.31
471.777	440.31
471.997	447.31
472.216	487.31
472.435	613.31
472.654	587.31
472.873	509.31
473.092	477.31
473.311	456.31
473.53	456.31
473.749	454.31
473.968	487.31
474.187	616.31
474.406	617.31
474.625	516.31
474.844	454.31
475.063	452.31
475.282	442.31
475.501	450.31
475.72	451.31
475.939	464.31
476.158	454.31
476.377	440.31
476.596	448.31
476.814	457.31
477.033	466.31
477.252	463.31
477.471	476.31
477.69	459.31
477.908	458.31
478.127	492.31
478.346	472.31
478.564	482.31
478.783	482.31
479.002	496.31
479.22	495.31
479.439	524.31
479.658	530.31
479.876	512.31
480.095	536.31
480.313	582.31
480.532	543.31
480.751	566.31
480.969	598.31
481.188	816.31
481.406	975.31
481.624	740.31
481.843	628.31
482.061	580.31
482.28	582.31
482.498	565.31
482.717	536.31
482.935	551.31
483.153	533.31
483.372	557.31
483.59	540.31
483.808	529.31
484.027	512.31
484.245	522.31
484.463	528.31
484.681	546.31
484.9	545.31
485.118	549.31
485.336	545.31
485.554	546.31
485.772	566.31
485.99	528.31
486.209	551.31
486.427	558.31
486.645	552.31
486.863	586.31
487.081	566.31
487.299	585.31
487.517	585.31
487.735	582.31
487.953	563.31
488.171	588.31
488.389	553.31
488.607	572.31
488.825	584.31
489.043	598.31
489.261	595.31
489.479	577.31
489.696	574.31
489.914	608.31
490.132	595.31
490.35	609.31
490.568	586.31
490.786	645.31
491.003	620.31
491.221	646.31
491.439	636.31
491.657	661.31
491.874	685.31
492.092	670.31
492.31	679.31
492.527	699.31
492.745	693.31
492.963	699.31
493.18	717.31
493.398	707.31
493.615	737.31
493.833	722.31
494.05	708.31
494.268	706.31
494.485	707.31
494.703	686.31
494.92	690.31
495.138	700.31
495.355	685.31
495.573	694.31
495.79	703.31
496.008	675.31
496.225	701.31
496.442	674.31
496.66	686.31
496.877	684.31
497.094	684.31
497.312	681.31
497.529	701.31
497.746	699.31
497.963	707.31
498.181	732.31
498.398	738.31
498.615	736.31
498.832	719.31
499.049	727.31
499.267	736.31
499.484	721.31
499.701	752.31
499.918	768.31
500.135	792.31
500.352	789.31
500.569	803.31
500.786	831.31
501.003	818.31
501.22	815.31
501.437	838.31
501.654	822.31
501.871	814.31
