Data from 1986.PennyLincolnUp.Lamp.En5.5.200Scan.071819.P2_HRD10591_17-10-03-976.txt Node
Date: Thu Jul 18 17:10:03 EDT 2019
User: cochatt
Spectrometer: HR+D1059
Trigger mode: 1
Integration Time (sec): 1.000000E-1
Scans to average: 1
Electric dark correction enabled: true
Nonlinearity correction enabled: false
Boxcar width: 0
XAxis mode: Wavelengths
Number of Pixels in Spectrum: 2048
>>>>>Begin Spectral Data<<<<<
223.165	-16.69
223.4	-16.69
223.635	-16.69
223.869	-18.69
224.104	-16.69
224.338	-5.69
224.573	-10.69
224.808	-8.69
225.042	-16.69
225.277	-0.69
225.511	15.31
225.746	-7.69
225.98	2.31
226.215	0.31
226.449	19.31
226.683	27.31
226.918	20.31
227.152	17.31
227.387	29.31
227.621	42.31
227.856	51.31
228.09	48.31
228.324	50.31
228.559	57.31
228.793	69.31
229.027	86.31
229.262	111.31
229.496	113.31
229.73	135.31
229.964	175.31
230.199	123.31
230.433	102.31
230.667	135.31
230.901	113.31
231.136	133.31
231.37	115.31
231.604	112.31
231.838	125.31
232.072	112.31
232.306	122.31
232.541	99.31
232.775	133.31
233.009	120.31
233.243	106.31
233.477	123.31
233.711	124.31
233.945	122.31
234.179	127.31
234.413	126.31
234.647	125.31
234.881	119.31
235.115	124.31
235.349	124.31
235.583	119.31
235.817	127.31
236.051	118.31
236.285	116.31
236.519	107.31
236.753	131.31
236.987	131.31
237.221	185.31
237.455	216.31
237.689	193.31
237.922	135.31
238.156	131.31
238.39	138.31
238.624	126.31
238.858	131.31
239.091	125.31
239.325	126.31
239.559	128.31
239.793	121.31
240.027	121.31
240.26	126.31
240.494	162.31
240.728	151.31
240.961	133.31
241.195	143.31
241.429	151.31
241.662	129.31
241.896	132.31
242.13	118.31
242.363	119.31
242.597	134.31
242.83	129.31
243.064	151.31
243.298	135.31
243.531	120.31
243.765	123.31
243.998	132.31
244.232	129.31
244.465	129.31
244.699	153.31
244.932	149.31
245.166	161.31
245.399	158.31
245.633	150.31
245.866	152.31
246.099	133.31
246.333	149.31
246.566	142.31
246.8	157.31
247.033	169.31
247.266	148.31
247.5	156.31
247.733	151.31
247.966	160.31
248.2	176.31
248.433	151.31
248.666	154.31
248.899	182.31
249.133	201.31
249.366	195.31
249.599	206.31
249.832	176.31
250.066	191.31
250.299	179.31
250.532	190.31
250.765	198.31
250.998	209.31
251.231	225.31
251.465	212.31
251.698	198.31
251.931	201.31
252.164	204.31
252.397	207.31
252.63	198.31
252.863	214.31
253.096	212.31
253.329	228.31
253.562	213.31
253.795	234.31
254.028	229.31
254.261	239.31
254.494	235.31
254.727	258.31
254.96	279.31
255.193	276.31
255.426	257.31
255.659	231.31
255.892	234.31
256.124	233.31
256.357	219.31
256.59	220.31
256.823	192.31
257.056	200.31
257.289	203.31
257.521	205.31
257.754	217.31
257.987	205.31
258.22	203.31
258.452	208.31
258.685	203.31
258.918	212.31
259.151	207.31
259.383	206.31
259.616	214.31
259.849	225.31
260.081	219.31
260.314	241.31
260.547	246.31
260.779	249.31
261.012	238.31
261.244	253.31
261.477	216.31
261.71	219.31
261.942	222.31
262.175	240.31
262.407	220.31
262.64	224.31
262.872	214.31
263.105	209.31
263.337	205.31
263.57	208.31
263.802	194.31
264.035	206.31
264.267	209.31
264.499	189.31
264.732	220.31
264.964	200.31
265.197	204.31
265.429	198.31
265.661	209.31
265.894	198.31
266.126	215.31
266.358	205.31
266.591	207.31
266.823	214.31
267.055	213.31
267.287	224.31
267.52	205.31
267.752	206.31
267.984	208.31
268.216	231.31
268.448	228.31
268.681	214.31
268.913	228.31
269.145	251.31
269.377	260.31
269.609	267.31
269.841	249.31
270.073	249.31
270.306	272.31
270.538	299.31
270.77	309.31
271.002	282.31
271.234	281.31
271.466	280.31
271.698	325.31
271.93	316.31
272.162	322.31
272.394	318.31
272.626	315.31
272.858	295.31
273.09	267.31
273.322	290.31
273.553	262.31
273.785	254.31
274.017	241.31
274.249	249.31
274.481	275.31
274.713	255.31
274.945	273.31
275.176	274.31
275.408	246.31
275.64	253.31
275.872	250.31
276.104	240.31
276.335	261.31
276.567	258.31
276.799	274.31
277.031	311.31
277.262	308.31
277.494	314.31
277.726	297.31
277.957	265.31
278.189	247.31
278.421	258.31
278.652	265.31
278.884	272.31
279.115	250.31
279.347	261.31
279.579	262.31
279.81	236.31
280.042	247.31
280.273	267.31
280.505	278.31
280.736	232.31
280.968	241.31
281.199	259.31
281.431	236.31
281.662	249.31
281.894	243.31
282.125	252.31
282.356	276.31
282.588	305.31
282.819	317.31
283.051	288.31
283.282	245.31
283.513	241.31
283.745	268.31
283.976	264.31
284.207	266.31
284.439	263.31
284.67	259.31
284.901	253.31
285.132	253.31
285.364	243.31
285.595	263.31
285.826	259.31
286.057	251.31
286.288	250.31
286.52	259.31
286.751	262.31
286.982	245.31
287.213	268.31
287.444	260.31
287.675	268.31
287.906	270.31
288.138	256.31
288.369	255.31
288.6	275.31
288.831	261.31
289.062	273.31
289.293	266.31
289.524	255.31
289.755	269.31
289.986	265.31
290.217	246.31
290.448	270.31
290.679	265.31
290.91	259.31
291.141	251.31
291.371	263.31
291.602	248.31
291.833	265.31
292.064	256.31
292.295	253.31
292.526	244.31
292.757	272.31
292.987	268.31
293.218	261.31
293.449	262.31
293.68	268.31
293.91	263.31
294.141	265.31
294.372	264.31
294.603	267.31
294.833	276.31
295.064	269.31
295.295	247.31
295.525	270.31
295.756	277.31
295.987	275.31
296.217	288.31
296.448	301.31
296.679	276.31
296.909	273.31
297.14	253.31
297.37	285.31
297.601	270.31
297.831	267.31
298.062	244.31
298.292	264.31
298.523	265.31
298.753	283.31
298.984	275.31
299.214	264.31
299.445	287.31
299.675	290.31
299.905	291.31
300.136	286.31
300.366	263.31
300.597	287.31
300.827	293.31
301.057	310.31
301.288	301.31
301.518	292.31
301.748	289.31
301.979	276.31
302.209	290.31
302.439	300.31
302.669	297.31
302.9	296.31
303.13	285.31
303.36	309.31
303.59	300.31
303.82	311.31
304.051	315.31
304.281	300.31
304.511	296.31
304.741	296.31
304.971	284.31
305.201	280.31
305.431	287.31
305.661	295.31
305.891	287.31
306.121	288.31
306.352	282.31
306.582	310.31
306.812	295.31
307.042	302.31
307.272	299.31
307.502	312.31
307.731	309.31
307.961	288.31
308.191	308.31
308.421	302.31
308.651	302.31
308.881	301.31
309.111	317.31
309.341	324.31
309.571	334.31
309.8	327.31
310.03	328.31
310.26	358.31
310.49	333.31
310.72	358.31
310.949	362.31
311.179	360.31
311.409	358.31
311.639	360.31
311.868	341.31
312.098	355.31
312.328	366.31
312.557	345.31
312.787	375.31
313.017	388.31
313.246	360.31
313.476	353.31
313.706	368.31
313.935	331.31
314.165	371.31
314.394	345.31
314.624	383.31
314.853	371.31
315.083	353.31
315.312	333.31
315.542	347.31
315.771	310.31
316.001	324.31
316.23	345.31
316.46	343.31
316.689	338.31
316.919	351.31
317.148	357.31
317.377	364.31
317.607	364.31
317.836	348.31
318.065	347.31
318.295	353.31
318.524	337.31
318.753	347.31
318.983	344.31
319.212	358.31
319.441	358.31
319.67	352.31
319.9	348.31
320.129	344.31
320.358	360.31
320.587	353.31
320.816	366.31
321.046	374.31
321.275	352.31
321.504	387.31
321.733	352.31
321.962	377.31
322.191	395.31
322.42	379.31
322.649	416.31
322.878	428.31
323.108	446.31
323.337	492.31
323.566	490.31
323.795	519.31
324.024	570.31
324.253	701.31
324.482	995.31
324.71	1552.31
324.939	2136.31
325.168	1898.31
325.397	981.31
325.626	673.31
325.855	544.31
326.084	488.31
326.313	473.31
326.542	483.31
326.77	551.31
326.999	648.31
327.228	867.31
327.457	1323.31
327.686	1631.31
327.914	1123.31
328.143	707.31
328.372	625.31
328.6	581.31
328.829	537.31
329.058	565.31
329.287	575.31
329.515	528.31
329.744	481.31
329.972	465.31
330.201	462.31
330.43	494.31
330.658	519.31
330.887	592.31
331.115	577.31
331.344	502.31
331.572	468.31
331.801	456.31
332.03	464.31
332.258	446.31
332.486	401.31
332.715	403.31
332.943	409.31
333.172	404.31
333.4	383.31
333.629	407.31
333.857	392.31
334.085	397.31
334.314	414.31
334.542	412.31
334.771	413.31
334.999	407.31
335.227	414.31
335.455	385.31
335.684	398.31
335.912	391.31
336.14	375.31
336.369	397.31
336.597	387.31
336.825	411.31
337.053	393.31
337.281	387.31
337.51	377.31
337.738	389.31
337.966	393.31
338.194	415.31
338.422	392.31
338.65	379.31
338.878	378.31
339.106	387.31
339.334	366.31
339.562	365.31
339.79	363.31
340.018	389.31
340.246	376.31
340.474	375.31
340.702	407.31
340.93	397.31
341.158	391.31
341.386	384.31
341.614	388.31
341.842	356.31
342.07	391.31
342.298	377.31
342.526	383.31
342.754	358.31
342.981	362.31
343.209	360.31
343.437	390.31
343.665	355.31
343.893	378.31
344.12	374.31
344.348	382.31
344.576	363.31
344.804	387.31
345.031	389.31
345.259	402.31
345.487	412.31
345.714	381.31
345.942	377.31
346.17	371.31
346.397	371.31
346.625	366.31
346.853	375.31
347.08	371.31
347.308	406.31
347.535	397.31
347.763	392.31
347.99	371.31
348.218	382.31
348.445	394.31
348.673	401.31
348.9	395.31
349.128	369.31
349.355	371.31
349.583	380.31
349.81	362.31
350.037	359.31
350.265	365.31
350.492	355.31
350.72	372.31
350.947	372.31
351.174	384.31
351.402	384.31
351.629	384.31
351.856	368.31
352.083	394.31
352.311	419.31
352.538	406.31
352.765	397.31
352.992	380.31
353.22	399.31
353.447	365.31
353.674	371.31
353.901	357.31
354.128	360.31
354.355	348.31
354.583	346.31
354.81	355.31
355.037	360.31
355.264	343.31
355.491	323.31
355.718	344.31
355.945	343.31
356.172	331.31
356.399	325.31
356.626	338.31
356.853	311.31
357.08	340.31
357.307	342.31
357.534	349.31
357.761	341.31
357.988	341.31
358.215	351.31
358.441	335.31
358.668	336.31
358.895	361.31
359.122	350.31
359.349	356.31
359.576	364.31
359.802	398.31
360.029	402.31
360.256	414.31
360.483	427.31
360.709	387.31
360.936	365.31
361.163	384.31
361.39	374.31
361.616	378.31
361.843	363.31
362.07	371.31
362.296	373.31
362.523	365.31
362.749	366.31
362.976	367.31
363.203	359.31
363.429	344.31
363.656	365.31
363.882	352.31
364.109	355.31
364.335	359.31
364.562	342.31
364.788	337.31
365.015	355.31
365.241	351.31
365.468	348.31
365.694	366.31
365.92	359.31
366.147	348.31
366.373	353.31
366.599	366.31
366.826	353.31
367.052	332.31
367.278	333.31
367.505	345.31
367.731	344.31
367.957	339.31
368.184	349.31
368.41	367.31
368.636	364.31
368.862	381.31
369.089	353.31
369.315	351.31
369.541	359.31
369.767	354.31
369.993	351.31
370.219	337.31
370.445	350.31
370.672	346.31
370.898	334.31
371.124	337.31
371.35	328.31
371.576	336.31
371.802	351.31
372.028	337.31
372.254	344.31
372.48	344.31
372.706	336.31
372.932	352.31
373.158	334.31
373.384	356.31
373.61	334.31
373.835	340.31
374.061	362.31
374.287	341.31
374.513	345.31
374.739	348.31
374.965	349.31
375.191	342.31
375.416	351.31
375.642	345.31
375.868	348.31
376.094	339.31
376.319	333.31
376.545	336.31
376.771	335.31
376.997	360.31
377.222	338.31
377.448	347.31
377.674	342.31
377.899	341.31
378.125	351.31
378.35	356.31
378.576	339.31
378.802	367.31
379.027	345.31
379.253	309.31
379.478	338.31
379.704	344.31
379.929	340.31
380.155	352.31
380.38	344.31
380.606	341.31
380.831	348.31
381.057	338.31
381.282	327.31
381.507	336.31
381.733	327.31
381.958	329.31
382.184	318.31
382.409	350.31
382.634	347.31
382.86	345.31
383.085	357.31
383.31	354.31
383.535	366.31
383.761	348.31
383.986	350.31
384.211	360.31
384.436	353.31
384.662	360.31
384.887	334.31
385.112	373.31
385.337	363.31
385.562	341.31
385.787	342.31
386.013	360.31
386.238	378.31
386.463	379.31
386.688	363.31
386.913	377.31
387.138	355.31
387.363	381.31
387.588	367.31
387.813	356.31
388.038	337.31
388.263	347.31
388.488	347.31
388.713	349.31
388.938	355.31
389.163	381.31
389.387	361.31
389.612	365.31
389.837	353.31
390.062	348.31
390.287	347.31
390.512	353.31
390.736	363.31
390.961	348.31
391.186	371.31
391.411	363.31
391.636	351.31
391.86	352.31
392.085	363.31
392.31	355.31
392.534	374.31
392.759	365.31
392.984	366.31
393.208	361.31
393.433	345.31
393.658	365.31
393.882	357.31
394.107	354.31
394.331	362.31
394.556	359.31
394.78	367.31
395.005	366.31
395.229	364.31
395.454	364.31
395.678	376.31
395.903	383.31
396.127	385.31
396.352	408.31
396.576	409.31
396.801	394.31
397.025	387.31
397.249	359.31
397.474	383.31
397.698	389.31
397.922	389.31
398.147	395.31
398.371	395.31
398.595	385.31
398.82	394.31
399.044	401.31
399.268	419.31
399.492	413.31
399.717	438.31
399.941	451.31
400.165	488.31
400.389	495.31
400.613	459.31
400.837	444.31
401.062	426.31
401.286	416.31
401.51	415.31
401.734	403.31
401.958	419.31
402.182	402.31
402.406	426.31
402.63	416.31
402.854	404.31
403.078	409.31
403.302	426.31
403.526	407.31
403.75	415.31
403.974	413.31
404.198	395.31
404.422	425.31
404.645	418.31
404.869	406.31
405.093	411.31
405.317	454.31
405.541	485.31
405.765	441.31
405.988	449.31
406.212	462.31
406.436	465.31
406.66	511.31
406.883	469.31
407.107	477.31
407.331	501.31
407.555	564.31
407.778	560.31
408.002	529.31
408.226	472.31
408.449	481.31
408.673	469.31
408.896	494.31
409.12	530.31
409.344	507.31
409.567	441.31
409.791	431.31
410.014	419.31
410.238	424.31
410.461	437.31
410.685	425.31
410.908	434.31
411.132	460.31
411.355	491.31
411.578	454.31
411.802	432.31
412.025	415.31
412.249	417.31
412.472	413.31
412.695	431.31
412.919	422.31
413.142	398.31
413.365	394.31
413.589	409.31
413.812	403.31
414.035	377.31
414.258	396.31
414.482	395.31
414.705	396.31
414.928	390.31
415.151	377.31
415.374	380.31
415.597	392.31
415.821	390.31
416.044	394.31
416.267	398.31
416.49	414.31
416.713	409.31
416.936	398.31
417.159	403.31
417.382	405.31
417.605	412.31
417.828	398.31
418.051	441.31
418.274	394.31
418.497	397.31
418.72	421.31
418.943	391.31
419.166	402.31
419.389	418.31
419.611	420.31
419.834	436.31
420.057	438.31
420.28	400.31
420.503	420.31
420.726	412.31
420.948	435.31
421.171	477.31
421.394	505.31
421.617	435.31
421.839	439.31
422.062	424.31
422.285	443.31
422.507	482.31
422.73	541.31
422.953	531.31
423.175	467.31
423.398	428.31
423.621	422.31
423.843	471.31
424.066	464.31
424.288	452.31
424.511	473.31
424.733	519.31
424.956	612.31
425.178	575.31
425.401	587.31
425.623	612.31
425.846	515.31
426.068	469.31
426.291	493.31
426.513	482.31
426.735	469.31
426.958	516.31
427.18	602.31
427.402	699.31
427.625	790.31
427.847	675.31
428.069	592.31
428.292	503.31
428.514	497.31
428.736	452.31
428.958	457.31
429.181	425.31
429.403	453.31
429.625	455.31
429.847	485.31
430.069	522.31
430.292	539.31
430.514	474.31
430.736	445.31
430.958	445.31
431.18	430.31
431.402	405.31
431.624	423.31
431.846	407.31
432.068	410.31
432.29	405.31
432.512	407.31
432.734	425.31
432.956	420.31
433.178	413.31
433.4	428.31
433.622	411.31
433.844	392.31
434.066	407.31
434.287	383.31
434.509	405.31
434.731	422.31
434.953	427.31
435.175	430.31
435.397	450.31
435.618	486.31
435.84	510.31
436.062	589.31
436.284	641.31
436.505	552.31
436.727	483.31
436.949	456.31
437.17	431.31
437.392	440.31
437.614	438.31
437.835	493.31
438.057	569.31
438.278	667.31
438.5	648.31
438.721	729.31
438.943	698.31
439.165	559.31
439.386	497.31
439.608	490.31
439.829	503.31
440.05	506.31
440.272	559.31
440.493	514.31
440.715	475.31
440.936	453.31
441.158	435.31
441.379	450.31
441.6	458.31
441.822	445.31
442.043	489.31
442.264	571.31
442.486	625.31
442.707	526.31
442.928	495.31
443.149	484.31
443.371	516.31
443.592	554.31
443.813	657.31
444.034	681.31
444.255	575.31
444.476	483.31
444.698	447.31
444.919	463.31
445.14	577.31
445.361	526.31
445.582	521.31
445.803	572.31
446.024	664.31
446.245	671.31
446.466	618.31
446.687	520.31
446.908	502.31
447.129	452.31
447.35	423.31
447.571	443.31
447.792	413.31
448.013	432.31
448.234	462.31
448.455	530.31
448.675	614.31
448.896	717.31
449.117	608.31
449.338	563.31
449.559	661.31
449.779	734.31
450	599.31
450.221	518.31
450.442	464.31
450.662	462.31
450.883	468.31
451.104	469.31
451.324	426.31
451.545	417.31
451.766	413.31
451.986	409.31
452.207	378.31
452.428	383.31
452.648	381.31
452.869	381.31
453.089	399.31
453.31	407.31
453.53	413.31
453.751	399.31
453.971	421.31
454.192	432.31
454.412	407.31
454.633	396.31
454.853	384.31
455.073	396.31
455.294	424.31
455.514	476.31
455.734	462.31
455.955	408.31
456.175	378.31
456.395	363.31
456.616	381.31
456.836	358.31
457.056	360.31
457.276	346.31
457.497	371.31
457.717	359.31
457.937	379.31
458.157	385.31
458.377	385.31
458.598	394.31
458.818	467.31
459.038	531.31
459.258	559.31
459.478	445.31
459.698	408.31
459.918	410.31
460.138	391.31
460.358	392.31
460.578	392.31
460.798	397.31
461.018	388.31
461.238	387.31
461.458	395.31
461.678	391.31
461.898	378.31
462.118	389.31
462.338	391.31
462.558	401.31
462.777	407.31
462.997	423.31
463.217	412.31
463.437	432.31
463.657	411.31
463.876	422.31
464.096	408.31
464.316	406.31
464.536	412.31
464.755	449.31
464.975	440.31
465.195	492.31
465.414	587.31
465.634	499.31
465.854	450.31
466.073	427.31
466.293	409.31
466.512	397.31
466.732	390.31
466.951	399.31
467.171	401.31
467.391	388.31
467.61	400.31
467.829	433.31
468.049	404.31
468.268	381.31
468.488	380.31
468.707	384.31
468.927	386.31
469.146	385.31
469.365	383.31
469.585	376.31
469.804	389.31
470.023	404.31
470.243	409.31
470.462	419.31
470.681	420.31
470.901	429.31
471.12	404.31
471.339	399.31
471.558	401.31
471.777	400.31
471.997	389.31
472.216	388.31
472.435	404.31
472.654	373.31
472.873	397.31
473.092	388.31
473.311	398.31
473.53	417.31
473.749	409.31
473.968	437.31
474.187	536.31
474.406	559.31
474.625	475.31
474.844	430.31
475.063	394.31
475.282	406.31
475.501	419.31
475.72	400.31
475.939	410.31
476.158	421.31
476.377	425.31
476.596	409.31
476.814	401.31
477.033	415.31
477.252	411.31
477.471	413.31
477.69	426.31
477.908	431.31
478.127	441.31
478.346	445.31
478.564	439.31
478.783	447.31
479.002	439.31
479.22	437.31
479.439	454.31
479.658	477.31
479.876	485.31
480.095	483.31
480.313	508.31
480.532	496.31
480.751	493.31
480.969	470.31
481.188	499.31
481.406	497.31
481.624	453.31
481.843	488.31
482.061	456.31
482.28	462.31
482.498	449.31
482.717	459.31
482.935	460.31
483.153	448.31
483.372	471.31
483.59	452.31
483.808	469.31
484.027	480.31
484.245	467.31
484.463	470.31
484.681	498.31
484.9	492.31
485.118	485.31
485.336	478.31
485.554	475.31
485.772	494.31
485.99	493.31
486.209	477.31
486.427	501.31
486.645	486.31
486.863	507.31
487.081	528.31
487.299	502.31
487.517	521.31
487.735	500.31
487.953	506.31
488.171	503.31
488.389	500.31
488.607	517.31
488.825	519.31
489.043	515.31
489.261	527.31
489.479	533.31
489.696	527.31
489.914	506.31
490.132	533.31
490.35	530.31
490.568	542.31
490.786	551.31
491.003	564.31
491.221	573.31
491.439	593.31
491.657	594.31
491.874	563.31
492.092	582.31
492.31	572.31
492.527	551.31
492.745	578.31
492.963	604.31
493.18	597.31
493.398	585.31
493.615	590.31
493.833	583.31
494.05	584.31
494.268	600.31
494.485	618.31
494.703	621.31
494.92	601.31
495.138	608.31
495.355	602.31
495.573	594.31
495.79	612.31
496.008	625.31
496.225	607.31
496.442	627.31
496.66	603.31
496.877	606.31
497.094	607.31
497.312	617.31
497.529	637.31
497.746	634.31
497.963	631.31
498.181	655.31
498.398	648.31
498.615	652.31
498.832	635.31
499.049	655.31
499.267	678.31
499.484	707.31
499.701	673.31
499.918	721.31
500.135	728.31
500.352	763.31
500.569	748.31
500.786	750.31
501.003	732.31
501.22	744.31
501.437	723.31
501.654	729.31
501.871	733.31
