Data from 1986.PennyLincolnUp.Lamp.En5.5.200Scan.071819.P2_HRD10591_17-10-20-974.txt Node
Date: Thu Jul 18 17:10:20 EDT 2019
User: cochatt
Spectrometer: HR+D1059
Trigger mode: 1
Integration Time (sec): 1.000000E-1
Scans to average: 1
Electric dark correction enabled: true
Nonlinearity correction enabled: false
Boxcar width: 0
XAxis mode: Wavelengths
Number of Pixels in Spectrum: 2048
>>>>>Begin Spectral Data<<<<<
223.165	-12.44
223.4	-12.44
223.635	-12.44
223.869	-24.44
224.104	-15.44
224.338	-21.44
224.573	-8.44
224.808	-2.44
225.042	-11.44
225.277	-10.44
225.511	-6.44
225.746	8.56
225.98	-8.44
226.215	10.56
226.449	18.56
226.683	22.56
226.918	26.56
227.152	34.56
227.387	30.56
227.621	36.56
227.856	37.56
228.09	54.56
228.324	55.56
228.559	58.56
228.793	61.56
229.027	90.56
229.262	108.56
229.496	124.56
229.73	139.56
229.964	174.56
230.199	125.56
230.433	109.56
230.667	116.56
230.901	114.56
231.136	115.56
231.37	104.56
231.604	114.56
231.838	109.56
232.072	114.56
232.306	121.56
232.541	110.56
232.775	114.56
233.009	122.56
233.243	109.56
233.477	128.56
233.711	98.56
233.945	96.56
234.179	105.56
234.413	107.56
234.647	116.56
234.881	114.56
235.115	114.56
235.349	130.56
235.583	119.56
235.817	120.56
236.051	122.56
236.285	142.56
236.519	135.56
236.753	115.56
236.987	158.56
237.221	175.56
237.455	242.56
237.689	202.56
237.922	155.56
238.156	132.56
238.39	139.56
238.624	123.56
238.858	129.56
239.091	137.56
239.325	118.56
239.559	129.56
239.793	143.56
240.027	156.56
240.26	159.56
240.494	164.56
240.728	167.56
240.961	159.56
241.195	149.56
241.429	139.56
241.662	140.56
241.896	149.56
242.13	133.56
242.363	153.56
242.597	136.56
242.83	128.56
243.064	147.56
243.298	138.56
243.531	160.56
243.765	145.56
243.998	130.56
244.232	145.56
244.465	144.56
244.699	142.56
244.932	139.56
245.166	139.56
245.399	148.56
245.633	158.56
245.866	156.56
246.099	145.56
246.333	160.56
246.566	135.56
246.8	149.56
247.033	136.56
247.266	159.56
247.5	165.56
247.733	182.56
247.966	167.56
248.2	180.56
248.433	180.56
248.666	186.56
248.899	180.56
249.133	214.56
249.366	206.56
249.599	208.56
249.832	197.56
250.066	185.56
250.299	196.56
250.532	206.56
250.765	202.56
250.998	224.56
251.231	235.56
251.465	225.56
251.698	212.56
251.931	198.56
252.164	202.56
252.397	204.56
252.63	212.56
252.863	222.56
253.096	219.56
253.329	224.56
253.562	223.56
253.795	229.56
254.028	227.56
254.261	231.56
254.494	251.56
254.727	246.56
254.96	290.56
255.193	288.56
255.426	267.56
255.659	247.56
255.892	239.56
256.124	243.56
256.357	234.56
256.59	214.56
256.823	216.56
257.056	232.56
257.289	208.56
257.521	214.56
257.754	219.56
257.987	216.56
258.22	219.56
258.452	216.56
258.685	215.56
258.918	222.56
259.151	214.56
259.383	220.56
259.616	213.56
259.849	226.56
260.081	232.56
260.314	260.56
260.547	241.56
260.779	250.56
261.012	250.56
261.244	227.56
261.477	210.56
261.71	208.56
261.942	220.56
262.175	245.56
262.407	248.56
262.64	209.56
262.872	194.56
263.105	208.56
263.337	223.56
263.57	228.56
263.802	226.56
264.035	207.56
264.267	192.56
264.499	196.56
264.732	206.56
264.964	198.56
265.197	200.56
265.429	203.56
265.661	204.56
265.894	216.56
266.126	218.56
266.358	218.56
266.591	227.56
266.823	213.56
267.055	230.56
267.287	221.56
267.52	218.56
267.752	229.56
267.984	222.56
268.216	224.56
268.448	236.56
268.681	228.56
268.913	247.56
269.145	247.56
269.377	268.56
269.609	266.56
269.841	263.56
270.073	293.56
270.306	295.56
270.538	323.56
270.77	314.56
271.002	313.56
271.234	295.56
271.466	303.56
271.698	329.56
271.93	325.56
272.162	334.56
272.394	328.56
272.626	304.56
272.858	292.56
273.09	279.56
273.322	269.56
273.553	266.56
273.785	265.56
274.017	259.56
274.249	268.56
274.481	282.56
274.713	270.56
274.945	275.56
275.176	260.56
275.408	263.56
275.64	253.56
275.872	258.56
276.104	261.56
276.335	281.56
276.567	272.56
276.799	284.56
277.031	309.56
277.262	314.56
277.494	332.56
277.726	297.56
277.957	274.56
278.189	278.56
278.421	281.56
278.652	266.56
278.884	253.56
279.115	268.56
279.347	251.56
279.579	255.56
279.81	241.56
280.042	251.56
280.273	240.56
280.505	255.56
280.736	243.56
280.968	258.56
281.199	239.56
281.431	237.56
281.662	269.56
281.894	272.56
282.125	256.56
282.356	272.56
282.588	285.56
282.819	299.56
283.051	256.56
283.282	263.56
283.513	248.56
283.745	266.56
283.976	260.56
284.207	269.56
284.439	256.56
284.67	263.56
284.901	270.56
285.132	269.56
285.364	255.56
285.595	248.56
285.826	253.56
286.057	274.56
286.288	260.56
286.52	271.56
286.751	269.56
286.982	259.56
287.213	248.56
287.444	268.56
287.675	262.56
287.906	276.56
288.138	279.56
288.369	295.56
288.6	297.56
288.831	280.56
289.062	289.56
289.293	269.56
289.524	259.56
289.755	275.56
289.986	263.56
290.217	262.56
290.448	252.56
290.679	253.56
290.91	260.56
291.141	263.56
291.371	260.56
291.602	263.56
291.833	262.56
292.064	292.56
292.295	278.56
292.526	246.56
292.757	259.56
292.987	266.56
293.218	289.56
293.449	268.56
293.68	279.56
293.91	252.56
294.141	261.56
294.372	262.56
294.603	259.56
294.833	254.56
295.064	272.56
295.295	267.56
295.525	269.56
295.756	288.56
295.987	280.56
296.217	284.56
296.448	323.56
296.679	300.56
296.909	285.56
297.14	263.56
297.37	287.56
297.601	258.56
297.831	266.56
298.062	277.56
298.292	270.56
298.523	280.56
298.753	270.56
298.984	276.56
299.214	282.56
299.445	271.56
299.675	281.56
299.905	272.56
300.136	278.56
300.366	275.56
300.597	274.56
300.827	295.56
301.057	303.56
301.288	295.56
301.518	296.56
301.748	308.56
301.979	294.56
302.209	285.56
302.439	296.56
302.669	300.56
302.9	293.56
303.13	286.56
303.36	302.56
303.59	307.56
303.82	324.56
304.051	310.56
304.281	301.56
304.511	294.56
304.741	308.56
304.971	302.56
305.201	303.56
305.431	307.56
305.661	299.56
305.891	287.56
306.121	309.56
306.352	323.56
306.582	330.56
306.812	310.56
307.042	303.56
307.272	319.56
307.502	313.56
307.731	302.56
307.961	303.56
308.191	313.56
308.421	294.56
308.651	304.56
308.881	283.56
309.111	330.56
309.341	339.56
309.571	342.56
309.8	347.56
310.03	331.56
310.26	331.56
310.49	355.56
310.72	350.56
310.949	383.56
311.179	384.56
311.409	353.56
311.639	352.56
311.868	354.56
312.098	341.56
312.328	354.56
312.557	380.56
312.787	397.56
313.017	397.56
313.246	355.56
313.476	338.56
313.706	333.56
313.935	359.56
314.165	381.56
314.394	356.56
314.624	356.56
314.853	380.56
315.083	344.56
315.312	330.56
315.542	352.56
315.771	356.56
316.001	348.56
316.23	335.56
316.46	341.56
316.689	364.56
316.919	354.56
317.148	347.56
317.377	370.56
317.607	353.56
317.836	350.56
318.065	360.56
318.295	370.56
318.524	341.56
318.753	330.56
318.983	353.56
319.212	335.56
319.441	377.56
319.67	368.56
319.9	337.56
320.129	358.56
320.358	358.56
320.587	362.56
320.816	359.56
321.046	374.56
321.275	363.56
321.504	392.56
321.733	360.56
321.962	406.56
322.191	414.56
322.42	400.56
322.649	433.56
322.878	440.56
323.108	455.56
323.337	483.56
323.566	503.56
323.795	536.56
324.024	600.56
324.253	728.56
324.482	1045.56
324.71	1568.56
324.939	2266.56
325.168	2012.56
325.397	1076.56
325.626	726.56
325.855	564.56
326.084	539.56
326.313	477.56
326.542	530.56
326.77	576.56
326.999	671.56
327.228	942.56
327.457	1428.56
327.686	1722.56
327.914	1220.56
328.143	809.56
328.372	664.56
328.6	602.56
328.829	584.56
329.058	594.56
329.287	608.56
329.515	543.56
329.744	493.56
329.972	501.56
330.201	523.56
330.43	538.56
330.658	575.56
330.887	611.56
331.115	602.56
331.344	516.56
331.572	460.56
331.801	473.56
332.03	478.56
332.258	455.56
332.486	418.56
332.715	421.56
332.943	375.56
333.172	411.56
333.4	414.56
333.629	441.56
333.857	435.56
334.085	432.56
334.314	423.56
334.542	455.56
334.771	457.56
334.999	424.56
335.227	432.56
335.455	391.56
335.684	384.56
335.912	398.56
336.14	391.56
336.369	389.56
336.597	427.56
336.825	407.56
337.053	392.56
337.281	392.56
337.51	396.56
337.738	383.56
337.966	395.56
338.194	391.56
338.422	388.56
338.65	387.56
338.878	399.56
339.106	381.56
339.334	390.56
339.562	389.56
339.79	394.56
340.018	395.56
340.246	399.56
340.474	397.56
340.702	388.56
340.93	375.56
341.158	381.56
341.386	378.56
341.614	390.56
341.842	386.56
342.07	377.56
342.298	383.56
342.526	371.56
342.754	359.56
342.981	364.56
343.209	349.56
343.437	385.56
343.665	367.56
343.893	370.56
344.12	364.56
344.348	388.56
344.576	380.56
344.804	382.56
345.031	402.56
345.259	409.56
345.487	392.56
345.714	386.56
345.942	379.56
346.17	394.56
346.397	365.56
346.625	379.56
346.853	369.56
347.08	387.56
347.308	369.56
347.535	399.56
347.763	392.56
347.99	398.56
348.218	390.56
348.445	401.56
348.673	408.56
348.9	406.56
349.128	368.56
349.355	356.56
349.583	378.56
349.81	376.56
350.037	374.56
350.265	364.56
350.492	348.56
350.72	379.56
350.947	375.56
351.174	397.56
351.402	397.56
351.629	391.56
351.856	380.56
352.083	401.56
352.311	386.56
352.538	397.56
352.765	400.56
352.992	403.56
353.22	388.56
353.447	398.56
353.674	371.56
353.901	387.56
354.128	355.56
354.355	340.56
354.583	331.56
354.81	370.56
355.037	352.56
355.264	344.56
355.491	350.56
355.718	352.56
355.945	343.56
356.172	324.56
356.399	335.56
356.626	336.56
356.853	349.56
357.08	327.56
357.307	356.56
357.534	324.56
357.761	330.56
357.988	330.56
358.215	365.56
358.441	346.56
358.668	359.56
358.895	333.56
359.122	348.56
359.349	362.56
359.576	374.56
359.802	398.56
360.029	432.56
360.256	450.56
360.483	417.56
360.709	387.56
360.936	379.56
361.163	367.56
361.39	390.56
361.616	380.56
361.843	367.56
362.07	396.56
362.296	388.56
362.523	392.56
362.749	367.56
362.976	376.56
363.203	355.56
363.429	335.56
363.656	351.56
363.882	343.56
364.109	332.56
364.335	355.56
364.562	354.56
364.788	362.56
365.015	357.56
365.241	361.56
365.468	373.56
365.694	351.56
365.92	365.56
366.147	355.56
366.373	353.56
366.599	355.56
366.826	336.56
367.052	343.56
367.278	359.56
367.505	360.56
367.731	346.56
367.957	355.56
368.184	351.56
368.41	335.56
368.636	366.56
368.862	365.56
369.089	360.56
369.315	349.56
369.541	324.56
369.767	365.56
369.993	334.56
370.219	348.56
370.445	367.56
370.672	327.56
370.898	342.56
371.124	343.56
371.35	327.56
371.576	336.56
371.802	339.56
372.028	317.56
372.254	322.56
372.48	340.56
372.706	344.56
372.932	333.56
373.158	347.56
373.384	336.56
373.61	331.56
373.835	334.56
374.061	348.56
374.287	355.56
374.513	349.56
374.739	356.56
374.965	340.56
375.191	330.56
375.416	341.56
375.642	358.56
375.868	339.56
376.094	353.56
376.319	336.56
376.545	337.56
376.771	346.56
376.997	347.56
377.222	334.56
377.448	343.56
377.674	336.56
377.899	313.56
378.125	326.56
378.35	343.56
378.576	339.56
378.802	328.56
379.027	333.56
379.253	340.56
379.478	340.56
379.704	343.56
379.929	341.56
380.155	322.56
380.38	325.56
380.606	338.56
380.831	341.56
381.057	344.56
381.282	336.56
381.507	340.56
381.733	346.56
381.958	345.56
382.184	341.56
382.409	358.56
382.634	354.56
382.86	354.56
383.085	333.56
383.31	331.56
383.535	337.56
383.761	335.56
383.986	342.56
384.211	347.56
384.436	332.56
384.662	346.56
384.887	358.56
385.112	358.56
385.337	350.56
385.562	357.56
385.787	344.56
386.013	365.56
386.238	375.56
386.463	380.56
386.688	342.56
386.913	342.56
387.138	366.56
387.363	366.56
387.588	349.56
387.813	342.56
388.038	347.56
388.263	371.56
388.488	362.56
388.713	364.56
388.938	370.56
389.163	374.56
389.387	371.56
389.612	335.56
389.837	343.56
390.062	347.56
390.287	357.56
390.512	354.56
390.736	355.56
390.961	358.56
391.186	347.56
391.411	350.56
391.636	350.56
391.86	348.56
392.085	354.56
392.31	361.56
392.534	374.56
392.759	364.56
392.984	367.56
393.208	351.56
393.433	342.56
393.658	362.56
393.882	364.56
394.107	354.56
394.331	376.56
394.556	354.56
394.78	356.56
395.005	362.56
395.229	358.56
395.454	361.56
395.678	363.56
395.903	384.56
396.127	378.56
396.352	386.56
396.576	381.56
396.801	356.56
397.025	366.56
397.249	374.56
397.474	394.56
397.698	362.56
397.922	380.56
398.147	390.56
398.371	396.56
398.595	397.56
398.82	397.56
399.044	383.56
399.268	396.56
399.492	406.56
399.717	445.56
399.941	442.56
400.165	498.56
400.389	495.56
400.613	438.56
400.837	425.56
401.062	413.56
401.286	405.56
401.51	401.56
401.734	409.56
401.958	394.56
402.182	399.56
402.406	416.56
402.63	422.56
402.854	418.56
403.078	413.56
403.302	418.56
403.526	413.56
403.75	409.56
403.974	423.56
404.198	422.56
404.422	408.56
404.645	410.56
404.869	423.56
405.093	440.56
405.317	439.56
405.541	512.56
405.765	451.56
405.988	450.56
406.212	457.56
406.436	465.56
406.66	490.56
406.883	463.56
407.107	478.56
407.331	502.56
407.555	562.56
407.778	589.56
408.002	523.56
408.226	484.56
408.449	452.56
408.673	466.56
408.896	486.56
409.12	544.56
409.344	486.56
409.567	440.56
409.791	429.56
410.014	429.56
410.238	416.56
410.461	423.56
410.685	438.56
410.908	438.56
411.132	467.56
411.355	500.56
411.578	481.56
411.802	428.56
412.025	429.56
412.249	421.56
412.472	449.56
412.695	441.56
412.919	424.56
413.142	404.56
413.365	421.56
413.589	390.56
413.812	374.56
414.035	391.56
414.258	386.56
414.482	378.56
414.705	383.56
414.928	390.56
415.151	388.56
415.374	397.56
415.597	384.56
415.821	374.56
416.044	405.56
416.267	393.56
416.49	386.56
416.713	385.56
416.936	388.56
417.159	403.56
417.382	410.56
417.605	410.56
417.828	410.56
418.051	437.56
418.274	414.56
418.497	390.56
418.72	422.56
418.943	391.56
419.166	400.56
419.389	413.56
419.611	412.56
419.834	408.56
420.057	425.56
420.28	408.56
420.503	420.56
420.726	426.56
420.948	429.56
421.171	501.56
421.394	514.56
421.617	463.56
421.839	436.56
422.062	436.56
422.285	426.56
422.507	490.56
422.73	554.56
422.953	543.56
423.175	471.56
423.398	440.56
423.621	448.56
423.843	466.56
424.066	467.56
424.288	471.56
424.511	485.56
424.733	529.56
424.956	640.56
425.178	612.56
425.401	587.56
425.623	590.56
425.846	530.56
426.068	478.56
426.291	472.56
426.513	471.56
426.735	494.56
426.958	516.56
427.18	591.56
427.402	692.56
427.625	824.56
427.847	717.56
428.069	630.56
428.292	541.56
428.514	473.56
428.736	463.56
428.958	451.56
429.181	428.56
429.403	446.56
429.625	463.56
429.847	488.56
430.069	551.56
430.292	536.56
430.514	453.56
430.736	422.56
430.958	414.56
431.18	407.56
431.402	390.56
431.624	397.56
431.846	426.56
432.068	386.56
432.29	387.56
432.512	422.56
432.734	404.56
432.956	410.56
433.178	443.56
433.4	426.56
433.622	424.56
433.844	422.56
434.066	405.56
434.287	391.56
434.509	403.56
434.731	408.56
434.953	399.56
435.175	408.56
435.397	464.56
435.618	477.56
435.84	523.56
436.062	608.56
436.284	674.56
436.505	542.56
436.727	473.56
436.949	430.56
437.17	444.56
437.392	442.56
437.614	456.56
437.835	526.56
438.057	592.56
438.278	680.56
438.5	659.56
438.721	720.56
438.943	677.56
439.165	555.56
439.386	493.56
439.608	524.56
439.829	484.56
440.05	528.56
440.272	585.56
440.493	527.56
440.715	482.56
440.936	445.56
441.158	451.56
441.379	449.56
441.6	470.56
441.822	478.56
442.043	524.56
442.264	596.56
442.486	644.56
442.707	530.56
442.928	504.56
443.149	509.56
443.371	522.56
443.592	567.56
443.813	654.56
444.034	690.56
444.255	554.56
444.476	523.56
444.698	483.56
444.919	464.56
445.14	517.56
445.361	504.56
445.582	496.56
445.803	575.56
446.024	671.56
446.245	681.56
446.466	605.56
446.687	512.56
446.908	479.56
447.129	451.56
447.35	462.56
447.571	446.56
447.792	429.56
448.013	456.56
448.234	495.56
448.455	529.56
448.675	603.56
448.896	718.56
449.117	600.56
449.338	585.56
449.559	668.56
449.779	750.56
450	616.56
450.221	502.56
450.442	462.56
450.662	446.56
450.883	453.56
451.104	478.56
451.324	460.56
451.545	417.56
451.766	421.56
451.986	401.56
452.207	412.56
452.428	394.56
452.648	407.56
452.869	400.56
453.089	400.56
453.31	406.56
453.53	416.56
453.751	404.56
453.971	413.56
454.192	406.56
454.412	422.56
454.633	381.56
454.853	400.56
455.073	411.56
455.294	426.56
455.514	494.56
455.734	487.56
455.955	413.56
456.175	386.56
456.395	372.56
456.616	361.56
456.836	374.56
457.056	356.56
457.276	366.56
457.497	362.56
457.717	359.56
457.937	361.56
458.157	378.56
458.377	388.56
458.598	403.56
458.818	484.56
459.038	574.56
459.258	591.56
459.478	460.56
459.698	405.56
459.918	404.56
460.138	403.56
460.358	382.56
460.578	404.56
460.798	390.56
461.018	399.56
461.238	404.56
461.458	394.56
461.678	367.56
461.898	401.56
462.118	392.56
462.338	375.56
462.558	396.56
462.777	394.56
462.997	390.56
463.217	407.56
463.437	402.56
463.657	420.56
463.876	405.56
464.096	414.56
464.316	415.56
464.536	441.56
464.755	439.56
464.975	424.56
465.195	496.56
465.414	586.56
465.634	502.56
465.854	443.56
466.073	420.56
466.293	406.56
466.512	400.56
466.732	397.56
466.951	400.56
467.171	390.56
467.391	397.56
467.61	410.56
467.829	408.56
468.049	410.56
468.268	408.56
468.488	394.56
468.707	393.56
468.927	374.56
469.146	386.56
469.365	374.56
469.585	381.56
469.804	395.56
470.023	400.56
470.243	400.56
470.462	408.56
470.681	442.56
470.901	439.56
471.12	417.56
471.339	378.56
471.558	397.56
471.777	386.56
471.997	382.56
472.216	396.56
472.435	430.56
472.654	414.56
472.873	392.56
473.092	386.56
473.311	406.56
473.53	418.56
473.749	411.56
473.968	458.56
474.187	561.56
474.406	582.56
474.625	475.56
474.844	434.56
475.063	417.56
475.282	428.56
475.501	415.56
475.72	416.56
475.939	429.56
476.158	412.56
476.377	412.56
476.596	412.56
476.814	426.56
477.033	428.56
477.252	428.56
477.471	428.56
477.69	443.56
477.908	424.56
478.127	435.56
478.346	436.56
478.564	439.56
478.783	438.56
479.002	466.56
479.22	458.56
479.439	468.56
479.658	479.56
479.876	507.56
480.095	506.56
480.313	519.56
480.532	499.56
480.751	473.56
480.969	486.56
481.188	534.56
481.406	536.56
481.624	517.56
481.843	468.56
482.061	472.56
482.28	458.56
482.498	474.56
482.717	459.56
482.935	483.56
483.153	478.56
483.372	473.56
483.59	458.56
483.808	456.56
484.027	464.56
484.245	465.56
484.463	464.56
484.681	505.56
484.9	479.56
485.118	480.56
485.336	479.56
485.554	488.56
485.772	482.56
485.99	482.56
486.209	488.56
486.427	482.56
486.645	520.56
486.863	537.56
487.081	538.56
487.299	524.56
487.517	514.56
487.735	515.56
487.953	504.56
488.171	502.56
488.389	514.56
488.607	524.56
488.825	531.56
489.043	491.56
489.261	524.56
489.479	506.56
489.696	518.56
489.914	528.56
490.132	546.56
490.35	549.56
490.568	554.56
490.786	555.56
491.003	553.56
491.221	542.56
491.439	580.56
491.657	585.56
491.874	578.56
492.092	607.56
492.31	599.56
492.527	591.56
492.745	577.56
492.963	602.56
493.18	621.56
493.398	610.56
493.615	597.56
493.833	636.56
494.05	646.56
494.268	594.56
494.485	621.56
494.703	609.56
494.92	608.56
495.138	631.56
495.355	642.56
495.573	613.56
495.79	623.56
496.008	613.56
496.225	605.56
496.442	633.56
496.66	620.56
496.877	614.56
497.094	606.56
497.312	612.56
497.529	616.56
497.746	612.56
497.963	629.56
498.181	658.56
498.398	634.56
498.615	656.56
498.832	663.56
499.049	679.56
499.267	669.56
499.484	670.56
499.701	693.56
499.918	695.56
500.135	733.56
500.352	740.56
500.569	734.56
500.786	766.56
501.003	743.56
501.22	742.56
501.437	739.56
501.654	697.56
501.871	740.56
