Data from 1986.PennyLincolnUp.Lamp.En5.5.200Scan.071819.P2_HRD10591_17-10-28-974.txt Node
Date: Thu Jul 18 17:10:28 EDT 2019
User: cochatt
Spectrometer: HR+D1059
Trigger mode: 1
Integration Time (sec): 1.000000E-1
Scans to average: 1
Electric dark correction enabled: true
Nonlinearity correction enabled: false
Boxcar width: 0
XAxis mode: Wavelengths
Number of Pixels in Spectrum: 2048
>>>>>Begin Spectral Data<<<<<
223.165	-21.19
223.4	-21.19
223.635	-21.19
223.869	-22.19
224.104	-24.19
224.338	-19.19
224.573	-21.19
224.808	-19.19
225.042	0.81
225.277	-2.19
225.511	-0.19
225.746	-8.19
225.98	5.81
226.215	28.81
226.449	15.81
226.683	29.81
226.918	25.81
227.152	30.81
227.387	30.81
227.621	28.81
227.856	26.81
228.09	39.81
228.324	38.81
228.559	58.81
228.793	57.81
229.027	98.81
229.262	105.81
229.496	102.81
229.73	139.81
229.964	162.81
230.199	125.81
230.433	131.81
230.667	113.81
230.901	118.81
231.136	116.81
231.37	100.81
231.604	105.81
231.838	111.81
232.072	118.81
232.306	105.81
232.541	121.81
232.775	107.81
233.009	101.81
233.243	124.81
233.477	115.81
233.711	117.81
233.945	106.81
234.179	112.81
234.413	105.81
234.647	119.81
234.881	127.81
235.115	102.81
235.349	94.81
235.583	132.81
235.817	118.81
236.051	120.81
236.285	131.81
236.519	124.81
236.753	129.81
236.987	174.81
237.221	190.81
237.455	232.81
237.689	182.81
237.922	149.81
238.156	151.81
238.39	130.81
238.624	125.81
238.858	131.81
239.091	114.81
239.325	114.81
239.559	124.81
239.793	127.81
240.027	134.81
240.26	124.81
240.494	173.81
240.728	145.81
240.961	142.81
241.195	147.81
241.429	145.81
241.662	136.81
241.896	115.81
242.13	135.81
242.363	144.81
242.597	132.81
242.83	144.81
243.064	144.81
243.298	154.81
243.531	143.81
243.765	150.81
243.998	135.81
244.232	145.81
244.465	141.81
244.699	142.81
244.932	146.81
245.166	134.81
245.399	126.81
245.633	155.81
245.866	137.81
246.099	143.81
246.333	147.81
246.566	144.81
246.8	152.81
247.033	161.81
247.266	163.81
247.5	178.81
247.733	162.81
247.966	169.81
248.2	173.81
248.433	172.81
248.666	183.81
248.899	193.81
249.133	209.81
249.366	224.81
249.599	193.81
249.832	181.81
250.066	182.81
250.299	181.81
250.532	186.81
250.765	195.81
250.998	236.81
251.231	233.81
251.465	222.81
251.698	229.81
251.931	208.81
252.164	185.81
252.397	210.81
252.63	197.81
252.863	211.81
253.096	212.81
253.329	213.81
253.562	226.81
253.795	211.81
254.028	210.81
254.261	224.81
254.494	244.81
254.727	244.81
254.96	279.81
255.193	287.81
255.426	258.81
255.659	246.81
255.892	245.81
256.124	242.81
256.357	228.81
256.59	229.81
256.823	243.81
257.056	221.81
257.289	211.81
257.521	222.81
257.754	212.81
257.987	211.81
258.22	219.81
258.452	218.81
258.685	212.81
258.918	208.81
259.151	212.81
259.383	219.81
259.616	223.81
259.849	217.81
260.081	233.81
260.314	249.81
260.547	259.81
260.779	261.81
261.012	227.81
261.244	237.81
261.477	230.81
261.71	233.81
261.942	215.81
262.175	247.81
262.407	243.81
262.64	217.81
262.872	190.81
263.105	233.81
263.337	191.81
263.57	206.81
263.802	212.81
264.035	219.81
264.267	202.81
264.499	216.81
264.732	191.81
264.964	189.81
265.197	211.81
265.429	209.81
265.661	209.81
265.894	215.81
266.126	207.81
266.358	195.81
266.591	205.81
266.823	201.81
267.055	207.81
267.287	220.81
267.52	212.81
267.752	229.81
267.984	214.81
268.216	232.81
268.448	221.81
268.681	228.81
268.913	221.81
269.145	267.81
269.377	269.81
269.609	261.81
269.841	260.81
270.073	267.81
270.306	289.81
270.538	308.81
270.77	307.81
271.002	300.81
271.234	293.81
271.466	299.81
271.698	313.81
271.93	317.81
272.162	318.81
272.394	309.81
272.626	301.81
272.858	283.81
273.09	289.81
273.322	285.81
273.553	272.81
273.785	269.81
274.017	257.81
274.249	270.81
274.481	260.81
274.713	265.81
274.945	280.81
275.176	261.81
275.408	251.81
275.64	253.81
275.872	251.81
276.104	274.81
276.335	257.81
276.567	250.81
276.799	275.81
277.031	301.81
277.262	305.81
277.494	315.81
277.726	291.81
277.957	257.81
278.189	286.81
278.421	273.81
278.652	273.81
278.884	264.81
279.115	257.81
279.347	234.81
279.579	265.81
279.81	253.81
280.042	249.81
280.273	248.81
280.505	249.81
280.736	248.81
280.968	246.81
281.199	242.81
281.431	257.81
281.662	236.81
281.894	247.81
282.125	251.81
282.356	268.81
282.588	295.81
282.819	297.81
283.051	246.81
283.282	255.81
283.513	263.81
283.745	254.81
283.976	235.81
284.207	255.81
284.439	271.81
284.67	266.81
284.901	267.81
285.132	242.81
285.364	264.81
285.595	256.81
285.826	249.81
286.057	260.81
286.288	267.81
286.52	257.81
286.751	256.81
286.982	269.81
287.213	277.81
287.444	276.81
287.675	270.81
287.906	287.81
288.138	275.81
288.369	290.81
288.6	282.81
288.831	279.81
289.062	263.81
289.293	262.81
289.524	266.81
289.755	268.81
289.986	279.81
290.217	253.81
290.448	259.81
290.679	261.81
290.91	265.81
291.141	253.81
291.371	270.81
291.602	262.81
291.833	265.81
292.064	249.81
292.295	275.81
292.526	281.81
292.757	275.81
292.987	278.81
293.218	246.81
293.449	257.81
293.68	281.81
293.91	273.81
294.141	255.81
294.372	249.81
294.603	273.81
294.833	281.81
295.064	276.81
295.295	258.81
295.525	248.81
295.756	279.81
295.987	273.81
296.217	312.81
296.448	334.81
296.679	286.81
296.909	276.81
297.14	272.81
297.37	280.81
297.601	261.81
297.831	275.81
298.062	287.81
298.292	258.81
298.523	292.81
298.753	271.81
298.984	286.81
299.214	279.81
299.445	281.81
299.675	279.81
299.905	277.81
300.136	286.81
300.366	273.81
300.597	295.81
300.827	289.81
301.057	288.81
301.288	295.81
301.518	283.81
301.748	309.81
301.979	269.81
302.209	301.81
302.439	284.81
302.669	301.81
302.9	294.81
303.13	289.81
303.36	293.81
303.59	318.81
303.82	297.81
304.051	298.81
304.281	293.81
304.511	293.81
304.741	290.81
304.971	294.81
305.201	277.81
305.431	283.81
305.661	297.81
305.891	273.81
306.121	290.81
306.352	309.81
306.582	291.81
306.812	301.81
307.042	289.81
307.272	298.81
307.502	305.81
307.731	320.81
307.961	303.81
308.191	303.81
308.421	295.81
308.651	318.81
308.881	307.81
309.111	304.81
309.341	323.81
309.571	328.81
309.8	340.81
310.03	343.81
310.26	355.81
310.49	353.81
310.72	373.81
310.949	377.81
311.179	380.81
311.409	376.81
311.639	351.81
311.868	359.81
312.098	335.81
312.328	361.81
312.557	363.81
312.787	392.81
313.017	405.81
313.246	366.81
313.476	341.81
313.706	363.81
313.935	356.81
314.165	371.81
314.394	389.81
314.624	394.81
314.853	366.81
315.083	351.81
315.312	356.81
315.542	337.81
315.771	366.81
316.001	329.81
316.23	349.81
316.46	357.81
316.689	331.81
316.919	351.81
317.148	356.81
317.377	343.81
317.607	358.81
317.836	361.81
318.065	345.81
318.295	341.81
318.524	356.81
318.753	347.81
318.983	343.81
319.212	350.81
319.441	351.81
319.67	386.81
319.9	345.81
320.129	357.81
320.358	333.81
320.587	348.81
320.816	353.81
321.046	387.81
321.275	378.81
321.504	372.81
321.733	381.81
321.962	392.81
322.191	408.81
322.42	412.81
322.649	419.81
322.878	465.81
323.108	459.81
323.337	493.81
323.566	493.81
323.795	540.81
324.024	612.81
324.253	710.81
324.482	1042.81
324.71	1591.81
324.939	2278.81
325.168	1946.81
325.397	1051.81
325.626	709.81
325.855	572.81
326.084	532.81
326.313	527.81
326.542	485.81
326.77	569.81
326.999	669.81
327.228	929.81
327.457	1386.81
327.686	1724.81
327.914	1175.81
328.143	774.81
328.372	683.81
328.6	601.81
328.829	578.81
329.058	594.81
329.287	594.81
329.515	567.81
329.744	517.81
329.972	489.81
330.201	523.81
330.43	569.81
330.658	585.81
330.887	638.81
331.115	612.81
331.344	517.81
331.572	456.81
331.801	486.81
332.03	471.81
332.258	449.81
332.486	426.81
332.715	435.81
332.943	416.81
333.172	424.81
333.4	422.81
333.629	409.81
333.857	417.81
334.085	409.81
334.314	427.81
334.542	482.81
334.771	479.81
334.999	437.81
335.227	407.81
335.455	414.81
335.684	402.81
335.912	415.81
336.14	383.81
336.369	409.81
336.597	411.81
336.825	395.81
337.053	415.81
337.281	399.81
337.51	390.81
337.738	375.81
337.966	406.81
338.194	397.81
338.422	399.81
338.65	397.81
338.878	383.81
339.106	369.81
339.334	383.81
339.562	380.81
339.79	403.81
340.018	390.81
340.246	393.81
340.474	391.81
340.702	382.81
340.93	384.81
341.158	382.81
341.386	381.81
341.614	371.81
341.842	395.81
342.07	382.81
342.298	370.81
342.526	355.81
342.754	385.81
342.981	345.81
343.209	354.81
343.437	378.81
343.665	374.81
343.893	382.81
344.12	376.81
344.348	385.81
344.576	381.81
344.804	396.81
345.031	407.81
345.259	407.81
345.487	398.81
345.714	402.81
345.942	379.81
346.17	382.81
346.397	383.81
346.625	390.81
346.853	388.81
347.08	366.81
347.308	382.81
347.535	396.81
347.763	405.81
347.99	379.81
348.218	383.81
348.445	412.81
348.673	397.81
348.9	384.81
349.128	393.81
349.355	338.81
349.583	349.81
349.81	377.81
350.037	357.81
350.265	359.81
350.492	386.81
350.72	362.81
350.947	362.81
351.174	382.81
351.402	407.81
351.629	389.81
351.856	373.81
352.083	401.81
352.311	392.81
352.538	398.81
352.765	393.81
352.992	399.81
353.22	389.81
353.447	377.81
353.674	381.81
353.901	364.81
354.128	353.81
354.355	354.81
354.583	365.81
354.81	339.81
355.037	339.81
355.264	345.81
355.491	329.81
355.718	362.81
355.945	360.81
356.172	343.81
356.399	337.81
356.626	330.81
356.853	337.81
357.08	332.81
357.307	334.81
357.534	344.81
357.761	353.81
357.988	360.81
358.215	343.81
358.441	315.81
358.668	349.81
358.895	347.81
359.122	345.81
359.349	364.81
359.576	388.81
359.802	393.81
360.029	435.81
360.256	471.81
360.483	433.81
360.709	390.81
360.936	379.81
361.163	397.81
361.39	387.81
361.616	383.81
361.843	371.81
362.07	371.81
362.296	384.81
362.523	381.81
362.749	359.81
362.976	369.81
363.203	364.81
363.429	359.81
363.656	370.81
363.882	357.81
364.109	362.81
364.335	345.81
364.562	355.81
364.788	362.81
365.015	352.81
365.241	356.81
365.468	370.81
365.694	359.81
365.92	364.81
366.147	379.81
366.373	357.81
366.599	362.81
366.826	353.81
367.052	336.81
367.278	359.81
367.505	351.81
367.731	346.81
367.957	350.81
368.184	328.81
368.41	355.81
368.636	370.81
368.862	369.81
369.089	357.81
369.315	364.81
369.541	335.81
369.767	350.81
369.993	356.81
370.219	350.81
370.445	351.81
370.672	350.81
370.898	358.81
371.124	367.81
371.35	350.81
371.576	316.81
371.802	319.81
372.028	346.81
372.254	337.81
372.48	346.81
372.706	331.81
372.932	339.81
373.158	329.81
373.384	353.81
373.61	357.81
373.835	348.81
374.061	345.81
374.287	356.81
374.513	338.81
374.739	341.81
374.965	340.81
375.191	338.81
375.416	347.81
375.642	327.81
375.868	350.81
376.094	343.81
376.319	338.81
376.545	341.81
376.771	347.81
376.997	338.81
377.222	329.81
377.448	333.81
377.674	346.81
377.899	339.81
378.125	356.81
378.35	339.81
378.576	350.81
378.802	335.81
379.027	354.81
379.253	334.81
379.478	331.81
379.704	350.81
379.929	340.81
380.155	337.81
380.38	331.81
380.606	340.81
380.831	358.81
381.057	333.81
381.282	314.81
381.507	347.81
381.733	350.81
381.958	339.81
382.184	344.81
382.409	346.81
382.634	337.81
382.86	351.81
383.085	339.81
383.31	322.81
383.535	343.81
383.761	339.81
383.986	359.81
384.211	359.81
384.436	337.81
384.662	344.81
384.887	360.81
385.112	342.81
385.337	325.81
385.562	355.81
385.787	358.81
386.013	362.81
386.238	349.81
386.463	363.81
386.688	351.81
386.913	368.81
387.138	337.81
387.363	349.81
387.588	345.81
387.813	366.81
388.038	366.81
388.263	347.81
388.488	365.81
388.713	373.81
388.938	369.81
389.163	372.81
389.387	357.81
389.612	337.81
389.837	377.81
390.062	373.81
390.287	352.81
390.512	355.81
390.736	355.81
390.961	373.81
391.186	364.81
391.411	368.81
391.636	344.81
391.86	359.81
392.085	353.81
392.31	374.81
392.534	357.81
392.759	356.81
392.984	375.81
393.208	359.81
393.433	366.81
393.658	346.81
393.882	358.81
394.107	362.81
394.331	348.81
394.556	348.81
394.78	351.81
395.005	355.81
395.229	335.81
395.454	371.81
395.678	361.81
395.903	365.81
396.127	406.81
396.352	403.81
396.576	377.81
396.801	375.81
397.025	364.81
397.249	374.81
397.474	337.81
397.698	372.81
397.922	403.81
398.147	401.81
398.371	390.81
398.595	383.81
398.82	376.81
399.044	403.81
399.268	411.81
399.492	449.81
399.717	435.81
399.941	437.81
400.165	492.81
400.389	502.81
400.613	449.81
400.837	437.81
401.062	402.81
401.286	417.81
401.51	412.81
401.734	393.81
401.958	401.81
402.182	398.81
402.406	421.81
402.63	413.81
402.854	395.81
403.078	405.81
403.302	414.81
403.526	402.81
403.75	409.81
403.974	429.81
404.198	419.81
404.422	438.81
404.645	419.81
404.869	433.81
405.093	438.81
405.317	478.81
405.541	483.81
405.765	479.81
405.988	439.81
406.212	461.81
406.436	481.81
406.66	490.81
406.883	471.81
407.107	450.81
407.331	508.81
407.555	571.81
407.778	575.81
408.002	517.81
408.226	451.81
408.449	464.81
408.673	456.81
408.896	475.81
409.12	549.81
409.344	497.81
409.567	447.81
409.791	456.81
410.014	425.81
410.238	445.81
410.461	425.81
410.685	434.81
410.908	431.81
411.132	471.81
411.355	481.81
411.578	480.81
411.802	436.81
412.025	432.81
412.249	430.81
412.472	444.81
412.695	452.81
412.919	446.81
413.142	414.81
413.365	393.81
413.589	419.81
413.812	389.81
414.035	405.81
414.258	403.81
414.482	378.81
414.705	383.81
414.928	369.81
415.151	386.81
415.374	380.81
415.597	395.81
415.821	389.81
416.044	395.81
416.267	393.81
416.49	391.81
416.713	391.81
416.936	404.81
417.159	387.81
417.382	386.81
417.605	378.81
417.828	422.81
418.051	423.81
418.274	405.81
418.497	419.81
418.72	415.81
418.943	406.81
419.166	411.81
419.389	422.81
419.611	434.81
419.834	412.81
420.057	411.81
420.28	435.81
420.503	396.81
420.726	436.81
420.948	443.81
421.171	479.81
421.394	537.81
421.617	446.81
421.839	426.81
422.062	433.81
422.285	451.81
422.507	481.81
422.73	560.81
422.953	531.81
423.175	469.81
423.398	457.81
423.621	445.81
423.843	472.81
424.066	482.81
424.288	478.81
424.511	459.81
424.733	547.81
424.956	600.81
425.178	587.81
425.401	571.81
425.623	608.81
425.846	519.81
426.068	480.81
426.291	478.81
426.513	490.81
426.735	470.81
426.958	519.81
427.18	612.81
427.402	708.81
427.625	810.81
427.847	721.81
428.069	629.81
428.292	528.81
428.514	469.81
428.736	466.81
428.958	463.81
429.181	432.81
429.403	419.81
429.625	433.81
429.847	488.81
430.069	535.81
430.292	551.81
430.514	445.81
430.736	457.81
430.958	430.81
431.18	414.81
431.402	417.81
431.624	422.81
431.846	407.81
432.068	393.81
432.29	395.81
432.512	402.81
432.734	398.81
432.956	416.81
433.178	427.81
433.4	419.81
433.622	399.81
433.844	404.81
434.066	421.81
434.287	402.81
434.509	407.81
434.731	411.81
434.953	414.81
435.175	433.81
435.397	445.81
435.618	480.81
435.84	511.81
436.062	613.81
436.284	667.81
436.505	582.81
436.727	483.81
436.949	449.81
437.17	455.81
437.392	430.81
437.614	463.81
437.835	498.81
438.057	619.81
438.278	645.81
438.5	666.81
438.721	741.81
438.943	701.81
439.165	563.81
439.386	516.81
439.608	490.81
439.829	490.81
440.05	523.81
440.272	552.81
440.493	531.81
440.715	485.81
440.936	471.81
441.158	463.81
441.379	446.81
441.6	465.81
441.822	485.81
442.043	501.81
442.264	583.81
442.486	628.81
442.707	532.81
442.928	494.81
443.149	500.81
443.371	540.81
443.592	557.81
443.813	653.81
444.034	706.81
444.255	592.81
444.476	492.81
444.698	489.81
444.919	460.81
445.14	546.81
445.361	528.81
445.582	499.81
445.803	577.81
446.024	663.81
446.245	669.81
446.466	643.81
446.687	523.81
446.908	486.81
447.129	437.81
447.35	424.81
447.571	441.81
447.792	438.81
448.013	462.81
448.234	478.81
448.455	507.81
448.675	623.81
448.896	725.81
449.117	585.81
449.338	582.81
449.559	671.81
449.779	734.81
450	635.81
450.221	526.81
450.442	460.81
450.662	450.81
450.883	445.81
451.104	487.81
451.324	453.81
451.545	427.81
451.766	412.81
451.986	401.81
452.207	403.81
452.428	405.81
452.648	381.81
452.869	397.81
453.089	402.81
453.31	399.81
453.53	401.81
453.751	405.81
453.971	406.81
454.192	428.81
454.412	430.81
454.633	405.81
454.853	394.81
455.073	397.81
455.294	420.81
455.514	477.81
455.734	495.81
455.955	392.81
456.175	379.81
456.395	373.81
456.616	368.81
456.836	389.81
457.056	359.81
457.276	364.81
457.497	361.81
457.717	364.81
457.937	349.81
458.157	384.81
458.377	385.81
458.598	410.81
458.818	460.81
459.038	520.81
459.258	569.81
459.478	486.81
459.698	425.81
459.918	427.81
460.138	406.81
460.358	395.81
460.578	411.81
460.798	416.81
461.018	407.81
461.238	400.81
461.458	403.81
461.678	399.81
461.898	381.81
462.118	395.81
462.338	393.81
462.558	399.81
462.777	399.81
462.997	408.81
463.217	403.81
463.437	409.81
463.657	395.81
463.876	410.81
464.096	429.81
464.316	406.81
464.536	416.81
464.755	423.81
464.975	436.81
465.195	507.81
465.414	572.81
465.634	491.81
465.854	435.81
466.073	417.81
466.293	424.81
466.512	421.81
466.732	393.81
466.951	390.81
467.171	376.81
467.391	404.81
467.61	429.81
467.829	427.81
468.049	409.81
468.268	418.81
468.488	393.81
468.707	379.81
468.927	382.81
469.146	377.81
469.365	378.81
469.585	397.81
469.804	384.81
470.023	411.81
470.243	407.81
470.462	409.81
470.681	419.81
470.901	435.81
471.12	391.81
471.339	393.81
471.558	407.81
471.777	391.81
471.997	397.81
472.216	403.81
472.435	439.81
472.654	414.81
472.873	407.81
473.092	397.81
473.311	392.81
473.53	391.81
473.749	408.81
473.968	455.81
474.187	559.81
474.406	596.81
474.625	480.81
474.844	431.81
475.063	403.81
475.282	406.81
475.501	400.81
475.72	421.81
475.939	423.81
476.158	421.81
476.377	419.81
476.596	409.81
476.814	447.81
477.033	444.81
477.252	457.81
477.471	422.81
477.69	449.81
477.908	405.81
478.127	443.81
478.346	433.81
478.564	441.81
478.783	461.81
479.002	435.81
479.22	448.81
479.439	451.81
479.658	498.81
479.876	474.81
480.095	503.81
480.313	511.81
480.532	516.81
480.751	501.81
480.969	499.81
481.188	550.81
481.406	573.81
481.624	509.81
481.843	498.81
482.061	481.81
482.28	483.81
482.498	457.81
482.717	476.81
482.935	483.81
483.153	480.81
483.372	475.81
483.59	473.81
483.808	459.81
484.027	460.81
484.245	466.81
484.463	477.81
484.681	486.81
484.9	489.81
485.118	497.81
485.336	489.81
485.554	513.81
485.772	490.81
485.99	489.81
486.209	472.81
486.427	534.81
486.645	521.81
486.863	507.81
487.081	535.81
487.299	517.81
487.517	509.81
487.735	515.81
487.953	514.81
488.171	517.81
488.389	526.81
488.607	511.81
488.825	514.81
489.043	523.81
489.261	545.81
489.479	521.81
489.696	516.81
489.914	526.81
490.132	533.81
490.35	535.81
490.568	523.81
490.786	535.81
491.003	575.81
491.221	568.81
491.439	590.81
491.657	590.81
491.874	611.81
492.092	577.81
492.31	600.81
492.527	607.81
492.745	621.81
492.963	607.81
493.18	614.81
493.398	623.81
493.615	617.81
493.833	610.81
494.05	631.81
494.268	625.81
494.485	621.81
494.703	601.81
494.92	606.81
495.138	604.81
495.355	635.81
495.573	615.81
495.79	639.81
496.008	633.81
496.225	623.81
496.442	611.81
496.66	620.81
496.877	601.81
497.094	598.81
497.312	620.81
497.529	611.81
497.746	628.81
497.963	645.81
498.181	654.81
498.398	668.81
498.615	667.81
498.832	676.81
499.049	684.81
499.267	660.81
499.484	695.81
499.701	684.81
499.918	712.81
500.135	705.81
500.352	746.81
500.569	747.81
500.786	757.81
501.003	739.81
501.22	737.81
501.437	755.81
501.654	734.81
501.871	717.81
