Data from 1986.PennyLincolnUp.Lamp.En5.5.200Scan.071819.P2_HRD10591_17-11-43-973.txt Node
Date: Thu Jul 18 17:11:43 EDT 2019
User: cochatt
Spectrometer: HR+D1059
Trigger mode: 1
Integration Time (sec): 1.000000E-1
Scans to average: 1
Electric dark correction enabled: true
Nonlinearity correction enabled: false
Boxcar width: 0
XAxis mode: Wavelengths
Number of Pixels in Spectrum: 2048
>>>>>Begin Spectral Data<<<<<
223.165	-20.56
223.4	-20.56
223.635	-20.56
223.869	-13.56
224.104	-5.56
224.338	-27.56
224.573	-8.56
224.808	-14.56
225.042	-5.56
225.277	0.44
225.511	-4.56
225.746	12.44
225.98	-8.56
226.215	5.44
226.449	8.44
226.683	14.44
226.918	34.44
227.152	33.44
227.387	29.44
227.621	28.44
227.856	44.44
228.09	46.44
228.324	43.44
228.559	63.44
228.793	65.44
229.027	85.44
229.262	112.44
229.496	121.44
229.73	129.44
229.964	157.44
230.199	131.44
230.433	133.44
230.667	117.44
230.901	107.44
231.136	105.44
231.37	107.44
231.604	91.44
231.838	102.44
232.072	110.44
232.306	126.44
232.541	109.44
232.775	113.44
233.009	113.44
233.243	111.44
233.477	111.44
233.711	123.44
233.945	125.44
234.179	117.44
234.413	115.44
234.647	98.44
234.881	125.44
235.115	111.44
235.349	120.44
235.583	123.44
235.817	115.44
236.051	132.44
236.285	137.44
236.519	121.44
236.753	146.44
236.987	163.44
237.221	177.44
237.455	248.44
237.689	204.44
237.922	152.44
238.156	127.44
238.39	124.44
238.624	127.44
238.858	129.44
239.091	123.44
239.325	129.44
239.559	140.44
239.793	126.44
240.027	143.44
240.26	146.44
240.494	157.44
240.728	171.44
240.961	149.44
241.195	143.44
241.429	145.44
241.662	157.44
241.896	137.44
242.13	135.44
242.363	127.44
242.597	136.44
242.83	130.44
243.064	134.44
243.298	134.44
243.531	149.44
243.765	134.44
243.998	149.44
244.232	151.44
244.465	143.44
244.699	149.44
244.932	174.44
245.166	147.44
245.399	138.44
245.633	147.44
245.866	155.44
246.099	143.44
246.333	151.44
246.566	153.44
246.8	161.44
247.033	168.44
247.266	177.44
247.5	174.44
247.733	162.44
247.966	188.44
248.2	189.44
248.433	188.44
248.666	182.44
248.899	200.44
249.133	213.44
249.366	222.44
249.599	218.44
249.832	210.44
250.066	202.44
250.299	211.44
250.532	221.44
250.765	238.44
250.998	268.44
251.231	275.44
251.465	255.44
251.698	230.44
251.931	211.44
252.164	217.44
252.397	222.44
252.63	225.44
252.863	235.44
253.096	231.44
253.329	230.44
253.562	252.44
253.795	232.44
254.028	261.44
254.261	255.44
254.494	245.44
254.727	278.44
254.96	319.44
255.193	300.44
255.426	279.44
255.659	273.44
255.892	285.44
256.124	299.44
256.357	326.44
256.59	298.44
256.823	253.44
257.056	256.44
257.289	257.44
257.521	254.44
257.754	246.44
257.987	241.44
258.22	235.44
258.452	238.44
258.685	216.44
258.918	242.44
259.151	234.44
259.383	228.44
259.616	231.44
259.849	231.44
260.081	255.44
260.314	266.44
260.547	267.44
260.779	262.44
261.012	240.44
261.244	231.44
261.477	241.44
261.71	230.44
261.942	228.44
262.175	248.44
262.407	246.44
262.64	246.44
262.872	234.44
263.105	222.44
263.337	229.44
263.57	228.44
263.802	225.44
264.035	218.44
264.267	219.44
264.499	223.44
264.732	216.44
264.964	219.44
265.197	224.44
265.429	229.44
265.661	219.44
265.894	236.44
266.126	210.44
266.358	222.44
266.591	233.44
266.823	254.44
267.055	230.44
267.287	249.44
267.52	245.44
267.752	216.44
267.984	243.44
268.216	241.44
268.448	257.44
268.681	257.44
268.913	276.44
269.145	259.44
269.377	302.44
269.609	299.44
269.841	271.44
270.073	294.44
270.306	314.44
270.538	335.44
270.77	327.44
271.002	328.44
271.234	317.44
271.466	333.44
271.698	351.44
271.93	338.44
272.162	342.44
272.394	325.44
272.626	324.44
272.858	325.44
273.09	314.44
273.322	287.44
273.553	266.44
273.785	298.44
274.017	272.44
274.249	269.44
274.481	277.44
274.713	266.44
274.945	277.44
275.176	267.44
275.408	285.44
275.64	278.44
275.872	277.44
276.104	279.44
276.335	291.44
276.567	277.44
276.799	300.44
277.031	341.44
277.262	347.44
277.494	358.44
277.726	328.44
277.957	307.44
278.189	284.44
278.421	281.44
278.652	286.44
278.884	282.44
279.115	278.44
279.347	283.44
279.579	286.44
279.81	270.44
280.042	283.44
280.273	285.44
280.505	283.44
280.736	270.44
280.968	287.44
281.199	265.44
281.431	264.44
281.662	274.44
281.894	299.44
282.125	299.44
282.356	281.44
282.588	307.44
282.819	313.44
283.051	279.44
283.282	267.44
283.513	267.44
283.745	279.44
283.976	279.44
284.207	289.44
284.439	296.44
284.67	259.44
284.901	282.44
285.132	268.44
285.364	283.44
285.595	273.44
285.826	282.44
286.057	285.44
286.288	298.44
286.52	271.44
286.751	286.44
286.982	289.44
287.213	294.44
287.444	288.44
287.675	290.44
287.906	303.44
288.138	301.44
288.369	312.44
288.6	309.44
288.831	306.44
289.062	309.44
289.293	265.44
289.524	280.44
289.755	271.44
289.986	277.44
290.217	287.44
290.448	269.44
290.679	277.44
290.91	301.44
291.141	292.44
291.371	310.44
291.602	289.44
291.833	281.44
292.064	277.44
292.295	279.44
292.526	278.44
292.757	295.44
292.987	281.44
293.218	286.44
293.449	286.44
293.68	296.44
293.91	284.44
294.141	280.44
294.372	285.44
294.603	293.44
294.833	279.44
295.064	285.44
295.295	293.44
295.525	291.44
295.756	284.44
295.987	317.44
296.217	320.44
296.448	345.44
296.679	312.44
296.909	295.44
297.14	290.44
297.37	293.44
297.601	295.44
297.831	294.44
298.062	285.44
298.292	283.44
298.523	297.44
298.753	314.44
298.984	289.44
299.214	285.44
299.445	314.44
299.675	303.44
299.905	305.44
300.136	309.44
300.366	302.44
300.597	313.44
300.827	295.44
301.057	312.44
301.288	318.44
301.518	332.44
301.748	324.44
301.979	295.44
302.209	333.44
302.439	330.44
302.669	318.44
302.9	327.44
303.13	337.44
303.36	325.44
303.59	318.44
303.82	324.44
304.051	323.44
304.281	307.44
304.511	315.44
304.741	302.44
304.971	307.44
305.201	338.44
305.431	295.44
305.661	328.44
305.891	326.44
306.121	330.44
306.352	323.44
306.582	318.44
306.812	334.44
307.042	320.44
307.272	309.44
307.502	332.44
307.731	326.44
307.961	338.44
308.191	330.44
308.421	322.44
308.651	332.44
308.881	336.44
309.111	363.44
309.341	337.44
309.571	343.44
309.8	356.44
310.03	380.44
310.26	369.44
310.49	376.44
310.72	375.44
310.949	426.44
311.179	418.44
311.409	380.44
311.639	385.44
311.868	396.44
312.098	371.44
312.328	374.44
312.557	396.44
312.787	410.44
313.017	405.44
313.246	414.44
313.476	393.44
313.706	380.44
313.935	385.44
314.165	421.44
314.394	405.44
314.624	417.44
314.853	388.44
315.083	390.44
315.312	380.44
315.542	371.44
315.771	357.44
316.001	359.44
316.23	361.44
316.46	370.44
316.689	387.44
316.919	377.44
317.148	390.44
317.377	391.44
317.607	383.44
317.836	377.44
318.065	379.44
318.295	368.44
318.524	364.44
318.753	380.44
318.983	381.44
319.212	364.44
319.441	387.44
319.67	399.44
319.9	374.44
320.129	381.44
320.358	385.44
320.587	391.44
320.816	404.44
321.046	396.44
321.275	409.44
321.504	405.44
321.733	417.44
321.962	428.44
322.191	413.44
322.42	425.44
322.649	478.44
322.878	490.44
323.108	493.44
323.337	495.44
323.566	577.44
323.795	587.44
324.024	667.44
324.253	762.44
324.482	1130.44
324.71	1723.44
324.939	2518.44
325.168	2221.44
325.397	1166.44
325.626	770.44
325.855	633.44
326.084	582.44
326.313	525.44
326.542	575.44
326.77	630.44
326.999	742.44
327.228	1013.44
327.457	1509.44
327.686	1853.44
327.914	1291.44
328.143	870.44
328.372	776.44
328.6	733.44
328.829	675.44
329.058	662.44
329.287	697.44
329.515	632.44
329.744	612.44
329.972	636.44
330.201	674.44
330.43	788.44
330.658	758.44
330.887	737.44
331.115	699.44
331.344	564.44
331.572	537.44
331.801	525.44
332.03	535.44
332.258	502.44
332.486	482.44
332.715	499.44
332.943	497.44
333.172	492.44
333.4	499.44
333.629	523.44
333.857	531.44
334.085	581.44
334.314	635.44
334.542	747.44
334.771	791.44
334.999	653.44
335.227	511.44
335.455	503.44
335.684	476.44
335.912	457.44
336.14	464.44
336.369	470.44
336.597	448.44
336.825	457.44
337.053	441.44
337.281	448.44
337.51	443.44
337.738	447.44
337.966	442.44
338.194	445.44
338.422	427.44
338.65	420.44
338.878	421.44
339.106	423.44
339.334	433.44
339.562	437.44
339.79	406.44
340.018	435.44
340.246	446.44
340.474	437.44
340.702	433.44
340.93	421.44
341.158	412.44
341.386	410.44
341.614	421.44
341.842	409.44
342.07	428.44
342.298	404.44
342.526	404.44
342.754	413.44
342.981	389.44
343.209	401.44
343.437	405.44
343.665	418.44
343.893	413.44
344.12	414.44
344.348	415.44
344.576	414.44
344.804	423.44
345.031	439.44
345.259	437.44
345.487	429.44
345.714	438.44
345.942	433.44
346.17	397.44
346.397	410.44
346.625	409.44
346.853	405.44
347.08	410.44
347.308	414.44
347.535	421.44
347.763	409.44
347.99	439.44
348.218	421.44
348.445	445.44
348.673	430.44
348.9	407.44
349.128	400.44
349.355	402.44
349.583	389.44
349.81	391.44
350.037	379.44
350.265	395.44
350.492	389.44
350.72	401.44
350.947	404.44
351.174	405.44
351.402	435.44
351.629	401.44
351.856	429.44
352.083	446.44
352.311	423.44
352.538	426.44
352.765	439.44
352.992	440.44
353.22	406.44
353.447	404.44
353.674	405.44
353.901	395.44
354.128	374.44
354.355	377.44
354.583	405.44
354.81	375.44
355.037	375.44
355.264	377.44
355.491	365.44
355.718	360.44
355.945	366.44
356.172	363.44
356.399	376.44
356.626	385.44
356.853	370.44
357.08	369.44
357.307	379.44
357.534	347.44
357.761	346.44
357.988	353.44
358.215	386.44
358.441	385.44
358.668	397.44
358.895	371.44
359.122	387.44
359.349	387.44
359.576	417.44
359.802	447.44
360.029	469.44
360.256	491.44
360.483	444.44
360.709	395.44
360.936	404.44
361.163	394.44
361.39	405.44
361.616	413.44
361.843	409.44
362.07	415.44
362.296	403.44
362.523	396.44
362.749	405.44
362.976	390.44
363.203	397.44
363.429	388.44
363.656	405.44
363.882	391.44
364.109	383.44
364.335	376.44
364.562	389.44
364.788	381.44
365.015	364.44
365.241	375.44
365.468	387.44
365.694	393.44
365.92	382.44
366.147	394.44
366.373	385.44
366.599	382.44
366.826	371.44
367.052	379.44
367.278	381.44
367.505	382.44
367.731	373.44
367.957	377.44
368.184	400.44
368.41	379.44
368.636	387.44
368.862	398.44
369.089	374.44
369.315	378.44
369.541	390.44
369.767	383.44
369.993	395.44
370.219	373.44
370.445	364.44
370.672	367.44
370.898	350.44
371.124	363.44
371.35	379.44
371.576	353.44
371.802	356.44
372.028	365.44
372.254	363.44
372.48	358.44
372.706	376.44
372.932	381.44
373.158	355.44
373.384	381.44
373.61	373.44
373.835	363.44
374.061	363.44
374.287	367.44
374.513	356.44
374.739	340.44
374.965	358.44
375.191	371.44
375.416	371.44
375.642	370.44
375.868	360.44
376.094	356.44
376.319	367.44
376.545	358.44
376.771	370.44
376.997	351.44
377.222	351.44
377.448	362.44
377.674	347.44
377.899	360.44
378.125	353.44
378.35	360.44
378.576	351.44
378.802	360.44
379.027	360.44
379.253	364.44
379.478	357.44
379.704	367.44
379.929	369.44
380.155	358.44
380.38	359.44
380.606	361.44
380.831	359.44
381.057	373.44
381.282	354.44
381.507	355.44
381.733	366.44
381.958	356.44
382.184	379.44
382.409	387.44
382.634	373.44
382.86	372.44
383.085	362.44
383.31	371.44
383.535	371.44
383.761	357.44
383.986	370.44
384.211	400.44
384.436	377.44
384.662	382.44
384.887	353.44
385.112	374.44
385.337	379.44
385.562	375.44
385.787	364.44
386.013	368.44
386.238	387.44
386.463	390.44
386.688	382.44
386.913	383.44
387.138	387.44
387.363	377.44
387.588	365.44
387.813	377.44
388.038	386.44
388.263	375.44
388.488	377.44
388.713	378.44
388.938	387.44
389.163	382.44
389.387	378.44
389.612	382.44
389.837	397.44
390.062	369.44
390.287	381.44
390.512	379.44
390.736	355.44
390.961	357.44
391.186	371.44
391.411	375.44
391.636	381.44
391.86	407.44
392.085	376.44
392.31	381.44
392.534	391.44
392.759	376.44
392.984	378.44
393.208	389.44
393.433	375.44
393.658	372.44
393.882	378.44
394.107	384.44
394.331	382.44
394.556	382.44
394.78	371.44
395.005	383.44
395.229	366.44
395.454	394.44
395.678	386.44
395.903	415.44
396.127	448.44
396.352	420.44
396.576	408.44
396.801	389.44
397.025	387.44
397.249	387.44
397.474	401.44
397.698	384.44
397.922	414.44
398.147	423.44
398.371	442.44
398.595	418.44
398.82	417.44
399.044	431.44
399.268	432.44
399.492	444.44
399.717	458.44
399.941	489.44
400.165	502.44
400.389	533.44
400.613	490.44
400.837	457.44
401.062	436.44
401.286	457.44
401.51	423.44
401.734	435.44
401.958	437.44
402.182	410.44
402.406	444.44
402.63	465.44
402.854	433.44
403.078	442.44
403.302	441.44
403.526	449.44
403.75	443.44
403.974	462.44
404.198	442.44
404.422	477.44
404.645	468.44
404.869	473.44
405.093	527.44
405.317	562.44
405.541	611.44
405.765	559.44
405.988	503.44
406.212	508.44
406.436	542.44
406.66	534.44
406.883	477.44
407.107	498.44
407.331	545.44
407.555	596.44
407.778	613.44
408.002	574.44
408.226	516.44
408.449	487.44
408.673	501.44
408.896	519.44
409.12	570.44
409.344	541.44
409.567	485.44
409.791	474.44
410.014	458.44
410.238	453.44
410.461	477.44
410.685	457.44
410.908	492.44
411.132	526.44
411.355	536.44
411.578	507.44
411.802	493.44
412.025	459.44
412.249	501.44
412.472	519.44
412.695	607.44
412.919	579.44
413.142	515.44
413.365	497.44
413.589	477.44
413.812	442.44
414.035	449.44
414.258	453.44
414.482	455.44
414.705	429.44
414.928	441.44
415.151	431.44
415.374	436.44
415.597	433.44
415.821	435.44
416.044	439.44
416.267	434.44
416.49	438.44
416.713	446.44
416.936	445.44
417.159	449.44
417.382	431.44
417.605	456.44
417.828	447.44
418.051	481.44
418.274	462.44
418.497	417.44
418.72	417.44
418.943	394.44
419.166	437.44
419.389	462.44
419.611	470.44
419.834	473.44
420.057	465.44
420.28	472.44
420.503	495.44
420.726	490.44
420.948	489.44
421.171	561.44
421.394	574.44
421.617	483.44
421.839	457.44
422.062	460.44
422.285	477.44
422.507	527.44
422.73	599.44
422.953	578.44
423.175	495.44
423.398	475.44
423.621	479.44
423.843	519.44
424.066	515.44
424.288	480.44
424.511	503.44
424.733	575.44
424.956	658.44
425.178	652.44
425.401	611.44
425.623	662.44
425.846	553.44
426.068	534.44
426.291	524.44
426.513	491.44
426.735	525.44
426.958	551.44
427.18	649.44
427.402	793.44
427.625	849.44
427.847	776.44
428.069	693.44
428.292	618.44
428.514	541.44
428.736	519.44
428.958	484.44
429.181	491.44
429.403	476.44
429.625	487.44
429.847	521.44
430.069	618.44
430.292	573.44
430.514	493.44
430.736	480.44
430.958	448.44
431.18	434.44
431.402	439.44
431.624	430.44
431.846	427.44
432.068	421.44
432.29	431.44
432.512	448.44
432.734	444.44
432.956	442.44
433.178	454.44
433.4	456.44
433.622	453.44
433.844	430.44
434.066	430.44
434.287	425.44
434.509	446.44
434.731	441.44
434.953	445.44
435.175	465.44
435.397	490.44
435.618	508.44
435.84	545.44
436.062	629.44
436.284	704.44
436.505	597.44
436.727	531.44
436.949	472.44
437.17	473.44
437.392	441.44
437.614	475.44
437.835	555.44
438.057	620.44
438.278	707.44
438.5	697.44
438.721	785.44
438.943	737.44
439.165	596.44
439.386	530.44
439.608	535.44
439.829	525.44
440.05	543.44
440.272	590.44
440.493	557.44
440.715	510.44
440.936	488.44
441.158	453.44
441.379	456.44
441.6	482.44
441.822	501.44
442.043	531.44
442.264	621.44
442.486	658.44
442.707	566.44
442.928	513.44
443.149	516.44
443.371	541.44
443.592	589.44
443.813	691.44
444.034	751.44
444.255	612.44
444.476	509.44
444.698	511.44
444.919	489.44
445.14	585.44
445.361	573.44
445.582	530.44
445.803	607.44
446.024	703.44
446.245	739.44
446.466	659.44
446.687	565.44
446.908	533.44
447.129	490.44
447.35	493.44
447.571	487.44
447.792	463.44
448.013	503.44
448.234	498.44
448.455	544.44
448.675	675.44
448.896	749.44
449.117	666.44
449.338	613.44
449.559	737.44
449.779	791.44
450	637.44
450.221	542.44
450.442	513.44
450.662	475.44
450.883	469.44
451.104	501.44
451.324	493.44
451.545	463.44
451.766	461.44
451.986	425.44
452.207	429.44
452.428	442.44
452.648	425.44
452.869	425.44
453.089	435.44
453.31	435.44
453.53	426.44
453.751	418.44
453.971	435.44
454.192	455.44
454.412	437.44
454.633	444.44
454.853	428.44
455.073	425.44
455.294	437.44
455.514	529.44
455.734	499.44
455.955	436.44
456.175	409.44
456.395	407.44
456.616	402.44
456.836	378.44
457.056	396.44
457.276	368.44
457.497	391.44
457.717	399.44
457.937	419.44
458.157	412.44
458.377	408.44
458.598	414.44
458.818	479.44
459.038	586.44
459.258	597.44
459.478	473.44
459.698	461.44
459.918	431.44
460.138	433.44
460.358	417.44
460.578	420.44
460.798	414.44
461.018	439.44
461.238	417.44
461.458	408.44
461.678	419.44
461.898	433.44
462.118	407.44
462.338	433.44
462.558	430.44
462.777	411.44
462.997	445.44
463.217	425.44
463.437	451.44
463.657	444.44
463.876	419.44
464.096	425.44
464.316	427.44
464.536	449.44
464.755	457.44
464.975	444.44
465.195	503.44
465.414	606.44
465.634	514.44
465.854	487.44
466.073	471.44
466.293	445.44
466.512	408.44
466.732	420.44
466.951	421.44
467.171	416.44
467.391	408.44
467.61	442.44
467.829	440.44
468.049	447.44
468.268	483.44
468.488	470.44
468.707	413.44
468.927	445.44
469.146	399.44
469.365	423.44
469.585	419.44
469.804	414.44
470.023	457.44
470.243	429.44
470.462	440.44
470.681	442.44
470.901	439.44
471.12	442.44
471.339	422.44
471.558	448.44
471.777	449.44
471.997	444.44
472.216	511.44
472.435	615.44
472.654	553.44
472.873	489.44
473.092	485.44
473.311	448.44
473.53	442.44
473.749	474.44
473.968	517.44
474.187	617.44
474.406	651.44
474.625	523.44
474.844	456.44
475.063	465.44
475.282	430.44
475.501	451.44
475.72	458.44
475.939	449.44
476.158	451.44
476.377	453.44
476.596	457.44
476.814	463.44
477.033	450.44
477.252	477.44
477.471	458.44
477.69	458.44
477.908	478.44
478.127	467.44
478.346	462.44
478.564	488.44
478.783	476.44
479.002	486.44
479.22	474.44
479.439	501.44
479.658	516.44
479.876	534.44
480.095	549.44
480.313	558.44
480.532	550.44
480.751	532.44
480.969	607.44
481.188	805.44
481.406	954.44
481.624	715.44
481.843	612.44
482.061	601.44
482.28	586.44
482.498	557.44
482.717	553.44
482.935	534.44
483.153	527.44
483.372	514.44
483.59	531.44
483.808	519.44
484.027	531.44
484.245	519.44
484.463	525.44
484.681	534.44
484.9	535.44
485.118	536.44
485.336	529.44
485.554	520.44
485.772	521.44
485.99	554.44
486.209	555.44
486.427	554.44
486.645	561.44
486.863	577.44
487.081	588.44
487.299	589.44
487.517	565.44
487.735	541.44
487.953	581.44
488.171	568.44
488.389	586.44
488.607	582.44
488.825	591.44
489.043	585.44
489.261	589.44
489.479	591.44
489.696	588.44
489.914	619.44
490.132	603.44
490.35	617.44
490.568	617.44
490.786	614.44
491.003	618.44
491.221	649.44
491.439	641.44
491.657	644.44
491.874	676.44
492.092	675.44
492.31	666.44
492.527	695.44
492.745	688.44
492.963	671.44
493.18	701.44
493.398	698.44
493.615	686.44
493.833	687.44
494.05	702.44
494.268	700.44
494.485	716.44
494.703	694.44
494.92	691.44
495.138	693.44
495.355	681.44
495.573	689.44
495.79	695.44
496.008	686.44
496.225	689.44
496.442	701.44
496.66	693.44
496.877	668.44
497.094	657.44
497.312	705.44
497.529	691.44
497.746	706.44
497.963	701.44
498.181	717.44
498.398	716.44
498.615	742.44
498.832	737.44
499.049	757.44
499.267	734.44
499.484	725.44
499.701	756.44
499.918	766.44
500.135	783.44
500.352	789.44
500.569	802.44
500.786	813.44
501.003	835.44
501.22	803.44
501.437	823.44
501.654	787.44
501.871	811.44
