Data from 1986.PennyLincolnUp.Lamp.En5.5.200Scan.071819.P1_HRD10591_17-08-33-973.txt Node
Date: Thu Jul 18 17:08:33 EDT 2019
User: cochatt
Spectrometer: HR+D1059
Trigger mode: 1
Integration Time (sec): 1.000000E-1
Scans to average: 1
Electric dark correction enabled: true
Nonlinearity correction enabled: false
Boxcar width: 0
XAxis mode: Wavelengths
Number of Pixels in Spectrum: 2048
>>>>>Begin Spectral Data<<<<<
223.165	-11.44
223.4	-11.44
223.635	-11.44
223.869	-15.44
224.104	-13.44
224.338	0.56
224.573	-5.44
224.808	-13.44
225.042	-13.44
225.277	-14.44
225.511	4.56
225.746	1.56
225.98	-1.44
226.215	8.56
226.449	6.56
226.683	12.56
226.918	20.56
227.152	33.56
227.387	38.56
227.621	36.56
227.856	28.56
228.09	52.56
228.324	53.56
228.559	54.56
228.793	51.56
229.027	91.56
229.262	96.56
229.496	85.56
229.73	101.56
229.964	115.56
230.199	110.56
230.433	100.56
230.667	104.56
230.901	102.56
231.136	121.56
231.37	87.56
231.604	103.56
231.838	99.56
232.072	101.56
232.306	95.56
232.541	89.56
232.775	109.56
233.009	108.56
233.243	107.56
233.477	102.56
233.711	104.56
233.945	106.56
234.179	109.56
234.413	100.56
234.647	106.56
234.881	100.56
235.115	98.56
235.349	106.56
235.583	95.56
235.817	106.56
236.051	118.56
236.285	115.56
236.519	104.56
236.753	106.56
236.987	121.56
237.221	144.56
237.455	165.56
237.689	138.56
237.922	108.56
238.156	116.56
238.39	121.56
238.624	120.56
238.858	92.56
239.091	114.56
239.325	105.56
239.559	100.56
239.793	99.56
240.027	111.56
240.26	114.56
240.494	122.56
240.728	125.56
240.961	117.56
241.195	122.56
241.429	130.56
241.662	112.56
241.896	102.56
242.13	95.56
242.363	126.56
242.597	110.56
242.83	122.56
243.064	116.56
243.298	118.56
243.531	121.56
243.765	110.56
243.998	117.56
244.232	108.56
244.465	127.56
244.699	119.56
244.932	123.56
245.166	132.56
245.399	123.56
245.633	102.56
245.866	121.56
246.099	121.56
246.333	113.56
246.566	123.56
246.8	131.56
247.033	127.56
247.266	129.56
247.5	129.56
247.733	135.56
247.966	138.56
248.2	155.56
248.433	133.56
248.666	148.56
248.899	153.56
249.133	161.56
249.366	163.56
249.599	149.56
249.832	146.56
250.066	149.56
250.299	144.56
250.532	152.56
250.765	164.56
250.998	174.56
251.231	169.56
251.465	167.56
251.698	168.56
251.931	164.56
252.164	157.56
252.397	158.56
252.63	157.56
252.863	158.56
253.096	165.56
253.329	164.56
253.562	167.56
253.795	163.56
254.028	177.56
254.261	174.56
254.494	186.56
254.727	197.56
254.96	194.56
255.193	182.56
255.426	187.56
255.659	187.56
255.892	169.56
256.124	184.56
256.357	165.56
256.59	180.56
256.823	178.56
257.056	173.56
257.289	165.56
257.521	177.56
257.754	163.56
257.987	161.56
258.22	167.56
258.452	177.56
258.685	153.56
258.918	162.56
259.151	174.56
259.383	175.56
259.616	165.56
259.849	166.56
260.081	185.56
260.314	189.56
260.547	199.56
260.779	190.56
261.012	192.56
261.244	193.56
261.477	193.56
261.71	186.56
261.942	178.56
262.175	194.56
262.407	180.56
262.64	173.56
262.872	174.56
263.105	166.56
263.337	162.56
263.57	180.56
263.802	169.56
264.035	172.56
264.267	178.56
264.499	171.56
264.732	189.56
264.964	165.56
265.197	165.56
265.429	169.56
265.661	171.56
265.894	166.56
266.126	163.56
266.358	186.56
266.591	190.56
266.823	178.56
267.055	186.56
267.287	179.56
267.52	177.56
267.752	182.56
267.984	189.56
268.216	180.56
268.448	181.56
268.681	187.56
268.913	189.56
269.145	199.56
269.377	211.56
269.609	213.56
269.841	211.56
270.073	203.56
270.306	230.56
270.538	223.56
270.77	235.56
271.002	228.56
271.234	204.56
271.466	214.56
271.698	224.56
271.93	239.56
272.162	223.56
272.394	237.56
272.626	228.56
272.858	211.56
273.09	210.56
273.322	227.56
273.553	207.56
273.785	211.56
274.017	198.56
274.249	199.56
274.481	190.56
274.713	201.56
274.945	212.56
275.176	207.56
275.408	199.56
275.64	214.56
275.872	207.56
276.104	203.56
276.335	221.56
276.567	200.56
276.799	204.56
277.031	241.56
277.262	250.56
277.494	242.56
277.726	235.56
277.957	227.56
278.189	230.56
278.421	206.56
278.652	221.56
278.884	228.56
279.115	228.56
279.347	206.56
279.579	215.56
279.81	213.56
280.042	204.56
280.273	212.56
280.505	205.56
280.736	207.56
280.968	206.56
281.199	199.56
281.431	217.56
281.662	220.56
281.894	205.56
282.125	219.56
282.356	213.56
282.588	237.56
282.819	228.56
283.051	237.56
283.282	204.56
283.513	210.56
283.745	222.56
283.976	214.56
284.207	228.56
284.439	238.56
284.67	216.56
284.901	223.56
285.132	243.56
285.364	225.56
285.595	233.56
285.826	207.56
286.057	221.56
286.288	216.56
286.52	231.56
286.751	223.56
286.982	233.56
287.213	243.56
287.444	233.56
287.675	236.56
287.906	239.56
288.138	233.56
288.369	229.56
288.6	250.56
288.831	232.56
289.062	230.56
289.293	236.56
289.524	235.56
289.755	232.56
289.986	233.56
290.217	236.56
290.448	225.56
290.679	235.56
290.91	232.56
291.141	232.56
291.371	228.56
291.602	226.56
291.833	235.56
292.064	220.56
292.295	226.56
292.526	234.56
292.757	223.56
292.987	244.56
293.218	241.56
293.449	239.56
293.68	237.56
293.91	244.56
294.141	232.56
294.372	230.56
294.603	239.56
294.833	232.56
295.064	242.56
295.295	241.56
295.525	223.56
295.756	237.56
295.987	233.56
296.217	248.56
296.448	268.56
296.679	264.56
296.909	238.56
297.14	245.56
297.37	230.56
297.601	241.56
297.831	259.56
298.062	241.56
298.292	237.56
298.523	241.56
298.753	238.56
298.984	249.56
299.214	273.56
299.445	251.56
299.675	258.56
299.905	258.56
300.136	255.56
300.366	258.56
300.597	270.56
300.827	256.56
301.057	255.56
301.288	286.56
301.518	272.56
301.748	257.56
301.979	243.56
302.209	268.56
302.439	267.56
302.669	266.56
302.9	278.56
303.13	251.56
303.36	261.56
303.59	270.56
303.82	269.56
304.051	275.56
304.281	261.56
304.511	271.56
304.741	255.56
304.971	262.56
305.201	253.56
305.431	271.56
305.661	269.56
305.891	274.56
306.121	268.56
306.352	262.56
306.582	255.56
306.812	264.56
307.042	255.56
307.272	263.56
307.502	265.56
307.731	295.56
307.961	277.56
308.191	259.56
308.421	262.56
308.651	278.56
308.881	274.56
309.111	286.56
309.341	274.56
309.571	283.56
309.8	273.56
310.03	299.56
310.26	287.56
310.49	287.56
310.72	297.56
310.949	298.56
311.179	312.56
311.409	300.56
311.639	312.56
311.868	313.56
312.098	298.56
312.328	293.56
312.557	297.56
312.787	309.56
313.017	312.56
313.246	307.56
313.476	289.56
313.706	303.56
313.935	302.56
314.165	305.56
314.394	317.56
314.624	312.56
314.853	300.56
315.083	318.56
315.312	293.56
315.542	289.56
315.771	296.56
316.001	294.56
316.23	301.56
316.46	278.56
316.689	294.56
316.919	320.56
317.148	317.56
317.377	321.56
317.607	309.56
317.836	297.56
318.065	318.56
318.295	300.56
318.524	307.56
318.753	305.56
318.983	308.56
319.212	300.56
319.441	312.56
319.67	305.56
319.9	305.56
320.129	303.56
320.358	301.56
320.587	300.56
320.816	316.56
321.046	305.56
321.275	324.56
321.504	301.56
321.733	319.56
321.962	323.56
322.191	316.56
322.42	323.56
322.649	357.56
322.878	338.56
323.108	342.56
323.337	347.56
323.566	379.56
323.795	379.56
324.024	421.56
324.253	467.56
324.482	637.56
324.71	972.56
324.939	1353.56
325.168	1103.56
325.397	604.56
325.626	443.56
325.855	391.56
326.084	379.56
326.313	373.56
326.542	368.56
326.77	398.56
326.999	474.56
327.228	618.56
327.457	864.56
327.686	972.56
327.914	689.56
328.143	490.56
328.372	445.56
328.6	429.56
328.829	409.56
329.058	430.56
329.287	422.56
329.515	417.56
329.744	374.56
329.972	393.56
330.201	403.56
330.43	427.56
330.658	462.56
330.887	441.56
331.115	449.56
331.344	380.56
331.572	370.56
331.801	364.56
332.03	381.56
332.258	370.56
332.486	358.56
332.715	351.56
332.943	369.56
333.172	365.56
333.4	381.56
333.629	369.56
333.857	388.56
334.085	416.56
334.314	422.56
334.542	470.56
334.771	455.56
334.999	414.56
335.227	387.56
335.455	363.56
335.684	349.56
335.912	355.56
336.14	349.56
336.369	366.56
336.597	359.56
336.825	362.56
337.053	340.56
337.281	358.56
337.51	346.56
337.738	354.56
337.966	371.56
338.194	356.56
338.422	364.56
338.65	349.56
338.878	349.56
339.106	346.56
339.334	336.56
339.562	319.56
339.79	332.56
340.018	323.56
340.246	334.56
340.474	339.56
340.702	323.56
340.93	331.56
341.158	354.56
341.386	332.56
341.614	331.56
341.842	336.56
342.07	334.56
342.298	329.56
342.526	348.56
342.754	331.56
342.981	321.56
343.209	334.56
343.437	348.56
343.665	333.56
343.893	341.56
344.12	355.56
344.348	346.56
344.576	345.56
344.804	339.56
345.031	354.56
345.259	346.56
345.487	338.56
345.714	345.56
345.942	339.56
346.17	354.56
346.397	343.56
346.625	329.56
346.853	327.56
347.08	311.56
347.308	326.56
347.535	327.56
347.763	356.56
347.99	318.56
348.218	325.56
348.445	359.56
348.673	346.56
348.9	323.56
349.128	328.56
349.355	323.56
349.583	309.56
349.81	325.56
350.037	332.56
350.265	324.56
350.492	314.56
350.72	312.56
350.947	307.56
351.174	324.56
351.402	312.56
351.629	335.56
351.856	323.56
352.083	325.56
352.311	318.56
352.538	337.56
352.765	323.56
352.992	320.56
353.22	329.56
353.447	314.56
353.674	315.56
353.901	306.56
354.128	312.56
354.355	309.56
354.583	329.56
354.81	318.56
355.037	321.56
355.264	316.56
355.491	298.56
355.718	305.56
355.945	299.56
356.172	306.56
356.399	301.56
356.626	302.56
356.853	306.56
357.08	321.56
357.307	311.56
357.534	298.56
357.761	305.56
357.988	300.56
358.215	325.56
358.441	292.56
358.668	307.56
358.895	314.56
359.122	301.56
359.349	305.56
359.576	298.56
359.802	328.56
360.029	362.56
360.256	358.56
360.483	347.56
360.709	323.56
360.936	326.56
361.163	315.56
361.39	317.56
361.616	316.56
361.843	311.56
362.07	324.56
362.296	336.56
362.523	311.56
362.749	322.56
362.976	305.56
363.203	322.56
363.429	315.56
363.656	314.56
363.882	318.56
364.109	323.56
364.335	312.56
364.562	306.56
364.788	317.56
365.015	293.56
365.241	310.56
365.468	306.56
365.694	330.56
365.92	312.56
366.147	321.56
366.373	316.56
366.599	334.56
366.826	330.56
367.052	326.56
367.278	303.56
367.505	307.56
367.731	297.56
367.957	313.56
368.184	313.56
368.41	326.56
368.636	325.56
368.862	330.56
369.089	300.56
369.315	298.56
369.541	321.56
369.767	301.56
369.993	309.56
370.219	302.56
370.445	301.56
370.672	297.56
370.898	308.56
371.124	309.56
371.35	305.56
371.576	307.56
371.802	316.56
372.028	296.56
372.254	305.56
372.48	315.56
372.706	312.56
372.932	312.56
373.158	317.56
373.384	326.56
373.61	321.56
373.835	331.56
374.061	322.56
374.287	316.56
374.513	315.56
374.739	317.56
374.965	334.56
375.191	325.56
375.416	326.56
375.642	307.56
375.868	318.56
376.094	301.56
376.319	301.56
376.545	325.56
376.771	295.56
376.997	299.56
377.222	303.56
377.448	312.56
377.674	309.56
377.899	292.56
378.125	309.56
378.35	312.56
378.576	313.56
378.802	301.56
379.027	311.56
379.253	309.56
379.478	289.56
379.704	312.56
379.929	318.56
380.155	301.56
380.38	320.56
380.606	313.56
380.831	325.56
381.057	316.56
381.282	300.56
381.507	326.56
381.733	302.56
381.958	317.56
382.184	319.56
382.409	308.56
382.634	330.56
382.86	314.56
383.085	335.56
383.31	326.56
383.535	318.56
383.761	326.56
383.986	326.56
384.211	325.56
384.436	348.56
384.662	324.56
384.887	346.56
385.112	330.56
385.337	348.56
385.562	342.56
385.787	345.56
386.013	350.56
386.238	334.56
386.463	352.56
386.688	329.56
386.913	332.56
387.138	325.56
387.363	328.56
387.588	325.56
387.813	347.56
388.038	331.56
388.263	350.56
388.488	341.56
388.713	365.56
388.938	335.56
389.163	344.56
389.387	340.56
389.612	321.56
389.837	338.56
390.062	335.56
390.287	327.56
390.512	325.56
390.736	337.56
390.961	317.56
391.186	322.56
391.411	350.56
391.636	347.56
391.86	349.56
392.085	345.56
392.31	378.56
392.534	364.56
392.759	350.56
392.984	346.56
393.208	350.56
393.433	361.56
393.658	325.56
393.882	340.56
394.107	336.56
394.331	353.56
394.556	343.56
394.78	348.56
395.005	365.56
395.229	351.56
395.454	354.56
395.678	344.56
395.903	394.56
396.127	357.56
396.352	381.56
396.576	365.56
396.801	350.56
397.025	366.56
397.249	366.56
397.474	370.56
397.698	369.56
397.922	373.56
398.147	375.56
398.371	393.56
398.595	382.56
398.82	376.56
399.044	403.56
399.268	418.56
399.492	442.56
399.717	452.56
399.941	465.56
400.165	465.56
400.389	469.56
400.613	455.56
400.837	406.56
401.062	436.56
401.286	390.56
401.51	395.56
401.734	389.56
401.958	389.56
402.182	405.56
402.406	423.56
402.63	404.56
402.854	397.56
403.078	399.56
403.302	408.56
403.526	415.56
403.75	416.56
403.974	411.56
404.198	403.56
404.422	403.56
404.645	413.56
404.869	395.56
405.093	411.56
405.317	434.56
405.541	457.56
405.765	449.56
405.988	430.56
406.212	426.56
406.436	456.56
406.66	455.56
406.883	440.56
407.107	478.56
407.331	494.56
407.555	520.56
407.778	487.56
408.002	478.56
408.226	440.56
408.449	464.56
408.673	456.56
408.896	457.56
409.12	492.56
409.344	478.56
409.567	442.56
409.791	443.56
410.014	417.56
410.238	422.56
410.461	403.56
410.685	407.56
410.908	457.56
411.132	441.56
411.355	462.56
411.578	434.56
411.802	429.56
412.025	401.56
412.249	409.56
412.472	423.56
412.695	429.56
412.919	428.56
413.142	414.56
413.365	409.56
413.589	411.56
413.812	411.56
414.035	400.56
414.258	403.56
414.482	405.56
414.705	416.56
414.928	415.56
415.151	398.56
415.374	407.56
415.597	421.56
415.821	403.56
416.044	387.56
416.267	418.56
416.49	414.56
416.713	401.56
416.936	411.56
417.159	399.56
417.382	393.56
417.605	411.56
417.828	410.56
418.051	419.56
418.274	403.56
418.497	380.56
418.72	390.56
418.943	391.56
419.166	411.56
419.389	440.56
419.611	423.56
419.834	420.56
420.057	440.56
420.28	401.56
420.503	392.56
420.726	405.56
420.948	419.56
421.171	455.56
421.394	463.56
421.617	431.56
421.839	403.56
422.062	426.56
422.285	437.56
422.507	464.56
422.73	501.56
422.953	485.56
423.175	454.56
423.398	427.56
423.621	420.56
423.843	422.56
424.066	438.56
424.288	436.56
424.511	460.56
424.733	495.56
424.956	532.56
425.178	507.56
425.401	503.56
425.623	524.56
425.846	459.56
426.068	424.56
426.291	442.56
426.513	412.56
426.735	431.56
426.958	436.56
427.18	531.56
427.402	589.56
427.625	618.56
427.847	553.56
428.069	479.56
428.292	447.56
428.514	414.56
428.736	419.56
428.958	421.56
429.181	401.56
429.403	379.56
429.625	399.56
429.847	435.56
430.069	451.56
430.292	466.56
430.514	405.56
430.736	407.56
430.958	396.56
431.18	379.56
431.402	394.56
431.624	399.56
431.846	404.56
432.068	385.56
432.29	383.56
432.512	383.56
432.734	413.56
432.956	407.56
433.178	422.56
433.4	396.56
433.622	418.56
433.844	379.56
434.066	387.56
434.287	386.56
434.509	392.56
434.731	409.56
434.953	420.56
435.175	419.56
435.397	441.56
435.618	450.56
435.84	459.56
436.062	526.56
436.284	548.56
436.505	474.56
436.727	429.56
436.949	421.56
437.17	400.56
437.392	397.56
437.614	415.56
437.835	440.56
438.057	485.56
438.278	519.56
438.5	548.56
438.721	571.56
438.943	549.56
439.165	437.56
439.386	444.56
439.608	431.56
439.829	415.56
440.05	451.56
440.272	483.56
440.493	453.56
440.715	430.56
440.936	419.56
441.158	435.56
441.379	414.56
441.6	435.56
441.822	452.56
442.043	460.56
442.264	497.56
442.486	539.56
442.707	459.56
442.928	443.56
443.149	463.56
443.371	448.56
443.592	473.56
443.813	541.56
444.034	561.56
444.255	486.56
444.476	452.56
444.698	430.56
444.919	429.56
445.14	546.56
445.361	509.56
445.582	474.56
445.803	501.56
446.024	543.56
446.245	566.56
446.466	513.56
446.687	439.56
446.908	409.56
447.129	400.56
447.35	399.56
447.571	393.56
447.792	390.56
448.013	394.56
448.234	409.56
448.455	439.56
448.675	506.56
448.896	565.56
449.117	485.56
449.338	477.56
449.559	530.56
449.779	580.56
450	496.56
450.221	441.56
450.442	408.56
450.662	397.56
450.883	388.56
451.104	388.56
451.324	393.56
451.545	385.56
451.766	362.56
451.986	365.56
452.207	375.56
452.428	351.56
452.648	367.56
452.869	352.56
453.089	353.56
453.31	370.56
453.53	370.56
453.751	362.56
453.971	381.56
454.192	375.56
454.412	376.56
454.633	349.56
454.853	355.56
455.073	369.56
455.294	374.56
455.514	409.56
455.734	398.56
455.955	359.56
456.175	346.56
456.395	346.56
456.616	351.56
456.836	374.56
457.056	357.56
457.276	341.56
457.497	353.56
457.717	335.56
457.937	344.56
458.157	341.56
458.377	357.56
458.598	377.56
458.818	406.56
459.038	454.56
459.258	463.56
459.478	418.56
459.698	400.56
459.918	367.56
460.138	397.56
460.358	390.56
460.578	412.56
460.798	395.56
461.018	400.56
461.238	387.56
461.458	390.56
461.678	406.56
461.898	411.56
462.118	389.56
462.338	415.56
462.558	437.56
462.777	417.56
462.997	441.56
463.217	462.56
463.437	451.56
463.657	452.56
463.876	435.56
464.096	418.56
464.316	397.56
464.536	417.56
464.755	442.56
464.975	445.56
465.195	445.56
465.414	509.56
465.634	433.56
465.854	407.56
466.073	385.56
466.293	381.56
466.512	381.56
466.732	394.56
466.951	387.56
467.171	390.56
467.391	381.56
467.61	397.56
467.829	402.56
468.049	385.56
468.268	405.56
468.488	381.56
468.707	378.56
468.927	378.56
469.146	376.56
469.365	382.56
469.585	374.56
469.804	390.56
470.023	386.56
470.243	399.56
470.462	388.56
470.681	404.56
470.901	401.56
471.12	393.56
471.339	380.56
471.558	389.56
471.777	381.56
471.997	407.56
472.216	410.56
472.435	468.56
472.654	411.56
472.873	399.56
473.092	361.56
473.311	384.56
473.53	383.56
473.749	398.56
473.968	413.56
474.187	450.56
474.406	482.56
474.625	422.56
474.844	391.56
475.063	381.56
475.282	381.56
475.501	385.56
475.72	372.56
475.939	394.56
476.158	395.56
476.377	392.56
476.596	370.56
476.814	388.56
477.033	399.56
477.252	406.56
477.471	413.56
477.69	418.56
477.908	406.56
478.127	437.56
478.346	415.56
478.564	430.56
478.783	419.56
479.002	421.56
479.22	435.56
479.439	447.56
479.658	470.56
479.876	461.56
480.095	454.56
480.313	494.56
480.532	469.56
480.751	484.56
480.969	463.56
481.188	589.56
481.406	631.56
481.624	513.56
481.843	472.56
482.061	441.56
482.28	428.56
482.498	435.56
482.717	444.56
482.935	464.56
483.153	454.56
483.372	438.56
483.59	443.56
483.808	437.56
484.027	445.56
484.245	458.56
484.463	439.56
484.681	442.56
484.9	449.56
485.118	428.56
485.336	451.56
485.554	456.56
485.772	458.56
485.99	457.56
486.209	449.56
486.427	455.56
486.645	481.56
486.863	469.56
487.081	493.56
487.299	463.56
487.517	466.56
487.735	467.56
487.953	467.56
488.171	475.56
488.389	470.56
488.607	490.56
488.825	458.56
489.043	487.56
489.261	500.56
489.479	471.56
489.696	463.56
489.914	484.56
490.132	492.56
490.35	498.56
490.568	483.56
490.786	491.56
491.003	491.56
491.221	513.56
491.439	535.56
491.657	548.56
491.874	541.56
492.092	533.56
492.31	526.56
492.527	515.56
492.745	531.56
492.963	523.56
493.18	525.56
493.398	542.56
493.615	527.56
493.833	539.56
494.05	540.56
494.268	540.56
494.485	534.56
494.703	534.56
494.92	504.56
495.138	550.56
495.355	531.56
495.573	533.56
495.79	561.56
496.008	553.56
496.225	565.56
496.442	553.56
496.66	563.56
496.877	561.56
497.094	543.56
497.312	556.56
497.529	558.56
497.746	570.56
497.963	578.56
498.181	593.56
498.398	601.56
498.615	604.56
498.832	614.56
499.049	619.56
499.267	652.56
499.484	682.56
499.701	701.56
499.918	735.56
500.135	772.56
500.352	823.56
500.569	821.56
500.786	829.56
501.003	824.56
501.22	796.56
501.437	767.56
501.654	715.56
501.871	718.56
502.088	667.56
