Data from 1986.PennyLincolnUp.Lamp.En5.5.200Scan.071819.P1_HRD10591_17-08-26-979.txt Node
Date: Thu Jul 18 17:08:26 EDT 2019
User: cochatt
Spectrometer: HR+D1059
Trigger mode: 1
Integration Time (sec): 1.000000E-1
Scans to average: 1
Electric dark correction enabled: true
Nonlinearity correction enabled: false
Boxcar width: 0
XAxis mode: Wavelengths
Number of Pixels in Spectrum: 2048
>>>>>Begin Spectral Data<<<<<
223.165	1.69
223.4	1.69
223.635	1.69
223.869	-13.31
224.104	-20.31
224.338	-11.31
224.573	-11.31
224.808	-22.31
225.042	-0.31
225.277	1.69
225.511	7.69
225.746	2.69
225.98	-2.31
226.215	5.69
226.449	-6.31
226.683	9.69
226.918	27.69
227.152	30.69
227.387	38.69
227.621	39.69
227.856	46.69
228.09	55.69
228.324	51.69
228.559	52.69
228.793	80.69
229.027	75.69
229.262	92.69
229.496	91.69
229.73	98.69
229.964	123.69
230.199	101.69
230.433	88.69
230.667	106.69
230.901	103.69
231.136	107.69
231.37	97.69
231.604	96.69
231.838	108.69
232.072	123.69
232.306	119.69
232.541	112.69
232.775	101.69
233.009	92.69
233.243	99.69
233.477	101.69
233.711	98.69
233.945	119.69
234.179	84.69
234.413	108.69
234.647	98.69
234.881	103.69
235.115	111.69
235.349	107.69
235.583	109.69
235.817	98.69
236.051	115.69
236.285	105.69
236.519	102.69
236.753	110.69
236.987	127.69
237.221	145.69
237.455	148.69
237.689	151.69
237.922	130.69
238.156	111.69
238.39	115.69
238.624	103.69
238.858	124.69
239.091	111.69
239.325	89.69
239.559	97.69
239.793	98.69
240.027	112.69
240.26	111.69
240.494	123.69
240.728	116.69
240.961	124.69
241.195	121.69
241.429	121.69
241.662	107.69
241.896	106.69
242.13	137.69
242.363	109.69
242.597	123.69
242.83	127.69
243.064	125.69
243.298	123.69
243.531	112.69
243.765	125.69
243.998	111.69
244.232	113.69
244.465	118.69
244.699	111.69
244.932	140.69
245.166	116.69
245.399	133.69
245.633	131.69
245.866	127.69
246.099	140.69
246.333	130.69
246.566	142.69
246.8	132.69
247.033	137.69
247.266	117.69
247.5	122.69
247.733	131.69
247.966	155.69
248.2	148.69
248.433	146.69
248.666	132.69
248.899	146.69
249.133	160.69
249.366	151.69
249.599	161.69
249.832	159.69
250.066	141.69
250.299	142.69
250.532	138.69
250.765	171.69
250.998	165.69
251.231	164.69
251.465	161.69
251.698	156.69
251.931	171.69
252.164	151.69
252.397	158.69
252.63	154.69
252.863	173.69
253.096	171.69
253.329	163.69
253.562	169.69
253.795	183.69
254.028	163.69
254.261	178.69
254.494	188.69
254.727	194.69
254.96	215.69
255.193	187.69
255.426	174.69
255.659	184.69
255.892	185.69
256.124	186.69
256.357	172.69
256.59	166.69
256.823	156.69
257.056	168.69
257.289	179.69
257.521	165.69
257.754	165.69
257.987	171.69
258.22	168.69
258.452	170.69
258.685	167.69
258.918	168.69
259.151	160.69
259.383	168.69
259.616	166.69
259.849	172.69
260.081	182.69
260.314	186.69
260.547	184.69
260.779	181.69
261.012	165.69
261.244	183.69
261.477	193.69
261.71	161.69
261.942	173.69
262.175	180.69
262.407	183.69
262.64	168.69
262.872	172.69
263.105	176.69
263.337	168.69
263.57	176.69
263.802	169.69
264.035	191.69
264.267	173.69
264.499	181.69
264.732	179.69
264.964	172.69
265.197	171.69
265.429	171.69
265.661	173.69
265.894	193.69
266.126	165.69
266.358	176.69
266.591	156.69
266.823	172.69
267.055	186.69
267.287	179.69
267.52	171.69
267.752	192.69
267.984	183.69
268.216	183.69
268.448	185.69
268.681	197.69
268.913	208.69
269.145	197.69
269.377	209.69
269.609	195.69
269.841	203.69
270.073	197.69
270.306	223.69
270.538	218.69
270.77	238.69
271.002	232.69
271.234	231.69
271.466	215.69
271.698	235.69
271.93	239.69
272.162	230.69
272.394	234.69
272.626	216.69
272.858	203.69
273.09	223.69
273.322	202.69
273.553	210.69
273.785	212.69
274.017	202.69
274.249	206.69
274.481	213.69
274.713	212.69
274.945	214.69
275.176	208.69
275.408	206.69
275.64	208.69
275.872	209.69
276.104	217.69
276.335	224.69
276.567	208.69
276.799	218.69
277.031	221.69
277.262	235.69
277.494	248.69
277.726	225.69
277.957	238.69
278.189	215.69
278.421	219.69
278.652	216.69
278.884	211.69
279.115	209.69
279.347	221.69
279.579	205.69
279.81	216.69
280.042	220.69
280.273	226.69
280.505	214.69
280.736	208.69
280.968	218.69
281.199	224.69
281.431	222.69
281.662	209.69
281.894	212.69
282.125	206.69
282.356	230.69
282.588	232.69
282.819	225.69
283.051	227.69
283.282	228.69
283.513	221.69
283.745	215.69
283.976	198.69
284.207	236.69
284.439	235.69
284.67	221.69
284.901	230.69
285.132	226.69
285.364	238.69
285.595	235.69
285.826	222.69
286.057	218.69
286.288	217.69
286.52	221.69
286.751	230.69
286.982	243.69
287.213	218.69
287.444	222.69
287.675	238.69
287.906	256.69
288.138	224.69
288.369	222.69
288.6	220.69
288.831	219.69
289.062	231.69
289.293	232.69
289.524	229.69
289.755	248.69
289.986	224.69
290.217	243.69
290.448	222.69
290.679	243.69
290.91	232.69
291.141	243.69
291.371	233.69
291.602	227.69
291.833	224.69
292.064	246.69
292.295	222.69
292.526	236.69
292.757	245.69
292.987	220.69
293.218	244.69
293.449	236.69
293.68	254.69
293.91	241.69
294.141	245.69
294.372	233.69
294.603	238.69
294.833	230.69
295.064	243.69
295.295	236.69
295.525	227.69
295.756	239.69
295.987	255.69
296.217	243.69
296.448	256.69
296.679	238.69
296.909	235.69
297.14	244.69
297.37	257.69
297.601	243.69
297.831	265.69
298.062	239.69
298.292	237.69
298.523	250.69
298.753	266.69
298.984	246.69
299.214	257.69
299.445	251.69
299.675	246.69
299.905	267.69
300.136	246.69
300.366	260.69
300.597	265.69
300.827	259.69
301.057	277.69
301.288	278.69
301.518	244.69
301.748	266.69
301.979	263.69
302.209	268.69
302.439	252.69
302.669	264.69
302.9	265.69
303.13	271.69
303.36	259.69
303.59	256.69
303.82	275.69
304.051	265.69
304.281	269.69
304.511	243.69
304.741	261.69
304.971	259.69
305.201	283.69
305.431	270.69
305.661	263.69
305.891	271.69
306.121	269.69
306.352	278.69
306.582	268.69
306.812	271.69
307.042	272.69
307.272	271.69
307.502	271.69
307.731	269.69
307.961	280.69
308.191	291.69
308.421	272.69
308.651	272.69
308.881	287.69
309.111	287.69
309.341	264.69
309.571	275.69
309.8	270.69
310.03	283.69
310.26	285.69
310.49	294.69
310.72	297.69
310.949	285.69
311.179	309.69
311.409	293.69
311.639	279.69
311.868	291.69
312.098	297.69
312.328	300.69
312.557	303.69
312.787	302.69
313.017	282.69
313.246	297.69
313.476	289.69
313.706	304.69
313.935	292.69
314.165	287.69
314.394	302.69
314.624	302.69
314.853	316.69
315.083	307.69
315.312	286.69
315.542	305.69
315.771	295.69
316.001	307.69
316.23	299.69
316.46	291.69
316.689	311.69
316.919	304.69
317.148	309.69
317.377	305.69
317.607	321.69
317.836	299.69
318.065	302.69
318.295	298.69
318.524	303.69
318.753	288.69
318.983	290.69
319.212	304.69
319.441	307.69
319.67	300.69
319.9	317.69
320.129	308.69
320.358	287.69
320.587	307.69
320.816	311.69
321.046	313.69
321.275	311.69
321.504	303.69
321.733	328.69
321.962	329.69
322.191	313.69
322.42	331.69
322.649	357.69
322.878	353.69
323.108	333.69
323.337	338.69
323.566	358.69
323.795	380.69
324.024	415.69
324.253	459.69
324.482	631.69
324.71	908.69
324.939	1235.69
325.168	1019.69
325.397	586.69
325.626	448.69
325.855	397.69
326.084	375.69
326.313	348.69
326.542	373.69
326.77	387.69
326.999	452.69
327.228	587.69
327.457	839.69
327.686	962.69
327.914	658.69
328.143	469.69
328.372	439.69
328.6	414.69
328.829	417.69
329.058	381.69
329.287	416.69
329.515	407.69
329.744	397.69
329.972	393.69
330.201	427.69
330.43	431.69
330.658	438.69
330.887	417.69
331.115	425.69
331.344	389.69
331.572	382.69
331.801	388.69
332.03	389.69
332.258	362.69
332.486	379.69
332.715	375.69
332.943	356.69
333.172	363.69
333.4	362.69
333.629	380.69
333.857	389.69
334.085	384.69
334.314	410.69
334.542	442.69
334.771	463.69
334.999	422.69
335.227	400.69
335.455	387.69
335.684	367.69
335.912	371.69
336.14	359.69
336.369	353.69
336.597	359.69
336.825	361.69
337.053	349.69
337.281	336.69
337.51	329.69
337.738	337.69
337.966	368.69
338.194	328.69
338.422	338.69
338.65	355.69
338.878	345.69
339.106	340.69
339.334	346.69
339.562	332.69
339.79	330.69
340.018	338.69
340.246	325.69
340.474	357.69
340.702	343.69
340.93	348.69
341.158	335.69
341.386	343.69
341.614	355.69
341.842	345.69
342.07	327.69
342.298	329.69
342.526	324.69
342.754	326.69
342.981	324.69
343.209	328.69
343.437	335.69
343.665	363.69
343.893	341.69
344.12	350.69
344.348	363.69
344.576	344.69
344.804	337.69
345.031	345.69
345.259	356.69
345.487	339.69
345.714	327.69
345.942	315.69
346.17	357.69
346.397	319.69
346.625	325.69
346.853	313.69
347.08	315.69
347.308	330.69
347.535	319.69
347.763	332.69
347.99	325.69
348.218	351.69
348.445	329.69
348.673	329.69
348.9	318.69
349.128	307.69
349.355	314.69
349.583	317.69
349.81	318.69
350.037	323.69
350.265	323.69
350.492	328.69
350.72	302.69
350.947	332.69
351.174	321.69
351.402	316.69
351.629	328.69
351.856	322.69
352.083	329.69
352.311	325.69
352.538	332.69
352.765	327.69
352.992	319.69
353.22	319.69
353.447	313.69
353.674	328.69
353.901	310.69
354.128	289.69
354.355	319.69
354.583	312.69
354.81	308.69
355.037	298.69
355.264	303.69
355.491	313.69
355.718	300.69
355.945	305.69
356.172	298.69
356.399	298.69
356.626	300.69
356.853	317.69
357.08	293.69
357.307	329.69
357.534	299.69
357.761	296.69
357.988	294.69
358.215	298.69
358.441	306.69
358.668	300.69
358.895	301.69
359.122	314.69
359.349	311.69
359.576	299.69
359.802	323.69
360.029	335.69
360.256	332.69
360.483	326.69
360.709	307.69
360.936	323.69
361.163	299.69
361.39	313.69
361.616	313.69
361.843	312.69
362.07	334.69
362.296	316.69
362.523	329.69
362.749	322.69
362.976	309.69
363.203	297.69
363.429	325.69
363.656	319.69
363.882	309.69
364.109	303.69
364.335	316.69
364.562	281.69
364.788	297.69
365.015	311.69
365.241	305.69
365.468	307.69
365.694	333.69
365.92	332.69
366.147	299.69
366.373	307.69
366.599	311.69
366.826	294.69
367.052	300.69
367.278	297.69
367.505	297.69
367.731	326.69
367.957	295.69
368.184	320.69
368.41	302.69
368.636	317.69
368.862	315.69
369.089	311.69
369.315	305.69
369.541	318.69
369.767	328.69
369.993	308.69
370.219	301.69
370.445	317.69
370.672	319.69
370.898	307.69
371.124	292.69
371.35	301.69
371.576	309.69
371.802	312.69
372.028	302.69
372.254	317.69
372.48	325.69
372.706	318.69
372.932	326.69
373.158	326.69
373.384	334.69
373.61	320.69
373.835	327.69
374.061	305.69
374.287	317.69
374.513	311.69
374.739	336.69
374.965	322.69
375.191	335.69
375.416	307.69
375.642	297.69
375.868	323.69
376.094	315.69
376.319	307.69
376.545	313.69
376.771	332.69
376.997	314.69
377.222	329.69
377.448	299.69
377.674	300.69
377.899	304.69
378.125	311.69
378.35	327.69
378.576	284.69
378.802	326.69
379.027	307.69
379.253	301.69
379.478	297.69
379.704	298.69
379.929	313.69
380.155	317.69
380.38	323.69
380.606	322.69
380.831	309.69
381.057	308.69
381.282	300.69
381.507	321.69
381.733	319.69
381.958	322.69
382.184	303.69
382.409	307.69
382.634	312.69
382.86	324.69
383.085	329.69
383.31	321.69
383.535	317.69
383.761	325.69
383.986	345.69
384.211	341.69
384.436	319.69
384.662	328.69
384.887	325.69
385.112	314.69
385.337	337.69
385.562	340.69
385.787	347.69
386.013	356.69
386.238	338.69
386.463	362.69
386.688	350.69
386.913	360.69
387.138	356.69
387.363	350.69
387.588	347.69
387.813	348.69
388.038	364.69
388.263	339.69
388.488	337.69
388.713	347.69
388.938	342.69
389.163	344.69
389.387	335.69
389.612	328.69
389.837	328.69
390.062	335.69
390.287	331.69
390.512	317.69
390.736	336.69
390.961	359.69
391.186	345.69
391.411	337.69
391.636	347.69
391.86	357.69
392.085	354.69
392.31	355.69
392.534	334.69
392.759	367.69
392.984	347.69
393.208	349.69
393.433	347.69
393.658	354.69
393.882	336.69
394.107	345.69
394.331	339.69
394.556	329.69
394.78	339.69
395.005	344.69
395.229	345.69
395.454	363.69
395.678	352.69
395.903	363.69
396.127	368.69
396.352	381.69
396.576	319.69
396.801	349.69
397.025	365.69
397.249	344.69
397.474	357.69
397.698	367.69
397.922	381.69
398.147	385.69
398.371	396.69
398.595	407.69
398.82	401.69
399.044	414.69
399.268	429.69
399.492	467.69
399.717	490.69
399.941	484.69
400.165	481.69
400.389	456.69
400.613	452.69
400.837	394.69
401.062	394.69
401.286	413.69
401.51	407.69
401.734	391.69
401.958	414.69
402.182	381.69
402.406	399.69
402.63	423.69
402.854	397.69
403.078	398.69
403.302	411.69
403.526	397.69
403.75	408.69
403.974	424.69
404.198	395.69
404.422	431.69
404.645	431.69
404.869	419.69
405.093	440.69
405.317	431.69
405.541	437.69
405.765	449.69
405.988	447.69
406.212	452.69
406.436	440.69
406.66	458.69
406.883	444.69
407.107	463.69
407.331	488.69
407.555	530.69
407.778	524.69
408.002	487.69
408.226	455.69
408.449	444.69
408.673	459.69
408.896	476.69
409.12	498.69
409.344	479.69
409.567	438.69
409.791	447.69
410.014	407.69
410.238	419.69
410.461	436.69
410.685	413.69
410.908	457.69
411.132	447.69
411.355	451.69
411.578	447.69
411.802	444.69
412.025	428.69
412.249	446.69
412.472	433.69
412.695	437.69
412.919	425.69
413.142	405.69
413.365	400.69
413.589	413.69
413.812	405.69
414.035	400.69
414.258	395.69
414.482	421.69
414.705	427.69
414.928	394.69
415.151	413.69
415.374	415.69
415.597	407.69
415.821	405.69
416.044	398.69
416.267	423.69
416.49	423.69
416.713	436.69
416.936	423.69
417.159	429.69
417.382	407.69
417.605	426.69
417.828	399.69
418.051	417.69
418.274	421.69
418.497	403.69
418.72	429.69
418.943	401.69
419.166	427.69
419.389	431.69
419.611	428.69
419.834	423.69
420.057	405.69
420.28	430.69
420.503	429.69
420.726	414.69
420.948	411.69
421.171	451.69
421.394	452.69
421.617	431.69
421.839	430.69
422.062	441.69
422.285	440.69
422.507	489.69
422.73	503.69
422.953	495.69
423.175	451.69
423.398	441.69
423.621	423.69
423.843	439.69
424.066	445.69
424.288	435.69
424.511	441.69
424.733	486.69
424.956	516.69
425.178	496.69
425.401	480.69
425.623	496.69
425.846	433.69
426.068	437.69
426.291	428.69
426.513	444.69
426.735	447.69
426.958	463.69
427.18	513.69
427.402	583.69
427.625	620.69
427.847	545.69
428.069	470.69
428.292	439.69
428.514	431.69
428.736	423.69
428.958	424.69
429.181	404.69
429.403	397.69
429.625	422.69
429.847	441.69
430.069	449.69
430.292	476.69
430.514	412.69
430.736	384.69
430.958	399.69
431.18	408.69
431.402	405.69
431.624	391.69
431.846	391.69
432.068	394.69
432.29	380.69
432.512	388.69
432.734	394.69
432.956	397.69
433.178	398.69
433.4	402.69
433.622	398.69
433.844	394.69
434.066	413.69
434.287	376.69
434.509	402.69
434.731	407.69
434.953	415.69
435.175	432.69
435.397	437.69
435.618	439.69
435.84	443.69
436.062	488.69
436.284	521.69
436.505	458.69
436.727	425.69
436.949	419.69
437.17	389.69
437.392	403.69
437.614	373.69
437.835	425.69
438.057	477.69
438.278	533.69
438.5	512.69
438.721	566.69
438.943	555.69
439.165	459.69
439.386	447.69
439.608	436.69
439.829	432.69
440.05	441.69
440.272	459.69
440.493	415.69
440.715	404.69
440.936	413.69
441.158	421.69
441.379	411.69
441.6	430.69
441.822	439.69
442.043	453.69
442.264	509.69
442.486	503.69
442.707	451.69
442.928	453.69
443.149	454.69
443.371	464.69
443.592	469.69
443.813	539.69
444.034	563.69
444.255	485.69
444.476	444.69
444.698	445.69
444.919	471.69
445.14	527.69
445.361	483.69
445.582	465.69
445.803	496.69
446.024	554.69
446.245	568.69
446.466	495.69
446.687	448.69
446.908	442.69
447.129	428.69
447.35	411.69
447.571	392.69
447.792	397.69
448.013	394.69
448.234	415.69
448.455	439.69
448.675	505.69
448.896	555.69
449.117	473.69
449.338	461.69
449.559	520.69
449.779	582.69
450	472.69
450.221	416.69
450.442	397.69
450.662	371.69
450.883	396.69
451.104	413.69
451.324	378.69
451.545	372.69
451.766	382.69
451.986	369.69
452.207	373.69
452.428	368.69
452.648	381.69
452.869	357.69
453.089	365.69
453.31	376.69
453.53	359.69
453.751	370.69
453.971	370.69
454.192	356.69
454.412	364.69
454.633	361.69
454.853	352.69
455.073	365.69
455.294	372.69
455.514	413.69
455.734	387.69
455.955	364.69
456.175	363.69
456.395	341.69
456.616	341.69
456.836	361.69
457.056	354.69
457.276	356.69
457.497	343.69
457.717	345.69
457.937	354.69
458.157	371.69
458.377	381.69
458.598	371.69
458.818	392.69
459.038	461.69
459.258	459.69
459.478	412.69
459.698	387.69
459.918	416.69
460.138	397.69
460.358	409.69
460.578	417.69
460.798	413.69
461.018	407.69
461.238	396.69
461.458	403.69
461.678	408.69
461.898	407.69
462.118	414.69
462.338	430.69
462.558	417.69
462.777	445.69
462.997	451.69
463.217	448.69
463.437	479.69
463.657	454.69
463.876	464.69
464.096	451.69
464.316	429.69
464.536	429.69
464.755	435.69
464.975	430.69
465.195	441.69
465.414	494.69
465.634	451.69
465.854	413.69
466.073	391.69
466.293	388.69
466.512	393.69
466.732	387.69
466.951	380.69
467.171	378.69
467.391	392.69
467.61	379.69
467.829	385.69
468.049	397.69
468.268	407.69
468.488	377.69
468.707	374.69
468.927	374.69
469.146	356.69
469.365	371.69
469.585	363.69
469.804	387.69
470.023	381.69
470.243	390.69
470.462	389.69
470.681	426.69
470.901	407.69
471.12	377.69
471.339	400.69
471.558	383.69
471.777	387.69
471.997	375.69
472.216	399.69
472.435	460.69
472.654	438.69
472.873	408.69
473.092	397.69
473.311	391.69
473.53	368.69
473.749	383.69
473.968	403.69
474.187	466.69
474.406	463.69
474.625	411.69
474.844	382.69
475.063	392.69
475.282	365.69
475.501	391.69
475.72	402.69
475.939	393.69
476.158	401.69
476.377	392.69
476.596	403.69
476.814	378.69
477.033	376.69
477.252	397.69
477.471	406.69
477.69	421.69
477.908	414.69
478.127	428.69
478.346	429.69
478.564	429.69
478.783	428.69
479.002	437.69
479.22	458.69
479.439	447.69
479.658	438.69
479.876	447.69
480.095	475.69
480.313	458.69
480.532	482.69
480.751	470.69
480.969	493.69
481.188	567.69
481.406	617.69
481.624	517.69
481.843	471.69
482.061	468.69
482.28	458.69
482.498	447.69
482.717	428.69
482.935	442.69
483.153	458.69
483.372	464.69
483.59	460.69
483.808	441.69
484.027	429.69
484.245	447.69
484.463	454.69
484.681	453.69
484.9	461.69
485.118	454.69
485.336	450.69
485.554	449.69
485.772	453.69
485.99	469.69
486.209	460.69
486.427	459.69
486.645	456.69
486.863	460.69
487.081	472.69
487.299	479.69
487.517	440.69
487.735	478.69
487.953	471.69
488.171	459.69
488.389	466.69
488.607	457.69
488.825	467.69
489.043	469.69
489.261	472.69
489.479	477.69
489.696	471.69
489.914	473.69
490.132	479.69
490.35	483.69
490.568	494.69
490.786	488.69
491.003	477.69
491.221	497.69
491.439	495.69
491.657	534.69
491.874	513.69
492.092	516.69
492.31	512.69
492.527	535.69
492.745	543.69
492.963	513.69
493.18	544.69
493.398	541.69
493.615	503.69
493.833	533.69
494.05	558.69
494.268	535.69
494.485	532.69
494.703	527.69
494.92	551.69
495.138	528.69
495.355	551.69
495.573	544.69
495.79	540.69
496.008	564.69
496.225	557.69
496.442	548.69
496.66	543.69
496.877	539.69
497.094	541.69
497.312	549.69
497.529	585.69
497.746	593.69
497.963	560.69
498.181	581.69
498.398	611.69
498.615	605.69
498.832	623.69
499.049	617.69
499.267	653.69
499.484	673.69
499.701	713.69
499.918	767.69
500.135	792.69
500.352	833.69
500.569	860.69
500.786	847.69
501.003	828.69
501.22	795.69
501.437	762.69
501.654	716.69
501.871	693.69
502.088	675.69
502.305	654.69
