Data from 1986.PennyLincolnUp.Lamp.En5.5.200Scan.071819.P2_HRD10591_17-10-04-975.txt Node
Date: Thu Jul 18 17:10:04 EDT 2019
User: cochatt
Spectrometer: HR+D1059
Trigger mode: 1
Integration Time (sec): 1.000000E-1
Scans to average: 1
Electric dark correction enabled: true
Nonlinearity correction enabled: false
Boxcar width: 0
XAxis mode: Wavelengths
Number of Pixels in Spectrum: 2048
>>>>>Begin Spectral Data<<<<<
223.165	-22.81
223.4	-22.81
223.635	-22.81
223.869	-9.81
224.104	-10.81
224.338	-13.81
224.573	-13.81
224.808	-13.81
225.042	-13.81
225.277	-2.81
225.511	-1.81
225.746	13.19
225.98	12.19
226.215	2.19
226.449	25.19
226.683	16.19
226.918	17.19
227.152	17.19
227.387	32.19
227.621	29.19
227.856	41.19
228.09	29.19
228.324	53.19
228.559	35.19
228.793	64.19
229.027	85.19
229.262	106.19
229.496	122.19
229.73	132.19
229.964	150.19
230.199	124.19
230.433	117.19
230.667	106.19
230.901	115.19
231.136	107.19
231.37	112.19
231.604	108.19
231.838	114.19
232.072	93.19
232.306	118.19
232.541	107.19
232.775	100.19
233.009	113.19
233.243	98.19
233.477	119.19
233.711	95.19
233.945	120.19
234.179	118.19
234.413	113.19
234.647	107.19
234.881	100.19
235.115	105.19
235.349	120.19
235.583	108.19
235.817	124.19
236.051	125.19
236.285	124.19
236.519	118.19
236.753	121.19
236.987	152.19
237.221	177.19
237.455	245.19
237.689	197.19
237.922	148.19
238.156	136.19
238.39	133.19
238.624	125.19
238.858	134.19
239.091	107.19
239.325	119.19
239.559	121.19
239.793	132.19
240.027	122.19
240.26	144.19
240.494	153.19
240.728	149.19
240.961	132.19
241.195	147.19
241.429	132.19
241.662	133.19
241.896	134.19
242.13	128.19
242.363	122.19
242.597	129.19
242.83	144.19
243.064	120.19
243.298	131.19
243.531	128.19
243.765	134.19
243.998	124.19
244.232	144.19
244.465	148.19
244.699	143.19
244.932	131.19
245.166	132.19
245.399	149.19
245.633	149.19
245.866	136.19
246.099	142.19
246.333	136.19
246.566	151.19
246.8	146.19
247.033	132.19
247.266	152.19
247.5	158.19
247.733	172.19
247.966	172.19
248.2	164.19
248.433	176.19
248.666	173.19
248.899	188.19
249.133	190.19
249.366	197.19
249.599	204.19
249.832	174.19
250.066	178.19
250.299	172.19
250.532	199.19
250.765	192.19
250.998	212.19
251.231	218.19
251.465	225.19
251.698	222.19
251.931	203.19
252.164	198.19
252.397	203.19
252.63	214.19
252.863	208.19
253.096	223.19
253.329	232.19
253.562	231.19
253.795	221.19
254.028	226.19
254.261	217.19
254.494	223.19
254.727	256.19
254.96	275.19
255.193	272.19
255.426	253.19
255.659	220.19
255.892	234.19
256.124	231.19
256.357	230.19
256.59	215.19
256.823	228.19
257.056	209.19
257.289	214.19
257.521	194.19
257.754	215.19
257.987	218.19
258.22	207.19
258.452	203.19
258.685	203.19
258.918	213.19
259.151	204.19
259.383	231.19
259.616	222.19
259.849	214.19
260.081	232.19
260.314	244.19
260.547	262.19
260.779	251.19
261.012	251.19
261.244	233.19
261.477	231.19
261.71	227.19
261.942	229.19
262.175	245.19
262.407	232.19
262.64	200.19
262.872	200.19
263.105	198.19
263.337	214.19
263.57	189.19
263.802	205.19
264.035	211.19
264.267	203.19
264.499	196.19
264.732	215.19
264.964	212.19
265.197	194.19
265.429	221.19
265.661	215.19
265.894	214.19
266.126	208.19
266.358	208.19
266.591	213.19
266.823	211.19
267.055	223.19
267.287	226.19
267.52	215.19
267.752	216.19
267.984	208.19
268.216	200.19
268.448	222.19
268.681	224.19
268.913	242.19
269.145	252.19
269.377	256.19
269.609	268.19
269.841	241.19
270.073	246.19
270.306	278.19
270.538	305.19
270.77	311.19
271.002	316.19
271.234	296.19
271.466	291.19
271.698	307.19
271.93	305.19
272.162	305.19
272.394	302.19
272.626	304.19
272.858	277.19
273.09	294.19
273.322	268.19
273.553	252.19
273.785	246.19
274.017	263.19
274.249	245.19
274.481	249.19
274.713	232.19
274.945	253.19
275.176	249.19
275.408	244.19
275.64	257.19
275.872	254.19
276.104	236.19
276.335	260.19
276.567	260.19
276.799	254.19
277.031	285.19
277.262	296.19
277.494	301.19
277.726	286.19
277.957	289.19
278.189	255.19
278.421	252.19
278.652	243.19
278.884	257.19
279.115	244.19
279.347	243.19
279.579	233.19
279.81	258.19
280.042	233.19
280.273	242.19
280.505	248.19
280.736	238.19
280.968	235.19
281.199	238.19
281.431	245.19
281.662	259.19
281.894	250.19
282.125	232.19
282.356	258.19
282.588	276.19
282.819	285.19
283.051	266.19
283.282	268.19
283.513	245.19
283.745	258.19
283.976	264.19
284.207	263.19
284.439	265.19
284.67	247.19
284.901	245.19
285.132	261.19
285.364	229.19
285.595	242.19
285.826	248.19
286.057	251.19
286.288	230.19
286.52	254.19
286.751	253.19
286.982	248.19
287.213	258.19
287.444	253.19
287.675	251.19
287.906	265.19
288.138	260.19
288.369	267.19
288.6	274.19
288.831	264.19
289.062	248.19
289.293	238.19
289.524	258.19
289.755	253.19
289.986	252.19
290.217	273.19
290.448	278.19
290.679	262.19
290.91	269.19
291.141	263.19
291.371	274.19
291.602	248.19
291.833	247.19
292.064	264.19
292.295	271.19
292.526	276.19
292.757	256.19
292.987	265.19
293.218	255.19
293.449	273.19
293.68	259.19
293.91	254.19
294.141	269.19
294.372	256.19
294.603	247.19
294.833	260.19
295.064	259.19
295.295	264.19
295.525	260.19
295.756	259.19
295.987	271.19
296.217	291.19
296.448	324.19
296.679	275.19
296.909	248.19
297.14	263.19
297.37	273.19
297.601	265.19
297.831	245.19
298.062	253.19
298.292	252.19
298.523	274.19
298.753	261.19
298.984	264.19
299.214	272.19
299.445	276.19
299.675	290.19
299.905	282.19
300.136	312.19
300.366	270.19
300.597	269.19
300.827	280.19
301.057	288.19
301.288	303.19
301.518	286.19
301.748	300.19
301.979	273.19
302.209	287.19
302.439	285.19
302.669	293.19
302.9	287.19
303.13	297.19
303.36	278.19
303.59	298.19
303.82	304.19
304.051	315.19
304.281	280.19
304.511	284.19
304.741	291.19
304.971	283.19
305.201	282.19
305.431	286.19
305.661	284.19
305.891	300.19
306.121	284.19
306.352	277.19
306.582	300.19
306.812	298.19
307.042	296.19
307.272	311.19
307.502	297.19
307.731	300.19
307.961	288.19
308.191	295.19
308.421	312.19
308.651	320.19
308.881	314.19
309.111	347.19
309.341	293.19
309.571	328.19
309.8	325.19
310.03	330.19
310.26	349.19
310.49	333.19
310.72	338.19
310.949	356.19
311.179	353.19
311.409	364.19
311.639	357.19
311.868	350.19
312.098	336.19
312.328	360.19
312.557	383.19
312.787	398.19
313.017	380.19
313.246	349.19
313.476	327.19
313.706	355.19
313.935	355.19
314.165	356.19
314.394	355.19
314.624	348.19
314.853	366.19
315.083	348.19
315.312	327.19
315.542	331.19
315.771	330.19
316.001	329.19
316.23	330.19
316.46	348.19
316.689	352.19
316.919	330.19
317.148	342.19
317.377	328.19
317.607	346.19
317.836	333.19
318.065	333.19
318.295	334.19
318.524	350.19
318.753	324.19
318.983	349.19
319.212	334.19
319.441	359.19
319.67	354.19
319.9	350.19
320.129	355.19
320.358	365.19
320.587	363.19
320.816	347.19
321.046	369.19
321.275	364.19
321.504	357.19
321.733	364.19
321.962	380.19
322.191	384.19
322.42	398.19
322.649	413.19
322.878	440.19
323.108	434.19
323.337	474.19
323.566	496.19
323.795	517.19
324.024	574.19
324.253	715.19
324.482	997.19
324.71	1548.19
324.939	2156.19
325.168	1960.19
325.397	1030.19
325.626	693.19
325.855	551.19
326.084	509.19
326.313	488.19
326.542	468.19
326.77	547.19
326.999	633.19
327.228	881.19
327.457	1359.19
327.686	1652.19
327.914	1127.19
328.143	740.19
328.372	634.19
328.6	563.19
328.829	552.19
329.058	538.19
329.287	562.19
329.515	527.19
329.744	465.19
329.972	449.19
330.201	462.19
330.43	505.19
330.658	536.19
330.887	616.19
331.115	555.19
331.344	482.19
331.572	446.19
331.801	468.19
332.03	448.19
332.258	428.19
332.486	412.19
332.715	409.19
332.943	408.19
333.172	406.19
333.4	403.19
333.629	378.19
333.857	414.19
334.085	396.19
334.314	389.19
334.542	401.19
334.771	410.19
334.999	420.19
335.227	396.19
335.455	398.19
335.684	397.19
335.912	372.19
336.14	375.19
336.369	389.19
336.597	409.19
336.825	404.19
337.053	395.19
337.281	387.19
337.51	378.19
337.738	379.19
337.966	380.19
338.194	411.19
338.422	384.19
338.65	388.19
338.878	396.19
339.106	369.19
339.334	386.19
339.562	386.19
339.79	395.19
340.018	380.19
340.246	365.19
340.474	378.19
340.702	372.19
340.93	380.19
341.158	366.19
341.386	378.19
341.614	379.19
341.842	384.19
342.07	375.19
342.298	357.19
342.526	365.19
342.754	378.19
342.981	348.19
343.209	350.19
343.437	373.19
343.665	357.19
343.893	364.19
344.12	379.19
344.348	365.19
344.576	372.19
344.804	372.19
345.031	391.19
345.259	397.19
345.487	374.19
345.714	359.19
345.942	380.19
346.17	379.19
346.397	363.19
346.625	378.19
346.853	359.19
347.08	373.19
347.308	378.19
347.535	382.19
347.763	380.19
347.99	381.19
348.218	392.19
348.445	402.19
348.673	396.19
348.9	382.19
349.128	363.19
349.355	368.19
349.583	344.19
349.81	368.19
350.037	345.19
350.265	356.19
350.492	372.19
350.72	370.19
350.947	367.19
351.174	378.19
351.402	396.19
351.629	366.19
351.856	368.19
352.083	390.19
352.311	382.19
352.538	416.19
352.765	399.19
352.992	404.19
353.22	390.19
353.447	375.19
353.674	368.19
353.901	348.19
354.128	343.19
354.355	360.19
354.583	359.19
354.81	344.19
355.037	329.19
355.264	337.19
355.491	310.19
355.718	336.19
355.945	340.19
356.172	318.19
356.399	322.19
356.626	340.19
356.853	328.19
357.08	334.19
357.307	335.19
357.534	320.19
357.761	330.19
357.988	343.19
358.215	324.19
358.441	331.19
358.668	331.19
358.895	346.19
359.122	358.19
359.349	355.19
359.576	379.19
359.802	390.19
360.029	406.19
360.256	427.19
360.483	413.19
360.709	364.19
360.936	351.19
361.163	381.19
361.39	372.19
361.616	375.19
361.843	363.19
362.07	340.19
362.296	356.19
362.523	367.19
362.749	374.19
362.976	347.19
363.203	360.19
363.429	369.19
363.656	358.19
363.882	349.19
364.109	342.19
364.335	348.19
364.562	358.19
364.788	354.19
365.015	340.19
365.241	350.19
365.468	360.19
365.694	343.19
365.92	364.19
366.147	358.19
366.373	356.19
366.599	353.19
366.826	344.19
367.052	345.19
367.278	356.19
367.505	348.19
367.731	350.19
367.957	333.19
368.184	336.19
368.41	341.19
368.636	368.19
368.862	377.19
369.089	349.19
369.315	348.19
369.541	336.19
369.767	345.19
369.993	355.19
370.219	338.19
370.445	354.19
370.672	355.19
370.898	330.19
371.124	329.19
371.35	330.19
371.576	322.19
371.802	324.19
372.028	341.19
372.254	333.19
372.48	348.19
372.706	342.19
372.932	344.19
373.158	337.19
373.384	351.19
373.61	337.19
373.835	334.19
374.061	347.19
374.287	316.19
374.513	347.19
374.739	346.19
374.965	320.19
375.191	351.19
375.416	349.19
375.642	363.19
375.868	337.19
376.094	329.19
376.319	328.19
376.545	343.19
376.771	329.19
376.997	334.19
377.222	347.19
377.448	336.19
377.674	346.19
377.899	321.19
378.125	324.19
378.35	315.19
378.576	339.19
378.802	346.19
379.027	326.19
379.253	339.19
379.478	339.19
379.704	336.19
379.929	335.19
380.155	334.19
380.38	338.19
380.606	339.19
380.831	319.19
381.057	354.19
381.282	328.19
381.507	346.19
381.733	351.19
381.958	323.19
382.184	333.19
382.409	349.19
382.634	333.19
382.86	359.19
383.085	340.19
383.31	333.19
383.535	344.19
383.761	336.19
383.986	345.19
384.211	352.19
384.436	354.19
384.662	350.19
384.887	358.19
385.112	333.19
385.337	360.19
385.562	368.19
385.787	349.19
386.013	380.19
386.238	362.19
386.463	365.19
386.688	357.19
386.913	351.19
387.138	351.19
387.363	358.19
387.588	342.19
387.813	352.19
388.038	359.19
388.263	340.19
388.488	347.19
388.713	356.19
388.938	365.19
389.163	356.19
389.387	362.19
389.612	346.19
389.837	335.19
390.062	360.19
390.287	360.19
390.512	363.19
390.736	363.19
390.961	348.19
391.186	358.19
391.411	351.19
391.636	352.19
391.86	358.19
392.085	353.19
392.31	359.19
392.534	366.19
392.759	338.19
392.984	336.19
393.208	348.19
393.433	354.19
393.658	355.19
393.882	348.19
394.107	353.19
394.331	349.19
394.556	352.19
394.78	359.19
395.005	350.19
395.229	361.19
395.454	364.19
395.678	375.19
395.903	361.19
396.127	402.19
396.352	387.19
396.576	378.19
396.801	371.19
397.025	370.19
397.249	381.19
397.474	375.19
397.698	382.19
397.922	382.19
398.147	395.19
398.371	403.19
398.595	390.19
398.82	380.19
399.044	397.19
399.268	390.19
399.492	420.19
399.717	421.19
399.941	439.19
400.165	484.19
400.389	504.19
400.613	467.19
400.837	416.19
401.062	419.19
401.286	400.19
401.51	400.19
401.734	389.19
401.958	399.19
402.182	399.19
402.406	425.19
402.63	417.19
402.854	395.19
403.078	386.19
403.302	422.19
403.526	412.19
403.75	410.19
403.974	389.19
404.198	403.19
404.422	410.19
404.645	414.19
404.869	419.19
405.093	443.19
405.317	462.19
405.541	488.19
405.765	448.19
405.988	426.19
406.212	461.19
406.436	480.19
406.66	456.19
406.883	460.19
407.107	465.19
407.331	500.19
407.555	572.19
407.778	565.19
408.002	508.19
408.226	472.19
408.449	446.19
408.673	459.19
408.896	482.19
409.12	516.19
409.344	489.19
409.567	449.19
409.791	427.19
410.014	410.19
410.238	411.19
410.461	415.19
410.685	414.19
410.908	422.19
411.132	469.19
411.355	479.19
411.578	481.19
411.802	440.19
412.025	398.19
412.249	420.19
412.472	410.19
412.695	423.19
412.919	390.19
413.142	400.19
413.365	407.19
413.589	399.19
413.812	394.19
414.035	377.19
414.258	409.19
414.482	385.19
414.705	399.19
414.928	389.19
415.151	365.19
415.374	380.19
415.597	370.19
415.821	392.19
416.044	376.19
416.267	392.19
416.49	398.19
416.713	385.19
416.936	368.19
417.159	396.19
417.382	382.19
417.605	386.19
417.828	411.19
418.051	418.19
418.274	413.19
418.497	394.19
418.72	402.19
418.943	397.19
419.166	416.19
419.389	422.19
419.611	418.19
419.834	427.19
420.057	428.19
420.28	410.19
420.503	412.19
420.726	417.19
420.948	420.19
421.171	454.19
421.394	477.19
421.617	449.19
421.839	394.19
422.062	420.19
422.285	441.19
422.507	474.19
422.73	557.19
422.953	536.19
423.175	470.19
423.398	436.19
423.621	463.19
423.843	459.19
424.066	472.19
424.288	461.19
424.511	476.19
424.733	533.19
424.956	574.19
425.178	578.19
425.401	580.19
425.623	596.19
425.846	494.19
426.068	496.19
426.291	462.19
426.513	460.19
426.735	473.19
426.958	501.19
427.18	585.19
427.402	695.19
427.625	760.19
427.847	701.19
428.069	572.19
428.292	505.19
428.514	477.19
428.736	460.19
428.958	445.19
429.181	412.19
429.403	440.19
429.625	428.19
429.847	464.19
430.069	542.19
430.292	535.19
430.514	446.19
430.736	422.19
430.958	421.19
431.18	409.19
431.402	413.19
431.624	398.19
431.846	399.19
432.068	386.19
432.29	398.19
432.512	403.19
432.734	386.19
432.956	416.19
433.178	414.19
433.4	443.19
433.622	405.19
433.844	392.19
434.066	396.19
434.287	414.19
434.509	388.19
434.731	427.19
434.953	402.19
435.175	431.19
435.397	442.19
435.618	436.19
435.84	502.19
436.062	598.19
436.284	645.19
436.505	539.19
436.727	480.19
436.949	449.19
437.17	416.19
437.392	444.19
437.614	457.19
437.835	487.19
438.057	582.19
438.278	680.19
438.5	644.19
438.721	757.19
438.943	692.19
439.165	560.19
439.386	481.19
439.608	496.19
439.829	476.19
440.05	521.19
440.272	553.19
440.493	520.19
440.715	469.19
440.936	440.19
441.158	460.19
441.379	441.19
441.6	435.19
441.822	459.19
442.043	507.19
442.264	571.19
442.486	641.19
442.707	520.19
442.928	484.19
443.149	497.19
443.371	496.19
443.592	563.19
443.813	628.19
444.034	689.19
444.255	574.19
444.476	516.19
444.698	470.19
444.919	473.19
445.14	562.19
445.361	505.19
445.582	516.19
445.803	552.19
446.024	654.19
446.245	676.19
446.466	632.19
446.687	554.19
446.908	492.19
447.129	456.19
447.35	447.19
447.571	429.19
447.792	419.19
448.013	438.19
448.234	454.19
448.455	515.19
448.675	628.19
448.896	731.19
449.117	610.19
449.338	575.19
449.559	634.19
449.779	746.19
450	598.19
450.221	506.19
450.442	442.19
450.662	426.19
450.883	449.19
451.104	458.19
451.324	433.19
451.545	417.19
451.766	392.19
451.986	404.19
452.207	379.19
452.428	382.19
452.648	393.19
452.869	412.19
453.089	412.19
453.31	419.19
453.53	421.19
453.751	399.19
453.971	388.19
454.192	411.19
454.412	416.19
454.633	394.19
454.853	390.19
455.073	376.19
455.294	416.19
455.514	474.19
455.734	473.19
455.955	402.19
456.175	372.19
456.395	376.19
456.616	351.19
456.836	365.19
457.056	362.19
457.276	351.19
457.497	361.19
457.717	376.19
457.937	374.19
458.157	381.19
458.377	377.19
458.598	382.19
458.818	453.19
459.038	560.19
459.258	552.19
459.478	456.19
459.698	408.19
459.918	396.19
460.138	397.19
460.358	390.19
460.578	398.19
460.798	390.19
461.018	385.19
461.238	381.19
461.458	392.19
461.678	401.19
461.898	394.19
462.118	378.19
462.338	393.19
462.558	369.19
462.777	381.19
462.997	402.19
463.217	395.19
463.437	391.19
463.657	392.19
463.876	410.19
464.096	418.19
464.316	409.19
464.536	434.19
464.755	426.19
464.975	453.19
465.195	466.19
465.414	578.19
465.634	479.19
465.854	419.19
466.073	399.19
466.293	379.19
466.512	378.19
466.732	384.19
466.951	385.19
467.171	417.19
467.391	398.19
467.61	412.19
467.829	432.19
468.049	393.19
468.268	416.19
468.488	387.19
468.707	362.19
468.927	357.19
469.146	377.19
469.365	377.19
469.585	387.19
469.804	377.19
470.023	381.19
470.243	383.19
470.462	404.19
470.681	407.19
470.901	415.19
471.12	412.19
471.339	411.19
471.558	381.19
471.777	387.19
471.997	391.19
472.216	387.19
472.435	383.19
472.654	386.19
472.873	384.19
473.092	397.19
473.311	376.19
473.53	393.19
473.749	397.19
473.968	441.19
474.187	563.19
474.406	556.19
474.625	473.19
474.844	418.19
475.063	388.19
475.282	397.19
475.501	410.19
475.72	411.19
475.939	422.19
476.158	397.19
476.377	419.19
476.596	396.19
476.814	426.19
477.033	425.19
477.252	445.19
477.471	416.19
477.69	433.19
477.908	437.19
478.127	422.19
478.346	427.19
478.564	441.19
478.783	416.19
479.002	434.19
479.22	435.19
479.439	428.19
479.658	477.19
479.876	485.19
480.095	470.19
480.313	504.19
480.532	473.19
480.751	461.19
480.969	482.19
481.188	515.19
481.406	498.19
481.624	480.19
481.843	454.19
482.061	455.19
482.28	451.19
482.498	458.19
482.717	440.19
482.935	454.19
483.153	460.19
483.372	457.19
483.59	458.19
483.808	454.19
484.027	441.19
484.245	469.19
484.463	458.19
484.681	449.19
484.9	459.19
485.118	474.19
485.336	481.19
485.554	477.19
485.772	473.19
485.99	455.19
486.209	487.19
486.427	476.19
486.645	493.19
486.863	520.19
487.081	534.19
487.299	522.19
487.517	520.19
487.735	510.19
487.953	515.19
488.171	488.19
488.389	481.19
488.607	527.19
488.825	496.19
489.043	508.19
489.261	516.19
489.479	509.19
489.696	497.19
489.914	509.19
490.132	485.19
490.35	512.19
490.568	525.19
490.786	549.19
491.003	553.19
491.221	534.19
491.439	550.19
491.657	570.19
491.874	571.19
492.092	566.19
492.31	585.19
492.527	598.19
492.745	580.19
492.963	580.19
493.18	599.19
493.398	591.19
493.615	608.19
493.833	594.19
494.05	603.19
494.268	573.19
494.485	594.19
494.703	611.19
494.92	624.19
495.138	597.19
495.355	631.19
495.573	616.19
495.79	593.19
496.008	628.19
496.225	628.19
496.442	571.19
496.66	578.19
496.877	594.19
497.094	600.19
497.312	605.19
497.529	627.19
497.746	603.19
497.963	636.19
498.181	620.19
498.398	650.19
498.615	621.19
498.832	650.19
499.049	660.19
499.267	669.19
499.484	685.19
499.701	683.19
499.918	721.19
500.135	699.19
500.352	747.19
500.569	733.19
500.786	744.19
501.003	733.19
501.22	746.19
501.437	723.19
501.654	721.19
501.871	729.19
