Data from 1986.PennyLincolnUp.Lamp.En5.5.200Scan.071819.P2_HRD10591_17-12-30-973.txt Node
Date: Thu Jul 18 17:12:30 EDT 2019
User: cochatt
Spectrometer: HR+D1059
Trigger mode: 1
Integration Time (sec): 1.000000E-1
Scans to average: 1
Electric dark correction enabled: true
Nonlinearity correction enabled: false
Boxcar width: 0
XAxis mode: Wavelengths
Number of Pixels in Spectrum: 2048
>>>>>Begin Spectral Data<<<<<
223.165	-19.75
223.4	-19.75
223.635	-19.75
223.869	-22.75
224.104	-5.75
224.338	-4.75
224.573	-13.75
224.808	-16.75
225.042	-20.75
225.277	-9.75
225.511	-9.75
225.746	-16.75
225.98	14.25
226.215	17.25
226.449	29.25
226.683	27.25
226.918	18.25
227.152	34.25
227.387	34.25
227.621	47.25
227.856	38.25
228.09	52.25
228.324	33.25
228.559	58.25
228.793	61.25
229.027	106.25
229.262	109.25
229.496	121.25
229.73	121.25
229.964	156.25
230.199	118.25
230.433	114.25
230.667	128.25
230.901	129.25
231.136	119.25
231.37	117.25
231.604	96.25
231.838	108.25
232.072	131.25
232.306	116.25
232.541	127.25
232.775	123.25
233.009	107.25
233.243	122.25
233.477	116.25
233.711	104.25
233.945	109.25
234.179	115.25
234.413	124.25
234.647	101.25
234.881	119.25
235.115	110.25
235.349	120.25
235.583	110.25
235.817	112.25
236.051	121.25
236.285	134.25
236.519	125.25
236.753	138.25
236.987	142.25
237.221	203.25
237.455	272.25
237.689	205.25
237.922	155.25
238.156	149.25
238.39	125.25
238.624	137.25
238.858	123.25
239.091	123.25
239.325	130.25
239.559	124.25
239.793	123.25
240.027	129.25
240.26	144.25
240.494	162.25
240.728	138.25
240.961	158.25
241.195	156.25
241.429	149.25
241.662	139.25
241.896	135.25
242.13	157.25
242.363	135.25
242.597	135.25
242.83	143.25
243.064	134.25
243.298	130.25
243.531	152.25
243.765	144.25
243.998	138.25
244.232	162.25
244.465	142.25
244.699	157.25
244.932	142.25
245.166	148.25
245.399	141.25
245.633	147.25
245.866	155.25
246.099	165.25
246.333	166.25
246.566	165.25
246.8	167.25
247.033	158.25
247.266	146.25
247.5	171.25
247.733	182.25
247.966	185.25
248.2	179.25
248.433	187.25
248.666	195.25
248.899	204.25
249.133	206.25
249.366	222.25
249.599	206.25
249.832	215.25
250.066	205.25
250.299	201.25
250.532	248.25
250.765	272.25
250.998	286.25
251.231	282.25
251.465	248.25
251.698	244.25
251.931	227.25
252.164	236.25
252.397	213.25
252.63	234.25
252.863	232.25
253.096	240.25
253.329	251.25
253.562	265.25
253.795	251.25
254.028	221.25
254.261	236.25
254.494	260.25
254.727	278.25
254.96	320.25
255.193	320.25
255.426	285.25
255.659	285.25
255.892	321.25
256.124	353.25
256.357	387.25
256.59	361.25
256.823	308.25
257.056	272.25
257.289	275.25
257.521	270.25
257.754	261.25
257.987	247.25
258.22	267.25
258.452	257.25
258.685	241.25
258.918	226.25
259.151	255.25
259.383	237.25
259.616	238.25
259.849	251.25
260.081	242.25
260.314	255.25
260.547	275.25
260.779	265.25
261.012	265.25
261.244	244.25
261.477	243.25
261.71	228.25
261.942	261.25
262.175	269.25
262.407	262.25
262.64	223.25
262.872	229.25
263.105	238.25
263.337	254.25
263.57	234.25
263.802	247.25
264.035	218.25
264.267	243.25
264.499	233.25
264.732	222.25
264.964	238.25
265.197	218.25
265.429	218.25
265.661	225.25
265.894	244.25
266.126	245.25
266.358	229.25
266.591	214.25
266.823	235.25
267.055	243.25
267.287	242.25
267.52	233.25
267.752	213.25
267.984	247.25
268.216	237.25
268.448	232.25
268.681	237.25
268.913	264.25
269.145	273.25
269.377	295.25
269.609	281.25
269.841	292.25
270.073	277.25
270.306	312.25
270.538	349.25
270.77	338.25
271.002	345.25
271.234	315.25
271.466	317.25
271.698	339.25
271.93	350.25
272.162	348.25
272.394	348.25
272.626	334.25
272.858	305.25
273.09	312.25
273.322	334.25
273.553	289.25
273.785	294.25
274.017	293.25
274.249	301.25
274.481	276.25
274.713	274.25
274.945	287.25
275.176	291.25
275.408	294.25
275.64	291.25
275.872	285.25
276.104	298.25
276.335	281.25
276.567	288.25
276.799	322.25
277.031	335.25
277.262	358.25
277.494	337.25
277.726	335.25
277.957	314.25
278.189	310.25
278.421	296.25
278.652	290.25
278.884	274.25
279.115	276.25
279.347	296.25
279.579	280.25
279.81	300.25
280.042	298.25
280.273	281.25
280.505	311.25
280.736	300.25
280.968	297.25
281.199	297.25
281.431	284.25
281.662	297.25
281.894	280.25
282.125	279.25
282.356	310.25
282.588	324.25
282.819	334.25
283.051	286.25
283.282	273.25
283.513	292.25
283.745	287.25
283.976	297.25
284.207	284.25
284.439	311.25
284.67	299.25
284.901	292.25
285.132	283.25
285.364	285.25
285.595	293.25
285.826	279.25
286.057	306.25
286.288	275.25
286.52	283.25
286.751	302.25
286.982	289.25
287.213	271.25
287.444	286.25
287.675	313.25
287.906	311.25
288.138	301.25
288.369	299.25
288.6	312.25
288.831	306.25
289.062	302.25
289.293	321.25
289.524	300.25
289.755	313.25
289.986	296.25
290.217	307.25
290.448	291.25
290.679	298.25
290.91	310.25
291.141	286.25
291.371	301.25
291.602	294.25
291.833	299.25
292.064	295.25
292.295	298.25
292.526	290.25
292.757	283.25
292.987	280.25
293.218	291.25
293.449	294.25
293.68	293.25
293.91	292.25
294.141	277.25
294.372	297.25
294.603	299.25
294.833	286.25
295.064	306.25
295.295	297.25
295.525	309.25
295.756	309.25
295.987	305.25
296.217	330.25
296.448	349.25
296.679	317.25
296.909	305.25
297.14	299.25
297.37	297.25
297.601	282.25
297.831	308.25
298.062	308.25
298.292	299.25
298.523	316.25
298.753	291.25
298.984	306.25
299.214	314.25
299.445	321.25
299.675	309.25
299.905	321.25
300.136	309.25
300.366	306.25
300.597	326.25
300.827	320.25
301.057	323.25
301.288	342.25
301.518	332.25
301.748	320.25
301.979	318.25
302.209	325.25
302.439	345.25
302.669	330.25
302.9	348.25
303.13	337.25
303.36	345.25
303.59	335.25
303.82	339.25
304.051	349.25
304.281	325.25
304.511	322.25
304.741	327.25
304.971	309.25
305.201	328.25
305.431	330.25
305.661	324.25
305.891	315.25
306.121	333.25
306.352	339.25
306.582	350.25
306.812	336.25
307.042	323.25
307.272	342.25
307.502	348.25
307.731	362.25
307.961	349.25
308.191	336.25
308.421	342.25
308.651	354.25
308.881	333.25
309.111	360.25
309.341	362.25
309.571	366.25
309.8	357.25
310.03	378.25
310.26	395.25
310.49	411.25
310.72	391.25
310.949	409.25
311.179	433.25
311.409	409.25
311.639	388.25
311.868	386.25
312.098	415.25
312.328	398.25
312.557	429.25
312.787	418.25
313.017	437.25
313.246	394.25
313.476	390.25
313.706	396.25
313.935	394.25
314.165	414.25
314.394	412.25
314.624	406.25
314.853	405.25
315.083	389.25
315.312	408.25
315.542	381.25
315.771	374.25
316.001	388.25
316.23	382.25
316.46	396.25
316.689	398.25
316.919	390.25
317.148	399.25
317.377	404.25
317.607	398.25
317.836	404.25
318.065	390.25
318.295	381.25
318.524	409.25
318.753	399.25
318.983	410.25
319.212	381.25
319.441	401.25
319.67	398.25
319.9	389.25
320.129	392.25
320.358	404.25
320.587	396.25
320.816	411.25
321.046	428.25
321.275	422.25
321.504	418.25
321.733	421.25
321.962	441.25
322.191	445.25
322.42	466.25
322.649	475.25
322.878	464.25
323.108	502.25
323.337	544.25
323.566	557.25
323.795	597.25
324.024	665.25
324.253	778.25
324.482	1118.25
324.71	1747.25
324.939	2489.25
325.168	2190.25
325.397	1137.25
325.626	756.25
325.855	654.25
326.084	571.25
326.313	579.25
326.542	591.25
326.77	635.25
326.999	733.25
327.228	1045.25
327.457	1554.25
327.686	1913.25
327.914	1369.25
328.143	918.25
328.372	829.25
328.6	781.25
328.829	698.25
329.058	699.25
329.287	708.25
329.515	693.25
329.744	699.25
329.972	730.25
330.201	834.25
330.43	963.25
330.658	902.25
330.887	794.25
331.115	722.25
331.344	622.25
331.572	589.25
331.801	567.25
332.03	598.25
332.258	548.25
332.486	552.25
332.715	520.25
332.943	555.25
333.172	529.25
333.4	523.25
333.629	561.25
333.857	607.25
334.085	684.25
334.314	826.25
334.542	975.25
334.771	1091.25
334.999	797.25
335.227	655.25
335.455	563.25
335.684	525.25
335.912	513.25
336.14	501.25
336.369	486.25
336.597	502.25
336.825	480.25
337.053	474.25
337.281	455.25
337.51	465.25
337.738	455.25
337.966	460.25
338.194	470.25
338.422	471.25
338.65	460.25
338.878	441.25
339.106	442.25
339.334	445.25
339.562	451.25
339.79	443.25
340.018	445.25
340.246	459.25
340.474	447.25
340.702	453.25
340.93	463.25
341.158	435.25
341.386	436.25
341.614	436.25
341.842	437.25
342.07	405.25
342.298	436.25
342.526	436.25
342.754	402.25
342.981	419.25
343.209	409.25
343.437	424.25
343.665	407.25
343.893	425.25
344.12	412.25
344.348	423.25
344.576	428.25
344.804	421.25
345.031	439.25
345.259	457.25
345.487	448.25
345.714	441.25
345.942	424.25
346.17	441.25
346.397	426.25
346.625	424.25
346.853	416.25
347.08	405.25
347.308	440.25
347.535	441.25
347.763	439.25
347.99	423.25
348.218	412.25
348.445	422.25
348.673	441.25
348.9	428.25
349.128	405.25
349.355	417.25
349.583	417.25
349.81	430.25
350.037	398.25
350.265	391.25
350.492	411.25
350.72	409.25
350.947	412.25
351.174	431.25
351.402	434.25
351.629	426.25
351.856	430.25
352.083	439.25
352.311	441.25
352.538	441.25
352.765	428.25
352.992	444.25
353.22	435.25
353.447	422.25
353.674	401.25
353.901	406.25
354.128	397.25
354.355	387.25
354.583	385.25
354.81	405.25
355.037	365.25
355.264	389.25
355.491	369.25
355.718	363.25
355.945	349.25
356.172	386.25
356.399	385.25
356.626	377.25
356.853	394.25
357.08	383.25
357.307	383.25
357.534	369.25
357.761	379.25
357.988	373.25
358.215	387.25
358.441	385.25
358.668	381.25
358.895	389.25
359.122	388.25
359.349	396.25
359.576	420.25
359.802	435.25
360.029	460.25
360.256	483.25
360.483	456.25
360.709	443.25
360.936	432.25
361.163	425.25
361.39	413.25
361.616	426.25
361.843	418.25
362.07	418.25
362.296	405.25
362.523	422.25
362.749	393.25
362.976	403.25
363.203	399.25
363.429	395.25
363.656	389.25
363.882	369.25
364.109	394.25
364.335	403.25
364.562	410.25
364.788	383.25
365.015	393.25
365.241	378.25
365.468	396.25
365.694	388.25
365.92	399.25
366.147	373.25
366.373	378.25
366.599	377.25
366.826	374.25
367.052	407.25
367.278	379.25
367.505	398.25
367.731	377.25
367.957	382.25
368.184	409.25
368.41	403.25
368.636	405.25
368.862	404.25
369.089	401.25
369.315	412.25
369.541	381.25
369.767	372.25
369.993	384.25
370.219	369.25
370.445	414.25
370.672	383.25
370.898	393.25
371.124	365.25
371.35	387.25
371.576	366.25
371.802	381.25
372.028	369.25
372.254	394.25
372.48	386.25
372.706	374.25
372.932	378.25
373.158	357.25
373.384	389.25
373.61	379.25
373.835	379.25
374.061	366.25
374.287	376.25
374.513	378.25
374.739	383.25
374.965	359.25
375.191	375.25
375.416	387.25
375.642	391.25
375.868	370.25
376.094	398.25
376.319	361.25
376.545	361.25
376.771	362.25
376.997	386.25
377.222	377.25
377.448	379.25
377.674	349.25
377.899	356.25
378.125	334.25
378.35	377.25
378.576	361.25
378.802	351.25
379.027	374.25
379.253	381.25
379.478	359.25
379.704	375.25
379.929	381.25
380.155	360.25
380.38	374.25
380.606	366.25
380.831	350.25
381.057	380.25
381.282	380.25
381.507	362.25
381.733	377.25
381.958	378.25
382.184	378.25
382.409	380.25
382.634	369.25
382.86	383.25
383.085	364.25
383.31	385.25
383.535	395.25
383.761	377.25
383.986	392.25
384.211	375.25
384.436	394.25
384.662	380.25
384.887	391.25
385.112	393.25
385.337	390.25
385.562	380.25
385.787	372.25
386.013	402.25
386.238	400.25
386.463	415.25
386.688	391.25
386.913	380.25
387.138	389.25
387.363	380.25
387.588	392.25
387.813	391.25
388.038	380.25
388.263	415.25
388.488	414.25
388.713	408.25
388.938	380.25
389.163	400.25
389.387	391.25
389.612	389.25
389.837	395.25
390.062	393.25
390.287	387.25
390.512	391.25
390.736	382.25
390.961	389.25
391.186	384.25
391.411	394.25
391.636	402.25
391.86	400.25
392.085	390.25
392.31	398.25
392.534	382.25
392.759	397.25
392.984	403.25
393.208	401.25
393.433	379.25
393.658	398.25
393.882	385.25
394.107	381.25
394.331	391.25
394.556	382.25
394.78	394.25
395.005	395.25
395.229	400.25
395.454	385.25
395.678	422.25
395.903	415.25
396.127	446.25
396.352	444.25
396.576	410.25
396.801	403.25
397.025	407.25
397.249	393.25
397.474	410.25
397.698	424.25
397.922	437.25
398.147	435.25
398.371	448.25
398.595	438.25
398.82	411.25
399.044	437.25
399.268	433.25
399.492	463.25
399.717	478.25
399.941	520.25
400.165	548.25
400.389	531.25
400.613	503.25
400.837	466.25
401.062	467.25
401.286	446.25
401.51	458.25
401.734	454.25
401.958	435.25
402.182	441.25
402.406	469.25
402.63	453.25
402.854	445.25
403.078	459.25
403.302	451.25
403.526	462.25
403.75	451.25
403.974	461.25
404.198	458.25
404.422	500.25
404.645	494.25
404.869	509.25
405.093	555.25
405.317	604.25
405.541	623.25
405.765	591.25
405.988	547.25
406.212	519.25
406.436	530.25
406.66	544.25
406.883	535.25
407.107	537.25
407.331	554.25
407.555	614.25
407.778	628.25
408.002	563.25
408.226	517.25
408.449	511.25
408.673	515.25
408.896	536.25
409.12	592.25
409.344	540.25
409.567	500.25
409.791	478.25
410.014	458.25
410.238	472.25
410.461	471.25
410.685	466.25
410.908	476.25
411.132	525.25
411.355	569.25
411.578	547.25
411.802	481.25
412.025	488.25
412.249	518.25
412.472	563.25
412.695	628.25
412.919	634.25
413.142	558.25
413.365	521.25
413.589	516.25
413.812	498.25
414.035	461.25
414.258	495.25
414.482	474.25
414.705	461.25
414.928	444.25
415.151	453.25
415.374	454.25
415.597	440.25
415.821	437.25
416.044	446.25
416.267	446.25
416.49	433.25
416.713	438.25
416.936	439.25
417.159	459.25
417.382	450.25
417.605	461.25
417.828	503.25
418.051	486.25
418.274	483.25
418.497	446.25
418.72	446.25
418.943	448.25
419.166	465.25
419.389	470.25
419.611	480.25
419.834	474.25
420.057	509.25
420.28	556.25
420.503	541.25
420.726	523.25
420.948	547.25
421.171	557.25
421.394	565.25
421.617	506.25
421.839	484.25
422.062	491.25
422.285	488.25
422.507	552.25
422.73	622.25
422.953	595.25
423.175	517.25
423.398	483.25
423.621	501.25
423.843	513.25
424.066	516.25
424.288	517.25
424.511	520.25
424.733	590.25
424.956	673.25
425.178	667.25
425.401	634.25
425.623	667.25
425.846	558.25
426.068	523.25
426.291	483.25
426.513	535.25
426.735	532.25
426.958	570.25
427.18	632.25
427.402	738.25
427.625	869.25
427.847	799.25
428.069	711.25
428.292	639.25
428.514	574.25
428.736	525.25
428.958	490.25
429.181	486.25
429.403	499.25
429.625	492.25
429.847	511.25
430.069	595.25
430.292	584.25
430.514	509.25
430.736	474.25
430.958	481.25
431.18	448.25
431.402	460.25
431.624	459.25
431.846	433.25
432.068	437.25
432.29	459.25
432.512	444.25
432.734	452.25
432.956	457.25
433.178	473.25
433.4	459.25
433.622	451.25
433.844	450.25
434.066	430.25
434.287	442.25
434.509	421.25
434.731	445.25
434.953	461.25
435.175	482.25
435.397	492.25
435.618	516.25
435.84	573.25
436.062	664.25
436.284	734.25
436.505	609.25
436.727	544.25
436.949	508.25
437.17	500.25
437.392	460.25
437.614	513.25
437.835	532.25
438.057	607.25
438.278	757.25
438.5	712.25
438.721	755.25
438.943	775.25
439.165	625.25
439.386	541.25
439.608	550.25
439.829	537.25
440.05	568.25
440.272	627.25
440.493	592.25
440.715	525.25
440.936	473.25
441.158	499.25
441.379	493.25
441.6	486.25
441.822	508.25
442.043	563.25
442.264	609.25
442.486	689.25
442.707	585.25
442.928	523.25
443.149	525.25
443.371	558.25
443.592	600.25
443.813	696.25
444.034	768.25
444.255	625.25
444.476	549.25
444.698	523.25
444.919	506.25
445.14	578.25
445.361	550.25
445.582	564.25
445.803	625.25
446.024	709.25
446.245	759.25
446.466	677.25
446.687	555.25
446.908	538.25
447.129	516.25
447.35	486.25
447.571	478.25
447.792	498.25
448.013	474.25
448.234	501.25
448.455	566.25
448.675	669.25
448.896	776.25
449.117	665.25
449.338	621.25
449.559	719.25
449.779	796.25
450	655.25
450.221	558.25
450.442	505.25
450.662	487.25
450.883	482.25
451.104	508.25
451.324	484.25
451.545	463.25
451.766	447.25
451.986	453.25
452.207	433.25
452.428	444.25
452.648	422.25
452.869	429.25
453.089	443.25
453.31	437.25
453.53	456.25
453.751	416.25
453.971	433.25
454.192	453.25
454.412	442.25
454.633	428.25
454.853	445.25
455.073	420.25
455.294	461.25
455.514	526.25
455.734	498.25
455.955	442.25
456.175	426.25
456.395	421.25
456.616	400.25
456.836	406.25
457.056	393.25
457.276	401.25
457.497	413.25
457.717	406.25
457.937	437.25
458.157	417.25
458.377	413.25
458.598	438.25
458.818	498.25
459.038	595.25
459.258	604.25
459.478	485.25
459.698	446.25
459.918	461.25
460.138	459.25
460.358	442.25
460.578	438.25
460.798	432.25
461.018	411.25
461.238	422.25
461.458	419.25
461.678	420.25
461.898	398.25
462.118	411.25
462.338	441.25
462.558	411.25
462.777	450.25
462.997	461.25
463.217	444.25
463.437	466.25
463.657	434.25
463.876	444.25
464.096	460.25
464.316	436.25
464.536	460.25
464.755	449.25
464.975	469.25
465.195	508.25
465.414	590.25
465.634	551.25
465.854	492.25
466.073	481.25
466.293	471.25
466.512	434.25
466.732	426.25
466.951	441.25
467.171	424.25
467.391	454.25
467.61	439.25
467.829	463.25
468.049	498.25
468.268	528.25
468.488	505.25
468.707	465.25
468.927	458.25
469.146	438.25
469.365	446.25
469.585	430.25
469.804	426.25
470.023	455.25
470.243	457.25
470.462	435.25
470.681	478.25
470.901	473.25
471.12	459.25
471.339	457.25
471.558	457.25
471.777	483.25
471.997	465.25
472.216	539.25
472.435	736.25
472.654	685.25
472.873	561.25
473.092	523.25
473.311	499.25
473.53	494.25
473.749	476.25
473.968	543.25
474.187	620.25
474.406	669.25
474.625	524.25
474.844	473.25
475.063	487.25
475.282	448.25
475.501	469.25
475.72	478.25
475.939	464.25
476.158	485.25
476.377	474.25
476.596	483.25
476.814	489.25
477.033	479.25
477.252	491.25
477.471	466.25
477.69	486.25
477.908	489.25
478.127	511.25
478.346	502.25
478.564	469.25
478.783	508.25
479.002	501.25
479.22	505.25
479.439	521.25
479.658	539.25
479.876	548.25
480.095	546.25
480.313	593.25
480.532	578.25
480.751	588.25
480.969	675.25
481.188	961.25
481.406	1265.25
481.624	871.25
481.843	732.25
482.061	659.25
482.28	628.25
482.498	605.25
482.717	601.25
482.935	585.25
483.153	568.25
483.372	556.25
483.59	567.25
483.808	555.25
484.027	551.25
484.245	569.25
484.463	573.25
484.681	571.25
484.9	572.25
485.118	573.25
485.336	564.25
485.554	548.25
485.772	545.25
485.99	556.25
486.209	584.25
486.427	557.25
486.645	587.25
486.863	609.25
487.081	603.25
487.299	593.25
487.517	581.25
487.735	603.25
487.953	580.25
488.171	618.25
488.389	597.25
488.607	606.25
488.825	595.25
489.043	599.25
489.261	608.25
489.479	617.25
489.696	621.25
489.914	616.25
490.132	622.25
490.35	655.25
490.568	649.25
490.786	657.25
491.003	655.25
491.221	693.25
491.439	707.25
491.657	717.25
491.874	733.25
492.092	711.25
492.31	729.25
492.527	727.25
492.745	726.25
492.963	740.25
493.18	762.25
493.398	737.25
493.615	765.25
493.833	737.25
494.05	758.25
494.268	740.25
494.485	743.25
494.703	716.25
494.92	730.25
495.138	757.25
495.355	716.25
495.573	726.25
495.79	715.25
496.008	739.25
496.225	707.25
496.442	712.25
496.66	717.25
496.877	716.25
497.094	711.25
497.312	708.25
497.529	728.25
497.746	719.25
497.963	727.25
498.181	753.25
498.398	729.25
498.615	738.25
498.832	731.25
499.049	762.25
499.267	762.25
499.484	756.25
499.701	758.25
499.918	778.25
500.135	839.25
500.352	847.25
500.569	871.25
500.786	847.25
501.003	862.25
501.22	842.25
501.437	837.25
501.654	814.25
501.871	831.25
