Data from 1986.PennyLincolnUp.Lamp.En5.5.200Scan.071819.P2_HRD10591_17-12-21-973.txt Node
Date: Thu Jul 18 17:12:21 EDT 2019
User: cochatt
Spectrometer: HR+D1059
Trigger mode: 1
Integration Time (sec): 1.000000E-1
Scans to average: 1
Electric dark correction enabled: true
Nonlinearity correction enabled: false
Boxcar width: 0
XAxis mode: Wavelengths
Number of Pixels in Spectrum: 2048
>>>>>Begin Spectral Data<<<<<
223.165	-22.44
223.4	-22.44
223.635	-22.44
223.869	-15.44
224.104	-23.44
224.338	-11.44
224.573	-13.44
224.808	-14.44
225.042	-7.44
225.277	-11.44
225.511	-1.44
225.746	8.56
225.98	11.56
226.215	2.56
226.449	15.56
226.683	25.56
226.918	28.56
227.152	28.56
227.387	28.56
227.621	38.56
227.856	42.56
228.09	43.56
228.324	54.56
228.559	54.56
228.793	66.56
229.027	99.56
229.262	119.56
229.496	116.56
229.73	149.56
229.964	138.56
230.199	136.56
230.433	120.56
230.667	121.56
230.901	109.56
231.136	120.56
231.37	109.56
231.604	126.56
231.838	124.56
232.072	122.56
232.306	106.56
232.541	116.56
232.775	104.56
233.009	130.56
233.243	114.56
233.477	120.56
233.711	127.56
233.945	124.56
234.179	107.56
234.413	109.56
234.647	121.56
234.881	125.56
235.115	119.56
235.349	118.56
235.583	116.56
235.817	121.56
236.051	120.56
236.285	142.56
236.519	124.56
236.753	127.56
236.987	139.56
237.221	192.56
237.455	247.56
237.689	192.56
237.922	160.56
238.156	149.56
238.39	144.56
238.624	135.56
238.858	102.56
239.091	116.56
239.325	130.56
239.559	128.56
239.793	139.56
240.027	146.56
240.26	158.56
240.494	168.56
240.728	153.56
240.961	152.56
241.195	140.56
241.429	129.56
241.662	145.56
241.896	146.56
242.13	140.56
242.363	135.56
242.597	138.56
242.83	140.56
243.064	156.56
243.298	155.56
243.531	135.56
243.765	153.56
243.998	152.56
244.232	160.56
244.465	170.56
244.699	139.56
244.932	156.56
245.166	165.56
245.399	154.56
245.633	172.56
245.866	157.56
246.099	147.56
246.333	160.56
246.566	148.56
246.8	169.56
247.033	171.56
247.266	162.56
247.5	158.56
247.733	165.56
247.966	172.56
248.2	182.56
248.433	182.56
248.666	197.56
248.899	192.56
249.133	200.56
249.366	224.56
249.599	218.56
249.832	204.56
250.066	225.56
250.299	202.56
250.532	227.56
250.765	253.56
250.998	272.56
251.231	280.56
251.465	266.56
251.698	249.56
251.931	218.56
252.164	229.56
252.397	215.56
252.63	216.56
252.863	224.56
253.096	257.56
253.329	253.56
253.562	250.56
253.795	240.56
254.028	234.56
254.261	218.56
254.494	247.56
254.727	283.56
254.96	315.56
255.193	310.56
255.426	275.56
255.659	274.56
255.892	312.56
256.124	338.56
256.357	358.56
256.59	326.56
256.823	305.56
257.056	281.56
257.289	263.56
257.521	266.56
257.754	259.56
257.987	249.56
258.22	236.56
258.452	233.56
258.685	233.56
258.918	246.56
259.151	222.56
259.383	238.56
259.616	233.56
259.849	258.56
260.081	252.56
260.314	266.56
260.547	280.56
260.779	278.56
261.012	232.56
261.244	257.56
261.477	232.56
261.71	225.56
261.942	236.56
262.175	252.56
262.407	243.56
262.64	215.56
262.872	217.56
263.105	237.56
263.337	236.56
263.57	234.56
263.802	233.56
264.035	253.56
264.267	232.56
264.499	228.56
264.732	220.56
264.964	231.56
265.197	226.56
265.429	228.56
265.661	246.56
265.894	217.56
266.126	234.56
266.358	221.56
266.591	221.56
266.823	246.56
267.055	240.56
267.287	246.56
267.52	247.56
267.752	254.56
267.984	247.56
268.216	237.56
268.448	236.56
268.681	247.56
268.913	248.56
269.145	264.56
269.377	281.56
269.609	280.56
269.841	300.56
270.073	277.56
270.306	309.56
270.538	346.56
270.77	343.56
271.002	337.56
271.234	317.56
271.466	295.56
271.698	316.56
271.93	338.56
272.162	320.56
272.394	341.56
272.626	332.56
272.858	327.56
273.09	295.56
273.322	285.56
273.553	292.56
273.785	288.56
274.017	285.56
274.249	266.56
274.481	281.56
274.713	293.56
274.945	268.56
275.176	295.56
275.408	269.56
275.64	285.56
275.872	282.56
276.104	279.56
276.335	275.56
276.567	306.56
276.799	314.56
277.031	340.56
277.262	342.56
277.494	342.56
277.726	334.56
277.957	320.56
278.189	288.56
278.421	284.56
278.652	284.56
278.884	278.56
279.115	291.56
279.347	277.56
279.579	281.56
279.81	285.56
280.042	275.56
280.273	302.56
280.505	293.56
280.736	295.56
280.968	282.56
281.199	265.56
281.431	276.56
281.662	278.56
281.894	291.56
282.125	272.56
282.356	301.56
282.588	330.56
282.819	310.56
283.051	290.56
283.282	281.56
283.513	291.56
283.745	286.56
283.976	282.56
284.207	266.56
284.439	291.56
284.67	300.56
284.901	292.56
285.132	284.56
285.364	296.56
285.595	279.56
285.826	260.56
286.057	277.56
286.288	285.56
286.52	277.56
286.751	283.56
286.982	264.56
287.213	277.56
287.444	292.56
287.675	291.56
287.906	292.56
288.138	328.56
288.369	319.56
288.6	310.56
288.831	306.56
289.062	293.56
289.293	304.56
289.524	294.56
289.755	294.56
289.986	300.56
290.217	305.56
290.448	270.56
290.679	282.56
290.91	307.56
291.141	272.56
291.371	256.56
291.602	297.56
291.833	294.56
292.064	294.56
292.295	307.56
292.526	310.56
292.757	286.56
292.987	275.56
293.218	289.56
293.449	282.56
293.68	300.56
293.91	279.56
294.141	269.56
294.372	286.56
294.603	260.56
294.833	285.56
295.064	302.56
295.295	316.56
295.525	304.56
295.756	296.56
295.987	310.56
296.217	340.56
296.448	334.56
296.679	297.56
296.909	274.56
297.14	284.56
297.37	288.56
297.601	306.56
297.831	297.56
298.062	305.56
298.292	298.56
298.523	312.56
298.753	307.56
298.984	305.56
299.214	297.56
299.445	288.56
299.675	319.56
299.905	322.56
300.136	284.56
300.366	324.56
300.597	307.56
300.827	315.56
301.057	308.56
301.288	336.56
301.518	331.56
301.748	320.56
301.979	335.56
302.209	323.56
302.439	328.56
302.669	337.56
302.9	336.56
303.13	326.56
303.36	325.56
303.59	313.56
303.82	330.56
304.051	330.56
304.281	332.56
304.511	329.56
304.741	329.56
304.971	326.56
305.201	312.56
305.431	314.56
305.661	327.56
305.891	306.56
306.121	319.56
306.352	332.56
306.582	348.56
306.812	315.56
307.042	337.56
307.272	322.56
307.502	342.56
307.731	343.56
307.961	343.56
308.191	328.56
308.421	314.56
308.651	332.56
308.881	340.56
309.111	345.56
309.341	334.56
309.571	369.56
309.8	357.56
310.03	361.56
310.26	383.56
310.49	351.56
310.72	372.56
310.949	405.56
311.179	416.56
311.409	400.56
311.639	386.56
311.868	383.56
312.098	378.56
312.328	387.56
312.557	382.56
312.787	415.56
313.017	421.56
313.246	394.56
313.476	384.56
313.706	372.56
313.935	394.56
314.165	409.56
314.394	403.56
314.624	394.56
314.853	394.56
315.083	402.56
315.312	400.56
315.542	378.56
315.771	372.56
316.001	354.56
316.23	373.56
316.46	382.56
316.689	378.56
316.919	379.56
317.148	405.56
317.377	389.56
317.607	392.56
317.836	398.56
318.065	396.56
318.295	401.56
318.524	367.56
318.753	387.56
318.983	365.56
319.212	368.56
319.441	386.56
319.67	397.56
319.9	361.56
320.129	384.56
320.358	390.56
320.587	414.56
320.816	404.56
321.046	412.56
321.275	425.56
321.504	412.56
321.733	395.56
321.962	391.56
322.191	453.56
322.42	468.56
322.649	458.56
322.878	483.56
323.108	490.56
323.337	532.56
323.566	555.56
323.795	594.56
324.024	660.56
324.253	756.56
324.482	1086.56
324.71	1702.56
324.939	2412.56
325.168	2182.56
325.397	1125.56
325.626	746.56
325.855	621.56
326.084	581.56
326.313	569.56
326.542	583.56
326.77	620.56
326.999	747.56
327.228	992.56
327.457	1526.56
327.686	1862.56
327.914	1303.56
328.143	924.56
328.372	790.56
328.6	748.56
328.829	692.56
329.058	668.56
329.287	710.56
329.515	659.56
329.744	653.56
329.972	693.56
330.201	780.56
330.43	894.56
330.658	906.56
330.887	783.56
331.115	708.56
331.344	612.56
331.572	561.56
331.801	561.56
332.03	565.56
332.258	552.56
332.486	520.56
332.715	502.56
332.943	522.56
333.172	489.56
333.4	534.56
333.629	544.56
333.857	616.56
334.085	673.56
334.314	793.56
334.542	957.56
334.771	1025.56
334.999	760.56
335.227	611.56
335.455	540.56
335.684	532.56
335.912	500.56
336.14	487.56
336.369	477.56
336.597	488.56
336.825	464.56
337.053	462.56
337.281	460.56
337.51	440.56
337.738	450.56
337.966	450.56
338.194	457.56
338.422	430.56
338.65	448.56
338.878	417.56
339.106	411.56
339.334	416.56
339.562	427.56
339.79	434.56
340.018	427.56
340.246	424.56
340.474	444.56
340.702	446.56
340.93	451.56
341.158	421.56
341.386	434.56
341.614	446.56
341.842	418.56
342.07	424.56
342.298	427.56
342.526	423.56
342.754	402.56
342.981	390.56
343.209	412.56
343.437	418.56
343.665	377.56
343.893	418.56
344.12	428.56
344.348	437.56
344.576	423.56
344.804	427.56
345.031	435.56
345.259	436.56
345.487	428.56
345.714	419.56
345.942	419.56
346.17	444.56
346.397	403.56
346.625	401.56
346.853	402.56
347.08	420.56
347.308	408.56
347.535	412.56
347.763	430.56
347.99	431.56
348.218	418.56
348.445	437.56
348.673	405.56
348.9	424.56
349.128	388.56
349.355	386.56
349.583	384.56
349.81	384.56
350.037	399.56
350.265	413.56
350.492	412.56
350.72	398.56
350.947	421.56
351.174	420.56
351.402	419.56
351.629	428.56
351.856	411.56
352.083	419.56
352.311	428.56
352.538	438.56
352.765	442.56
352.992	438.56
353.22	412.56
353.447	405.56
353.674	378.56
353.901	371.56
354.128	396.56
354.355	396.56
354.583	380.56
354.81	373.56
355.037	390.56
355.264	372.56
355.491	384.56
355.718	381.56
355.945	362.56
356.172	376.56
356.399	347.56
356.626	364.56
356.853	361.56
357.08	370.56
357.307	359.56
357.534	372.56
357.761	359.56
357.988	372.56
358.215	365.56
358.441	372.56
358.668	364.56
358.895	403.56
359.122	382.56
359.349	384.56
359.576	405.56
359.802	437.56
360.029	451.56
360.256	476.56
360.483	458.56
360.709	416.56
360.936	406.56
361.163	419.56
361.39	446.56
361.616	407.56
361.843	396.56
362.07	416.56
362.296	409.56
362.523	405.56
362.749	421.56
362.976	396.56
363.203	384.56
363.429	402.56
363.656	387.56
363.882	396.56
364.109	381.56
364.335	383.56
364.562	397.56
364.788	377.56
365.015	365.56
365.241	368.56
365.468	402.56
365.694	403.56
365.92	379.56
366.147	376.56
366.373	386.56
366.599	374.56
366.826	382.56
367.052	373.56
367.278	400.56
367.505	382.56
367.731	377.56
367.957	370.56
368.184	380.56
368.41	409.56
368.636	409.56
368.862	401.56
369.089	379.56
369.315	390.56
369.541	376.56
369.767	381.56
369.993	353.56
370.219	385.56
370.445	392.56
370.672	386.56
370.898	390.56
371.124	370.56
371.35	352.56
371.576	369.56
371.802	378.56
372.028	384.56
372.254	374.56
372.48	360.56
372.706	360.56
372.932	384.56
373.158	376.56
373.384	369.56
373.61	383.56
373.835	364.56
374.061	358.56
374.287	371.56
374.513	376.56
374.739	371.56
374.965	366.56
375.191	378.56
375.416	368.56
375.642	356.56
375.868	363.56
376.094	368.56
376.319	364.56
376.545	362.56
376.771	356.56
376.997	364.56
377.222	352.56
377.448	356.56
377.674	357.56
377.899	369.56
378.125	356.56
378.35	368.56
378.576	351.56
378.802	370.56
379.027	368.56
379.253	350.56
379.478	352.56
379.704	352.56
379.929	368.56
380.155	374.56
380.38	366.56
380.606	365.56
380.831	380.56
381.057	381.56
381.282	372.56
381.507	374.56
381.733	364.56
381.958	370.56
382.184	362.56
382.409	374.56
382.634	362.56
382.86	378.56
383.085	382.56
383.31	365.56
383.535	372.56
383.761	382.56
383.986	364.56
384.211	388.56
384.436	370.56
384.662	371.56
384.887	398.56
385.112	370.56
385.337	373.56
385.562	369.56
385.787	380.56
386.013	389.56
386.238	394.56
386.463	398.56
386.688	402.56
386.913	373.56
387.138	396.56
387.363	385.56
387.588	366.56
387.813	383.56
388.038	380.56
388.263	378.56
388.488	388.56
388.713	397.56
388.938	369.56
389.163	392.56
389.387	396.56
389.612	377.56
389.837	389.56
390.062	369.56
390.287	376.56
390.512	376.56
390.736	371.56
390.961	384.56
391.186	364.56
391.411	378.56
391.636	379.56
391.86	385.56
392.085	382.56
392.31	376.56
392.534	373.56
392.759	402.56
392.984	376.56
393.208	388.56
393.433	380.56
393.658	362.56
393.882	365.56
394.107	407.56
394.331	388.56
394.556	364.56
394.78	394.56
395.005	390.56
395.229	375.56
395.454	381.56
395.678	395.56
395.903	408.56
396.127	397.56
396.352	422.56
396.576	394.56
396.801	405.56
397.025	407.56
397.249	402.56
397.474	398.56
397.698	413.56
397.922	415.56
398.147	427.56
398.371	426.56
398.595	424.56
398.82	411.56
399.044	426.56
399.268	445.56
399.492	457.56
399.717	451.56
399.941	460.56
400.165	515.56
400.389	515.56
400.613	487.56
400.837	477.56
401.062	461.56
401.286	426.56
401.51	432.56
401.734	445.56
401.958	421.56
402.182	436.56
402.406	468.56
402.63	428.56
402.854	437.56
403.078	459.56
403.302	462.56
403.526	457.56
403.75	465.56
403.974	459.56
404.198	463.56
404.422	472.56
404.645	478.56
404.869	500.56
405.093	542.56
405.317	603.56
405.541	635.56
405.765	578.56
405.988	532.56
406.212	518.56
406.436	508.56
406.66	544.56
406.883	485.56
407.107	516.56
407.331	562.56
407.555	619.56
407.778	627.56
408.002	543.56
408.226	533.56
408.449	486.56
408.673	504.56
408.896	507.56
409.12	569.56
409.344	537.56
409.567	471.56
409.791	467.56
410.014	433.56
410.238	448.56
410.461	448.56
410.685	463.56
410.908	478.56
411.132	547.56
411.355	543.56
411.578	534.56
411.802	499.56
412.025	496.56
412.249	515.56
412.472	563.56
412.695	624.56
412.919	588.56
413.142	540.56
413.365	509.56
413.589	496.56
413.812	475.56
414.035	468.56
414.258	464.56
414.482	444.56
414.705	439.56
414.928	430.56
415.151	425.56
415.374	446.56
415.597	438.56
415.821	433.56
416.044	463.56
416.267	444.56
416.49	435.56
416.713	419.56
416.936	438.56
417.159	430.56
417.382	466.56
417.605	466.56
417.828	444.56
418.051	474.56
418.274	462.56
418.497	451.56
418.72	441.56
418.943	440.56
419.166	460.56
419.389	457.56
419.611	483.56
419.834	465.56
420.057	486.56
420.28	524.56
420.503	538.56
420.726	518.56
420.948	522.56
421.171	533.56
421.394	594.56
421.617	519.56
421.839	480.56
422.062	474.56
422.285	470.56
422.507	541.56
422.73	614.56
422.953	569.56
423.175	515.56
423.398	512.56
423.621	488.56
423.843	486.56
424.066	510.56
424.288	493.56
424.511	514.56
424.733	567.56
424.956	676.56
425.178	637.56
425.401	644.56
425.623	626.56
425.846	553.56
426.068	522.56
426.291	505.56
426.513	503.56
426.735	528.56
426.958	530.56
427.18	642.56
427.402	745.56
427.625	853.56
427.847	778.56
428.069	720.56
428.292	632.56
428.514	557.56
428.736	525.56
428.958	500.56
429.181	486.56
429.403	472.56
429.625	475.56
429.847	521.56
430.069	594.56
430.292	563.56
430.514	520.56
430.736	484.56
430.958	458.56
431.18	442.56
431.402	456.56
431.624	437.56
431.846	425.56
432.068	451.56
432.29	449.56
432.512	434.56
432.734	443.56
432.956	465.56
433.178	439.56
433.4	434.56
433.622	434.56
433.844	452.56
434.066	442.56
434.287	428.56
434.509	436.56
434.731	439.56
434.953	438.56
435.175	468.56
435.397	497.56
435.618	483.56
435.84	553.56
436.062	653.56
436.284	684.56
436.505	579.56
436.727	550.56
436.949	472.56
437.17	474.56
437.392	466.56
437.614	491.56
437.835	512.56
438.057	618.56
438.278	702.56
438.5	702.56
438.721	773.56
438.943	757.56
439.165	588.56
439.386	534.56
439.608	523.56
439.829	526.56
440.05	516.56
440.272	582.56
440.493	579.56
440.715	500.56
440.936	499.56
441.158	488.56
441.379	468.56
441.6	481.56
441.822	509.56
442.043	538.56
442.264	601.56
442.486	673.56
442.707	561.56
442.928	521.56
443.149	510.56
443.371	553.56
443.592	591.56
443.813	690.56
444.034	726.56
444.255	603.56
444.476	536.56
444.698	511.56
444.919	500.56
445.14	589.56
445.361	559.56
445.582	554.56
445.803	627.56
446.024	714.56
446.245	745.56
446.466	662.56
446.687	572.56
446.908	536.56
447.129	495.56
447.35	484.56
447.571	476.56
447.792	469.56
448.013	457.56
448.234	501.56
448.455	548.56
448.675	645.56
448.896	771.56
449.117	658.56
449.338	627.56
449.559	706.56
449.779	804.56
450	632.56
450.221	541.56
450.442	498.56
450.662	482.56
450.883	489.56
451.104	501.56
451.324	478.56
451.545	450.56
451.766	442.56
451.986	429.56
452.207	424.56
452.428	417.56
452.648	418.56
452.869	429.56
453.089	419.56
453.31	452.56
453.53	441.56
453.751	421.56
453.971	435.56
454.192	460.56
454.412	440.56
454.633	423.56
454.853	425.56
455.073	429.56
455.294	451.56
455.514	504.56
455.734	496.56
455.955	429.56
456.175	416.56
456.395	389.56
456.616	401.56
456.836	396.56
457.056	397.56
457.276	379.56
457.497	392.56
457.717	388.56
457.937	385.56
458.157	400.56
458.377	434.56
458.598	441.56
458.818	468.56
459.038	580.56
459.258	611.56
459.478	509.56
459.698	461.56
459.918	416.56
460.138	411.56
460.358	439.56
460.578	423.56
460.798	422.56
461.018	414.56
461.238	427.56
461.458	420.56
461.678	425.56
461.898	443.56
462.118	434.56
462.338	423.56
462.558	430.56
462.777	442.56
462.997	473.56
463.217	468.56
463.437	442.56
463.657	438.56
463.876	450.56
464.096	441.56
464.316	427.56
464.536	455.56
464.755	449.56
464.975	467.56
465.195	516.56
465.414	617.56
465.634	535.56
465.854	491.56
466.073	482.56
466.293	443.56
466.512	426.56
466.732	421.56
466.951	409.56
467.171	426.56
467.391	424.56
467.61	426.56
467.829	444.56
468.049	470.56
468.268	500.56
468.488	485.56
468.707	465.56
468.927	421.56
469.146	411.56
469.365	432.56
469.585	423.56
469.804	446.56
470.023	464.56
470.243	481.56
470.462	447.56
470.681	447.56
470.901	463.56
471.12	445.56
471.339	447.56
471.558	445.56
471.777	441.56
471.997	454.56
472.216	531.56
472.435	698.56
472.654	661.56
472.873	551.56
473.092	508.56
473.311	490.56
473.53	484.56
473.749	464.56
473.968	530.56
474.187	628.56
474.406	653.56
474.625	541.56
474.844	500.56
475.063	463.56
475.282	469.56
475.501	437.56
475.72	465.56
475.939	450.56
476.158	454.56
476.377	464.56
476.596	457.56
476.814	483.56
477.033	488.56
477.252	485.56
477.471	477.56
477.69	470.56
477.908	470.56
478.127	478.56
478.346	462.56
478.564	474.56
478.783	481.56
479.002	492.56
479.22	504.56
479.439	498.56
479.658	542.56
479.876	550.56
480.095	560.56
480.313	562.56
480.532	572.56
480.751	580.56
480.969	628.56
481.188	935.56
481.406	1181.56
481.624	840.56
481.843	692.56
482.061	637.56
482.28	604.56
482.498	591.56
482.717	562.56
482.935	563.56
483.153	550.56
483.372	542.56
483.59	556.56
483.808	525.56
484.027	523.56
484.245	561.56
484.463	566.56
484.681	565.56
484.9	561.56
485.118	564.56
485.336	547.56
485.554	557.56
485.772	572.56
485.99	571.56
486.209	558.56
486.427	564.56
486.645	579.56
486.863	572.56
487.081	592.56
487.299	579.56
487.517	571.56
487.735	579.56
487.953	569.56
488.171	581.56
488.389	599.56
488.607	578.56
488.825	584.56
489.043	582.56
489.261	568.56
489.479	590.56
489.696	604.56
489.914	612.56
490.132	608.56
490.35	627.56
490.568	656.56
490.786	640.56
491.003	667.56
491.221	672.56
491.439	674.56
491.657	679.56
491.874	698.56
492.092	709.56
492.31	696.56
492.527	719.56
492.745	726.56
492.963	714.56
493.18	721.56
493.398	728.56
493.615	735.56
493.833	721.56
494.05	723.56
494.268	716.56
494.485	729.56
494.703	714.56
494.92	723.56
495.138	730.56
495.355	718.56
495.573	710.56
495.79	713.56
496.008	718.56
496.225	704.56
496.442	698.56
496.66	685.56
496.877	701.56
497.094	711.56
497.312	717.56
497.529	710.56
497.746	718.56
497.963	726.56
498.181	734.56
498.398	716.56
498.615	723.56
498.832	738.56
499.049	720.56
499.267	731.56
499.484	746.56
499.701	787.56
499.918	796.56
500.135	783.56
500.352	797.56
500.569	821.56
500.786	824.56
501.003	845.56
501.22	829.56
501.437	803.56
501.654	816.56
501.871	840.56
