Data from 1986.PennyLincolnUp.Lamp.En5.5.200Scan.071819.P2_HRD10591_17-10-02-976.txt Node
Date: Thu Jul 18 17:10:02 EDT 2019
User: cochatt
Spectrometer: HR+D1059
Trigger mode: 1
Integration Time (sec): 1.000000E-1
Scans to average: 1
Electric dark correction enabled: true
Nonlinearity correction enabled: false
Boxcar width: 0
XAxis mode: Wavelengths
Number of Pixels in Spectrum: 2048
>>>>>Begin Spectral Data<<<<<
223.165	-16.5
223.4	-16.5
223.635	-16.5
223.869	-10.5
224.104	-20.5
224.338	-1.5
224.573	-16.5
224.808	-13.5
225.042	-11.5
225.277	-10.5
225.511	-7.5
225.746	0.5
225.98	10.5
226.215	-0.5
226.449	19.5
226.683	21.5
226.918	31.5
227.152	25.5
227.387	36.5
227.621	52.5
227.856	36.5
228.09	52.5
228.324	51.5
228.559	51.5
228.793	66.5
229.027	91.5
229.262	100.5
229.496	106.5
229.73	128.5
229.964	156.5
230.199	129.5
230.433	117.5
230.667	109.5
230.901	117.5
231.136	92.5
231.37	111.5
231.604	98.5
231.838	115.5
232.072	103.5
232.306	113.5
232.541	95.5
232.775	113.5
233.009	101.5
233.243	108.5
233.477	111.5
233.711	119.5
233.945	109.5
234.179	104.5
234.413	120.5
234.647	121.5
234.881	120.5
235.115	110.5
235.349	122.5
235.583	123.5
235.817	110.5
236.051	115.5
236.285	122.5
236.519	134.5
236.753	128.5
236.987	154.5
237.221	182.5
237.455	249.5
237.689	185.5
237.922	130.5
238.156	141.5
238.39	132.5
238.624	133.5
238.858	112.5
239.091	102.5
239.325	122.5
239.559	115.5
239.793	121.5
240.027	137.5
240.26	135.5
240.494	156.5
240.728	149.5
240.961	146.5
241.195	131.5
241.429	135.5
241.662	132.5
241.896	124.5
242.13	129.5
242.363	129.5
242.597	128.5
242.83	137.5
243.064	127.5
243.298	137.5
243.531	139.5
243.765	135.5
243.998	141.5
244.232	132.5
244.465	135.5
244.699	131.5
244.932	145.5
245.166	121.5
245.399	145.5
245.633	145.5
245.866	146.5
246.099	141.5
246.333	140.5
246.566	152.5
246.8	151.5
247.033	152.5
247.266	148.5
247.5	153.5
247.733	155.5
247.966	159.5
248.2	165.5
248.433	178.5
248.666	162.5
248.899	179.5
249.133	199.5
249.366	183.5
249.599	202.5
249.832	203.5
250.066	173.5
250.299	170.5
250.532	181.5
250.765	183.5
250.998	213.5
251.231	211.5
251.465	204.5
251.698	196.5
251.931	205.5
252.164	194.5
252.397	200.5
252.63	199.5
252.863	209.5
253.096	212.5
253.329	230.5
253.562	222.5
253.795	221.5
254.028	229.5
254.261	224.5
254.494	222.5
254.727	267.5
254.96	289.5
255.193	266.5
255.426	253.5
255.659	231.5
255.892	227.5
256.124	236.5
256.357	214.5
256.59	211.5
256.823	210.5
257.056	219.5
257.289	218.5
257.521	212.5
257.754	208.5
257.987	189.5
258.22	196.5
258.452	199.5
258.685	213.5
258.918	223.5
259.151	211.5
259.383	206.5
259.616	214.5
259.849	229.5
260.081	232.5
260.314	236.5
260.547	267.5
260.779	252.5
261.012	221.5
261.244	226.5
261.477	221.5
261.71	215.5
261.942	230.5
262.175	212.5
262.407	217.5
262.64	193.5
262.872	210.5
263.105	217.5
263.337	197.5
263.57	209.5
263.802	209.5
264.035	200.5
264.267	191.5
264.499	195.5
264.732	214.5
264.964	192.5
265.197	204.5
265.429	200.5
265.661	213.5
265.894	209.5
266.126	206.5
266.358	212.5
266.591	204.5
266.823	203.5
267.055	220.5
267.287	210.5
267.52	209.5
267.752	195.5
267.984	210.5
268.216	211.5
268.448	215.5
268.681	229.5
268.913	230.5
269.145	249.5
269.377	251.5
269.609	274.5
269.841	255.5
270.073	258.5
270.306	287.5
270.538	307.5
270.77	299.5
271.002	308.5
271.234	291.5
271.466	296.5
271.698	304.5
271.93	319.5
272.162	313.5
272.394	307.5
272.626	295.5
272.858	295.5
273.09	262.5
273.322	258.5
273.553	244.5
273.785	257.5
274.017	251.5
274.249	262.5
274.481	245.5
274.713	266.5
274.945	264.5
275.176	254.5
275.408	272.5
275.64	252.5
275.872	246.5
276.104	240.5
276.335	252.5
276.567	248.5
276.799	269.5
277.031	284.5
277.262	305.5
277.494	311.5
277.726	297.5
277.957	273.5
278.189	264.5
278.421	256.5
278.652	262.5
278.884	235.5
279.115	238.5
279.347	249.5
279.579	258.5
279.81	247.5
280.042	240.5
280.273	259.5
280.505	263.5
280.736	228.5
280.968	252.5
281.199	255.5
281.431	238.5
281.662	256.5
281.894	233.5
282.125	245.5
282.356	257.5
282.588	277.5
282.819	300.5
283.051	253.5
283.282	254.5
283.513	263.5
283.745	248.5
283.976	243.5
284.207	269.5
284.439	267.5
284.67	248.5
284.901	262.5
285.132	260.5
285.364	268.5
285.595	257.5
285.826	242.5
286.057	270.5
286.288	233.5
286.52	250.5
286.751	268.5
286.982	261.5
287.213	251.5
287.444	251.5
287.675	251.5
287.906	271.5
288.138	267.5
288.369	266.5
288.6	287.5
288.831	278.5
289.062	285.5
289.293	268.5
289.524	257.5
289.755	272.5
289.986	267.5
290.217	263.5
290.448	258.5
290.679	256.5
290.91	267.5
291.141	265.5
291.371	247.5
291.602	238.5
291.833	267.5
292.064	255.5
292.295	260.5
292.526	267.5
292.757	267.5
292.987	256.5
293.218	263.5
293.449	281.5
293.68	269.5
293.91	255.5
294.141	265.5
294.372	262.5
294.603	258.5
294.833	256.5
295.064	265.5
295.295	272.5
295.525	245.5
295.756	263.5
295.987	274.5
296.217	297.5
296.448	309.5
296.679	275.5
296.909	259.5
297.14	269.5
297.37	271.5
297.601	259.5
297.831	257.5
298.062	255.5
298.292	276.5
298.523	265.5
298.753	259.5
298.984	303.5
299.214	268.5
299.445	281.5
299.675	275.5
299.905	285.5
300.136	276.5
300.366	280.5
300.597	295.5
300.827	289.5
301.057	309.5
301.288	294.5
301.518	289.5
301.748	277.5
301.979	291.5
302.209	310.5
302.439	284.5
302.669	292.5
302.9	288.5
303.13	276.5
303.36	297.5
303.59	307.5
303.82	294.5
304.051	291.5
304.281	284.5
304.511	294.5
304.741	302.5
304.971	298.5
305.201	306.5
305.431	307.5
305.661	277.5
305.891	295.5
306.121	299.5
306.352	294.5
306.582	311.5
306.812	304.5
307.042	275.5
307.272	289.5
307.502	275.5
307.731	287.5
307.961	284.5
308.191	300.5
308.421	293.5
308.651	292.5
308.881	302.5
309.111	315.5
309.341	301.5
309.571	320.5
309.8	308.5
310.03	344.5
310.26	349.5
310.49	359.5
310.72	347.5
310.949	361.5
311.179	354.5
311.409	346.5
311.639	342.5
311.868	339.5
312.098	337.5
312.328	342.5
312.557	356.5
312.787	361.5
313.017	358.5
313.246	376.5
313.476	356.5
313.706	331.5
313.935	359.5
314.165	359.5
314.394	352.5
314.624	371.5
314.853	343.5
315.083	357.5
315.312	335.5
315.542	340.5
315.771	335.5
316.001	342.5
316.23	332.5
316.46	347.5
316.689	344.5
316.919	354.5
317.148	340.5
317.377	356.5
317.607	345.5
317.836	324.5
318.065	332.5
318.295	336.5
318.524	329.5
318.753	339.5
318.983	360.5
319.212	337.5
319.441	354.5
319.67	355.5
319.9	339.5
320.129	350.5
320.358	355.5
320.587	359.5
320.816	354.5
321.046	360.5
321.275	363.5
321.504	364.5
321.733	371.5
321.962	397.5
322.191	381.5
322.42	405.5
322.649	422.5
322.878	431.5
323.108	439.5
323.337	449.5
323.566	482.5
323.795	520.5
324.024	559.5
324.253	693.5
324.482	1021.5
324.71	1512.5
324.939	2158.5
325.168	1923.5
325.397	1037.5
325.626	696.5
325.855	568.5
326.084	505.5
326.313	468.5
326.542	486.5
326.77	525.5
326.999	633.5
327.228	882.5
327.457	1329.5
327.686	1665.5
327.914	1136.5
328.143	718.5
328.372	610.5
328.6	585.5
328.829	550.5
329.058	568.5
329.287	570.5
329.515	539.5
329.744	474.5
329.972	476.5
330.201	456.5
330.43	514.5
330.658	525.5
330.887	593.5
331.115	583.5
331.344	495.5
331.572	446.5
331.801	455.5
332.03	450.5
332.258	430.5
332.486	404.5
332.715	396.5
332.943	391.5
333.172	383.5
333.4	407.5
333.629	416.5
333.857	421.5
334.085	403.5
334.314	407.5
334.542	425.5
334.771	399.5
334.999	393.5
335.227	410.5
335.455	399.5
335.684	428.5
335.912	399.5
336.14	372.5
336.369	394.5
336.597	394.5
336.825	386.5
337.053	386.5
337.281	398.5
337.51	374.5
337.738	387.5
337.966	402.5
338.194	398.5
338.422	398.5
338.65	370.5
338.878	396.5
339.106	376.5
339.334	389.5
339.562	358.5
339.79	405.5
340.018	373.5
340.246	399.5
340.474	395.5
340.702	376.5
340.93	381.5
341.158	378.5
341.386	387.5
341.614	401.5
341.842	396.5
342.07	375.5
342.298	376.5
342.526	387.5
342.754	364.5
342.981	367.5
343.209	359.5
343.437	371.5
343.665	360.5
343.893	369.5
344.12	379.5
344.348	377.5
344.576	384.5
344.804	390.5
345.031	401.5
345.259	401.5
345.487	387.5
345.714	390.5
345.942	372.5
346.17	376.5
346.397	367.5
346.625	348.5
346.853	378.5
347.08	374.5
347.308	390.5
347.535	384.5
347.763	378.5
347.99	398.5
348.218	391.5
348.445	394.5
348.673	385.5
348.9	385.5
349.128	367.5
349.355	363.5
349.583	351.5
349.81	359.5
350.037	372.5
350.265	349.5
350.492	356.5
350.72	365.5
350.947	355.5
351.174	361.5
351.402	374.5
351.629	381.5
351.856	383.5
352.083	371.5
352.311	398.5
352.538	384.5
352.765	406.5
352.992	387.5
353.22	397.5
353.447	373.5
353.674	373.5
353.901	354.5
354.128	362.5
354.355	336.5
354.583	354.5
354.81	340.5
355.037	341.5
355.264	341.5
355.491	346.5
355.718	340.5
355.945	338.5
356.172	334.5
356.399	336.5
356.626	340.5
356.853	325.5
357.08	361.5
357.307	349.5
357.534	344.5
357.761	351.5
357.988	333.5
358.215	338.5
358.441	325.5
358.668	334.5
358.895	356.5
359.122	363.5
359.349	364.5
359.576	361.5
359.802	397.5
360.029	412.5
360.256	445.5
360.483	421.5
360.709	377.5
360.936	359.5
361.163	379.5
361.39	365.5
361.616	379.5
361.843	369.5
362.07	356.5
362.296	365.5
362.523	347.5
362.749	366.5
362.976	352.5
363.203	338.5
363.429	350.5
363.656	360.5
363.882	342.5
364.109	358.5
364.335	362.5
364.562	340.5
364.788	340.5
365.015	347.5
365.241	366.5
365.468	360.5
365.694	397.5
365.92	348.5
366.147	348.5
366.373	366.5
366.599	367.5
366.826	347.5
367.052	340.5
367.278	354.5
367.505	332.5
367.731	356.5
367.957	326.5
368.184	360.5
368.41	369.5
368.636	374.5
368.862	348.5
369.089	357.5
369.315	346.5
369.541	346.5
369.767	344.5
369.993	348.5
370.219	355.5
370.445	345.5
370.672	330.5
370.898	349.5
371.124	332.5
371.35	333.5
371.576	324.5
371.802	336.5
372.028	324.5
372.254	347.5
372.48	360.5
372.706	345.5
372.932	335.5
373.158	336.5
373.384	333.5
373.61	336.5
373.835	348.5
374.061	349.5
374.287	356.5
374.513	353.5
374.739	363.5
374.965	336.5
375.191	343.5
375.416	328.5
375.642	332.5
375.868	367.5
376.094	360.5
376.319	327.5
376.545	344.5
376.771	337.5
376.997	315.5
377.222	353.5
377.448	335.5
377.674	323.5
377.899	318.5
378.125	333.5
378.35	329.5
378.576	339.5
378.802	317.5
379.027	315.5
379.253	340.5
379.478	328.5
379.704	339.5
379.929	347.5
380.155	338.5
380.38	356.5
380.606	343.5
380.831	328.5
381.057	353.5
381.282	341.5
381.507	322.5
381.733	331.5
381.958	330.5
382.184	336.5
382.409	330.5
382.634	352.5
382.86	328.5
383.085	335.5
383.31	328.5
383.535	328.5
383.761	345.5
383.986	347.5
384.211	327.5
384.436	339.5
384.662	337.5
384.887	348.5
385.112	355.5
385.337	368.5
385.562	367.5
385.787	338.5
386.013	372.5
386.238	358.5
386.463	373.5
386.688	375.5
386.913	357.5
387.138	356.5
387.363	366.5
387.588	365.5
387.813	350.5
388.038	331.5
388.263	362.5
388.488	347.5
388.713	360.5
388.938	351.5
389.163	354.5
389.387	353.5
389.612	359.5
389.837	358.5
390.062	349.5
390.287	350.5
390.512	362.5
390.736	348.5
390.961	358.5
391.186	343.5
391.411	347.5
391.636	341.5
391.86	357.5
392.085	361.5
392.31	375.5
392.534	353.5
392.759	357.5
392.984	351.5
393.208	363.5
393.433	336.5
393.658	355.5
393.882	364.5
394.107	352.5
394.331	345.5
394.556	342.5
394.78	349.5
395.005	354.5
395.229	336.5
395.454	344.5
395.678	363.5
395.903	369.5
396.127	372.5
396.352	392.5
396.576	382.5
396.801	372.5
397.025	368.5
397.249	360.5
397.474	364.5
397.698	381.5
397.922	387.5
398.147	402.5
398.371	404.5
398.595	381.5
398.82	396.5
399.044	395.5
399.268	415.5
399.492	420.5
399.717	430.5
399.941	458.5
400.165	487.5
400.389	509.5
400.613	447.5
400.837	405.5
401.062	398.5
401.286	411.5
401.51	418.5
401.734	387.5
401.958	395.5
402.182	397.5
402.406	392.5
402.63	412.5
402.854	410.5
403.078	413.5
403.302	407.5
403.526	409.5
403.75	429.5
403.974	404.5
404.198	409.5
404.422	434.5
404.645	434.5
404.869	417.5
405.093	426.5
405.317	437.5
405.541	489.5
405.765	460.5
405.988	424.5
406.212	460.5
406.436	474.5
406.66	482.5
406.883	452.5
407.107	489.5
407.331	513.5
407.555	564.5
407.778	563.5
408.002	504.5
408.226	454.5
408.449	475.5
408.673	439.5
408.896	487.5
409.12	547.5
409.344	511.5
409.567	450.5
409.791	412.5
410.014	421.5
410.238	419.5
410.461	415.5
410.685	436.5
410.908	434.5
411.132	479.5
411.355	511.5
411.578	481.5
411.802	423.5
412.025	416.5
412.249	416.5
412.472	405.5
412.695	411.5
412.919	421.5
413.142	405.5
413.365	400.5
413.589	396.5
413.812	383.5
414.035	397.5
414.258	397.5
414.482	379.5
414.705	384.5
414.928	379.5
415.151	384.5
415.374	371.5
415.597	383.5
415.821	393.5
416.044	387.5
416.267	379.5
416.49	385.5
416.713	391.5
416.936	394.5
417.159	400.5
417.382	392.5
417.605	401.5
417.828	401.5
418.051	423.5
418.274	420.5
418.497	397.5
418.72	413.5
418.943	392.5
419.166	416.5
419.389	417.5
419.611	439.5
419.834	400.5
420.057	406.5
420.28	423.5
420.503	402.5
420.726	396.5
420.948	429.5
421.171	470.5
421.394	477.5
421.617	448.5
421.839	419.5
422.062	429.5
422.285	402.5
422.507	475.5
422.73	548.5
422.953	535.5
423.175	485.5
423.398	440.5
423.621	442.5
423.843	487.5
424.066	450.5
424.288	458.5
424.511	482.5
424.733	541.5
424.956	611.5
425.178	588.5
425.401	561.5
425.623	596.5
425.846	525.5
426.068	504.5
426.291	467.5
426.513	463.5
426.735	481.5
426.958	489.5
427.18	570.5
427.402	693.5
427.625	773.5
427.847	694.5
428.069	578.5
428.292	528.5
428.514	468.5
428.736	465.5
428.958	460.5
429.181	427.5
429.403	427.5
429.625	442.5
429.847	488.5
430.069	531.5
430.292	528.5
430.514	459.5
430.736	450.5
430.958	433.5
431.18	399.5
431.402	400.5
431.624	409.5
431.846	405.5
432.068	414.5
432.29	393.5
432.512	398.5
432.734	408.5
432.956	390.5
433.178	411.5
433.4	415.5
433.622	408.5
433.844	405.5
434.066	429.5
434.287	392.5
434.509	413.5
434.731	418.5
434.953	392.5
435.175	441.5
435.397	458.5
435.618	470.5
435.84	491.5
436.062	583.5
436.284	648.5
436.505	565.5
436.727	511.5
436.949	465.5
437.17	443.5
437.392	441.5
437.614	437.5
437.835	485.5
438.057	593.5
438.278	674.5
438.5	678.5
438.721	706.5
438.943	684.5
439.165	552.5
439.386	520.5
439.608	495.5
439.829	487.5
440.05	505.5
440.272	576.5
440.493	519.5
440.715	461.5
440.936	472.5
441.158	447.5
441.379	456.5
441.6	460.5
441.822	467.5
442.043	497.5
442.264	610.5
442.486	625.5
442.707	530.5
442.928	495.5
443.149	484.5
443.371	527.5
443.592	543.5
443.813	614.5
444.034	665.5
444.255	583.5
444.476	519.5
444.698	496.5
444.919	459.5
445.14	591.5
445.361	523.5
445.582	506.5
445.803	561.5
446.024	661.5
446.245	684.5
446.466	606.5
446.687	531.5
446.908	486.5
447.129	453.5
447.35	448.5
447.571	453.5
447.792	439.5
448.013	458.5
448.234	476.5
448.455	519.5
448.675	628.5
448.896	707.5
449.117	625.5
449.338	584.5
449.559	654.5
449.779	747.5
450	597.5
450.221	486.5
450.442	469.5
450.662	442.5
450.883	452.5
451.104	484.5
451.324	445.5
451.545	440.5
451.766	432.5
451.986	409.5
452.207	384.5
452.428	396.5
452.648	393.5
452.869	409.5
453.089	412.5
453.31	407.5
453.53	394.5
453.751	391.5
453.971	376.5
454.192	433.5
454.412	395.5
454.633	379.5
454.853	387.5
455.073	388.5
455.294	399.5
455.514	496.5
455.734	476.5
455.955	385.5
456.175	371.5
456.395	367.5
456.616	340.5
456.836	375.5
457.056	379.5
457.276	363.5
457.497	357.5
457.717	352.5
457.937	367.5
458.157	369.5
458.377	374.5
458.598	409.5
458.818	478.5
459.038	544.5
459.258	542.5
459.478	460.5
459.698	409.5
459.918	402.5
460.138	395.5
460.358	386.5
460.578	388.5
460.798	393.5
461.018	408.5
461.238	399.5
461.458	398.5
461.678	376.5
461.898	402.5
462.118	378.5
462.338	407.5
462.558	402.5
462.777	408.5
462.997	393.5
463.217	406.5
463.437	423.5
463.657	419.5
463.876	418.5
464.096	416.5
464.316	432.5
464.536	432.5
464.755	420.5
464.975	434.5
465.195	487.5
465.414	579.5
465.634	485.5
465.854	448.5
466.073	433.5
466.293	408.5
466.512	387.5
466.732	383.5
466.951	387.5
467.171	389.5
467.391	423.5
467.61	387.5
467.829	411.5
468.049	405.5
468.268	376.5
468.488	383.5
468.707	377.5
468.927	385.5
469.146	384.5
469.365	371.5
469.585	383.5
469.804	389.5
470.023	394.5
470.243	398.5
470.462	405.5
470.681	428.5
470.901	428.5
471.12	395.5
471.339	401.5
471.558	387.5
471.777	398.5
471.997	395.5
472.216	398.5
472.435	391.5
472.654	394.5
472.873	386.5
473.092	376.5
473.311	390.5
473.53	386.5
473.749	419.5
473.968	459.5
474.187	537.5
474.406	593.5
474.625	480.5
474.844	409.5
475.063	410.5
475.282	400.5
475.501	396.5
475.72	403.5
475.939	399.5
476.158	412.5
476.377	415.5
476.596	394.5
476.814	396.5
477.033	417.5
477.252	432.5
477.471	439.5
477.69	431.5
477.908	424.5
478.127	417.5
478.346	419.5
478.564	419.5
478.783	436.5
479.002	441.5
479.22	451.5
479.439	460.5
479.658	470.5
479.876	468.5
480.095	501.5
480.313	512.5
480.532	485.5
480.751	459.5
480.969	484.5
481.188	484.5
481.406	486.5
481.624	467.5
481.843	457.5
482.061	464.5
482.28	472.5
482.498	454.5
482.717	473.5
482.935	441.5
483.153	457.5
483.372	453.5
483.59	461.5
483.808	471.5
484.027	475.5
484.245	466.5
484.463	482.5
484.681	475.5
484.9	495.5
485.118	489.5
485.336	476.5
485.554	469.5
485.772	497.5
485.99	484.5
486.209	499.5
486.427	490.5
486.645	503.5
486.863	513.5
487.081	529.5
487.299	508.5
487.517	493.5
487.735	455.5
487.953	511.5
488.171	499.5
488.389	497.5
488.607	496.5
488.825	493.5
489.043	509.5
489.261	495.5
489.479	503.5
489.696	528.5
489.914	507.5
490.132	525.5
490.35	531.5
490.568	534.5
490.786	538.5
491.003	543.5
491.221	550.5
491.439	567.5
491.657	568.5
491.874	561.5
492.092	602.5
492.31	587.5
492.527	590.5
492.745	596.5
492.963	595.5
493.18	589.5
493.398	586.5
493.615	610.5
493.833	593.5
494.05	611.5
494.268	601.5
494.485	623.5
494.703	620.5
494.92	601.5
495.138	617.5
495.355	589.5
495.573	603.5
495.79	608.5
496.008	623.5
496.225	595.5
496.442	597.5
496.66	600.5
496.877	603.5
497.094	601.5
497.312	602.5
497.529	632.5
497.746	627.5
497.963	639.5
498.181	648.5
498.398	664.5
498.615	667.5
498.832	667.5
499.049	657.5
499.267	663.5
499.484	673.5
499.701	658.5
499.918	703.5
500.135	710.5
500.352	745.5
500.569	763.5
500.786	739.5
501.003	748.5
501.22	739.5
501.437	693.5
501.654	720.5
501.871	753.5
502.088	719.5
502.305	704.5
502.522	663.5
502.739	673.5
502.956	640.5
503.172	625.5
503.389	640.5
503.606	638.5
503.823	642.5
504.04	640.5
504.256	619.5
504.473	634.5
504.69	608.5
504.907	614.5
505.123	606.5
505.34	603.5
505.557	583.5
505.773	602.5
505.99	595.5
506.207	596.5
506.423	605.5
506.64	591.5
506.856	600.5
507.073	595.5
507.289	576.5
507.506	563.5
507.722	615.5
507.939	612.5
508.155	583.5
508.372	599.5
508.588	577.5
508.805	543.5
509.021	568.5
509.238	593.5
509.454	605.5
509.67	580.5
509.887	576.5
510.103	560.5
510.319	580.5
510.536	706.5
510.752	1238.5
510.968	996.5
511.184	617.5
511.401	565.5
511.617	563.5
511.833	544.5
512.049	544.5
512.265	526.5
512.481	529.5
512.698	554.5
512.914	544.5
513.13	523.5
513.346	534.5
513.562	550.5
513.778	565.5
513.994	556.5
514.21	580.5
514.426	577.5
514.642	651.5
514.858	677.5
515.074	713.5
515.29	889.5
515.506	1375.5
515.721	1103.5
515.937	719.5
516.153	629.5
516.369	594.5
516.585	547.5
516.801	563.5
517.016	561.5
517.232	562.5
517.448	538.5
517.664	526.5
517.879	529.5
518.095	547.5
518.311	525.5
518.527	536.5
518.742	559.5
518.958	521.5
519.173	546.5
519.389	545.5
519.605	556.5
519.82	538.5
