Data from 1986.PennyLincolnUp.Lamp.En5.5.200Scan.071819.P2_HRD10591_17-12-34-975.txt Node
Date: Thu Jul 18 17:12:34 EDT 2019
User: cochatt
Spectrometer: HR+D1059
Trigger mode: 1
Integration Time (sec): 1.000000E-1
Scans to average: 1
Electric dark correction enabled: true
Nonlinearity correction enabled: false
Boxcar width: 0
XAxis mode: Wavelengths
Number of Pixels in Spectrum: 2048
>>>>>Begin Spectral Data<<<<<
223.165	-13.69
223.4	-13.69
223.635	-13.69
223.869	-8.69
224.104	-11.69
224.338	-23.69
224.573	-4.69
224.808	-14.69
225.042	-1.69
225.277	-12.69
225.511	1.31
225.746	-13.69
225.98	9.31
226.215	15.31
226.449	15.31
226.683	2.31
226.918	28.31
227.152	33.31
227.387	42.31
227.621	46.31
227.856	43.31
228.09	57.31
228.324	45.31
228.559	58.31
228.793	65.31
229.027	90.31
229.262	95.31
229.496	111.31
229.73	132.31
229.964	155.31
230.199	127.31
230.433	126.31
230.667	113.31
230.901	115.31
231.136	117.31
231.37	111.31
231.604	107.31
231.838	108.31
232.072	95.31
232.306	113.31
232.541	104.31
232.775	127.31
233.009	119.31
233.243	113.31
233.477	100.31
233.711	120.31
233.945	113.31
234.179	107.31
234.413	125.31
234.647	113.31
234.881	110.31
235.115	113.31
235.349	121.31
235.583	111.31
235.817	124.31
236.051	131.31
236.285	128.31
236.519	126.31
236.753	136.31
236.987	147.31
237.221	186.31
237.455	254.31
237.689	193.31
237.922	154.31
238.156	155.31
238.39	144.31
238.624	131.31
238.858	135.31
239.091	132.31
239.325	138.31
239.559	125.31
239.793	124.31
240.027	139.31
240.26	146.31
240.494	179.31
240.728	181.31
240.961	172.31
241.195	165.31
241.429	131.31
241.662	146.31
241.896	143.31
242.13	149.31
242.363	141.31
242.597	133.31
242.83	157.31
243.064	155.31
243.298	150.31
243.531	145.31
243.765	156.31
243.998	162.31
244.232	164.31
244.465	143.31
244.699	148.31
244.932	154.31
245.166	153.31
245.399	143.31
245.633	155.31
245.866	149.31
246.099	154.31
246.333	165.31
246.566	149.31
246.8	158.31
247.033	169.31
247.266	157.31
247.5	174.31
247.733	188.31
247.966	213.31
248.2	184.31
248.433	182.31
248.666	172.31
248.899	201.31
249.133	217.31
249.366	241.31
249.599	212.31
249.832	213.31
250.066	213.31
250.299	222.31
250.532	254.31
250.765	277.31
250.998	280.31
251.231	274.31
251.465	270.31
251.698	225.31
251.931	248.31
252.164	228.31
252.397	241.31
252.63	225.31
252.863	234.31
253.096	241.31
253.329	251.31
253.562	234.31
253.795	263.31
254.028	241.31
254.261	246.31
254.494	254.31
254.727	271.31
254.96	310.31
255.193	305.31
255.426	284.31
255.659	303.31
255.892	327.31
256.124	355.31
256.357	379.31
256.59	340.31
256.823	325.31
257.056	308.31
257.289	283.31
257.521	269.31
257.754	264.31
257.987	261.31
258.22	265.31
258.452	248.31
258.685	236.31
258.918	230.31
259.151	250.31
259.383	248.31
259.616	258.31
259.849	259.31
260.081	279.31
260.314	280.31
260.547	303.31
260.779	279.31
261.012	271.31
261.244	263.31
261.477	246.31
261.71	262.31
261.942	248.31
262.175	273.31
262.407	249.31
262.64	248.31
262.872	233.31
263.105	222.31
263.337	214.31
263.57	224.31
263.802	231.31
264.035	233.31
264.267	242.31
264.499	238.31
264.732	244.31
264.964	229.31
265.197	221.31
265.429	244.31
265.661	233.31
265.894	233.31
266.126	238.31
266.358	238.31
266.591	218.31
266.823	235.31
267.055	253.31
267.287	241.31
267.52	226.31
267.752	232.31
267.984	251.31
268.216	232.31
268.448	230.31
268.681	253.31
268.913	263.31
269.145	276.31
269.377	313.31
269.609	289.31
269.841	293.31
270.073	303.31
270.306	306.31
270.538	339.31
270.77	362.31
271.002	334.31
271.234	327.31
271.466	309.31
271.698	333.31
271.93	338.31
272.162	338.31
272.394	331.31
272.626	326.31
272.858	298.31
273.09	301.31
273.322	286.31
273.553	299.31
273.785	287.31
274.017	292.31
274.249	278.31
274.481	283.31
274.713	293.31
274.945	300.31
275.176	277.31
275.408	288.31
275.64	292.31
275.872	295.31
276.104	284.31
276.335	267.31
276.567	282.31
276.799	318.31
277.031	338.31
277.262	358.31
277.494	346.31
277.726	326.31
277.957	310.31
278.189	318.31
278.421	285.31
278.652	299.31
278.884	287.31
279.115	287.31
279.347	290.31
279.579	300.31
279.81	290.31
280.042	303.31
280.273	298.31
280.505	319.31
280.736	288.31
280.968	300.31
281.199	285.31
281.431	269.31
281.662	261.31
281.894	274.31
282.125	284.31
282.356	309.31
282.588	330.31
282.819	315.31
283.051	305.31
283.282	286.31
283.513	291.31
283.745	297.31
283.976	284.31
284.207	288.31
284.439	293.31
284.67	297.31
284.901	305.31
285.132	304.31
285.364	280.31
285.595	274.31
285.826	288.31
286.057	277.31
286.288	302.31
286.52	289.31
286.751	290.31
286.982	265.31
287.213	296.31
287.444	300.31
287.675	307.31
287.906	308.31
288.138	324.31
288.369	330.31
288.6	298.31
288.831	300.31
289.062	297.31
289.293	318.31
289.524	303.31
289.755	311.31
289.986	310.31
290.217	300.31
290.448	298.31
290.679	293.31
290.91	293.31
291.141	294.31
291.371	290.31
291.602	298.31
291.833	301.31
292.064	287.31
292.295	309.31
292.526	285.31
292.757	300.31
292.987	304.31
293.218	279.31
293.449	276.31
293.68	315.31
293.91	284.31
294.141	294.31
294.372	294.31
294.603	295.31
294.833	301.31
295.064	291.31
295.295	294.31
295.525	286.31
295.756	318.31
295.987	305.31
296.217	325.31
296.448	325.31
296.679	331.31
296.909	311.31
297.14	316.31
297.37	317.31
297.601	298.31
297.831	294.31
298.062	302.31
298.292	313.31
298.523	304.31
298.753	303.31
298.984	302.31
299.214	316.31
299.445	325.31
299.675	314.31
299.905	319.31
300.136	315.31
300.366	315.31
300.597	317.31
300.827	322.31
301.057	338.31
301.288	338.31
301.518	339.31
301.748	341.31
301.979	356.31
302.209	328.31
302.439	330.31
302.669	337.31
302.9	339.31
303.13	321.31
303.36	334.31
303.59	339.31
303.82	358.31
304.051	347.31
304.281	321.31
304.511	316.31
304.741	334.31
304.971	328.31
305.201	339.31
305.431	320.31
305.661	330.31
305.891	332.31
306.121	317.31
306.352	337.31
306.582	343.31
306.812	351.31
307.042	342.31
307.272	349.31
307.502	361.31
307.731	352.31
307.961	346.31
308.191	332.31
308.421	358.31
308.651	354.31
308.881	350.31
309.111	348.31
309.341	339.31
309.571	363.31
309.8	378.31
310.03	380.31
310.26	393.31
310.49	394.31
310.72	383.31
310.949	407.31
311.179	399.31
311.409	387.31
311.639	377.31
311.868	382.31
312.098	405.31
312.328	389.31
312.557	420.31
312.787	436.31
313.017	413.31
313.246	412.31
313.476	381.31
313.706	405.31
313.935	405.31
314.165	404.31
314.394	405.31
314.624	405.31
314.853	391.31
315.083	409.31
315.312	392.31
315.542	387.31
315.771	367.31
316.001	397.31
316.23	379.31
316.46	397.31
316.689	385.31
316.919	411.31
317.148	403.31
317.377	419.31
317.607	406.31
317.836	414.31
318.065	400.31
318.295	407.31
318.524	399.31
318.753	359.31
318.983	383.31
319.212	406.31
319.441	399.31
319.67	403.31
319.9	407.31
320.129	381.31
320.358	392.31
320.587	395.31
320.816	412.31
321.046	414.31
321.275	406.31
321.504	418.31
321.733	414.31
321.962	433.31
322.191	439.31
322.42	453.31
322.649	478.31
322.878	493.31
323.108	499.31
323.337	535.31
323.566	563.31
323.795	594.31
324.024	635.31
324.253	811.31
324.482	1157.31
324.71	1727.31
324.939	2443.31
325.168	2155.31
325.397	1143.31
325.626	769.31
325.855	629.31
326.084	597.31
326.313	568.31
326.542	590.31
326.77	641.31
326.999	729.31
327.228	1038.31
327.457	1555.31
327.686	1916.31
327.914	1340.31
328.143	914.31
328.372	857.31
328.6	750.31
328.829	713.31
329.058	705.31
329.287	713.31
329.515	695.31
329.744	669.31
329.972	732.31
330.201	859.31
330.43	968.31
330.658	890.31
330.887	799.31
331.115	717.31
331.344	643.31
331.572	561.31
331.801	563.31
332.03	560.31
332.258	569.31
332.486	544.31
332.715	517.31
332.943	523.31
333.172	535.31
333.4	563.31
333.629	570.31
333.857	616.31
334.085	697.31
334.314	814.31
334.542	1002.31
334.771	1081.31
334.999	831.31
335.227	637.31
335.455	555.31
335.684	516.31
335.912	497.31
336.14	485.31
336.369	481.31
336.597	479.31
336.825	501.31
337.053	488.31
337.281	467.31
337.51	469.31
337.738	475.31
337.966	473.31
338.194	457.31
338.422	473.31
338.65	451.31
338.878	445.31
339.106	446.31
339.334	431.31
339.562	454.31
339.79	437.31
340.018	438.31
340.246	434.31
340.474	436.31
340.702	435.31
340.93	435.31
341.158	434.31
341.386	438.31
341.614	439.31
341.842	439.31
342.07	450.31
342.298	420.31
342.526	456.31
342.754	414.31
342.981	394.31
343.209	408.31
343.437	409.31
343.665	421.31
343.893	426.31
344.12	426.31
344.348	409.31
344.576	438.31
344.804	443.31
345.031	444.31
345.259	442.31
345.487	434.31
345.714	445.31
345.942	407.31
346.17	418.31
346.397	417.31
346.625	417.31
346.853	418.31
347.08	423.31
347.308	431.31
347.535	442.31
347.763	438.31
347.99	426.31
348.218	427.31
348.445	463.31
348.673	437.31
348.9	417.31
349.128	415.31
349.355	412.31
349.583	422.31
349.81	409.31
350.037	393.31
350.265	392.31
350.492	393.31
350.72	384.31
350.947	433.31
351.174	416.31
351.402	449.31
351.629	441.31
351.856	427.31
352.083	414.31
352.311	440.31
352.538	439.31
352.765	425.31
352.992	413.31
353.22	422.31
353.447	409.31
353.674	423.31
353.901	409.31
354.128	398.31
354.355	390.31
354.583	391.31
354.81	394.31
355.037	379.31
355.264	389.31
355.491	370.31
355.718	373.31
355.945	380.31
356.172	371.31
356.399	367.31
356.626	375.31
356.853	359.31
357.08	366.31
357.307	370.31
357.534	377.31
357.761	377.31
357.988	387.31
358.215	398.31
358.441	377.31
358.668	378.31
358.895	397.31
359.122	407.31
359.349	411.31
359.576	427.31
359.802	426.31
360.029	461.31
360.256	465.31
360.483	461.31
360.709	424.31
360.936	423.31
361.163	414.31
361.39	416.31
361.616	398.31
361.843	393.31
362.07	409.31
362.296	413.31
362.523	416.31
362.749	409.31
362.976	409.31
363.203	404.31
363.429	373.31
363.656	381.31
363.882	390.31
364.109	388.31
364.335	392.31
364.562	384.31
364.788	399.31
365.015	401.31
365.241	399.31
365.468	405.31
365.694	384.31
365.92	416.31
366.147	392.31
366.373	379.31
366.599	377.31
366.826	391.31
367.052	387.31
367.278	376.31
367.505	381.31
367.731	350.31
367.957	387.31
368.184	397.31
368.41	392.31
368.636	410.31
368.862	395.31
369.089	412.31
369.315	404.31
369.541	381.31
369.767	355.31
369.993	398.31
370.219	381.31
370.445	380.31
370.672	370.31
370.898	391.31
371.124	390.31
371.35	377.31
371.576	361.31
371.802	379.31
372.028	372.31
372.254	396.31
372.48	366.31
372.706	375.31
372.932	361.31
373.158	377.31
373.384	365.31
373.61	385.31
373.835	375.31
374.061	387.31
374.287	377.31
374.513	384.31
374.739	389.31
374.965	368.31
375.191	380.31
375.416	361.31
375.642	385.31
375.868	365.31
376.094	387.31
376.319	372.31
376.545	362.31
376.771	367.31
376.997	373.31
377.222	353.31
377.448	365.31
377.674	374.31
377.899	387.31
378.125	363.31
378.35	387.31
378.576	362.31
378.802	356.31
379.027	366.31
379.253	365.31
379.478	354.31
379.704	361.31
379.929	372.31
380.155	349.31
380.38	383.31
380.606	360.31
380.831	364.31
381.057	388.31
381.282	359.31
381.507	377.31
381.733	376.31
381.958	375.31
382.184	378.31
382.409	389.31
382.634	387.31
382.86	384.31
383.085	363.31
383.31	383.31
383.535	380.31
383.761	377.31
383.986	365.31
384.211	375.31
384.436	399.31
384.662	393.31
384.887	392.31
385.112	394.31
385.337	378.31
385.562	387.31
385.787	381.31
386.013	405.31
386.238	380.31
386.463	390.31
386.688	383.31
386.913	392.31
387.138	397.31
387.363	384.31
387.588	388.31
387.813	391.31
388.038	382.31
388.263	400.31
388.488	402.31
388.713	391.31
388.938	379.31
389.163	385.31
389.387	387.31
389.612	387.31
389.837	399.31
390.062	383.31
390.287	386.31
390.512	380.31
390.736	394.31
390.961	375.31
391.186	392.31
391.411	372.31
391.636	404.31
391.86	386.31
392.085	398.31
392.31	407.31
392.534	409.31
392.759	400.31
392.984	373.31
393.208	396.31
393.433	381.31
393.658	388.31
393.882	400.31
394.107	400.31
394.331	400.31
394.556	398.31
394.78	405.31
395.005	413.31
395.229	396.31
395.454	398.31
395.678	410.31
395.903	425.31
396.127	431.31
396.352	430.31
396.576	434.31
396.801	397.31
397.025	382.31
397.249	379.31
397.474	405.31
397.698	407.31
397.922	420.31
398.147	433.31
398.371	451.31
398.595	439.31
398.82	445.31
399.044	415.31
399.268	448.31
399.492	459.31
399.717	475.31
399.941	494.31
400.165	516.31
400.389	559.31
400.613	473.31
400.837	450.31
401.062	461.31
401.286	449.31
401.51	423.31
401.734	437.31
401.958	451.31
402.182	427.31
402.406	439.31
402.63	446.31
402.854	460.31
403.078	441.31
403.302	449.31
403.526	452.31
403.75	476.31
403.974	457.31
404.198	471.31
404.422	467.31
404.645	500.31
404.869	507.31
405.093	553.31
405.317	603.31
405.541	641.31
405.765	586.31
405.988	518.31
406.212	551.31
406.436	548.31
406.66	553.31
406.883	534.31
407.107	505.31
407.331	561.31
407.555	610.31
407.778	613.31
408.002	555.31
408.226	519.31
408.449	523.31
408.673	521.31
408.896	558.31
409.12	577.31
409.344	557.31
409.567	485.31
409.791	481.31
410.014	478.31
410.238	473.31
410.461	469.31
410.685	478.31
410.908	481.31
411.132	507.31
411.355	553.31
411.578	551.31
411.802	495.31
412.025	484.31
412.249	523.31
412.472	567.31
412.695	621.31
412.919	645.31
413.142	568.31
413.365	540.31
413.589	530.31
413.812	514.31
414.035	472.31
414.258	486.31
414.482	454.31
414.705	486.31
414.928	463.31
415.151	453.31
415.374	429.31
415.597	456.31
415.821	453.31
416.044	453.31
416.267	458.31
416.49	444.31
416.713	428.31
416.936	424.31
417.159	446.31
417.382	443.31
417.605	485.31
417.828	490.31
418.051	500.31
418.274	483.31
418.497	463.31
418.72	455.31
418.943	442.31
419.166	453.31
419.389	482.31
419.611	457.31
419.834	487.31
420.057	512.31
420.28	511.31
420.503	555.31
420.726	523.31
420.948	528.31
421.171	564.31
421.394	555.31
421.617	505.31
421.839	478.31
422.062	482.31
422.285	481.31
422.507	567.31
422.73	613.31
422.953	617.31
423.175	535.31
423.398	505.31
423.621	491.31
423.843	523.31
424.066	512.31
424.288	509.31
424.511	514.31
424.733	598.31
424.956	659.31
425.178	633.31
425.401	648.31
425.623	663.31
425.846	541.31
426.068	501.31
426.291	488.31
426.513	509.31
426.735	526.31
426.958	567.31
427.18	637.31
427.402	759.31
427.625	820.31
427.847	792.31
428.069	759.31
428.292	655.31
428.514	575.31
428.736	539.31
428.958	503.31
429.181	483.31
429.403	486.31
429.625	500.31
429.847	519.31
430.069	594.31
430.292	593.31
430.514	485.31
430.736	482.31
430.958	458.31
431.18	447.31
431.402	458.31
431.624	434.31
431.846	438.31
432.068	448.31
432.29	432.31
432.512	437.31
432.734	457.31
432.956	459.31
433.178	454.31
433.4	469.31
433.622	452.31
433.844	456.31
434.066	442.31
434.287	453.31
434.509	440.31
434.731	461.31
434.953	447.31
435.175	481.31
435.397	500.31
435.618	515.31
435.84	546.31
436.062	650.31
436.284	714.31
436.505	575.31
436.727	528.31
436.949	485.31
437.17	475.31
437.392	482.31
437.614	515.31
437.835	536.31
438.057	635.31
438.278	727.31
438.5	727.31
438.721	791.31
438.943	753.31
439.165	595.31
439.386	549.31
439.608	537.31
439.829	539.31
440.05	557.31
440.272	604.31
440.493	561.31
440.715	514.31
440.936	507.31
441.158	493.31
441.379	461.31
441.6	478.31
441.822	511.31
442.043	569.31
442.264	637.31
442.486	668.31
442.707	584.31
442.928	522.31
443.149	536.31
443.371	570.31
443.592	610.31
443.813	695.31
444.034	738.31
444.255	594.31
444.476	537.31
444.698	522.31
444.919	499.31
445.14	587.31
445.361	574.31
445.582	561.31
445.803	630.31
446.024	723.31
446.245	724.31
446.466	659.31
446.687	554.31
446.908	521.31
447.129	482.31
447.35	492.31
447.571	468.31
447.792	474.31
448.013	500.31
448.234	507.31
448.455	574.31
448.675	674.31
448.896	771.31
449.117	660.31
449.338	628.31
449.559	723.31
449.779	831.31
450	661.31
450.221	535.31
450.442	497.31
450.662	467.31
450.883	486.31
451.104	491.31
451.324	502.31
451.545	471.31
451.766	438.31
451.986	439.31
452.207	433.31
452.428	418.31
452.648	425.31
452.869	431.31
453.089	434.31
453.31	450.31
453.53	430.31
453.751	421.31
453.971	450.31
454.192	458.31
454.412	445.31
454.633	422.31
454.853	439.31
455.073	431.31
455.294	458.31
455.514	537.31
455.734	533.31
455.955	454.31
456.175	391.31
456.395	404.31
456.616	408.31
456.836	381.31
457.056	397.31
457.276	414.31
457.497	394.31
457.717	409.31
457.937	401.31
458.157	414.31
458.377	434.31
458.598	434.31
458.818	496.31
459.038	588.31
459.258	581.31
459.478	497.31
459.698	462.31
459.918	433.31
460.138	441.31
460.358	437.31
460.578	437.31
460.798	420.31
461.018	444.31
461.238	428.31
461.458	423.31
461.678	433.31
461.898	440.31
462.118	433.31
462.338	446.31
462.558	433.31
462.777	439.31
462.997	443.31
463.217	437.31
463.437	465.31
463.657	457.31
463.876	449.31
464.096	454.31
464.316	439.31
464.536	457.31
464.755	464.31
464.975	454.31
465.195	513.31
465.414	595.31
465.634	526.31
465.854	474.31
466.073	467.31
466.293	441.31
466.512	408.31
466.732	423.31
466.951	432.31
467.171	437.31
467.391	472.31
467.61	464.31
467.829	467.31
468.049	481.31
468.268	527.31
468.488	503.31
468.707	465.31
468.927	449.31
469.146	435.31
469.365	445.31
469.585	423.31
469.804	438.31
470.023	455.31
470.243	446.31
470.462	451.31
470.681	465.31
470.901	468.31
471.12	445.31
471.339	464.31
471.558	471.31
471.777	474.31
471.997	474.31
472.216	530.31
472.435	779.31
472.654	678.31
472.873	560.31
473.092	521.31
473.311	501.31
473.53	486.31
473.749	511.31
473.968	565.31
474.187	622.31
474.406	621.31
474.625	541.31
474.844	487.31
475.063	470.31
475.282	460.31
475.501	483.31
475.72	480.31
475.939	485.31
476.158	464.31
476.377	488.31
476.596	467.31
476.814	462.31
477.033	491.31
477.252	476.31
477.471	483.31
477.69	496.31
477.908	481.31
478.127	476.31
478.346	477.31
478.564	499.31
478.783	493.31
479.002	504.31
479.22	513.31
479.439	530.31
479.658	524.31
479.876	535.31
480.095	564.31
480.313	558.31
480.532	556.31
480.751	602.31
480.969	666.31
481.188	983.31
481.406	1255.31
481.624	871.31
481.843	721.31
482.061	645.31
482.28	638.31
482.498	639.31
482.717	607.31
482.935	581.31
483.153	572.31
483.372	554.31
483.59	575.31
483.808	569.31
484.027	558.31
484.245	567.31
484.463	543.31
484.681	548.31
484.9	556.31
485.118	565.31
485.336	581.31
485.554	553.31
485.772	556.31
485.99	573.31
486.209	568.31
486.427	602.31
486.645	597.31
486.863	592.31
487.081	604.31
487.299	590.31
487.517	592.31
487.735	590.31
487.953	599.31
488.171	610.31
488.389	590.31
488.607	599.31
488.825	605.31
489.043	594.31
489.261	594.31
489.479	599.31
489.696	649.31
489.914	615.31
490.132	645.31
490.35	636.31
490.568	679.31
490.786	664.31
491.003	656.31
491.221	681.31
491.439	696.31
491.657	723.31
491.874	733.31
492.092	723.31
492.31	769.31
492.527	733.31
492.745	756.31
492.963	750.31
493.18	746.31
493.398	726.31
493.615	756.31
493.833	738.31
494.05	758.31
494.268	757.31
494.485	734.31
494.703	740.31
494.92	717.31
495.138	731.31
495.355	731.31
495.573	739.31
495.79	728.31
496.008	769.31
496.225	709.31
496.442	728.31
496.66	741.31
496.877	718.31
497.094	710.31
497.312	745.31
497.529	729.31
497.746	739.31
497.963	715.31
498.181	759.31
498.398	749.31
498.615	753.31
498.832	772.31
499.049	757.31
499.267	768.31
499.484	746.31
499.701	782.31
499.918	803.31
500.135	808.31
500.352	829.31
500.569	834.31
500.786	858.31
501.003	877.31
501.22	847.31
501.437	824.31
501.654	804.31
501.871	827.31
