Data from 1986.PennyLincolnUp.Lamp.En5.5.200Scan.071819.P1_HRD10591_17-08-21-973.txt Node
Date: Thu Jul 18 17:08:21 EDT 2019
User: cochatt
Spectrometer: HR+D1059
Trigger mode: 1
Integration Time (sec): 1.000000E-1
Scans to average: 1
Electric dark correction enabled: true
Nonlinearity correction enabled: false
Boxcar width: 0
XAxis mode: Wavelengths
Number of Pixels in Spectrum: 2048
>>>>>Begin Spectral Data<<<<<
223.165	-21.44
223.4	-21.44
223.635	-21.44
223.869	-18.44
224.104	-25.44
224.338	-25.44
224.573	-10.44
224.808	-2.44
225.042	0.56
225.277	-15.44
225.511	-12.44
225.746	13.56
225.98	18.56
226.215	8.56
226.449	19.56
226.683	18.56
226.918	28.56
227.152	23.56
227.387	37.56
227.621	38.56
227.856	44.56
228.09	39.56
228.324	52.56
228.559	44.56
228.793	62.56
229.027	80.56
229.262	74.56
229.496	88.56
229.73	92.56
229.964	109.56
230.199	109.56
230.433	84.56
230.667	89.56
230.901	89.56
231.136	97.56
231.37	113.56
231.604	97.56
231.838	90.56
232.072	100.56
232.306	99.56
232.541	97.56
232.775	93.56
233.009	100.56
233.243	91.56
233.477	100.56
233.711	100.56
233.945	93.56
234.179	101.56
234.413	114.56
234.647	105.56
234.881	96.56
235.115	122.56
235.349	109.56
235.583	120.56
235.817	105.56
236.051	101.56
236.285	100.56
236.519	92.56
236.753	117.56
236.987	114.56
237.221	136.56
237.455	159.56
237.689	137.56
237.922	96.56
238.156	116.56
238.39	114.56
238.624	117.56
238.858	101.56
239.091	96.56
239.325	107.56
239.559	97.56
239.793	106.56
240.027	114.56
240.26	116.56
240.494	113.56
240.728	131.56
240.961	121.56
241.195	117.56
241.429	116.56
241.662	121.56
241.896	110.56
242.13	106.56
242.363	126.56
242.597	118.56
242.83	126.56
243.064	115.56
243.298	119.56
243.531	110.56
243.765	124.56
243.998	112.56
244.232	106.56
244.465	114.56
244.699	114.56
244.932	123.56
245.166	122.56
245.399	118.56
245.633	126.56
245.866	108.56
246.099	120.56
246.333	132.56
246.566	122.56
246.8	125.56
247.033	144.56
247.266	126.56
247.5	124.56
247.733	129.56
247.966	144.56
248.2	130.56
248.433	136.56
248.666	155.56
248.899	128.56
249.133	137.56
249.366	161.56
249.599	158.56
249.832	145.56
250.066	161.56
250.299	146.56
250.532	152.56
250.765	152.56
250.998	161.56
251.231	166.56
251.465	169.56
251.698	152.56
251.931	152.56
252.164	157.56
252.397	140.56
252.63	162.56
252.863	160.56
253.096	172.56
253.329	183.56
253.562	164.56
253.795	162.56
254.028	154.56
254.261	150.56
254.494	160.56
254.727	180.56
254.96	195.56
255.193	186.56
255.426	168.56
255.659	150.56
255.892	166.56
256.124	165.56
256.357	179.56
256.59	173.56
256.823	164.56
257.056	163.56
257.289	161.56
257.521	178.56
257.754	178.56
257.987	171.56
258.22	163.56
258.452	169.56
258.685	160.56
258.918	152.56
259.151	162.56
259.383	165.56
259.616	150.56
259.849	159.56
260.081	166.56
260.314	188.56
260.547	202.56
260.779	196.56
261.012	176.56
261.244	172.56
261.477	181.56
261.71	172.56
261.942	180.56
262.175	186.56
262.407	180.56
262.64	174.56
262.872	184.56
263.105	184.56
263.337	172.56
263.57	176.56
263.802	186.56
264.035	162.56
264.267	159.56
264.499	170.56
264.732	178.56
264.964	181.56
265.197	180.56
265.429	172.56
265.661	176.56
265.894	168.56
266.126	176.56
266.358	165.56
266.591	170.56
266.823	169.56
267.055	193.56
267.287	190.56
267.52	180.56
267.752	165.56
267.984	181.56
268.216	177.56
268.448	192.56
268.681	197.56
268.913	195.56
269.145	200.56
269.377	203.56
269.609	196.56
269.841	205.56
270.073	201.56
270.306	217.56
270.538	227.56
270.77	211.56
271.002	212.56
271.234	212.56
271.466	213.56
271.698	230.56
271.93	233.56
272.162	228.56
272.394	227.56
272.626	210.56
272.858	219.56
273.09	204.56
273.322	205.56
273.553	207.56
273.785	199.56
274.017	195.56
274.249	192.56
274.481	199.56
274.713	224.56
274.945	216.56
275.176	201.56
275.408	217.56
275.64	219.56
275.872	205.56
276.104	219.56
276.335	210.56
276.567	210.56
276.799	224.56
277.031	227.56
277.262	223.56
277.494	229.56
277.726	222.56
277.957	233.56
278.189	202.56
278.421	232.56
278.652	228.56
278.884	193.56
279.115	213.56
279.347	204.56
279.579	206.56
279.81	203.56
280.042	223.56
280.273	222.56
280.505	218.56
280.736	205.56
280.968	207.56
281.199	231.56
281.431	212.56
281.662	226.56
281.894	228.56
282.125	201.56
282.356	222.56
282.588	237.56
282.819	236.56
283.051	216.56
283.282	203.56
283.513	216.56
283.745	200.56
283.976	220.56
284.207	224.56
284.439	235.56
284.67	232.56
284.901	227.56
285.132	229.56
285.364	226.56
285.595	220.56
285.826	214.56
286.057	214.56
286.288	212.56
286.52	229.56
286.751	212.56
286.982	238.56
287.213	217.56
287.444	222.56
287.675	224.56
287.906	235.56
288.138	231.56
288.369	247.56
288.6	227.56
288.831	222.56
289.062	244.56
289.293	251.56
289.524	227.56
289.755	215.56
289.986	242.56
290.217	241.56
290.448	228.56
290.679	232.56
290.91	227.56
291.141	229.56
291.371	223.56
291.602	225.56
291.833	228.56
292.064	232.56
292.295	214.56
292.526	215.56
292.757	210.56
292.987	228.56
293.218	236.56
293.449	240.56
293.68	230.56
293.91	244.56
294.141	240.56
294.372	229.56
294.603	231.56
294.833	244.56
295.064	233.56
295.295	216.56
295.525	237.56
295.756	231.56
295.987	252.56
296.217	233.56
296.448	263.56
296.679	219.56
296.909	253.56
297.14	231.56
297.37	232.56
297.601	249.56
297.831	226.56
298.062	264.56
298.292	265.56
298.523	257.56
298.753	251.56
298.984	260.56
299.214	238.56
299.445	254.56
299.675	239.56
299.905	269.56
300.136	257.56
300.366	241.56
300.597	266.56
300.827	256.56
301.057	236.56
301.288	251.56
301.518	288.56
301.748	258.56
301.979	269.56
302.209	271.56
302.439	253.56
302.669	271.56
302.9	260.56
303.13	263.56
303.36	256.56
303.59	246.56
303.82	268.56
304.051	268.56
304.281	280.56
304.511	256.56
304.741	273.56
304.971	252.56
305.201	261.56
305.431	257.56
305.661	254.56
305.891	264.56
306.121	264.56
306.352	261.56
306.582	268.56
306.812	270.56
307.042	254.56
307.272	260.56
307.502	268.56
307.731	273.56
307.961	252.56
308.191	250.56
308.421	286.56
308.651	275.56
308.881	268.56
309.111	274.56
309.341	258.56
309.571	272.56
309.8	273.56
310.03	285.56
310.26	286.56
310.49	266.56
310.72	281.56
310.949	282.56
311.179	298.56
311.409	289.56
311.639	281.56
311.868	286.56
312.098	291.56
312.328	290.56
312.557	283.56
312.787	297.56
313.017	296.56
313.246	304.56
313.476	302.56
313.706	298.56
313.935	309.56
314.165	310.56
314.394	296.56
314.624	311.56
314.853	300.56
315.083	289.56
315.312	295.56
315.542	304.56
315.771	299.56
316.001	301.56
316.23	291.56
316.46	285.56
316.689	297.56
316.919	294.56
317.148	300.56
317.377	308.56
317.607	306.56
317.836	295.56
318.065	288.56
318.295	304.56
318.524	295.56
318.753	284.56
318.983	284.56
319.212	317.56
319.441	295.56
319.67	298.56
319.9	291.56
320.129	288.56
320.358	294.56
320.587	290.56
320.816	307.56
321.046	314.56
321.275	307.56
321.504	296.56
321.733	305.56
321.962	301.56
322.191	324.56
322.42	317.56
322.649	316.56
322.878	344.56
323.108	333.56
323.337	341.56
323.566	374.56
323.795	376.56
324.024	387.56
324.253	457.56
324.482	625.56
324.71	851.56
324.939	1196.56
325.168	994.56
325.397	538.56
325.626	410.56
325.855	372.56
326.084	375.56
326.313	349.56
326.542	358.56
326.77	371.56
326.999	432.56
327.228	583.56
327.457	816.56
327.686	914.56
327.914	652.56
328.143	459.56
328.372	444.56
328.6	399.56
328.829	395.56
329.058	396.56
329.287	392.56
329.515	386.56
329.744	376.56
329.972	388.56
330.201	390.56
330.43	420.56
330.658	434.56
330.887	429.56
331.115	409.56
331.344	380.56
331.572	360.56
331.801	368.56
332.03	365.56
332.258	359.56
332.486	349.56
332.715	342.56
332.943	344.56
333.172	351.56
333.4	366.56
333.629	372.56
333.857	380.56
334.085	388.56
334.314	403.56
334.542	455.56
334.771	472.56
334.999	418.56
335.227	378.56
335.455	370.56
335.684	365.56
335.912	357.56
336.14	340.56
336.369	348.56
336.597	331.56
336.825	347.56
337.053	348.56
337.281	356.56
337.51	356.56
337.738	332.56
337.966	329.56
338.194	328.56
338.422	347.56
338.65	337.56
338.878	353.56
339.106	342.56
339.334	325.56
339.562	317.56
339.79	308.56
340.018	327.56
340.246	333.56
340.474	333.56
340.702	327.56
340.93	325.56
341.158	331.56
341.386	340.56
341.614	322.56
341.842	319.56
342.07	336.56
342.298	336.56
342.526	333.56
342.754	325.56
342.981	320.56
343.209	335.56
343.437	340.56
343.665	334.56
343.893	350.56
344.12	346.56
344.348	341.56
344.576	334.56
344.804	332.56
345.031	337.56
345.259	342.56
345.487	349.56
345.714	315.56
345.942	313.56
346.17	337.56
346.397	298.56
346.625	301.56
346.853	296.56
347.08	311.56
347.308	318.56
347.535	351.56
347.763	344.56
347.99	339.56
348.218	315.56
348.445	312.56
348.673	315.56
348.9	314.56
349.128	288.56
349.355	322.56
349.583	312.56
349.81	312.56
350.037	306.56
350.265	316.56
350.492	313.56
350.72	309.56
350.947	310.56
351.174	319.56
351.402	306.56
351.629	322.56
351.856	311.56
352.083	348.56
352.311	307.56
352.538	326.56
352.765	334.56
352.992	300.56
353.22	306.56
353.447	299.56
353.674	321.56
353.901	286.56
354.128	299.56
354.355	306.56
354.583	306.56
354.81	298.56
355.037	304.56
355.264	310.56
355.491	306.56
355.718	312.56
355.945	301.56
356.172	307.56
356.399	306.56
356.626	299.56
356.853	284.56
357.08	304.56
357.307	284.56
357.534	305.56
357.761	297.56
357.988	307.56
358.215	309.56
358.441	284.56
358.668	310.56
358.895	279.56
359.122	307.56
359.349	304.56
359.576	313.56
359.802	338.56
360.029	337.56
360.256	316.56
360.483	305.56
360.709	301.56
360.936	308.56
361.163	307.56
361.39	311.56
361.616	317.56
361.843	295.56
362.07	310.56
362.296	320.56
362.523	291.56
362.749	299.56
362.976	307.56
363.203	300.56
363.429	316.56
363.656	318.56
363.882	297.56
364.109	322.56
364.335	295.56
364.562	299.56
364.788	299.56
365.015	291.56
365.241	289.56
365.468	318.56
365.694	307.56
365.92	306.56
366.147	296.56
366.373	296.56
366.599	309.56
366.826	308.56
367.052	296.56
367.278	295.56
367.505	319.56
367.731	290.56
367.957	318.56
368.184	317.56
368.41	312.56
368.636	306.56
368.862	308.56
369.089	314.56
369.315	300.56
369.541	309.56
369.767	327.56
369.993	309.56
370.219	282.56
370.445	300.56
370.672	318.56
370.898	314.56
371.124	304.56
371.35	309.56
371.576	302.56
371.802	314.56
372.028	314.56
372.254	317.56
372.48	293.56
372.706	302.56
372.932	315.56
373.158	296.56
373.384	328.56
373.61	302.56
373.835	312.56
374.061	305.56
374.287	292.56
374.513	316.56
374.739	316.56
374.965	310.56
375.191	315.56
375.416	301.56
375.642	310.56
375.868	303.56
376.094	301.56
376.319	288.56
376.545	324.56
376.771	302.56
376.997	309.56
377.222	288.56
377.448	291.56
377.674	297.56
377.899	302.56
378.125	308.56
378.35	298.56
378.576	299.56
378.802	309.56
379.027	314.56
379.253	323.56
379.478	293.56
379.704	330.56
379.929	321.56
380.155	310.56
380.38	304.56
380.606	304.56
380.831	290.56
381.057	309.56
381.282	316.56
381.507	317.56
381.733	300.56
381.958	300.56
382.184	281.56
382.409	306.56
382.634	314.56
382.86	328.56
383.085	309.56
383.31	326.56
383.535	318.56
383.761	317.56
383.986	322.56
384.211	334.56
384.436	313.56
384.662	318.56
384.887	331.56
385.112	319.56
385.337	369.56
385.562	331.56
385.787	344.56
386.013	328.56
386.238	338.56
386.463	336.56
386.688	350.56
386.913	343.56
387.138	346.56
387.363	348.56
387.588	347.56
387.813	322.56
388.038	331.56
388.263	327.56
388.488	340.56
388.713	327.56
388.938	324.56
389.163	334.56
389.387	330.56
389.612	324.56
389.837	331.56
390.062	338.56
390.287	342.56
390.512	343.56
390.736	334.56
390.961	339.56
391.186	325.56
391.411	341.56
391.636	356.56
391.86	365.56
392.085	349.56
392.31	333.56
392.534	339.56
392.759	340.56
392.984	334.56
393.208	348.56
393.433	335.56
393.658	358.56
393.882	337.56
394.107	348.56
394.331	333.56
394.556	350.56
394.78	352.56
395.005	351.56
395.229	337.56
395.454	364.56
395.678	362.56
395.903	362.56
396.127	350.56
396.352	370.56
396.576	340.56
396.801	360.56
397.025	373.56
397.249	363.56
397.474	352.56
397.698	364.56
397.922	373.56
398.147	375.56
398.371	365.56
398.595	375.56
398.82	384.56
399.044	389.56
399.268	438.56
399.492	459.56
399.717	448.56
399.941	477.56
400.165	481.56
400.389	475.56
400.613	433.56
400.837	408.56
401.062	394.56
401.286	399.56
401.51	404.56
401.734	378.56
401.958	392.56
402.182	398.56
402.406	388.56
402.63	405.56
402.854	408.56
403.078	403.56
403.302	413.56
403.526	405.56
403.75	411.56
403.974	425.56
404.198	430.56
404.422	426.56
404.645	426.56
404.869	418.56
405.093	390.56
405.317	435.56
405.541	461.56
405.765	425.56
405.988	446.56
406.212	420.56
406.436	435.56
406.66	462.56
406.883	422.56
407.107	451.56
407.331	488.56
407.555	526.56
407.778	514.56
408.002	453.56
408.226	468.56
408.449	453.56
408.673	432.56
408.896	455.56
409.12	485.56
409.344	461.56
409.567	413.56
409.791	432.56
410.014	416.56
410.238	406.56
410.461	427.56
410.685	421.56
410.908	436.56
411.132	438.56
411.355	450.56
411.578	427.56
411.802	402.56
412.025	408.56
412.249	421.56
412.472	417.56
412.695	421.56
412.919	417.56
413.142	411.56
413.365	411.56
413.589	422.56
413.812	413.56
414.035	381.56
414.258	411.56
414.482	394.56
414.705	414.56
414.928	408.56
415.151	388.56
415.374	409.56
415.597	402.56
415.821	409.56
416.044	404.56
416.267	386.56
416.49	387.56
416.713	396.56
416.936	386.56
417.159	412.56
417.382	416.56
417.605	406.56
417.828	411.56
418.051	416.56
418.274	411.56
418.497	416.56
418.72	394.56
418.943	388.56
419.166	418.56
419.389	433.56
419.611	422.56
419.834	421.56
420.057	436.56
420.28	412.56
420.503	425.56
420.726	411.56
420.948	415.56
421.171	448.56
421.394	453.56
421.617	428.56
421.839	419.56
422.062	419.56
422.285	420.56
422.507	438.56
422.73	493.56
422.953	500.56
423.175	421.56
423.398	418.56
423.621	432.56
423.843	432.56
424.066	443.56
424.288	436.56
424.511	438.56
424.733	482.56
424.956	514.56
425.178	506.56
425.401	503.56
425.623	494.56
425.846	448.56
426.068	433.56
426.291	404.56
426.513	432.56
426.735	448.56
426.958	461.56
427.18	505.56
427.402	564.56
427.625	588.56
427.847	530.56
428.069	453.56
428.292	448.56
428.514	442.56
428.736	427.56
428.958	412.56
429.181	405.56
429.403	402.56
429.625	392.56
429.847	418.56
430.069	426.56
430.292	456.56
430.514	408.56
430.736	390.56
430.958	375.56
431.18	406.56
431.402	377.56
431.624	380.56
431.846	383.56
432.068	405.56
432.29	386.56
432.512	393.56
432.734	399.56
432.956	395.56
433.178	394.56
433.4	430.56
433.622	395.56
433.844	367.56
434.066	385.56
434.287	384.56
434.509	388.56
434.731	402.56
434.953	405.56
435.175	430.56
435.397	432.56
435.618	436.56
435.84	457.56
436.062	505.56
436.284	510.56
436.505	469.56
436.727	430.56
436.949	396.56
437.17	400.56
437.392	389.56
437.614	421.56
437.835	425.56
438.057	465.56
438.278	523.56
438.5	532.56
438.721	563.56
438.943	550.56
439.165	468.56
439.386	439.56
439.608	433.56
439.829	416.56
440.05	443.56
440.272	468.56
440.493	452.56
440.715	407.56
440.936	408.56
441.158	398.56
441.379	418.56
441.6	422.56
441.822	421.56
442.043	440.56
442.264	482.56
442.486	522.56
442.707	474.56
442.928	446.56
443.149	446.56
443.371	460.56
443.592	482.56
443.813	520.56
444.034	556.56
444.255	498.56
444.476	444.56
444.698	428.56
444.919	439.56
445.14	567.56
445.361	518.56
445.582	455.56
445.803	498.56
446.024	530.56
446.245	530.56
446.466	505.56
446.687	433.56
446.908	413.56
447.129	396.56
447.35	402.56
447.571	393.56
447.792	388.56
448.013	396.56
448.234	395.56
448.455	437.56
448.675	477.56
448.896	526.56
449.117	488.56
449.338	461.56
449.559	530.56
449.779	576.56
450	451.56
450.221	403.56
450.442	369.56
450.662	366.56
450.883	397.56
451.104	363.56
451.324	408.56
451.545	362.56
451.766	359.56
451.986	368.56
452.207	358.56
452.428	349.56
452.648	363.56
452.869	345.56
453.089	366.56
453.31	372.56
453.53	363.56
453.751	350.56
453.971	345.56
454.192	356.56
454.412	356.56
454.633	363.56
454.853	358.56
455.073	344.56
455.294	374.56
455.514	396.56
455.734	389.56
455.955	349.56
456.175	347.56
456.395	328.56
456.616	361.56
456.836	343.56
457.056	337.56
457.276	341.56
457.497	345.56
457.717	342.56
457.937	349.56
458.157	348.56
458.377	362.56
458.598	373.56
458.818	402.56
459.038	432.56
459.258	428.56
459.478	412.56
459.698	386.56
459.918	394.56
460.138	396.56
460.358	388.56
460.578	402.56
460.798	412.56
461.018	405.56
461.238	397.56
461.458	408.56
461.678	388.56
461.898	382.56
462.118	408.56
462.338	427.56
462.558	423.56
462.777	426.56
462.997	441.56
463.217	464.56
463.437	479.56
463.657	452.56
463.876	446.56
464.096	433.56
464.316	438.56
464.536	436.56
464.755	447.56
464.975	435.56
465.195	452.56
465.414	489.56
465.634	427.56
465.854	401.56
466.073	378.56
466.293	383.56
466.512	386.56
466.732	387.56
466.951	359.56
467.171	364.56
467.391	381.56
467.61	372.56
467.829	385.56
468.049	401.56
468.268	404.56
468.488	382.56
468.707	379.56
468.927	368.56
469.146	386.56
469.365	369.56
469.585	379.56
469.804	385.56
470.023	389.56
470.243	368.56
470.462	382.56
470.681	396.56
470.901	398.56
471.12	384.56
471.339	373.56
471.558	396.56
471.777	392.56
471.997	385.56
472.216	382.56
472.435	450.56
472.654	433.56
472.873	403.56
473.092	387.56
473.311	373.56
473.53	371.56
473.749	376.56
473.968	413.56
474.187	458.56
474.406	452.56
474.625	411.56
474.844	380.56
475.063	384.56
475.282	356.56
475.501	370.56
475.72	381.56
475.939	400.56
476.158	407.56
476.377	402.56
476.596	371.56
476.814	389.56
477.033	396.56
477.252	406.56
477.471	388.56
477.69	389.56
477.908	397.56
478.127	398.56
478.346	432.56
478.564	417.56
478.783	426.56
479.002	456.56
479.22	442.56
479.439	438.56
479.658	445.56
479.876	437.56
480.095	470.56
480.313	485.56
480.532	462.56
480.751	502.56
480.969	486.56
481.188	593.56
481.406	642.56
481.624	491.56
481.843	470.56
482.061	459.56
482.28	444.56
482.498	449.56
482.717	441.56
482.935	433.56
483.153	438.56
483.372	424.56
483.59	432.56
483.808	443.56
484.027	430.56
484.245	438.56
484.463	449.56
484.681	443.56
484.9	436.56
485.118	452.56
485.336	426.56
485.554	456.56
485.772	468.56
485.99	420.56
486.209	443.56
486.427	445.56
486.645	456.56
486.863	439.56
487.081	469.56
487.299	457.56
487.517	470.56
487.735	450.56
487.953	468.56
488.171	477.56
488.389	473.56
488.607	460.56
488.825	458.56
489.043	455.56
489.261	468.56
489.479	476.56
489.696	472.56
489.914	464.56
490.132	479.56
490.35	469.56
490.568	491.56
490.786	482.56
491.003	477.56
491.221	520.56
491.439	508.56
491.657	507.56
491.874	506.56
492.092	523.56
492.31	538.56
492.527	529.56
492.745	511.56
492.963	530.56
493.18	516.56
493.398	532.56
493.615	516.56
493.833	539.56
494.05	504.56
494.268	516.56
494.485	520.56
494.703	521.56
494.92	538.56
495.138	522.56
495.355	537.56
495.573	561.56
495.79	533.56
496.008	549.56
496.225	528.56
496.442	557.56
496.66	533.56
496.877	545.56
497.094	550.56
497.312	535.56
497.529	566.56
497.746	550.56
497.963	564.56
498.181	581.56
498.398	590.56
498.615	587.56
498.832	623.56
499.049	648.56
499.267	642.56
499.484	681.56
499.701	737.56
499.918	748.56
500.135	809.56
500.352	822.56
500.569	837.56
500.786	834.56
501.003	828.56
501.22	782.56
501.437	768.56
501.654	726.56
501.871	696.56
502.088	667.56
502.305	628.56
