Data from 1986.PennyLincolnUp.Lamp.En5.5.200Scan.071819.P2_HRD10591_17-10-24-973.txt Node
Date: Thu Jul 18 17:10:24 EDT 2019
User: cochatt
Spectrometer: HR+D1059
Trigger mode: 1
Integration Time (sec): 1.000000E-1
Scans to average: 1
Electric dark correction enabled: true
Nonlinearity correction enabled: false
Boxcar width: 0
XAxis mode: Wavelengths
Number of Pixels in Spectrum: 2048
>>>>>Begin Spectral Data<<<<<
223.165	-9.62
223.4	-9.62
223.635	-9.62
223.869	-9.62
224.104	-22.62
224.338	-15.62
224.573	-17.62
224.808	-4.62
225.042	-3.62
225.277	-17.62
225.511	7.38
225.746	7.38
225.98	7.38
226.215	5.38
226.449	-5.62
226.683	16.38
226.918	23.38
227.152	39.38
227.387	27.38
227.621	41.38
227.856	43.38
228.09	44.38
228.324	49.38
228.559	63.38
228.793	75.38
229.027	79.38
229.262	114.38
229.496	117.38
229.73	145.38
229.964	160.38
230.199	132.38
230.433	120.38
230.667	127.38
230.901	115.38
231.136	109.38
231.37	122.38
231.604	118.38
231.838	115.38
232.072	102.38
232.306	111.38
232.541	100.38
232.775	120.38
233.009	115.38
233.243	116.38
233.477	111.38
233.711	106.38
233.945	124.38
234.179	123.38
234.413	111.38
234.647	122.38
234.881	110.38
235.115	123.38
235.349	121.38
235.583	117.38
235.817	117.38
236.051	123.38
236.285	138.38
236.519	123.38
236.753	136.38
236.987	157.38
237.221	191.38
237.455	243.38
237.689	190.38
237.922	144.38
238.156	122.38
238.39	127.38
238.624	128.38
238.858	126.38
239.091	123.38
239.325	120.38
239.559	122.38
239.793	131.38
240.027	134.38
240.26	136.38
240.494	167.38
240.728	155.38
240.961	147.38
241.195	154.38
241.429	141.38
241.662	133.38
241.896	141.38
242.13	136.38
242.363	126.38
242.597	134.38
242.83	139.38
243.064	150.38
243.298	128.38
243.531	141.38
243.765	123.38
243.998	139.38
244.232	150.38
244.465	136.38
244.699	143.38
244.932	130.38
245.166	126.38
245.399	150.38
245.633	156.38
245.866	164.38
246.099	139.38
246.333	144.38
246.566	157.38
246.8	155.38
247.033	157.38
247.266	155.38
247.5	160.38
247.733	176.38
247.966	172.38
248.2	171.38
248.433	163.38
248.666	178.38
248.899	198.38
249.133	192.38
249.366	207.38
249.599	205.38
249.832	186.38
250.066	170.38
250.299	188.38
250.532	175.38
250.765	204.38
250.998	229.38
251.231	227.38
251.465	234.38
251.698	232.38
251.931	199.38
252.164	203.38
252.397	216.38
252.63	193.38
252.863	211.38
253.096	235.38
253.329	237.38
253.562	232.38
253.795	220.38
254.028	222.38
254.261	207.38
254.494	234.38
254.727	242.38
254.96	296.38
255.193	269.38
255.426	271.38
255.659	262.38
255.892	254.38
256.124	227.38
256.357	254.38
256.59	235.38
256.823	238.38
257.056	212.38
257.289	223.38
257.521	224.38
257.754	212.38
257.987	216.38
258.22	212.38
258.452	226.38
258.685	224.38
258.918	210.38
259.151	220.38
259.383	222.38
259.616	222.38
259.849	215.38
260.081	233.38
260.314	264.38
260.547	258.38
260.779	261.38
261.012	230.38
261.244	221.38
261.477	227.38
261.71	240.38
261.942	239.38
262.175	234.38
262.407	231.38
262.64	218.38
262.872	224.38
263.105	215.38
263.337	222.38
263.57	218.38
263.802	215.38
264.035	212.38
264.267	203.38
264.499	204.38
264.732	204.38
264.964	203.38
265.197	212.38
265.429	202.38
265.661	199.38
265.894	208.38
266.126	209.38
266.358	205.38
266.591	196.38
266.823	218.38
267.055	201.38
267.287	220.38
267.52	238.38
267.752	219.38
267.984	215.38
268.216	208.38
268.448	226.38
268.681	227.38
268.913	248.38
269.145	239.38
269.377	264.38
269.609	268.38
269.841	278.38
270.073	271.38
270.306	291.38
270.538	300.38
270.77	325.38
271.002	314.38
271.234	299.38
271.466	311.38
271.698	328.38
271.93	333.38
272.162	306.38
272.394	319.38
272.626	290.38
272.858	288.38
273.09	279.38
273.322	270.38
273.553	276.38
273.785	267.38
274.017	263.38
274.249	248.38
274.481	254.38
274.713	267.38
274.945	260.38
275.176	262.38
275.408	269.38
275.64	276.38
275.872	256.38
276.104	255.38
276.335	249.38
276.567	278.38
276.799	284.38
277.031	292.38
277.262	310.38
277.494	306.38
277.726	313.38
277.957	309.38
278.189	269.38
278.421	267.38
278.652	255.38
278.884	262.38
279.115	252.38
279.347	250.38
279.579	248.38
279.81	256.38
280.042	266.38
280.273	254.38
280.505	240.38
280.736	267.38
280.968	250.38
281.199	224.38
281.431	243.38
281.662	249.38
281.894	247.38
282.125	259.38
282.356	270.38
282.588	278.38
282.819	297.38
283.051	278.38
283.282	246.38
283.513	258.38
283.745	242.38
283.976	248.38
284.207	269.38
284.439	251.38
284.67	276.38
284.901	274.38
285.132	261.38
285.364	262.38
285.595	264.38
285.826	256.38
286.057	269.38
286.288	272.38
286.52	248.38
286.751	260.38
286.982	278.38
287.213	252.38
287.444	261.38
287.675	271.38
287.906	271.38
288.138	283.38
288.369	267.38
288.6	284.38
288.831	274.38
289.062	295.38
289.293	264.38
289.524	262.38
289.755	265.38
289.986	263.38
290.217	282.38
290.448	269.38
290.679	260.38
290.91	267.38
291.141	274.38
291.371	263.38
291.602	270.38
291.833	258.38
292.064	279.38
292.295	280.38
292.526	279.38
292.757	266.38
292.987	255.38
293.218	249.38
293.449	278.38
293.68	271.38
293.91	276.38
294.141	260.38
294.372	252.38
294.603	250.38
294.833	276.38
295.064	270.38
295.295	270.38
295.525	276.38
295.756	277.38
295.987	267.38
296.217	321.38
296.448	306.38
296.679	300.38
296.909	272.38
297.14	259.38
297.37	276.38
297.601	266.38
297.831	277.38
298.062	277.38
298.292	286.38
298.523	302.38
298.753	273.38
298.984	270.38
299.214	275.38
299.445	292.38
299.675	279.38
299.905	284.38
300.136	279.38
300.366	271.38
300.597	267.38
300.827	278.38
301.057	297.38
301.288	310.38
301.518	324.38
301.748	300.38
301.979	285.38
302.209	303.38
302.439	299.38
302.669	298.38
302.9	291.38
303.13	296.38
303.36	295.38
303.59	297.38
303.82	300.38
304.051	311.38
304.281	310.38
304.511	288.38
304.741	306.38
304.971	292.38
305.201	288.38
305.431	295.38
305.661	317.38
305.891	291.38
306.121	284.38
306.352	309.38
306.582	302.38
306.812	313.38
307.042	316.38
307.272	310.38
307.502	301.38
307.731	302.38
307.961	302.38
308.191	301.38
308.421	304.38
308.651	333.38
308.881	310.38
309.111	318.38
309.341	324.38
309.571	324.38
309.8	336.38
310.03	340.38
310.26	359.38
310.49	332.38
310.72	373.38
310.949	363.38
311.179	382.38
311.409	360.38
311.639	354.38
311.868	371.38
312.098	350.38
312.328	364.38
312.557	384.38
312.787	392.38
313.017	409.38
313.246	363.38
313.476	345.38
313.706	370.38
313.935	359.38
314.165	373.38
314.394	392.38
314.624	363.38
314.853	362.38
315.083	357.38
315.312	350.38
315.542	329.38
315.771	340.38
316.001	348.38
316.23	338.38
316.46	361.38
316.689	356.38
316.919	355.38
317.148	368.38
317.377	389.38
317.607	365.38
317.836	335.38
318.065	336.38
318.295	346.38
318.524	344.38
318.753	325.38
318.983	352.38
319.212	360.38
319.441	360.38
319.67	365.38
319.9	344.38
320.129	344.38
320.358	365.38
320.587	367.38
320.816	388.38
321.046	374.38
321.275	373.38
321.504	362.38
321.733	375.38
321.962	399.38
322.191	393.38
322.42	405.38
322.649	418.38
322.878	452.38
323.108	446.38
323.337	504.38
323.566	516.38
323.795	553.38
324.024	587.38
324.253	755.38
324.482	1054.38
324.71	1567.38
324.939	2239.38
325.168	1992.38
325.397	1057.38
325.626	688.38
325.855	555.38
326.084	542.38
326.313	520.38
326.542	506.38
326.77	542.38
326.999	666.38
327.228	920.38
327.457	1390.38
327.686	1690.38
327.914	1208.38
328.143	767.38
328.372	661.38
328.6	598.38
328.829	590.38
329.058	584.38
329.287	610.38
329.515	572.38
329.744	518.38
329.972	508.38
330.201	507.38
330.43	551.38
330.658	586.38
330.887	641.38
331.115	615.38
331.344	514.38
331.572	473.38
331.801	480.38
332.03	479.38
332.258	466.38
332.486	422.38
332.715	422.38
332.943	399.38
333.172	428.38
333.4	419.38
333.629	392.38
333.857	436.38
334.085	453.38
334.314	426.38
334.542	460.38
334.771	461.38
334.999	445.38
335.227	414.38
335.455	396.38
335.684	407.38
335.912	399.38
336.14	388.38
336.369	416.38
336.597	401.38
336.825	418.38
337.053	420.38
337.281	394.38
337.51	399.38
337.738	395.38
337.966	393.38
338.194	391.38
338.422	380.38
338.65	415.38
338.878	409.38
339.106	397.38
339.334	397.38
339.562	389.38
339.79	378.38
340.018	376.38
340.246	407.38
340.474	396.38
340.702	412.38
340.93	379.38
341.158	382.38
341.386	363.38
341.614	388.38
341.842	392.38
342.07	407.38
342.298	390.38
342.526	362.38
342.754	382.38
342.981	367.38
343.209	370.38
343.437	379.38
343.665	389.38
343.893	371.38
344.12	388.38
344.348	382.38
344.576	398.38
344.804	387.38
345.031	415.38
345.259	419.38
345.487	396.38
345.714	400.38
345.942	383.38
346.17	380.38
346.397	373.38
346.625	376.38
346.853	380.38
347.08	380.38
347.308	379.38
347.535	399.38
347.763	395.38
347.99	403.38
348.218	406.38
348.445	413.38
348.673	381.38
348.9	392.38
349.128	372.38
349.355	372.38
349.583	376.38
349.81	355.38
350.037	349.38
350.265	355.38
350.492	370.38
350.72	366.38
350.947	372.38
351.174	370.38
351.402	392.38
351.629	409.38
351.856	386.38
352.083	397.38
352.311	399.38
352.538	389.38
352.765	422.38
352.992	394.38
353.22	382.38
353.447	374.38
353.674	364.38
353.901	358.38
354.128	360.38
354.355	346.38
354.583	363.38
354.81	336.38
355.037	336.38
355.264	350.38
355.491	309.38
355.718	349.38
355.945	344.38
356.172	347.38
356.399	335.38
356.626	339.38
356.853	327.38
357.08	344.38
357.307	356.38
357.534	343.38
357.761	327.38
357.988	358.38
358.215	349.38
358.441	335.38
358.668	343.38
358.895	348.38
359.122	351.38
359.349	356.38
359.576	365.38
359.802	406.38
360.029	429.38
360.256	440.38
360.483	418.38
360.709	387.38
360.936	385.38
361.163	370.38
361.39	390.38
361.616	368.38
361.843	374.38
362.07	376.38
362.296	362.38
362.523	373.38
362.749	378.38
362.976	372.38
363.203	371.38
363.429	358.38
363.656	351.38
363.882	366.38
364.109	346.38
364.335	375.38
364.562	359.38
364.788	356.38
365.015	371.38
365.241	350.38
365.468	370.38
365.694	370.38
365.92	380.38
366.147	375.38
366.373	352.38
366.599	348.38
366.826	331.38
367.052	362.38
367.278	353.38
367.505	349.38
367.731	371.38
367.957	353.38
368.184	345.38
368.41	377.38
368.636	377.38
368.862	382.38
369.089	390.38
369.315	347.38
369.541	358.38
369.767	364.38
369.993	358.38
370.219	342.38
370.445	359.38
370.672	350.38
370.898	366.38
371.124	348.38
371.35	343.38
371.576	339.38
371.802	358.38
372.028	331.38
372.254	331.38
372.48	340.38
372.706	355.38
372.932	350.38
373.158	329.38
373.384	339.38
373.61	369.38
373.835	340.38
374.061	339.38
374.287	358.38
374.513	362.38
374.739	350.38
374.965	338.38
375.191	356.38
375.416	346.38
375.642	338.38
375.868	350.38
376.094	349.38
376.319	347.38
376.545	350.38
376.771	337.38
376.997	351.38
377.222	325.38
377.448	348.38
377.674	351.38
377.899	341.38
378.125	333.38
378.35	354.38
378.576	328.38
378.802	343.38
379.027	349.38
379.253	331.38
379.478	342.38
379.704	350.38
379.929	365.38
380.155	371.38
380.38	320.38
380.606	363.38
380.831	363.38
381.057	333.38
381.282	345.38
381.507	361.38
381.733	345.38
381.958	342.38
382.184	344.38
382.409	349.38
382.634	348.38
382.86	349.38
383.085	342.38
383.31	354.38
383.535	363.38
383.761	349.38
383.986	354.38
384.211	344.38
384.436	353.38
384.662	357.38
384.887	342.38
385.112	341.38
385.337	356.38
385.562	365.38
385.787	357.38
386.013	376.38
386.238	358.38
386.463	392.38
386.688	380.38
386.913	356.38
387.138	363.38
387.363	348.38
387.588	341.38
387.813	345.38
388.038	355.38
388.263	366.38
388.488	365.38
388.713	362.38
388.938	358.38
389.163	374.38
389.387	366.38
389.612	360.38
389.837	362.38
390.062	365.38
390.287	349.38
390.512	355.38
390.736	350.38
390.961	353.38
391.186	342.38
391.411	353.38
391.636	354.38
391.86	370.38
392.085	374.38
392.31	380.38
392.534	372.38
392.759	364.38
392.984	348.38
393.208	357.38
393.433	344.38
393.658	370.38
393.882	358.38
394.107	338.38
394.331	353.38
394.556	332.38
394.78	358.38
395.005	354.38
395.229	372.38
395.454	362.38
395.678	372.38
395.903	378.38
396.127	379.38
396.352	409.38
396.576	387.38
396.801	373.38
397.025	363.38
397.249	376.38
397.474	374.38
397.698	366.38
397.922	384.38
398.147	396.38
398.371	405.38
398.595	395.38
398.82	384.38
399.044	380.38
399.268	407.38
399.492	409.38
399.717	439.38
399.941	474.38
400.165	474.38
400.389	495.38
400.613	451.38
400.837	426.38
401.062	428.38
401.286	422.38
401.51	417.38
401.734	404.38
401.958	395.38
402.182	394.38
402.406	414.38
402.63	426.38
402.854	411.38
403.078	404.38
403.302	413.38
403.526	404.38
403.75	418.38
403.974	422.38
404.198	407.38
404.422	395.38
404.645	421.38
404.869	427.38
405.093	454.38
405.317	480.38
405.541	485.38
405.765	442.38
405.988	459.38
406.212	452.38
406.436	470.38
406.66	499.38
406.883	466.38
407.107	468.38
407.331	520.38
407.555	573.38
407.778	571.38
408.002	535.38
408.226	469.38
408.449	477.38
408.673	457.38
408.896	518.38
409.12	540.38
409.344	486.38
409.567	441.38
409.791	424.38
410.014	419.38
410.238	410.38
410.461	434.38
410.685	410.38
410.908	430.38
411.132	475.38
411.355	524.38
411.578	492.38
411.802	428.38
412.025	432.38
412.249	404.38
412.472	436.38
412.695	448.38
412.919	436.38
413.142	408.38
413.365	418.38
413.589	416.38
413.812	386.38
414.035	397.38
414.258	381.38
414.482	398.38
414.705	398.38
414.928	398.38
415.151	393.38
415.374	414.38
415.597	392.38
415.821	387.38
416.044	391.38
416.267	385.38
416.49	393.38
416.713	394.38
416.936	393.38
417.159	396.38
417.382	392.38
417.605	405.38
417.828	421.38
418.051	405.38
418.274	421.38
418.497	395.38
418.72	428.38
418.943	391.38
419.166	414.38
419.389	429.38
419.611	406.38
419.834	407.38
420.057	409.38
420.28	420.38
420.503	419.38
420.726	425.38
420.948	414.38
421.171	467.38
421.394	500.38
421.617	446.38
421.839	424.38
422.062	407.38
422.285	456.38
422.507	492.38
422.73	547.38
422.953	528.38
423.175	481.38
423.398	450.38
423.621	460.38
423.843	471.38
424.066	468.38
424.288	457.38
424.511	466.38
424.733	546.38
424.956	620.38
425.178	606.38
425.401	576.38
425.623	594.38
425.846	523.38
426.068	501.38
426.291	464.38
426.513	464.38
426.735	484.38
426.958	516.38
427.18	596.38
427.402	715.38
427.625	799.38
427.847	728.38
428.069	572.38
428.292	559.38
428.514	477.38
428.736	452.38
428.958	459.38
429.181	430.38
429.403	435.38
429.625	458.38
429.847	480.38
430.069	540.38
430.292	554.38
430.514	491.38
430.736	443.38
430.958	435.38
431.18	419.38
431.402	403.38
431.624	387.38
431.846	401.38
432.068	399.38
432.29	398.38
432.512	407.38
432.734	415.38
432.956	426.38
433.178	416.38
433.4	443.38
433.622	407.38
433.844	405.38
434.066	400.38
434.287	424.38
434.509	421.38
434.731	423.38
434.953	414.38
435.175	424.38
435.397	462.38
435.618	480.38
435.84	505.38
436.062	602.38
436.284	651.38
436.505	563.38
436.727	496.38
436.949	458.38
437.17	426.38
437.392	430.38
437.614	473.38
437.835	487.38
438.057	611.38
438.278	689.38
438.5	670.38
438.721	730.38
438.943	690.38
439.165	578.38
439.386	534.38
439.608	505.38
439.829	496.38
440.05	521.38
440.272	573.38
440.493	534.38
440.715	482.38
440.936	452.38
441.158	445.38
441.379	453.38
441.6	453.38
441.822	469.38
442.043	516.38
442.264	616.38
442.486	619.38
442.707	524.38
442.928	511.38
443.149	517.38
443.371	516.38
443.592	564.38
443.813	648.38
444.034	692.38
444.255	573.38
444.476	492.38
444.698	460.38
444.919	475.38
445.14	551.38
445.361	551.38
445.582	535.38
445.803	567.38
446.024	667.38
446.245	662.38
446.466	592.38
446.687	525.38
446.908	498.38
447.129	464.38
447.35	448.38
447.571	447.38
447.792	436.38
448.013	457.38
448.234	493.38
448.455	516.38
448.675	618.38
448.896	704.38
449.117	629.38
449.338	600.38
449.559	662.38
449.779	730.38
450	627.38
450.221	513.38
450.442	480.38
450.662	454.38
450.883	442.38
451.104	486.38
451.324	460.38
451.545	423.38
451.766	418.38
451.986	414.38
452.207	394.38
452.428	405.38
452.648	391.38
452.869	405.38
453.089	421.38
453.31	413.38
453.53	413.38
453.751	412.38
453.971	408.38
454.192	442.38
454.412	408.38
454.633	400.38
454.853	413.38
455.073	383.38
455.294	397.38
455.514	476.38
455.734	456.38
455.955	406.38
456.175	413.38
456.395	377.38
456.616	372.38
456.836	401.38
457.056	366.38
457.276	357.38
457.497	372.38
457.717	372.38
457.937	379.38
458.157	359.38
458.377	388.38
458.598	412.38
458.818	477.38
459.038	560.38
459.258	589.38
459.478	463.38
459.698	408.38
459.918	404.38
460.138	398.38
460.358	397.38
460.578	377.38
460.798	410.38
461.018	408.38
461.238	384.38
461.458	401.38
461.678	385.38
461.898	387.38
462.118	387.38
462.338	411.38
462.558	422.38
462.777	398.38
462.997	418.38
463.217	419.38
463.437	429.38
463.657	398.38
463.876	419.38
464.096	399.38
464.316	421.38
464.536	432.38
464.755	427.38
464.975	429.38
465.195	484.38
465.414	583.38
465.634	502.38
465.854	451.38
466.073	416.38
466.293	423.38
466.512	399.38
466.732	379.38
466.951	378.38
467.171	381.38
467.391	406.38
467.61	425.38
467.829	407.38
468.049	421.38
468.268	412.38
468.488	386.38
468.707	382.38
468.927	383.38
469.146	366.38
469.365	382.38
469.585	388.38
469.804	384.38
470.023	419.38
470.243	412.38
470.462	406.38
470.681	448.38
470.901	445.38
471.12	422.38
471.339	408.38
471.558	411.38
471.777	411.38
471.997	391.38
472.216	390.38
472.435	429.38
472.654	413.38
472.873	403.38
473.092	390.38
473.311	427.38
473.53	408.38
473.749	439.38
473.968	453.38
474.187	565.38
474.406	591.38
474.625	481.38
474.844	424.38
475.063	406.38
475.282	400.38
475.501	422.38
475.72	426.38
475.939	412.38
476.158	410.38
476.377	417.38
476.596	417.38
476.814	424.38
477.033	441.38
477.252	420.38
477.471	407.38
477.69	430.38
477.908	420.38
478.127	418.38
478.346	445.38
478.564	443.38
478.783	431.38
479.002	461.38
479.22	444.38
479.439	470.38
479.658	476.38
479.876	490.38
480.095	488.38
480.313	523.38
480.532	502.38
480.751	503.38
480.969	488.38
481.188	543.38
481.406	562.38
481.624	510.38
481.843	479.38
482.061	484.38
482.28	483.38
482.498	487.38
482.717	464.38
482.935	486.38
483.153	478.38
483.372	471.38
483.59	468.38
483.808	457.38
484.027	458.38
484.245	481.38
484.463	467.38
484.681	463.38
484.9	506.38
485.118	498.38
485.336	493.38
485.554	477.38
485.772	485.38
485.99	466.38
486.209	494.38
486.427	510.38
486.645	500.38
486.863	504.38
487.081	503.38
487.299	498.38
487.517	515.38
487.735	534.38
487.953	514.38
488.171	525.38
488.389	507.38
488.607	511.38
488.825	513.38
489.043	548.38
489.261	512.38
489.479	519.38
489.696	533.38
489.914	527.38
490.132	532.38
490.35	551.38
490.568	543.38
490.786	555.38
491.003	555.38
491.221	575.38
491.439	565.38
491.657	579.38
491.874	596.38
492.092	612.38
492.31	592.38
492.527	591.38
492.745	586.38
492.963	622.38
493.18	622.38
493.398	611.38
493.615	610.38
493.833	625.38
494.05	632.38
494.268	616.38
494.485	612.38
494.703	615.38
494.92	617.38
495.138	614.38
495.355	620.38
495.573	601.38
495.79	622.38
496.008	644.38
496.225	637.38
496.442	621.38
496.66	606.38
496.877	639.38
497.094	620.38
497.312	634.38
497.529	638.38
497.746	631.38
497.963	642.38
498.181	648.38
498.398	668.38
498.615	662.38
498.832	686.38
499.049	667.38
499.267	707.38
499.484	675.38
499.701	715.38
499.918	712.38
500.135	726.38
500.352	761.38
500.569	750.38
500.786	760.38
501.003	752.38
501.22	744.38
501.437	750.38
501.654	722.38
501.871	735.38
502.088	718.38
