Data from 1986.PennyLincolnUp.Lamp.En5.5.200Scan.071819.P2_HRD10591_17-12-24-972.txt Node
Date: Thu Jul 18 17:12:24 EDT 2019
User: cochatt
Spectrometer: HR+D1059
Trigger mode: 1
Integration Time (sec): 1.000000E-1
Scans to average: 1
Electric dark correction enabled: true
Nonlinearity correction enabled: false
Boxcar width: 0
XAxis mode: Wavelengths
Number of Pixels in Spectrum: 2048
>>>>>Begin Spectral Data<<<<<
223.165	-10.31
223.4	-10.31
223.635	-10.31
223.869	-17.31
224.104	-26.31
224.338	-2.31
224.573	-11.31
224.808	-16.31
225.042	-13.31
225.277	-8.31
225.511	0.69
225.746	6.69
225.98	-2.31
226.215	9.69
226.449	12.69
226.683	24.69
226.918	20.69
227.152	32.69
227.387	55.69
227.621	38.69
227.856	50.69
228.09	66.69
228.324	56.69
228.559	51.69
228.793	66.69
229.027	102.69
229.262	78.69
229.496	125.69
229.73	138.69
229.964	166.69
230.199	124.69
230.433	118.69
230.667	118.69
230.901	126.69
231.136	117.69
231.37	132.69
231.604	110.69
231.838	112.69
232.072	121.69
232.306	106.69
232.541	103.69
232.775	124.69
233.009	123.69
233.243	122.69
233.477	123.69
233.711	127.69
233.945	115.69
234.179	107.69
234.413	119.69
234.647	126.69
234.881	120.69
235.115	116.69
235.349	119.69
235.583	122.69
235.817	124.69
236.051	116.69
236.285	115.69
236.519	126.69
236.753	140.69
236.987	149.69
237.221	206.69
237.455	254.69
237.689	188.69
237.922	141.69
238.156	142.69
238.39	125.69
238.624	138.69
238.858	122.69
239.091	139.69
239.325	124.69
239.559	144.69
239.793	130.69
240.027	136.69
240.26	164.69
240.494	177.69
240.728	162.69
240.961	153.69
241.195	166.69
241.429	151.69
241.662	138.69
241.896	129.69
242.13	153.69
242.363	154.69
242.597	142.69
242.83	154.69
243.064	147.69
243.298	148.69
243.531	152.69
243.765	145.69
243.998	151.69
244.232	145.69
244.465	143.69
244.699	171.69
244.932	165.69
245.166	158.69
245.399	146.69
245.633	156.69
245.866	136.69
246.099	162.69
246.333	148.69
246.566	162.69
246.8	166.69
247.033	158.69
247.266	166.69
247.5	181.69
247.733	179.69
247.966	195.69
248.2	191.69
248.433	181.69
248.666	204.69
248.899	202.69
249.133	212.69
249.366	219.69
249.599	217.69
249.832	200.69
250.066	208.69
250.299	207.69
250.532	254.69
250.765	269.69
250.998	286.69
251.231	273.69
251.465	258.69
251.698	241.69
251.931	221.69
252.164	220.69
252.397	226.69
252.63	237.69
252.863	234.69
253.096	246.69
253.329	261.69
253.562	262.69
253.795	235.69
254.028	246.69
254.261	246.69
254.494	253.69
254.727	270.69
254.96	323.69
255.193	297.69
255.426	282.69
255.659	276.69
255.892	301.69
256.124	331.69
256.357	368.69
256.59	344.69
256.823	312.69
257.056	291.69
257.289	276.69
257.521	262.69
257.754	277.69
257.987	248.69
258.22	248.69
258.452	238.69
258.685	240.69
258.918	255.69
259.151	236.69
259.383	242.69
259.616	254.69
259.849	257.69
260.081	279.69
260.314	257.69
260.547	277.69
260.779	266.69
261.012	276.69
261.244	247.69
261.477	252.69
261.71	262.69
261.942	252.69
262.175	245.69
262.407	250.69
262.64	234.69
262.872	228.69
263.105	206.69
263.337	244.69
263.57	232.69
263.802	238.69
264.035	231.69
264.267	217.69
264.499	231.69
264.732	231.69
264.964	205.69
265.197	200.69
265.429	207.69
265.661	223.69
265.894	229.69
266.126	238.69
266.358	228.69
266.591	243.69
266.823	213.69
267.055	231.69
267.287	264.69
267.52	226.69
267.752	242.69
267.984	239.69
268.216	238.69
268.448	240.69
268.681	261.69
268.913	245.69
269.145	279.69
269.377	309.69
269.609	300.69
269.841	285.69
270.073	299.69
270.306	317.69
270.538	337.69
270.77	348.69
271.002	337.69
271.234	324.69
271.466	333.69
271.698	338.69
271.93	335.69
272.162	331.69
272.394	342.69
272.626	306.69
272.858	310.69
273.09	303.69
273.322	306.69
273.553	280.69
273.785	294.69
274.017	278.69
274.249	292.69
274.481	280.69
274.713	281.69
274.945	309.69
275.176	289.69
275.408	296.69
275.64	292.69
275.872	287.69
276.104	301.69
276.335	288.69
276.567	288.69
276.799	303.69
277.031	336.69
277.262	342.69
277.494	349.69
277.726	324.69
277.957	323.69
278.189	310.69
278.421	283.69
278.652	290.69
278.884	277.69
279.115	272.69
279.347	286.69
279.579	294.69
279.81	281.69
280.042	279.69
280.273	300.69
280.505	296.69
280.736	310.69
280.968	287.69
281.199	291.69
281.431	279.69
281.662	269.69
281.894	287.69
282.125	287.69
282.356	284.69
282.588	333.69
282.819	326.69
283.051	304.69
283.282	277.69
283.513	284.69
283.745	290.69
283.976	309.69
284.207	290.69
284.439	304.69
284.67	285.69
284.901	297.69
285.132	286.69
285.364	286.69
285.595	294.69
285.826	297.69
286.057	272.69
286.288	286.69
286.52	278.69
286.751	295.69
286.982	297.69
287.213	284.69
287.444	282.69
287.675	291.69
287.906	296.69
288.138	330.69
288.369	309.69
288.6	319.69
288.831	309.69
289.062	307.69
289.293	304.69
289.524	303.69
289.755	297.69
289.986	293.69
290.217	294.69
290.448	302.69
290.679	291.69
290.91	302.69
291.141	286.69
291.371	295.69
291.602	310.69
291.833	279.69
292.064	273.69
292.295	291.69
292.526	302.69
292.757	285.69
292.987	297.69
293.218	282.69
293.449	280.69
293.68	286.69
293.91	278.69
294.141	300.69
294.372	281.69
294.603	279.69
294.833	294.69
295.064	272.69
295.295	298.69
295.525	294.69
295.756	300.69
295.987	313.69
296.217	324.69
296.448	341.69
296.679	318.69
296.909	298.69
297.14	288.69
297.37	306.69
297.601	306.69
297.831	302.69
298.062	310.69
298.292	306.69
298.523	316.69
298.753	317.69
298.984	298.69
299.214	301.69
299.445	297.69
299.675	303.69
299.905	318.69
300.136	329.69
300.366	303.69
300.597	306.69
300.827	330.69
301.057	335.69
301.288	325.69
301.518	340.69
301.748	321.69
301.979	331.69
302.209	328.69
302.439	357.69
302.669	350.69
302.9	342.69
303.13	306.69
303.36	326.69
303.59	334.69
303.82	355.69
304.051	346.69
304.281	313.69
304.511	332.69
304.741	336.69
304.971	326.69
305.201	329.69
305.431	319.69
305.661	332.69
305.891	307.69
306.121	322.69
306.352	341.69
306.582	331.69
306.812	346.69
307.042	333.69
307.272	339.69
307.502	335.69
307.731	358.69
307.961	350.69
308.191	327.69
308.421	339.69
308.651	357.69
308.881	350.69
309.111	358.69
309.341	366.69
309.571	367.69
309.8	380.69
310.03	374.69
310.26	404.69
310.49	384.69
310.72	378.69
310.949	399.69
311.179	410.69
311.409	384.69
311.639	376.69
311.868	387.69
312.098	404.69
312.328	391.69
312.557	419.69
312.787	437.69
313.017	425.69
313.246	419.69
313.476	389.69
313.706	381.69
313.935	388.69
314.165	402.69
314.394	407.69
314.624	423.69
314.853	395.69
315.083	379.69
315.312	380.69
315.542	388.69
315.771	376.69
316.001	376.69
316.23	352.69
316.46	380.69
316.689	414.69
316.919	399.69
317.148	394.69
317.377	386.69
317.607	395.69
317.836	382.69
318.065	367.69
318.295	378.69
318.524	372.69
318.753	384.69
318.983	384.69
319.212	398.69
319.441	389.69
319.67	404.69
319.9	396.69
320.129	400.69
320.358	380.69
320.587	404.69
320.816	407.69
321.046	400.69
321.275	410.69
321.504	406.69
321.733	422.69
321.962	442.69
322.191	437.69
322.42	458.69
322.649	480.69
322.878	495.69
323.108	482.69
323.337	519.69
323.566	544.69
323.795	586.69
324.024	642.69
324.253	820.69
324.482	1122.69
324.71	1721.69
324.939	2441.69
325.168	2140.69
325.397	1123.69
325.626	770.69
325.855	642.69
326.084	602.69
326.313	547.69
326.542	579.69
326.77	618.69
326.999	722.69
327.228	991.69
327.457	1553.69
327.686	1870.69
327.914	1317.69
328.143	930.69
328.372	835.69
328.6	764.69
328.829	706.69
329.058	692.69
329.287	695.69
329.515	660.69
329.744	671.69
329.972	704.69
330.201	790.69
330.43	933.69
330.658	876.69
330.887	795.69
331.115	734.69
331.344	611.69
331.572	569.69
331.801	566.69
332.03	592.69
332.258	544.69
332.486	543.69
332.715	542.69
332.943	512.69
333.172	523.69
333.4	543.69
333.629	569.69
333.857	606.69
334.085	649.69
334.314	796.69
334.542	960.69
334.771	1014.69
334.999	778.69
335.227	623.69
335.455	566.69
335.684	524.69
335.912	502.69
336.14	493.69
336.369	473.69
336.597	486.69
336.825	478.69
337.053	461.69
337.281	447.69
337.51	470.69
337.738	438.69
337.966	433.69
338.194	455.69
338.422	444.69
338.65	462.69
338.878	435.69
339.106	431.69
339.334	437.69
339.562	461.69
339.79	440.69
340.018	446.69
340.246	442.69
340.474	435.69
340.702	426.69
340.93	448.69
341.158	431.69
341.386	445.69
341.614	432.69
341.842	444.69
342.07	432.69
342.298	404.69
342.526	393.69
342.754	430.69
342.981	422.69
343.209	410.69
343.437	397.69
343.665	415.69
343.893	410.69
344.12	408.69
344.348	452.69
344.576	418.69
344.804	441.69
345.031	422.69
345.259	461.69
345.487	441.69
345.714	428.69
345.942	443.69
346.17	434.69
346.397	413.69
346.625	424.69
346.853	429.69
347.08	418.69
347.308	424.69
347.535	425.69
347.763	419.69
347.99	457.69
348.218	416.69
348.445	453.69
348.673	430.69
348.9	419.69
349.128	431.69
349.355	394.69
349.583	399.69
349.81	396.69
350.037	400.69
350.265	393.69
350.492	393.69
350.72	407.69
350.947	408.69
351.174	410.69
351.402	413.69
351.629	398.69
351.856	406.69
352.083	433.69
352.311	438.69
352.538	434.69
352.765	435.69
352.992	436.69
353.22	403.69
353.447	400.69
353.674	403.69
353.901	398.69
354.128	401.69
354.355	387.69
354.583	393.69
354.81	362.69
355.037	393.69
355.264	379.69
355.491	351.69
355.718	388.69
355.945	381.69
356.172	392.69
356.399	376.69
356.626	366.69
356.853	366.69
357.08	375.69
357.307	374.69
357.534	367.69
357.761	385.69
357.988	366.69
358.215	365.69
358.441	371.69
358.668	378.69
358.895	415.69
359.122	401.69
359.349	402.69
359.576	406.69
359.802	429.69
360.029	459.69
360.256	463.69
360.483	452.69
360.709	424.69
360.936	406.69
361.163	399.69
361.39	400.69
361.616	401.69
361.843	400.69
362.07	400.69
362.296	420.69
362.523	408.69
362.749	408.69
362.976	406.69
363.203	394.69
363.429	392.69
363.656	390.69
363.882	395.69
364.109	398.69
364.335	383.69
364.562	367.69
364.788	394.69
365.015	400.69
365.241	376.69
365.468	412.69
365.694	407.69
365.92	398.69
366.147	386.69
366.373	383.69
366.599	382.69
366.826	388.69
367.052	396.69
367.278	365.69
367.505	380.69
367.731	384.69
367.957	388.69
368.184	375.69
368.41	378.69
368.636	404.69
368.862	392.69
369.089	389.69
369.315	400.69
369.541	373.69
369.767	397.69
369.993	383.69
370.219	389.69
370.445	381.69
370.672	358.69
370.898	382.69
371.124	377.69
371.35	352.69
371.576	378.69
371.802	370.69
372.028	371.69
372.254	374.69
372.48	376.69
372.706	360.69
372.932	373.69
373.158	354.69
373.384	371.69
373.61	361.69
373.835	361.69
374.061	384.69
374.287	364.69
374.513	380.69
374.739	350.69
374.965	382.69
375.191	388.69
375.416	376.69
375.642	358.69
375.868	389.69
376.094	384.69
376.319	379.69
376.545	374.69
376.771	374.69
376.997	371.69
377.222	380.69
377.448	355.69
377.674	382.69
377.899	363.69
378.125	380.69
378.35	386.69
378.576	366.69
378.802	349.69
379.027	361.69
379.253	350.69
379.478	357.69
379.704	374.69
379.929	363.69
380.155	361.69
380.38	376.69
380.606	380.69
380.831	365.69
381.057	374.69
381.282	365.69
381.507	382.69
381.733	373.69
381.958	357.69
382.184	379.69
382.409	355.69
382.634	360.69
382.86	365.69
383.085	384.69
383.31	363.69
383.535	358.69
383.761	364.69
383.986	374.69
384.211	388.69
384.436	366.69
384.662	388.69
384.887	388.69
385.112	381.69
385.337	396.69
385.562	388.69
385.787	397.69
386.013	388.69
386.238	413.69
386.463	389.69
386.688	409.69
386.913	380.69
387.138	378.69
387.363	394.69
387.588	380.69
387.813	387.69
388.038	390.69
388.263	387.69
388.488	398.69
388.713	392.69
388.938	394.69
389.163	391.69
389.387	389.69
389.612	400.69
389.837	378.69
390.062	376.69
390.287	378.69
390.512	389.69
390.736	380.69
390.961	379.69
391.186	378.69
391.411	374.69
391.636	379.69
391.86	375.69
392.085	370.69
392.31	390.69
392.534	411.69
392.759	394.69
392.984	380.69
393.208	403.69
393.433	415.69
393.658	388.69
393.882	358.69
394.107	382.69
394.331	380.69
394.556	390.69
394.78	382.69
395.005	402.69
395.229	402.69
395.454	395.69
395.678	384.69
395.903	389.69
396.127	424.69
396.352	422.69
396.576	418.69
396.801	410.69
397.025	419.69
397.249	415.69
397.474	404.69
397.698	410.69
397.922	419.69
398.147	414.69
398.371	425.69
398.595	432.69
398.82	404.69
399.044	422.69
399.268	424.69
399.492	442.69
399.717	461.69
399.941	490.69
400.165	551.69
400.389	530.69
400.613	475.69
400.837	447.69
401.062	464.69
401.286	419.69
401.51	427.69
401.734	428.69
401.958	419.69
402.182	422.69
402.406	444.69
402.63	460.69
402.854	438.69
403.078	450.69
403.302	454.69
403.526	454.69
403.75	471.69
403.974	454.69
404.198	457.69
404.422	463.69
404.645	479.69
404.869	510.69
405.093	515.69
405.317	580.69
405.541	618.69
405.765	578.69
405.988	525.69
406.212	503.69
406.436	538.69
406.66	546.69
406.883	528.69
407.107	521.69
407.331	562.69
407.555	616.69
407.778	607.69
408.002	547.69
408.226	535.69
408.449	502.69
408.673	495.69
408.896	505.69
409.12	566.69
409.344	505.69
409.567	492.69
409.791	464.69
410.014	458.69
410.238	464.69
410.461	457.69
410.685	466.69
410.908	468.69
411.132	502.69
411.355	543.69
411.578	534.69
411.802	495.69
412.025	479.69
412.249	534.69
412.472	562.69
412.695	623.69
412.919	630.69
413.142	551.69
413.365	516.69
413.589	504.69
413.812	480.69
414.035	463.69
414.258	461.69
414.482	447.69
414.705	458.69
414.928	452.69
415.151	456.69
415.374	439.69
415.597	423.69
415.821	423.69
416.044	443.69
416.267	434.69
416.49	448.69
416.713	436.69
416.936	441.69
417.159	450.69
417.382	459.69
417.605	468.69
417.828	479.69
418.051	472.69
418.274	448.69
418.497	448.69
418.72	430.69
418.943	420.69
419.166	461.69
419.389	492.69
419.611	481.69
419.834	497.69
420.057	484.69
420.28	520.69
420.503	515.69
420.726	511.69
420.948	528.69
421.171	552.69
421.394	572.69
421.617	487.69
421.839	455.69
422.062	457.69
422.285	478.69
422.507	532.69
422.73	611.69
422.953	578.69
423.175	522.69
423.398	495.69
423.621	509.69
423.843	507.69
424.066	526.69
424.288	529.69
424.511	525.69
424.733	582.69
424.956	653.69
425.178	593.69
425.401	631.69
425.623	660.69
425.846	557.69
426.068	522.69
426.291	506.69
426.513	522.69
426.735	508.69
426.958	557.69
427.18	617.69
427.402	759.69
427.625	863.69
427.847	775.69
428.069	726.69
428.292	640.69
428.514	571.69
428.736	516.69
428.958	501.69
429.181	486.69
429.403	456.69
429.625	489.69
429.847	527.69
430.069	580.69
430.292	579.69
430.514	498.69
430.736	482.69
430.958	458.69
431.18	470.69
431.402	447.69
431.624	414.69
431.846	396.69
432.068	437.69
432.29	438.69
432.512	425.69
432.734	452.69
432.956	468.69
433.178	463.69
433.4	446.69
433.622	441.69
433.844	451.69
434.066	427.69
434.287	458.69
434.509	444.69
434.731	448.69
434.953	443.69
435.175	458.69
435.397	492.69
435.618	493.69
435.84	535.69
436.062	637.69
436.284	710.69
436.505	609.69
436.727	526.69
436.949	504.69
437.17	501.69
437.392	457.69
437.614	483.69
437.835	531.69
438.057	624.69
438.278	734.69
438.5	708.69
438.721	745.69
438.943	732.69
439.165	593.69
439.386	528.69
439.608	539.69
439.829	530.69
440.05	567.69
440.272	595.69
440.493	565.69
440.715	486.69
440.936	496.69
441.158	455.69
441.379	473.69
441.6	486.69
441.822	502.69
442.043	564.69
442.264	620.69
442.486	644.69
442.707	568.69
442.928	538.69
443.149	538.69
443.371	557.69
443.592	594.69
443.813	663.69
444.034	706.69
444.255	600.69
444.476	502.69
444.698	520.69
444.919	498.69
445.14	604.69
445.361	559.69
445.582	549.69
445.803	609.69
446.024	710.69
446.245	715.69
446.466	652.69
446.687	563.69
446.908	522.69
447.129	484.69
447.35	473.69
447.571	486.69
447.792	470.69
448.013	481.69
448.234	506.69
448.455	551.69
448.675	679.69
448.896	755.69
449.117	663.69
449.338	630.69
449.559	729.69
449.779	822.69
450	658.69
450.221	557.69
450.442	502.69
450.662	497.69
450.883	495.69
451.104	518.69
451.324	494.69
451.545	480.69
451.766	422.69
451.986	443.69
452.207	424.69
452.428	446.69
452.648	427.69
452.869	441.69
453.089	447.69
453.31	443.69
453.53	440.69
453.751	423.69
453.971	426.69
454.192	447.69
454.412	442.69
454.633	422.69
454.853	435.69
455.073	426.69
455.294	452.69
455.514	533.69
455.734	495.69
455.955	438.69
456.175	421.69
456.395	396.69
456.616	423.69
456.836	411.69
457.056	390.69
457.276	372.69
457.497	402.69
457.717	406.69
457.937	388.69
458.157	414.69
458.377	399.69
458.598	440.69
458.818	483.69
459.038	576.69
459.258	583.69
459.478	499.69
459.698	431.69
459.918	448.69
460.138	420.69
460.358	426.69
460.578	429.69
460.798	432.69
461.018	449.69
461.238	427.69
461.458	420.69
461.678	427.69
461.898	420.69
462.118	418.69
462.338	447.69
462.558	438.69
462.777	436.69
462.997	427.69
463.217	432.69
463.437	439.69
463.657	442.69
463.876	444.69
464.096	440.69
464.316	464.69
464.536	468.69
464.755	480.69
464.975	466.69
465.195	512.69
465.414	594.69
465.634	529.69
465.854	458.69
466.073	469.69
466.293	450.69
466.512	422.69
466.732	451.69
466.951	430.69
467.171	422.69
467.391	426.69
467.61	462.69
467.829	474.69
468.049	481.69
468.268	513.69
468.488	476.69
468.707	470.69
468.927	440.69
469.146	425.69
469.365	438.69
469.585	410.69
469.804	426.69
470.023	468.69
470.243	440.69
470.462	455.69
470.681	455.69
470.901	479.69
471.12	452.69
471.339	445.69
471.558	468.69
471.777	469.69
471.997	471.69
472.216	516.69
472.435	716.69
472.654	667.69
472.873	544.69
473.092	518.69
473.311	474.69
473.53	466.69
473.749	478.69
473.968	512.69
474.187	594.69
474.406	649.69
474.625	528.69
474.844	478.69
475.063	450.69
475.282	462.69
475.501	447.69
475.72	463.69
475.939	465.69
476.158	456.69
476.377	463.69
476.596	452.69
476.814	458.69
477.033	475.69
477.252	467.69
477.471	476.69
477.69	472.69
477.908	476.69
478.127	486.69
478.346	495.69
478.564	479.69
478.783	480.69
479.002	489.69
479.22	488.69
479.439	510.69
479.658	535.69
479.876	554.69
480.095	542.69
480.313	583.69
480.532	591.69
480.751	599.69
480.969	671.69
481.188	942.69
481.406	1178.69
481.624	823.69
481.843	694.69
482.061	649.69
482.28	626.69
482.498	592.69
482.717	590.69
482.935	578.69
483.153	580.69
483.372	552.69
483.59	562.69
483.808	546.69
484.027	551.69
484.245	552.69
484.463	539.69
484.681	564.69
484.9	532.69
485.118	546.69
485.336	557.69
485.554	573.69
485.772	551.69
485.99	567.69
486.209	552.69
486.427	564.69
486.645	583.69
486.863	608.69
487.081	604.69
487.299	584.69
487.517	588.69
487.735	568.69
487.953	583.69
488.171	612.69
488.389	602.69
488.607	592.69
488.825	601.69
489.043	609.69
489.261	616.69
489.479	615.69
489.696	592.69
489.914	622.69
490.132	613.69
490.35	632.69
490.568	633.69
490.786	648.69
491.003	661.69
491.221	700.69
491.439	676.69
491.657	687.69
491.874	708.69
492.092	698.69
492.31	711.69
492.527	732.69
492.745	717.69
492.963	761.69
493.18	750.69
493.398	738.69
493.615	731.69
493.833	740.69
494.05	735.69
494.268	726.69
494.485	725.69
494.703	734.69
494.92	726.69
495.138	724.69
495.355	699.69
495.573	702.69
495.79	719.69
496.008	728.69
496.225	722.69
496.442	701.69
496.66	709.69
496.877	714.69
497.094	693.69
497.312	699.69
497.529	720.69
497.746	711.69
497.963	719.69
498.181	727.69
498.398	720.69
498.615	746.69
498.832	752.69
499.049	728.69
499.267	766.69
499.484	780.69
499.701	756.69
499.918	763.69
500.135	799.69
500.352	826.69
500.569	820.69
500.786	850.69
501.003	867.69
501.22	847.69
501.437	818.69
501.654	810.69
501.871	812.69
