Data from 1987.PennyLincolnUp.Lamp.En5.5.200Scan.071819.P2_HRD10591_17-14-18-971.txt Node
Date: Thu Jul 18 17:14:18 EDT 2019
User: cochatt
Spectrometer: HR+D1059
Trigger mode: 1
Integration Time (sec): 1.000000E-1
Scans to average: 1
Electric dark correction enabled: true
Nonlinearity correction enabled: false
Boxcar width: 0
XAxis mode: Wavelengths
Number of Pixels in Spectrum: 2048
>>>>>Begin Spectral Data<<<<<
223.165	-18.62
223.4	-18.62
223.635	-18.62
223.869	-18.62
224.104	-11.62
224.338	-13.62
224.573	-11.62
224.808	-12.62
225.042	-19.62
225.277	-14.62
225.511	-4.62
225.746	5.38
225.98	13.38
226.215	6.38
226.449	12.38
226.683	24.38
226.918	23.38
227.152	40.38
227.387	46.38
227.621	53.38
227.856	43.38
228.09	53.38
228.324	50.38
228.559	55.38
228.793	72.38
229.027	102.38
229.262	99.38
229.496	111.38
229.73	125.38
229.964	156.38
230.199	134.38
230.433	105.38
230.667	106.38
230.901	122.38
231.136	111.38
231.37	98.38
231.604	115.38
231.838	107.38
232.072	119.38
232.306	110.38
232.541	106.38
232.775	119.38
233.009	115.38
233.243	102.38
233.477	103.38
233.711	102.38
233.945	119.38
234.179	108.38
234.413	110.38
234.647	116.38
234.881	101.38
235.115	115.38
235.349	130.38
235.583	125.38
235.817	119.38
236.051	109.38
236.285	107.38
236.519	113.38
236.753	113.38
236.987	153.38
237.221	185.38
237.455	234.38
237.689	181.38
237.922	142.38
238.156	129.38
238.39	131.38
238.624	110.38
238.858	115.38
239.091	106.38
239.325	110.38
239.559	123.38
239.793	108.38
240.027	120.38
240.26	137.38
240.494	149.38
240.728	141.38
240.961	141.38
241.195	124.38
241.429	124.38
241.662	141.38
241.896	135.38
242.13	133.38
242.363	134.38
242.597	123.38
242.83	122.38
243.064	125.38
243.298	123.38
243.531	129.38
243.765	136.38
243.998	128.38
244.232	142.38
244.465	137.38
244.699	130.38
244.932	126.38
245.166	125.38
245.399	146.38
245.633	152.38
245.866	151.38
246.099	140.38
246.333	140.38
246.566	148.38
246.8	133.38
247.033	135.38
247.266	153.38
247.5	147.38
247.733	156.38
247.966	152.38
248.2	168.38
248.433	181.38
248.666	166.38
248.899	172.38
249.133	190.38
249.366	198.38
249.599	195.38
249.832	177.38
250.066	163.38
250.299	161.38
250.532	177.38
250.765	188.38
250.998	194.38
251.231	206.38
251.465	192.38
251.698	183.38
251.931	183.38
252.164	174.38
252.397	177.38
252.63	191.38
252.863	186.38
253.096	200.38
253.329	197.38
253.562	187.38
253.795	205.38
254.028	190.38
254.261	196.38
254.494	198.38
254.727	225.38
254.96	253.38
255.193	253.38
255.426	220.38
255.659	190.38
255.892	202.38
256.124	185.38
256.357	201.38
256.59	177.38
256.823	185.38
257.056	180.38
257.289	181.38
257.521	185.38
257.754	175.38
257.987	171.38
258.22	173.38
258.452	173.38
258.685	173.38
258.918	190.38
259.151	187.38
259.383	181.38
259.616	205.38
259.849	210.38
260.081	201.38
260.314	210.38
260.547	234.38
260.779	217.38
261.012	208.38
261.244	202.38
261.477	190.38
261.71	188.38
261.942	202.38
262.175	212.38
262.407	206.38
262.64	177.38
262.872	206.38
263.105	178.38
263.337	178.38
263.57	173.38
263.802	170.38
264.035	185.38
264.267	179.38
264.499	161.38
264.732	171.38
264.964	173.38
265.197	175.38
265.429	179.38
265.661	175.38
265.894	166.38
266.126	181.38
266.358	182.38
266.591	174.38
266.823	187.38
267.055	199.38
267.287	198.38
267.52	179.38
267.752	171.38
267.984	181.38
268.216	185.38
268.448	203.38
268.681	195.38
268.913	210.38
269.145	213.38
269.377	207.38
269.609	214.38
269.841	206.38
270.073	227.38
270.306	241.38
270.538	251.38
270.77	270.38
271.002	270.38
271.234	255.38
271.466	249.38
271.698	274.38
271.93	269.38
272.162	277.38
272.394	270.38
272.626	265.38
272.858	247.38
273.09	243.38
273.322	238.38
273.553	216.38
273.785	228.38
274.017	223.38
274.249	209.38
274.481	242.38
274.713	212.38
274.945	211.38
275.176	226.38
275.408	213.38
275.64	210.38
275.872	209.38
276.104	213.38
276.335	214.38
276.567	217.38
276.799	231.38
277.031	250.38
277.262	257.38
277.494	259.38
277.726	257.38
277.957	227.38
278.189	217.38
278.421	225.38
278.652	211.38
278.884	212.38
279.115	225.38
279.347	207.38
279.579	215.38
279.81	199.38
280.042	191.38
280.273	206.38
280.505	209.38
280.736	213.38
280.968	201.38
281.199	224.38
281.431	207.38
281.662	204.38
281.894	223.38
282.125	206.38
282.356	242.38
282.588	254.38
282.819	268.38
283.051	208.38
283.282	215.38
283.513	208.38
283.745	217.38
283.976	207.38
284.207	215.38
284.439	222.38
284.67	217.38
284.901	204.38
285.132	221.38
285.364	203.38
285.595	218.38
285.826	198.38
286.057	217.38
286.288	225.38
286.52	206.38
286.751	205.38
286.982	213.38
287.213	218.38
287.444	213.38
287.675	201.38
287.906	216.38
288.138	219.38
288.369	241.38
288.6	230.38
288.831	230.38
289.062	221.38
289.293	213.38
289.524	223.38
289.755	216.38
289.986	200.38
290.217	222.38
290.448	201.38
290.679	215.38
290.91	225.38
291.141	201.38
291.371	226.38
291.602	217.38
291.833	230.38
292.064	224.38
292.295	201.38
292.526	217.38
292.757	207.38
292.987	196.38
293.218	203.38
293.449	210.38
293.68	210.38
293.91	220.38
294.141	205.38
294.372	218.38
294.603	206.38
294.833	232.38
295.064	211.38
295.295	219.38
295.525	216.38
295.756	225.38
295.987	236.38
296.217	259.38
296.448	254.38
296.679	235.38
296.909	220.38
297.14	215.38
297.37	212.38
297.601	227.38
297.831	212.38
298.062	212.38
298.292	221.38
298.523	225.38
298.753	228.38
298.984	220.38
299.214	199.38
299.445	214.38
299.675	219.38
299.905	221.38
300.136	232.38
300.366	245.38
300.597	232.38
300.827	232.38
301.057	235.38
301.288	226.38
301.518	228.38
301.748	232.38
301.979	235.38
302.209	240.38
302.439	253.38
302.669	241.38
302.9	239.38
303.13	228.38
303.36	219.38
303.59	237.38
303.82	249.38
304.051	256.38
304.281	243.38
304.511	245.38
304.741	233.38
304.971	223.38
305.201	215.38
305.431	229.38
305.661	232.38
305.891	237.38
306.121	233.38
306.352	233.38
306.582	252.38
306.812	257.38
307.042	235.38
307.272	238.38
307.502	248.38
307.731	251.38
307.961	247.38
308.191	257.38
308.421	251.38
308.651	258.38
308.881	247.38
309.111	247.38
309.341	254.38
309.571	265.38
309.8	272.38
310.03	274.38
310.26	297.38
310.49	295.38
310.72	306.38
310.949	342.38
311.179	328.38
311.409	290.38
311.639	279.38
311.868	297.38
312.098	293.38
312.328	324.38
312.557	341.38
312.787	323.38
313.017	332.38
313.246	317.38
313.476	305.38
313.706	290.38
313.935	297.38
314.165	318.38
314.394	322.38
314.624	309.38
314.853	307.38
315.083	292.38
315.312	276.38
315.542	265.38
315.771	268.38
316.001	278.38
316.23	271.38
316.46	284.38
316.689	296.38
316.919	289.38
317.148	295.38
317.377	326.38
317.607	294.38
317.836	324.38
318.065	307.38
318.295	294.38
318.524	300.38
318.753	297.38
318.983	282.38
319.212	306.38
319.441	298.38
319.67	303.38
319.9	300.38
320.129	285.38
320.358	281.38
320.587	300.38
320.816	297.38
321.046	302.38
321.275	331.38
321.504	320.38
321.733	313.38
321.962	329.38
322.191	344.38
322.42	349.38
322.649	362.38
322.878	381.38
323.108	405.38
323.337	420.38
323.566	440.38
323.795	491.38
324.024	546.38
324.253	683.38
324.482	975.38
324.71	1439.38
324.939	2051.38
325.168	1802.38
325.397	1022.38
325.626	680.38
325.855	549.38
326.084	466.38
326.313	465.38
326.542	463.38
326.77	491.38
326.999	572.38
327.228	840.38
327.457	1307.38
327.686	1539.38
327.914	1067.38
328.143	733.38
328.372	599.38
328.6	572.38
328.829	530.38
329.058	547.38
329.287	557.38
329.515	491.38
329.744	436.38
329.972	409.38
330.201	420.38
330.43	462.38
330.658	498.38
330.887	565.38
331.115	551.38
331.344	465.38
331.572	398.38
331.801	396.38
332.03	418.38
332.258	379.38
332.486	358.38
332.715	341.38
332.943	345.38
333.172	340.38
333.4	323.38
333.629	348.38
333.857	350.38
334.085	338.38
334.314	331.38
334.542	350.38
334.771	341.38
334.999	340.38
335.227	332.38
335.455	339.38
335.684	318.38
335.912	321.38
336.14	324.38
336.369	343.38
336.597	347.38
336.825	333.38
337.053	329.38
337.281	341.38
337.51	307.38
337.738	332.38
337.966	340.38
338.194	343.38
338.422	338.38
338.65	332.38
338.878	327.38
339.106	326.38
339.334	326.38
339.562	321.38
339.79	317.38
340.018	309.38
340.246	321.38
340.474	346.38
340.702	343.38
340.93	349.38
341.158	319.38
341.386	305.38
341.614	317.38
341.842	327.38
342.07	307.38
342.298	313.38
342.526	315.38
342.754	319.38
342.981	313.38
343.209	311.38
343.437	303.38
343.665	303.38
343.893	328.38
344.12	334.38
344.348	335.38
344.576	323.38
344.804	323.38
345.031	324.38
345.259	373.38
345.487	368.38
345.714	329.38
345.942	338.38
346.17	340.38
346.397	322.38
346.625	325.38
346.853	345.38
347.08	323.38
347.308	338.38
347.535	328.38
347.763	340.38
347.99	334.38
348.218	330.38
348.445	355.38
348.673	348.38
348.9	331.38
349.128	321.38
349.355	302.38
349.583	297.38
349.81	317.38
350.037	332.38
350.265	301.38
350.492	314.38
350.72	299.38
350.947	309.38
351.174	331.38
351.402	337.38
351.629	337.38
351.856	353.38
352.083	324.38
352.311	348.38
352.538	351.38
352.765	361.38
352.992	361.38
353.22	328.38
353.447	324.38
353.674	302.38
353.901	310.38
354.128	302.38
354.355	313.38
354.583	303.38
354.81	295.38
355.037	293.38
355.264	303.38
355.491	317.38
355.718	297.38
355.945	288.38
356.172	276.38
356.399	282.38
356.626	293.38
356.853	293.38
357.08	286.38
357.307	295.38
357.534	302.38
357.761	284.38
357.988	283.38
358.215	281.38
358.441	302.38
358.668	313.38
358.895	289.38
359.122	298.38
359.349	312.38
359.576	327.38
359.802	338.38
360.029	385.38
360.256	401.38
360.483	402.38
360.709	360.38
360.936	350.38
361.163	344.38
361.39	348.38
361.616	323.38
361.843	330.38
362.07	334.38
362.296	325.38
362.523	326.38
362.749	332.38
362.976	334.38
363.203	318.38
363.429	318.38
363.656	307.38
363.882	317.38
364.109	296.38
364.335	329.38
364.562	306.38
364.788	307.38
365.015	318.38
365.241	307.38
365.468	306.38
365.694	326.38
365.92	328.38
366.147	329.38
366.373	324.38
366.599	319.38
366.826	306.38
367.052	306.38
367.278	304.38
367.505	311.38
367.731	323.38
367.957	317.38
368.184	301.38
368.41	318.38
368.636	340.38
368.862	338.38
369.089	321.38
369.315	309.38
369.541	296.38
369.767	311.38
369.993	309.38
370.219	312.38
370.445	300.38
370.672	297.38
370.898	299.38
371.124	294.38
371.35	294.38
371.576	327.38
371.802	298.38
372.028	313.38
372.254	281.38
372.48	302.38
372.706	300.38
372.932	282.38
373.158	323.38
373.384	309.38
373.61	296.38
373.835	305.38
374.061	305.38
374.287	309.38
374.513	303.38
374.739	296.38
374.965	285.38
375.191	304.38
375.416	313.38
375.642	293.38
375.868	322.38
376.094	290.38
376.319	297.38
376.545	314.38
376.771	285.38
376.997	318.38
377.222	300.38
377.448	298.38
377.674	307.38
377.899	309.38
378.125	303.38
378.35	293.38
378.576	291.38
378.802	296.38
379.027	289.38
379.253	309.38
379.478	296.38
379.704	293.38
379.929	313.38
380.155	320.38
380.38	287.38
380.606	307.38
380.831	299.38
381.057	284.38
381.282	302.38
381.507	306.38
381.733	294.38
381.958	305.38
382.184	295.38
382.409	326.38
382.634	318.38
382.86	309.38
383.085	302.38
383.31	311.38
383.535	307.38
383.761	311.38
383.986	298.38
384.211	320.38
384.436	319.38
384.662	325.38
384.887	333.38
385.112	319.38
385.337	317.38
385.562	302.38
385.787	335.38
386.013	332.38
386.238	329.38
386.463	325.38
386.688	321.38
386.913	325.38
387.138	318.38
387.363	321.38
387.588	321.38
387.813	312.38
388.038	312.38
388.263	301.38
388.488	336.38
388.713	302.38
388.938	309.38
389.163	321.38
389.387	340.38
389.612	318.38
389.837	337.38
390.062	312.38
390.287	313.38
390.512	313.38
390.736	321.38
390.961	319.38
391.186	321.38
391.411	306.38
391.636	308.38
391.86	326.38
392.085	326.38
392.31	306.38
392.534	321.38
392.759	330.38
392.984	315.38
393.208	340.38
393.433	314.38
393.658	331.38
393.882	319.38
394.107	318.38
394.331	317.38
394.556	301.38
394.78	316.38
395.005	321.38
395.229	325.38
395.454	317.38
395.678	340.38
395.903	331.38
396.127	354.38
396.352	369.38
396.576	334.38
396.801	333.38
397.025	333.38
397.249	337.38
397.474	346.38
397.698	322.38
397.922	366.38
398.147	374.38
398.371	360.38
398.595	346.38
398.82	345.38
399.044	364.38
399.268	374.38
399.492	385.38
399.717	391.38
399.941	430.38
400.165	436.38
400.389	429.38
400.613	407.38
400.837	378.38
401.062	365.38
401.286	364.38
401.51	359.38
401.734	375.38
401.958	362.38
402.182	369.38
402.406	362.38
402.63	383.38
402.854	379.38
403.078	369.38
403.302	376.38
403.526	364.38
403.75	381.38
403.974	377.38
404.198	378.38
404.422	373.38
404.645	373.38
404.869	385.38
405.093	397.38
405.317	433.38
405.541	462.38
405.765	412.38
405.988	395.38
406.212	423.38
406.436	426.38
406.66	466.38
406.883	409.38
407.107	455.38
407.331	462.38
407.555	525.38
407.778	504.38
408.002	480.38
408.226	430.38
408.449	419.38
408.673	444.38
408.896	447.38
409.12	476.38
409.344	450.38
409.567	425.38
409.791	413.38
410.014	398.38
410.238	394.38
410.461	375.38
410.685	385.38
410.908	402.38
411.132	434.38
411.355	458.38
411.578	439.38
411.802	399.38
412.025	371.38
412.249	386.38
412.472	388.38
412.695	379.38
412.919	409.38
413.142	379.38
413.365	356.38
413.589	360.38
413.812	363.38
414.035	377.38
414.258	361.38
414.482	364.38
414.705	341.38
414.928	363.38
415.151	349.38
415.374	364.38
415.597	362.38
415.821	331.38
416.044	364.38
416.267	355.38
416.49	370.38
416.713	375.38
416.936	377.38
417.159	385.38
417.382	365.38
417.605	380.38
417.828	363.38
418.051	387.38
418.274	389.38
418.497	381.38
418.72	385.38
418.943	387.38
419.166	389.38
419.389	381.38
419.611	386.38
419.834	393.38
420.057	380.38
420.28	393.38
420.503	383.38
420.726	387.38
420.948	386.38
421.171	463.38
421.394	472.38
421.617	418.38
421.839	401.38
422.062	399.38
422.285	437.38
422.507	478.38
422.73	537.38
422.953	526.38
423.175	463.38
423.398	441.38
423.621	421.38
423.843	438.38
424.066	461.38
424.288	450.38
424.511	460.38
424.733	501.38
424.956	565.38
425.178	542.38
425.401	561.38
425.623	582.38
425.846	500.38
426.068	457.38
426.291	453.38
426.513	455.38
426.735	475.38
426.958	501.38
427.18	580.38
427.402	667.38
427.625	748.38
427.847	684.38
428.069	570.38
428.292	501.38
428.514	478.38
428.736	458.38
428.958	438.38
429.181	421.38
429.403	439.38
429.625	448.38
429.847	471.38
430.069	522.38
430.292	536.38
430.514	437.38
430.736	422.38
430.958	391.38
431.18	400.38
431.402	390.38
431.624	404.38
431.846	390.38
432.068	393.38
432.29	399.38
432.512	387.38
432.734	384.38
432.956	412.38
433.178	404.38
433.4	409.38
433.622	402.38
433.844	386.38
434.066	381.38
434.287	380.38
434.509	378.38
434.731	387.38
434.953	403.38
435.175	412.38
435.397	428.38
435.618	461.38
435.84	499.38
436.062	579.38
436.284	635.38
436.505	555.38
436.727	501.38
436.949	447.38
437.17	428.38
437.392	433.38
437.614	470.38
437.835	509.38
438.057	578.38
438.278	658.38
438.5	651.38
438.721	697.38
438.943	681.38
439.165	578.38
439.386	499.38
439.608	471.38
439.829	474.38
440.05	509.38
440.272	563.38
440.493	519.38
440.715	469.38
440.936	446.38
441.158	444.38
441.379	430.38
441.6	441.38
441.822	457.38
442.043	486.38
442.264	576.38
442.486	613.38
442.707	542.38
442.928	471.38
443.149	468.38
443.371	501.38
443.592	555.38
443.813	591.38
444.034	650.38
444.255	549.38
444.476	486.38
444.698	462.38
444.919	433.38
445.14	531.38
445.361	506.38
445.582	489.38
445.803	563.38
446.024	633.38
446.245	623.38
446.466	606.38
446.687	507.38
446.908	461.38
447.129	457.38
447.35	447.38
447.571	443.38
447.792	421.38
448.013	449.38
448.234	449.38
448.455	501.38
448.675	588.38
448.896	668.38
449.117	618.38
449.338	573.38
449.559	659.38
449.779	717.38
450	607.38
450.221	503.38
450.442	477.38
450.662	420.38
450.883	443.38
451.104	475.38
451.324	460.38
451.545	428.38
451.766	428.38
451.986	397.38
452.207	394.38
452.428	397.38
452.648	393.38
452.869	392.38
453.089	423.38
453.31	419.38
453.53	407.38
453.751	404.38
453.971	421.38
454.192	419.38
454.412	424.38
454.633	408.38
454.853	404.38
455.073	382.38
455.294	406.38
455.514	473.38
455.734	473.38
455.955	422.38
456.175	374.38
456.395	367.38
456.616	361.38
456.836	375.38
457.056	347.38
457.276	367.38
457.497	350.38
457.717	338.38
457.937	357.38
458.157	369.38
458.377	359.38
458.598	395.38
458.818	443.38
459.038	539.38
459.258	565.38
459.478	482.38
459.698	412.38
459.918	408.38
460.138	387.38
460.358	382.38
460.578	393.38
460.798	387.38
461.018	389.38
461.238	399.38
461.458	394.38
461.678	380.38
461.898	379.38
462.118	385.38
462.338	396.38
462.558	387.38
462.777	383.38
462.997	397.38
463.217	390.38
463.437	385.38
463.657	391.38
463.876	385.38
464.096	387.38
464.316	392.38
464.536	416.38
464.755	417.38
464.975	418.38
465.195	489.38
465.414	583.38
465.634	491.38
465.854	449.38
466.073	399.38
466.293	407.38
466.512	393.38
466.732	374.38
466.951	383.38
467.171	366.38
467.391	396.38
467.61	385.38
467.829	399.38
468.049	372.38
468.268	361.38
468.488	370.38
468.707	390.38
468.927	391.38
469.146	379.38
469.365	366.38
469.585	385.38
469.804	381.38
470.023	385.38
470.243	419.38
470.462	390.38
470.681	419.38
470.901	391.38
471.12	406.38
471.339	385.38
471.558	397.38
471.777	403.38
471.997	393.38
472.216	396.38
472.435	383.38
472.654	378.38
472.873	376.38
473.092	387.38
473.311	382.38
473.53	381.38
473.749	411.38
473.968	439.38
474.187	527.38
474.406	553.38
474.625	448.38
474.844	387.38
475.063	391.38
475.282	405.38
475.501	403.38
475.72	419.38
475.939	404.38
476.158	404.38
476.377	428.38
476.596	394.38
476.814	398.38
477.033	415.38
477.252	410.38
477.471	410.38
477.69	415.38
477.908	412.38
478.127	387.38
478.346	424.38
478.564	407.38
478.783	421.38
479.002	414.38
479.22	419.38
479.439	423.38
479.658	477.38
479.876	469.38
480.095	454.38
480.313	495.38
480.532	463.38
480.751	471.38
480.969	470.38
481.188	474.38
481.406	497.38
481.624	474.38
481.843	449.38
482.061	457.38
482.28	468.38
482.498	475.38
482.717	455.38
482.935	433.38
483.153	448.38
483.372	459.38
483.59	475.38
483.808	459.38
484.027	450.38
484.245	461.38
484.463	444.38
484.681	480.38
484.9	464.38
485.118	473.38
485.336	470.38
485.554	459.38
485.772	470.38
485.99	460.38
486.209	463.38
486.427	485.38
486.645	498.38
486.863	503.38
487.081	501.38
487.299	514.38
487.517	511.38
487.735	478.38
487.953	481.38
488.171	476.38
488.389	510.38
488.607	513.38
488.825	491.38
489.043	510.38
489.261	519.38
489.479	513.38
489.696	515.38
489.914	515.38
490.132	534.38
490.35	539.38
490.568	520.38
490.786	539.38
491.003	545.38
491.221	548.38
491.439	588.38
491.657	542.38
491.874	564.38
492.092	566.38
492.31	572.38
492.527	589.38
492.745	601.38
492.963	590.38
493.18	584.38
493.398	593.38
493.615	597.38
493.833	604.38
494.05	596.38
494.268	599.38
494.485	612.38
494.703	574.38
494.92	610.38
495.138	615.38
495.355	604.38
495.573	596.38
495.79	612.38
496.008	611.38
496.225	590.38
496.442	594.38
496.66	627.38
496.877	612.38
497.094	623.38
497.312	625.38
497.529	627.38
497.746	637.38
497.963	625.38
498.181	618.38
498.398	643.38
498.615	641.38
498.832	656.38
499.049	645.38
499.267	651.38
499.484	661.38
499.701	667.38
499.918	668.38
500.135	709.38
500.352	714.38
500.569	713.38
500.786	738.38
501.003	726.38
501.22	724.38
501.437	721.38
501.654	676.38
501.871	744.38
