Data from 1987.PennyLincolnUp.Lamp.En5.5.200Scan.071819.P2_HRD10591_17-13-56-971.txt Node
Date: Thu Jul 18 17:13:56 EDT 2019
User: cochatt
Spectrometer: HR+D1059
Trigger mode: 1
Integration Time (sec): 1.000000E-1
Scans to average: 1
Electric dark correction enabled: true
Nonlinearity correction enabled: false
Boxcar width: 0
XAxis mode: Wavelengths
Number of Pixels in Spectrum: 2048
>>>>>Begin Spectral Data<<<<<
223.165	-23.25
223.4	-23.25
223.635	-23.25
223.869	-10.25
224.104	-25.25
224.338	-16.25
224.573	-10.25
224.808	-18.25
225.042	2.75
225.277	-22.25
225.511	-1.25
225.746	10.75
225.98	11.75
226.215	11.75
226.449	4.75
226.683	23.75
226.918	21.75
227.152	39.75
227.387	30.75
227.621	32.75
227.856	36.75
228.09	41.75
228.324	48.75
228.559	64.75
228.793	71.75
229.027	94.75
229.262	104.75
229.496	100.75
229.73	115.75
229.964	148.75
230.199	115.75
230.433	94.75
230.667	109.75
230.901	98.75
231.136	97.75
231.37	102.75
231.604	102.75
231.838	103.75
232.072	108.75
232.306	98.75
232.541	114.75
232.775	103.75
233.009	93.75
233.243	120.75
233.477	105.75
233.711	93.75
233.945	92.75
234.179	96.75
234.413	116.75
234.647	107.75
234.881	97.75
235.115	87.75
235.349	112.75
235.583	97.75
235.817	95.75
236.051	102.75
236.285	105.75
236.519	127.75
236.753	118.75
236.987	113.75
237.221	151.75
237.455	196.75
237.689	157.75
237.922	119.75
238.156	102.75
238.39	99.75
238.624	97.75
238.858	93.75
239.091	101.75
239.325	109.75
239.559	112.75
239.793	105.75
240.027	114.75
240.26	126.75
240.494	132.75
240.728	124.75
240.961	116.75
241.195	107.75
241.429	118.75
241.662	101.75
241.896	104.75
242.13	108.75
242.363	109.75
242.597	103.75
242.83	112.75
243.064	116.75
243.298	108.75
243.531	114.75
243.765	115.75
243.998	118.75
244.232	119.75
244.465	117.75
244.699	131.75
244.932	102.75
245.166	112.75
245.399	110.75
245.633	128.75
245.866	122.75
246.099	123.75
246.333	123.75
246.566	122.75
246.8	122.75
247.033	123.75
247.266	144.75
247.5	142.75
247.733	139.75
247.966	142.75
248.2	145.75
248.433	141.75
248.666	130.75
248.899	162.75
249.133	158.75
249.366	169.75
249.599	170.75
249.832	139.75
250.066	148.75
250.299	146.75
250.532	144.75
250.765	138.75
250.998	174.75
251.231	184.75
251.465	167.75
251.698	162.75
251.931	160.75
252.164	166.75
252.397	154.75
252.63	148.75
252.863	172.75
253.096	184.75
253.329	188.75
253.562	185.75
253.795	185.75
254.028	188.75
254.261	174.75
254.494	183.75
254.727	200.75
254.96	212.75
255.193	216.75
255.426	193.75
255.659	192.75
255.892	172.75
256.124	177.75
256.357	171.75
256.59	173.75
256.823	178.75
257.056	159.75
257.289	159.75
257.521	158.75
257.754	158.75
257.987	152.75
258.22	151.75
258.452	147.75
258.685	158.75
258.918	168.75
259.151	158.75
259.383	166.75
259.616	166.75
259.849	175.75
260.081	177.75
260.314	190.75
260.547	187.75
260.779	194.75
261.012	185.75
261.244	196.75
261.477	159.75
261.71	170.75
261.942	166.75
262.175	180.75
262.407	183.75
262.64	182.75
262.872	165.75
263.105	156.75
263.337	146.75
263.57	177.75
263.802	168.75
264.035	153.75
264.267	153.75
264.499	165.75
264.732	164.75
264.964	153.75
265.197	145.75
265.429	161.75
265.661	147.75
265.894	143.75
266.126	158.75
266.358	158.75
266.591	158.75
266.823	175.75
267.055	174.75
267.287	176.75
267.52	174.75
267.752	154.75
267.984	160.75
268.216	158.75
268.448	176.75
268.681	164.75
268.913	177.75
269.145	177.75
269.377	175.75
269.609	212.75
269.841	197.75
270.073	197.75
270.306	215.75
270.538	220.75
270.77	216.75
271.002	207.75
271.234	208.75
271.466	210.75
271.698	217.75
271.93	233.75
272.162	225.75
272.394	229.75
272.626	228.75
272.858	212.75
273.09	216.75
273.322	194.75
273.553	214.75
273.785	191.75
274.017	188.75
274.249	201.75
274.481	194.75
274.713	185.75
274.945	200.75
275.176	187.75
275.408	188.75
275.64	185.75
275.872	181.75
276.104	173.75
276.335	197.75
276.567	194.75
276.799	188.75
277.031	210.75
277.262	224.75
277.494	215.75
277.726	202.75
277.957	207.75
278.189	180.75
278.421	184.75
278.652	184.75
278.884	193.75
279.115	182.75
279.347	181.75
279.579	184.75
279.81	188.75
280.042	192.75
280.273	180.75
280.505	184.75
280.736	186.75
280.968	197.75
281.199	170.75
281.431	165.75
281.662	178.75
281.894	172.75
282.125	189.75
282.356	187.75
282.588	202.75
282.819	208.75
283.051	202.75
283.282	183.75
283.513	182.75
283.745	194.75
283.976	181.75
284.207	199.75
284.439	167.75
284.67	206.75
284.901	206.75
285.132	196.75
285.364	185.75
285.595	169.75
285.826	172.75
286.057	185.75
286.288	201.75
286.52	190.75
286.751	179.75
286.982	195.75
287.213	196.75
287.444	196.75
287.675	181.75
287.906	178.75
288.138	204.75
288.369	189.75
288.6	213.75
288.831	192.75
289.062	193.75
289.293	212.75
289.524	188.75
289.755	187.75
289.986	201.75
290.217	192.75
290.448	191.75
290.679	182.75
290.91	183.75
291.141	194.75
291.371	216.75
291.602	204.75
291.833	190.75
292.064	195.75
292.295	185.75
292.526	196.75
292.757	188.75
292.987	196.75
293.218	196.75
293.449	194.75
293.68	205.75
293.91	193.75
294.141	173.75
294.372	188.75
294.603	197.75
294.833	196.75
295.064	199.75
295.295	196.75
295.525	185.75
295.756	193.75
295.987	202.75
296.217	217.75
296.448	224.75
296.679	218.75
296.909	194.75
297.14	200.75
297.37	187.75
297.601	196.75
297.831	207.75
298.062	186.75
298.292	196.75
298.523	195.75
298.753	208.75
298.984	205.75
299.214	195.75
299.445	198.75
299.675	189.75
299.905	203.75
300.136	210.75
300.366	201.75
300.597	195.75
300.827	201.75
301.057	215.75
301.288	202.75
301.518	199.75
301.748	221.75
301.979	213.75
302.209	198.75
302.439	213.75
302.669	212.75
302.9	199.75
303.13	221.75
303.36	201.75
303.59	211.75
303.82	217.75
304.051	225.75
304.281	218.75
304.511	208.75
304.741	212.75
304.971	211.75
305.201	211.75
305.431	225.75
305.661	217.75
305.891	219.75
306.121	198.75
306.352	221.75
306.582	215.75
306.812	213.75
307.042	206.75
307.272	207.75
307.502	212.75
307.731	223.75
307.961	236.75
308.191	230.75
308.421	218.75
308.651	225.75
308.881	217.75
309.111	231.75
309.341	229.75
309.571	231.75
309.8	228.75
310.03	245.75
310.26	234.75
310.49	250.75
310.72	260.75
310.949	263.75
311.179	275.75
311.409	250.75
311.639	241.75
311.868	260.75
312.098	243.75
312.328	266.75
312.557	278.75
312.787	272.75
313.017	264.75
313.246	260.75
313.476	246.75
313.706	259.75
313.935	258.75
314.165	260.75
314.394	267.75
314.624	276.75
314.853	251.75
315.083	257.75
315.312	228.75
315.542	243.75
315.771	266.75
316.001	237.75
316.23	270.75
316.46	252.75
316.689	259.75
316.919	265.75
317.148	254.75
317.377	273.75
317.607	261.75
317.836	257.75
318.065	258.75
318.295	245.75
318.524	259.75
318.753	260.75
318.983	246.75
319.212	269.75
319.441	248.75
319.67	274.75
319.9	261.75
320.129	265.75
320.358	245.75
320.587	260.75
320.816	277.75
321.046	278.75
321.275	282.75
321.504	275.75
321.733	274.75
321.962	275.75
322.191	291.75
322.42	305.75
322.649	292.75
322.878	307.75
323.108	302.75
323.337	341.75
323.566	358.75
323.795	391.75
324.024	422.75
324.253	489.75
324.482	720.75
324.71	1079.75
324.939	1566.75
325.168	1370.75
325.397	779.75
325.626	507.75
325.855	403.75
326.084	376.75
326.313	361.75
326.542	363.75
326.77	396.75
326.999	469.75
327.228	650.75
327.457	960.75
327.686	1180.75
327.914	831.75
328.143	543.75
328.372	472.75
328.6	434.75
328.829	412.75
329.058	407.75
329.287	437.75
329.515	411.75
329.744	344.75
329.972	344.75
330.201	346.75
330.43	382.75
330.658	408.75
330.887	420.75
331.115	425.75
331.344	370.75
331.572	343.75
331.801	346.75
332.03	344.75
332.258	333.75
332.486	309.75
332.715	305.75
332.943	305.75
333.172	300.75
333.4	282.75
333.629	285.75
333.857	313.75
334.085	303.75
334.314	296.75
334.542	294.75
334.771	325.75
334.999	305.75
335.227	298.75
335.455	305.75
335.684	292.75
335.912	309.75
336.14	292.75
336.369	289.75
336.597	315.75
336.825	292.75
337.053	280.75
337.281	279.75
337.51	288.75
337.738	289.75
337.966	276.75
338.194	296.75
338.422	292.75
338.65	282.75
338.878	276.75
339.106	273.75
339.334	286.75
339.562	260.75
339.79	291.75
340.018	286.75
340.246	280.75
340.474	280.75
340.702	279.75
340.93	284.75
341.158	280.75
341.386	287.75
341.614	286.75
341.842	294.75
342.07	264.75
342.298	273.75
342.526	273.75
342.754	270.75
342.981	268.75
343.209	276.75
343.437	258.75
343.665	292.75
343.893	269.75
344.12	290.75
344.348	291.75
344.576	280.75
344.804	293.75
345.031	295.75
345.259	308.75
345.487	308.75
345.714	296.75
345.942	274.75
346.17	280.75
346.397	295.75
346.625	291.75
346.853	297.75
347.08	280.75
347.308	282.75
347.535	288.75
347.763	283.75
347.99	307.75
348.218	281.75
348.445	276.75
348.673	288.75
348.9	294.75
349.128	273.75
349.355	279.75
349.583	287.75
349.81	262.75
350.037	280.75
350.265	275.75
350.492	282.75
350.72	264.75
350.947	283.75
351.174	278.75
351.402	291.75
351.629	297.75
351.856	281.75
352.083	306.75
352.311	307.75
352.538	305.75
352.765	295.75
352.992	283.75
353.22	289.75
353.447	286.75
353.674	289.75
353.901	284.75
354.128	278.75
354.355	264.75
354.583	268.75
354.81	258.75
355.037	256.75
355.264	274.75
355.491	271.75
355.718	261.75
355.945	247.75
356.172	276.75
356.399	264.75
356.626	246.75
356.853	266.75
357.08	257.75
357.307	262.75
357.534	261.75
357.761	266.75
357.988	261.75
358.215	274.75
358.441	275.75
358.668	273.75
358.895	262.75
359.122	262.75
359.349	284.75
359.576	308.75
359.802	310.75
360.029	329.75
360.256	341.75
360.483	338.75
360.709	285.75
360.936	299.75
361.163	301.75
361.39	284.75
361.616	285.75
361.843	284.75
362.07	300.75
362.296	293.75
362.523	276.75
362.749	305.75
362.976	262.75
363.203	287.75
363.429	266.75
363.656	290.75
363.882	281.75
364.109	271.75
364.335	286.75
364.562	278.75
364.788	263.75
365.015	288.75
365.241	261.75
365.468	293.75
365.694	287.75
365.92	300.75
366.147	275.75
366.373	279.75
366.599	272.75
366.826	282.75
367.052	279.75
367.278	278.75
367.505	280.75
367.731	278.75
367.957	275.75
368.184	285.75
368.41	267.75
368.636	306.75
368.862	282.75
369.089	288.75
369.315	297.75
369.541	273.75
369.767	269.75
369.993	278.75
370.219	296.75
370.445	269.75
370.672	264.75
370.898	270.75
371.124	274.75
371.35	292.75
371.576	282.75
371.802	244.75
372.028	268.75
372.254	277.75
372.48	269.75
372.706	276.75
372.932	273.75
373.158	269.75
373.384	288.75
373.61	274.75
373.835	277.75
374.061	279.75
374.287	262.75
374.513	281.75
374.739	272.75
374.965	285.75
375.191	269.75
375.416	287.75
375.642	267.75
375.868	272.75
376.094	272.75
376.319	253.75
376.545	284.75
376.771	279.75
376.997	268.75
377.222	281.75
377.448	292.75
377.674	282.75
377.899	284.75
378.125	267.75
378.35	288.75
378.576	279.75
378.802	278.75
379.027	286.75
379.253	280.75
379.478	269.75
379.704	271.75
379.929	292.75
380.155	265.75
380.38	286.75
380.606	277.75
380.831	280.75
381.057	277.75
381.282	269.75
381.507	296.75
381.733	280.75
381.958	274.75
382.184	273.75
382.409	293.75
382.634	300.75
382.86	256.75
383.085	303.75
383.31	286.75
383.535	272.75
383.761	280.75
383.986	303.75
384.211	297.75
384.436	292.75
384.662	297.75
384.887	281.75
385.112	282.75
385.337	276.75
385.562	289.75
385.787	285.75
386.013	312.75
386.238	304.75
386.463	305.75
386.688	288.75
386.913	285.75
387.138	300.75
387.363	304.75
387.588	300.75
387.813	304.75
388.038	303.75
388.263	293.75
388.488	279.75
388.713	279.75
388.938	291.75
389.163	288.75
389.387	270.75
389.612	288.75
389.837	287.75
390.062	291.75
390.287	291.75
390.512	279.75
390.736	280.75
390.961	282.75
391.186	305.75
391.411	310.75
391.636	307.75
391.86	294.75
392.085	289.75
392.31	284.75
392.534	304.75
392.759	320.75
392.984	298.75
393.208	312.75
393.433	324.75
393.658	325.75
393.882	305.75
394.107	289.75
394.331	303.75
394.556	286.75
394.78	274.75
395.005	300.75
395.229	308.75
395.454	313.75
395.678	304.75
395.903	335.75
396.127	322.75
396.352	325.75
396.576	316.75
396.801	319.75
397.025	323.75
397.249	323.75
397.474	310.75
397.698	305.75
397.922	325.75
398.147	347.75
398.371	335.75
398.595	329.75
398.82	316.75
399.044	340.75
399.268	328.75
399.492	342.75
399.717	362.75
399.941	386.75
400.165	414.75
400.389	410.75
400.613	400.75
400.837	364.75
401.062	353.75
401.286	370.75
401.51	335.75
401.734	325.75
401.958	326.75
402.182	339.75
402.406	359.75
402.63	344.75
402.854	348.75
403.078	352.75
403.302	362.75
403.526	352.75
403.75	348.75
403.974	342.75
404.198	344.75
404.422	334.75
404.645	358.75
404.869	354.75
405.093	362.75
405.317	366.75
405.541	401.75
405.765	365.75
405.988	370.75
406.212	393.75
406.436	369.75
406.66	384.75
406.883	398.75
407.107	390.75
407.331	437.75
407.555	480.75
407.778	479.75
408.002	442.75
408.226	418.75
408.449	374.75
408.673	383.75
408.896	410.75
409.12	432.75
409.344	423.75
409.567	372.75
409.791	367.75
410.014	356.75
410.238	358.75
410.461	349.75
410.685	370.75
410.908	372.75
411.132	386.75
411.355	424.75
411.578	403.75
411.802	364.75
412.025	358.75
412.249	346.75
412.472	346.75
412.695	366.75
412.919	361.75
413.142	358.75
413.365	351.75
413.589	352.75
413.812	337.75
414.035	325.75
414.258	332.75
414.482	331.75
414.705	333.75
414.928	341.75
415.151	326.75
415.374	316.75
415.597	338.75
415.821	318.75
416.044	342.75
416.267	326.75
416.49	350.75
416.713	324.75
416.936	327.75
417.159	346.75
417.382	329.75
417.605	340.75
417.828	351.75
418.051	349.75
418.274	365.75
418.497	351.75
418.72	342.75
418.943	340.75
419.166	350.75
419.389	376.75
419.611	350.75
419.834	362.75
420.057	358.75
420.28	353.75
420.503	359.75
420.726	340.75
420.948	388.75
421.171	394.75
421.394	424.75
421.617	394.75
421.839	362.75
422.062	351.75
422.285	377.75
422.507	424.75
422.73	498.75
422.953	478.75
423.175	403.75
423.398	400.75
423.621	378.75
423.843	403.75
424.066	410.75
424.288	392.75
424.511	426.75
424.733	431.75
424.956	522.75
425.178	512.75
425.401	506.75
425.623	538.75
425.846	449.75
426.068	421.75
426.291	396.75
426.513	405.75
426.735	449.75
426.958	415.75
427.18	532.75
427.402	601.75
427.625	688.75
427.847	588.75
428.069	522.75
428.292	477.75
428.514	411.75
428.736	397.75
428.958	401.75
429.181	377.75
429.403	404.75
429.625	357.75
429.847	406.75
430.069	472.75
430.292	457.75
430.514	385.75
430.736	389.75
430.958	374.75
431.18	386.75
431.402	365.75
431.624	329.75
431.846	364.75
432.068	359.75
432.29	347.75
432.512	359.75
432.734	355.75
432.956	375.75
433.178	368.75
433.4	369.75
433.622	360.75
433.844	347.75
434.066	367.75
434.287	375.75
434.509	364.75
434.731	360.75
434.953	362.75
435.175	374.75
435.397	384.75
435.618	422.75
435.84	449.75
436.062	519.75
436.284	545.75
436.505	488.75
436.727	449.75
436.949	433.75
437.17	403.75
437.392	399.75
437.614	417.75
437.835	431.75
438.057	513.75
438.278	596.75
438.5	572.75
438.721	657.75
438.943	600.75
439.165	492.75
439.386	465.75
439.608	434.75
439.829	444.75
440.05	449.75
440.272	474.75
440.493	467.75
440.715	417.75
440.936	397.75
441.158	406.75
441.379	396.75
441.6	389.75
441.822	409.75
442.043	449.75
442.264	531.75
442.486	534.75
442.707	468.75
442.928	431.75
443.149	442.75
443.371	474.75
443.592	457.75
443.813	530.75
444.034	572.75
444.255	510.75
444.476	433.75
444.698	421.75
444.919	408.75
445.14	489.75
445.361	451.75
445.582	464.75
445.803	508.75
446.024	555.75
446.245	576.75
446.466	537.75
446.687	468.75
446.908	423.75
447.129	401.75
447.35	396.75
447.571	394.75
447.792	377.75
448.013	399.75
448.234	405.75
448.455	468.75
448.675	526.75
448.896	638.75
449.117	545.75
449.338	509.75
449.559	580.75
449.779	629.75
450	539.75
450.221	440.75
450.442	414.75
450.662	397.75
450.883	409.75
451.104	400.75
451.324	400.75
451.545	376.75
451.766	364.75
451.986	365.75
452.207	356.75
452.428	355.75
452.648	354.75
452.869	340.75
453.089	374.75
453.31	363.75
453.53	341.75
453.751	344.75
453.971	336.75
454.192	375.75
454.412	375.75
454.633	354.75
454.853	356.75
455.073	350.75
455.294	380.75
455.514	442.75
455.734	425.75
455.955	365.75
456.175	337.75
456.395	318.75
456.616	330.75
456.836	346.75
457.056	326.75
457.276	318.75
457.497	312.75
457.717	312.75
457.937	332.75
458.157	336.75
458.377	342.75
458.598	354.75
458.818	397.75
459.038	454.75
459.258	464.75
459.478	421.75
459.698	388.75
459.918	366.75
460.138	330.75
460.358	351.75
460.578	349.75
460.798	365.75
461.018	361.75
461.238	357.75
461.458	349.75
461.678	351.75
461.898	344.75
462.118	330.75
462.338	358.75
462.558	353.75
462.777	367.75
462.997	364.75
463.217	371.75
463.437	372.75
463.657	368.75
463.876	347.75
464.096	362.75
464.316	385.75
464.536	356.75
464.755	368.75
464.975	377.75
465.195	419.75
465.414	493.75
465.634	441.75
465.854	398.75
466.073	380.75
466.293	378.75
466.512	345.75
466.732	357.75
466.951	352.75
467.171	334.75
467.391	351.75
467.61	360.75
467.829	372.75
468.049	370.75
468.268	360.75
468.488	352.75
468.707	311.75
468.927	315.75
469.146	331.75
469.365	339.75
469.585	342.75
469.804	333.75
470.023	360.75
470.243	351.75
470.462	345.75
470.681	386.75
470.901	352.75
471.12	356.75
471.339	360.75
471.558	348.75
471.777	337.75
471.997	334.75
472.216	349.75
472.435	340.75
472.654	351.75
472.873	346.75
473.092	358.75
473.311	328.75
473.53	373.75
473.749	364.75
473.968	380.75
474.187	465.75
474.406	500.75
474.625	407.75
474.844	384.75
475.063	377.75
475.282	364.75
475.501	345.75
475.72	367.75
475.939	376.75
476.158	366.75
476.377	378.75
476.596	364.75
476.814	375.75
477.033	358.75
477.252	378.75
477.471	374.75
477.69	355.75
477.908	366.75
478.127	350.75
478.346	391.75
478.564	380.75
478.783	373.75
479.002	407.75
479.22	398.75
479.439	427.75
479.658	418.75
479.876	416.75
480.095	430.75
480.313	448.75
480.532	426.75
480.751	445.75
480.969	421.75
481.188	434.75
481.406	441.75
481.624	421.75
481.843	422.75
482.061	412.75
482.28	433.75
482.498	432.75
482.717	437.75
482.935	427.75
483.153	426.75
483.372	428.75
483.59	433.75
483.808	418.75
484.027	408.75
484.245	446.75
484.463	413.75
484.681	404.75
484.9	430.75
485.118	450.75
485.336	436.75
485.554	433.75
485.772	423.75
485.99	434.75
486.209	442.75
486.427	440.75
486.645	432.75
486.863	465.75
487.081	476.75
487.299	450.75
487.517	466.75
487.735	447.75
487.953	423.75
488.171	459.75
488.389	451.75
488.607	450.75
488.825	479.75
489.043	472.75
489.261	448.75
489.479	482.75
489.696	488.75
489.914	454.75
490.132	467.75
490.35	492.75
490.568	495.75
490.786	488.75
491.003	512.75
491.221	515.75
491.439	528.75
491.657	508.75
491.874	513.75
492.092	515.75
492.31	513.75
492.527	506.75
492.745	526.75
492.963	522.75
493.18	529.75
493.398	559.75
493.615	517.75
493.833	543.75
494.05	540.75
494.268	556.75
494.485	560.75
494.703	543.75
494.92	553.75
495.138	549.75
495.355	550.75
495.573	565.75
495.79	536.75
496.008	576.75
496.225	567.75
496.442	538.75
496.66	526.75
496.877	532.75
497.094	552.75
497.312	552.75
497.529	581.75
497.746	564.75
497.963	572.75
498.181	575.75
498.398	573.75
498.615	593.75
498.832	587.75
499.049	596.75
499.267	593.75
499.484	617.75
499.701	620.75
499.918	649.75
500.135	650.75
500.352	668.75
500.569	656.75
500.786	678.75
501.003	666.75
501.22	675.75
501.437	667.75
501.654	652.75
501.871	670.75
502.088	641.75
