Data from 1987.PennyLincolnUp.Lamp.En5.5.200Scan.071819.P2_HRD10591_17-13-54-976.txt Node
Date: Thu Jul 18 17:13:54 EDT 2019
User: cochatt
Spectrometer: HR+D1059
Trigger mode: 1
Integration Time (sec): 1.000000E-1
Scans to average: 1
Electric dark correction enabled: true
Nonlinearity correction enabled: false
Boxcar width: 0
XAxis mode: Wavelengths
Number of Pixels in Spectrum: 2048
>>>>>Begin Spectral Data<<<<<
223.165	-7.38
223.4	-7.38
223.635	-7.38
223.869	-13.38
224.104	-25.38
224.338	-22.38
224.573	-10.38
224.808	-12.38
225.042	-2.38
225.277	-9.38
225.511	0.62
225.746	-10.38
225.98	19.62
226.215	18.62
226.449	6.62
226.683	28.62
226.918	9.62
227.152	29.62
227.387	27.62
227.621	41.62
227.856	45.62
228.09	52.62
228.324	50.62
228.559	61.62
228.793	52.62
229.027	71.62
229.262	106.62
229.496	119.62
229.73	109.62
229.964	125.62
230.199	130.62
230.433	110.62
230.667	105.62
230.901	101.62
231.136	106.62
231.37	106.62
231.604	101.62
231.838	107.62
232.072	105.62
232.306	95.62
232.541	88.62
232.775	90.62
233.009	103.62
233.243	102.62
233.477	92.62
233.711	104.62
233.945	107.62
234.179	98.62
234.413	110.62
234.647	99.62
234.881	105.62
235.115	114.62
235.349	102.62
235.583	94.62
235.817	108.62
236.051	99.62
236.285	110.62
236.519	109.62
236.753	103.62
236.987	124.62
237.221	153.62
237.455	187.62
237.689	164.62
237.922	113.62
238.156	123.62
238.39	100.62
238.624	111.62
238.858	112.62
239.091	109.62
239.325	119.62
239.559	107.62
239.793	121.62
240.027	101.62
240.26	140.62
240.494	136.62
240.728	130.62
240.961	119.62
241.195	129.62
241.429	108.62
241.662	122.62
241.896	98.62
242.13	106.62
242.363	112.62
242.597	120.62
242.83	113.62
243.064	108.62
243.298	128.62
243.531	117.62
243.765	118.62
243.998	116.62
244.232	123.62
244.465	115.62
244.699	133.62
244.932	120.62
245.166	121.62
245.399	139.62
245.633	120.62
245.866	134.62
246.099	120.62
246.333	115.62
246.566	127.62
246.8	130.62
247.033	129.62
247.266	131.62
247.5	128.62
247.733	141.62
247.966	136.62
248.2	138.62
248.433	159.62
248.666	130.62
248.899	136.62
249.133	151.62
249.366	166.62
249.599	148.62
249.832	151.62
250.066	145.62
250.299	156.62
250.532	148.62
250.765	160.62
250.998	191.62
251.231	180.62
251.465	176.62
251.698	172.62
251.931	154.62
252.164	164.62
252.397	164.62
252.63	166.62
252.863	165.62
253.096	173.62
253.329	199.62
253.562	172.62
253.795	181.62
254.028	175.62
254.261	172.62
254.494	176.62
254.727	192.62
254.96	217.62
255.193	227.62
255.426	187.62
255.659	194.62
255.892	173.62
256.124	176.62
256.357	153.62
256.59	180.62
256.823	168.62
257.056	166.62
257.289	159.62
257.521	162.62
257.754	166.62
257.987	150.62
258.22	161.62
258.452	152.62
258.685	174.62
258.918	163.62
259.151	180.62
259.383	170.62
259.616	165.62
259.849	172.62
260.081	170.62
260.314	172.62
260.547	183.62
260.779	176.62
261.012	182.62
261.244	169.62
261.477	171.62
261.71	178.62
261.942	169.62
262.175	192.62
262.407	178.62
262.64	182.62
262.872	170.62
263.105	157.62
263.337	163.62
263.57	159.62
263.802	159.62
264.035	171.62
264.267	161.62
264.499	156.62
264.732	154.62
264.964	160.62
265.197	164.62
265.429	154.62
265.661	156.62
265.894	162.62
266.126	142.62
266.358	148.62
266.591	168.62
266.823	161.62
267.055	169.62
267.287	160.62
267.52	149.62
267.752	163.62
267.984	155.62
268.216	179.62
268.448	173.62
268.681	168.62
268.913	168.62
269.145	189.62
269.377	202.62
269.609	199.62
269.841	197.62
270.073	203.62
270.306	208.62
270.538	224.62
270.77	219.62
271.002	206.62
271.234	207.62
271.466	220.62
271.698	214.62
271.93	228.62
272.162	212.62
272.394	223.62
272.626	200.62
272.858	210.62
273.09	202.62
273.322	214.62
273.553	197.62
273.785	183.62
274.017	182.62
274.249	187.62
274.481	183.62
274.713	197.62
274.945	182.62
275.176	192.62
275.408	178.62
275.64	201.62
275.872	194.62
276.104	177.62
276.335	179.62
276.567	197.62
276.799	193.62
277.031	216.62
277.262	228.62
277.494	235.62
277.726	209.62
277.957	192.62
278.189	196.62
278.421	197.62
278.652	180.62
278.884	185.62
279.115	179.62
279.347	195.62
279.579	172.62
279.81	173.62
280.042	210.62
280.273	178.62
280.505	191.62
280.736	190.62
280.968	186.62
281.199	185.62
281.431	173.62
281.662	177.62
281.894	181.62
282.125	166.62
282.356	190.62
282.588	229.62
282.819	212.62
283.051	196.62
283.282	177.62
283.513	192.62
283.745	185.62
283.976	192.62
284.207	187.62
284.439	188.62
284.67	189.62
284.901	195.62
285.132	165.62
285.364	176.62
285.595	173.62
285.826	164.62
286.057	189.62
286.288	186.62
286.52	183.62
286.751	188.62
286.982	192.62
287.213	171.62
287.444	190.62
287.675	200.62
287.906	203.62
288.138	184.62
288.369	209.62
288.6	202.62
288.831	203.62
289.062	212.62
289.293	190.62
289.524	200.62
289.755	188.62
289.986	188.62
290.217	199.62
290.448	207.62
290.679	187.62
290.91	188.62
291.141	182.62
291.371	196.62
291.602	185.62
291.833	195.62
292.064	188.62
292.295	188.62
292.526	202.62
292.757	192.62
292.987	184.62
293.218	181.62
293.449	194.62
293.68	187.62
293.91	186.62
294.141	190.62
294.372	198.62
294.603	189.62
294.833	185.62
295.064	182.62
295.295	184.62
295.525	180.62
295.756	191.62
295.987	211.62
296.217	230.62
296.448	230.62
296.679	201.62
296.909	183.62
297.14	196.62
297.37	183.62
297.601	196.62
297.831	205.62
298.062	212.62
298.292	203.62
298.523	197.62
298.753	181.62
298.984	192.62
299.214	186.62
299.445	207.62
299.675	211.62
299.905	198.62
300.136	212.62
300.366	190.62
300.597	206.62
300.827	216.62
301.057	198.62
301.288	216.62
301.518	206.62
301.748	219.62
301.979	198.62
302.209	212.62
302.439	209.62
302.669	205.62
302.9	199.62
303.13	211.62
303.36	189.62
303.59	212.62
303.82	227.62
304.051	223.62
304.281	214.62
304.511	219.62
304.741	202.62
304.971	206.62
305.201	194.62
305.431	201.62
305.661	206.62
305.891	200.62
306.121	197.62
306.352	203.62
306.582	214.62
306.812	216.62
307.042	214.62
307.272	222.62
307.502	224.62
307.731	200.62
307.961	212.62
308.191	217.62
308.421	219.62
308.651	211.62
308.881	203.62
309.111	233.62
309.341	221.62
309.571	230.62
309.8	230.62
310.03	222.62
310.26	257.62
310.49	256.62
310.72	247.62
310.949	258.62
311.179	265.62
311.409	249.62
311.639	267.62
311.868	260.62
312.098	253.62
312.328	256.62
312.557	264.62
312.787	256.62
313.017	268.62
313.246	258.62
313.476	244.62
313.706	235.62
313.935	244.62
314.165	251.62
314.394	273.62
314.624	272.62
314.853	270.62
315.083	257.62
315.312	246.62
315.542	237.62
315.771	242.62
316.001	233.62
316.23	253.62
316.46	227.62
316.689	227.62
316.919	245.62
317.148	257.62
317.377	264.62
317.607	258.62
317.836	240.62
318.065	241.62
318.295	251.62
318.524	243.62
318.753	240.62
318.983	253.62
319.212	256.62
319.441	266.62
319.67	257.62
319.9	258.62
320.129	248.62
320.358	244.62
320.587	248.62
320.816	257.62
321.046	266.62
321.275	270.62
321.504	257.62
321.733	275.62
321.962	253.62
322.191	277.62
322.42	306.62
322.649	316.62
322.878	315.62
323.108	336.62
323.337	337.62
323.566	341.62
323.795	378.62
324.024	413.62
324.253	494.62
324.482	709.62
324.71	1036.62
324.939	1540.62
325.168	1334.62
325.397	718.62
325.626	483.62
325.855	420.62
326.084	361.62
326.313	364.62
326.542	357.62
326.77	387.62
326.999	470.62
327.228	632.62
327.457	928.62
327.686	1158.62
327.914	818.62
328.143	532.62
328.372	434.62
328.6	401.62
328.829	418.62
329.058	414.62
329.287	410.62
329.515	384.62
329.744	349.62
329.972	347.62
330.201	339.62
330.43	377.62
330.658	384.62
330.887	429.62
331.115	419.62
331.344	342.62
331.572	337.62
331.801	321.62
332.03	333.62
332.258	308.62
332.486	296.62
332.715	293.62
332.943	284.62
333.172	278.62
333.4	268.62
333.629	308.62
333.857	305.62
334.085	306.62
334.314	298.62
334.542	297.62
334.771	290.62
334.999	276.62
335.227	294.62
335.455	290.62
335.684	295.62
335.912	268.62
336.14	269.62
336.369	294.62
336.597	276.62
336.825	302.62
337.053	279.62
337.281	287.62
337.51	272.62
337.738	273.62
337.966	293.62
338.194	276.62
338.422	287.62
338.65	283.62
338.878	268.62
339.106	283.62
339.334	283.62
339.562	285.62
339.79	303.62
340.018	263.62
340.246	248.62
340.474	277.62
340.702	274.62
340.93	260.62
341.158	274.62
341.386	282.62
341.614	288.62
341.842	279.62
342.07	260.62
342.298	268.62
342.526	275.62
342.754	293.62
342.981	260.62
343.209	247.62
343.437	271.62
343.665	262.62
343.893	277.62
344.12	282.62
344.348	273.62
344.576	305.62
344.804	275.62
345.031	279.62
345.259	288.62
345.487	293.62
345.714	281.62
345.942	269.62
346.17	282.62
346.397	293.62
346.625	274.62
346.853	282.62
347.08	276.62
347.308	285.62
347.535	295.62
347.763	295.62
347.99	296.62
348.218	306.62
348.445	286.62
348.673	300.62
348.9	293.62
349.128	267.62
349.355	280.62
349.583	252.62
349.81	265.62
350.037	267.62
350.265	285.62
350.492	274.62
350.72	274.62
350.947	306.62
351.174	283.62
351.402	272.62
351.629	299.62
351.856	278.62
352.083	286.62
352.311	304.62
352.538	294.62
352.765	311.62
352.992	290.62
353.22	280.62
353.447	289.62
353.674	283.62
353.901	267.62
354.128	285.62
354.355	258.62
354.583	252.62
354.81	273.62
355.037	245.62
355.264	257.62
355.491	262.62
355.718	254.62
355.945	258.62
356.172	253.62
356.399	262.62
356.626	259.62
356.853	265.62
357.08	250.62
357.307	249.62
357.534	259.62
357.761	248.62
357.988	256.62
358.215	255.62
358.441	260.62
358.668	265.62
358.895	264.62
359.122	270.62
359.349	265.62
359.576	288.62
359.802	307.62
360.029	317.62
360.256	316.62
360.483	321.62
360.709	291.62
360.936	271.62
361.163	295.62
361.39	296.62
361.616	284.62
361.843	297.62
362.07	278.62
362.296	290.62
362.523	250.62
362.749	265.62
362.976	291.62
363.203	274.62
363.429	264.62
363.656	260.62
363.882	275.62
364.109	282.62
364.335	266.62
364.562	265.62
364.788	246.62
365.015	272.62
365.241	271.62
365.468	286.62
365.694	274.62
365.92	259.62
366.147	271.62
366.373	268.62
366.599	282.62
366.826	269.62
367.052	285.62
367.278	263.62
367.505	254.62
367.731	268.62
367.957	276.62
368.184	269.62
368.41	287.62
368.636	287.62
368.862	298.62
369.089	287.62
369.315	276.62
369.541	272.62
369.767	257.62
369.993	267.62
370.219	267.62
370.445	269.62
370.672	283.62
370.898	264.62
371.124	271.62
371.35	268.62
371.576	256.62
371.802	268.62
372.028	267.62
372.254	251.62
372.48	257.62
372.706	264.62
372.932	266.62
373.158	284.62
373.384	264.62
373.61	270.62
373.835	282.62
374.061	270.62
374.287	277.62
374.513	249.62
374.739	272.62
374.965	276.62
375.191	277.62
375.416	273.62
375.642	275.62
375.868	277.62
376.094	279.62
376.319	274.62
376.545	256.62
376.771	252.62
376.997	268.62
377.222	268.62
377.448	278.62
377.674	268.62
377.899	270.62
378.125	251.62
378.35	282.62
378.576	283.62
378.802	276.62
379.027	266.62
379.253	268.62
379.478	267.62
379.704	244.62
379.929	282.62
380.155	262.62
380.38	273.62
380.606	262.62
380.831	268.62
381.057	265.62
381.282	277.62
381.507	275.62
381.733	278.62
381.958	282.62
382.184	282.62
382.409	289.62
382.634	271.62
382.86	276.62
383.085	297.62
383.31	276.62
383.535	278.62
383.761	275.62
383.986	287.62
384.211	278.62
384.436	272.62
384.662	289.62
384.887	298.62
385.112	288.62
385.337	304.62
385.562	285.62
385.787	299.62
386.013	290.62
386.238	290.62
386.463	300.62
386.688	292.62
386.913	290.62
387.138	271.62
387.363	284.62
387.588	291.62
387.813	297.62
388.038	280.62
388.263	287.62
388.488	281.62
388.713	311.62
388.938	307.62
389.163	299.62
389.387	282.62
389.612	280.62
389.837	271.62
390.062	276.62
390.287	289.62
390.512	286.62
390.736	300.62
390.961	297.62
391.186	296.62
391.411	308.62
391.636	285.62
391.86	295.62
392.085	301.62
392.31	288.62
392.534	308.62
392.759	285.62
392.984	281.62
393.208	324.62
393.433	346.62
393.658	350.62
393.882	300.62
394.107	286.62
394.331	294.62
394.556	277.62
394.78	294.62
395.005	296.62
395.229	307.62
395.454	296.62
395.678	303.62
395.903	305.62
396.127	320.62
396.352	325.62
396.576	316.62
396.801	315.62
397.025	329.62
397.249	324.62
397.474	322.62
397.698	307.62
397.922	332.62
398.147	324.62
398.371	339.62
398.595	327.62
398.82	325.62
399.044	326.62
399.268	349.62
399.492	332.62
399.717	357.62
399.941	380.62
400.165	388.62
400.389	404.62
400.613	363.62
400.837	342.62
401.062	342.62
401.286	335.62
401.51	336.62
401.734	315.62
401.958	344.62
402.182	336.62
402.406	358.62
402.63	353.62
402.854	324.62
403.078	316.62
403.302	330.62
403.526	325.62
403.75	349.62
403.974	329.62
404.198	338.62
404.422	344.62
404.645	335.62
404.869	339.62
405.093	349.62
405.317	378.62
405.541	396.62
405.765	395.62
405.988	344.62
406.212	368.62
406.436	386.62
406.66	388.62
406.883	360.62
407.107	404.62
407.331	419.62
407.555	472.62
407.778	464.62
408.002	420.62
408.226	398.62
408.449	373.62
408.673	392.62
408.896	399.62
409.12	416.62
409.344	412.62
409.567	380.62
409.791	356.62
410.014	365.62
410.238	348.62
410.461	333.62
410.685	356.62
410.908	361.62
411.132	378.62
411.355	428.62
411.578	377.62
411.802	357.62
412.025	350.62
412.249	334.62
412.472	366.62
412.695	344.62
412.919	352.62
413.142	327.62
413.365	318.62
413.589	339.62
413.812	349.62
414.035	329.62
414.258	311.62
414.482	326.62
414.705	321.62
414.928	334.62
415.151	334.62
415.374	322.62
415.597	311.62
415.821	330.62
416.044	327.62
416.267	343.62
416.49	332.62
416.713	329.62
416.936	322.62
417.159	321.62
417.382	355.62
417.605	342.62
417.828	350.62
418.051	340.62
418.274	339.62
418.497	322.62
418.72	322.62
418.943	345.62
419.166	347.62
419.389	353.62
419.611	351.62
419.834	359.62
420.057	348.62
420.28	359.62
420.503	337.62
420.726	334.62
420.948	363.62
421.171	406.62
421.394	437.62
421.617	386.62
421.839	353.62
422.062	354.62
422.285	362.62
422.507	402.62
422.73	462.62
422.953	461.62
423.175	395.62
423.398	373.62
423.621	370.62
423.843	391.62
424.066	396.62
424.288	390.62
424.511	386.62
424.733	444.62
424.956	497.62
425.178	518.62
425.401	467.62
425.623	486.62
425.846	444.62
426.068	405.62
426.291	396.62
426.513	390.62
426.735	401.62
426.958	426.62
427.18	496.62
427.402	587.62
427.625	638.62
427.847	592.62
428.069	471.62
428.292	443.62
428.514	409.62
428.736	378.62
428.958	378.62
429.181	373.62
429.403	373.62
429.625	388.62
429.847	400.62
430.069	434.62
430.292	440.62
430.514	386.62
430.736	365.62
430.958	368.62
431.18	356.62
431.402	355.62
431.624	344.62
431.846	347.62
432.068	350.62
432.29	332.62
432.512	347.62
432.734	338.62
432.956	360.62
433.178	348.62
433.4	356.62
433.622	361.62
433.844	347.62
434.066	346.62
434.287	354.62
434.509	346.62
434.731	344.62
434.953	361.62
435.175	364.62
435.397	380.62
435.618	403.62
435.84	445.62
436.062	499.62
436.284	531.62
436.505	468.62
436.727	420.62
436.949	401.62
437.17	380.62
437.392	368.62
437.614	385.62
437.835	428.62
438.057	504.62
438.278	565.62
438.5	554.62
438.721	606.62
438.943	596.62
439.165	493.62
439.386	455.62
439.608	405.62
439.829	408.62
440.05	432.62
440.272	454.62
440.493	412.62
440.715	426.62
440.936	408.62
441.158	355.62
441.379	388.62
441.6	389.62
441.822	409.62
442.043	438.62
442.264	488.62
442.486	524.62
442.707	457.62
442.928	428.62
443.149	432.62
443.371	452.62
443.592	441.62
443.813	535.62
444.034	581.62
444.255	475.62
444.476	418.62
444.698	413.62
444.919	397.62
445.14	517.62
445.361	468.62
445.582	441.62
445.803	470.62
446.024	548.62
446.245	573.62
446.466	518.62
446.687	457.62
446.908	401.62
447.129	388.62
447.35	381.62
447.571	394.62
447.792	375.62
448.013	360.62
448.234	393.62
448.455	438.62
448.675	533.62
448.896	591.62
449.117	547.62
449.338	478.62
449.559	554.62
449.779	626.62
450	508.62
450.221	441.62
450.442	402.62
450.662	389.62
450.883	367.62
451.104	386.62
451.324	378.62
451.545	375.62
451.766	343.62
451.986	340.62
452.207	330.62
452.428	329.62
452.648	330.62
452.869	338.62
453.089	332.62
453.31	336.62
453.53	347.62
453.751	333.62
453.971	328.62
454.192	358.62
454.412	357.62
454.633	326.62
454.853	328.62
455.073	320.62
455.294	371.62
455.514	418.62
455.734	381.62
455.955	348.62
456.175	338.62
456.395	320.62
456.616	322.62
456.836	310.62
457.056	308.62
457.276	320.62
457.497	326.62
457.717	306.62
457.937	316.62
458.157	320.62
458.377	354.62
458.598	345.62
458.818	378.62
459.038	450.62
459.258	473.62
459.478	406.62
459.698	370.62
459.918	348.62
460.138	345.62
460.358	332.62
460.578	343.62
460.798	350.62
461.018	363.62
461.238	349.62
461.458	334.62
461.678	349.62
461.898	342.62
462.118	341.62
462.338	369.62
462.558	347.62
462.777	346.62
462.997	356.62
463.217	346.62
463.437	362.62
463.657	356.62
463.876	354.62
464.096	338.62
464.316	355.62
464.536	366.62
464.755	374.62
464.975	370.62
465.195	412.62
465.414	467.62
465.634	425.62
465.854	386.62
466.073	382.62
466.293	343.62
466.512	336.62
466.732	347.62
466.951	332.62
467.171	348.62
467.391	340.62
467.61	362.62
467.829	357.62
468.049	330.62
468.268	314.62
468.488	347.62
468.707	339.62
468.927	317.62
469.146	327.62
469.365	317.62
469.585	328.62
469.804	346.62
470.023	343.62
470.243	371.62
470.462	346.62
470.681	349.62
470.901	375.62
471.12	356.62
471.339	368.62
471.558	340.62
471.777	344.62
471.997	323.62
472.216	327.62
472.435	353.62
472.654	334.62
472.873	353.62
473.092	347.62
473.311	333.62
473.53	349.62
473.749	355.62
473.968	398.62
474.187	462.62
474.406	491.62
474.625	412.62
474.844	370.62
475.063	335.62
475.282	334.62
475.501	336.62
475.72	368.62
475.939	353.62
476.158	344.62
476.377	357.62
476.596	357.62
476.814	373.62
477.033	369.62
477.252	373.62
477.471	344.62
477.69	368.62
477.908	382.62
478.127	383.62
478.346	382.62
478.564	373.62
478.783	375.62
479.002	390.62
479.22	383.62
479.439	393.62
479.658	409.62
479.876	390.62
480.095	406.62
480.313	458.62
480.532	435.62
480.751	411.62
480.969	400.62
481.188	426.62
481.406	423.62
481.624	436.62
481.843	433.62
482.061	380.62
482.28	404.62
482.498	407.62
482.717	405.62
482.935	402.62
483.153	412.62
483.372	406.62
483.59	414.62
483.808	386.62
484.027	400.62
484.245	425.62
484.463	413.62
484.681	428.62
484.9	430.62
485.118	421.62
485.336	411.62
485.554	426.62
485.772	436.62
485.99	415.62
486.209	428.62
486.427	448.62
486.645	426.62
486.863	453.62
487.081	429.62
487.299	444.62
487.517	437.62
487.735	427.62
487.953	442.62
488.171	440.62
488.389	444.62
488.607	426.62
488.825	430.62
489.043	446.62
489.261	470.62
489.479	452.62
489.696	463.62
489.914	455.62
490.132	461.62
490.35	455.62
490.568	466.62
490.786	471.62
491.003	456.62
491.221	487.62
491.439	491.62
491.657	495.62
491.874	482.62
492.092	469.62
492.31	504.62
492.527	511.62
492.745	508.62
492.963	501.62
493.18	501.62
493.398	536.62
493.615	531.62
493.833	542.62
494.05	514.62
494.268	515.62
494.485	527.62
494.703	541.62
494.92	540.62
495.138	536.62
495.355	531.62
495.573	525.62
495.79	536.62
496.008	552.62
496.225	532.62
496.442	537.62
496.66	540.62
496.877	540.62
497.094	541.62
497.312	539.62
497.529	547.62
497.746	545.62
497.963	556.62
498.181	560.62
498.398	579.62
498.615	563.62
498.832	576.62
499.049	581.62
499.267	574.62
499.484	606.62
499.701	613.62
499.918	645.62
500.135	636.62
500.352	668.62
500.569	641.62
500.786	640.62
501.003	668.62
501.22	655.62
501.437	650.62
501.654	644.62
501.871	644.62
502.088	612.62
