Data from 1987.PennyLincolnUp.Lamp.En5.5.200Scan.071819.P2_HRD10591_17-16-59-971.txt Node
Date: Thu Jul 18 17:16:59 EDT 2019
User: cochatt
Spectrometer: HR+D1059
Trigger mode: 1
Integration Time (sec): 1.000000E-1
Scans to average: 1
Electric dark correction enabled: true
Nonlinearity correction enabled: false
Boxcar width: 0
XAxis mode: Wavelengths
Number of Pixels in Spectrum: 2048
>>>>>Begin Spectral Data<<<<<
223.165	-16.69
223.4	-16.69
223.635	-16.69
223.869	-20.69
224.104	-21.69
224.338	-15.69
224.573	-9.69
224.808	0.31
225.042	-12.69
225.277	-6.69
225.511	2.31
225.746	-11.69
225.98	-4.69
226.215	22.31
226.449	24.31
226.683	9.31
226.918	25.31
227.152	36.31
227.387	22.31
227.621	47.31
227.856	40.31
228.09	48.31
228.324	47.31
228.559	44.31
228.793	72.31
229.027	114.31
229.262	110.31
229.496	128.31
229.73	151.31
229.964	178.31
230.199	144.31
230.433	127.31
230.667	120.31
230.901	121.31
231.136	120.31
231.37	114.31
231.604	115.31
231.838	123.31
232.072	110.31
232.306	106.31
232.541	122.31
232.775	116.31
233.009	114.31
233.243	118.31
233.477	120.31
233.711	107.31
233.945	101.31
234.179	107.31
234.413	123.31
234.647	122.31
234.881	117.31
235.115	112.31
235.349	115.31
235.583	117.31
235.817	111.31
236.051	117.31
236.285	128.31
236.519	130.31
236.753	134.31
236.987	138.31
237.221	195.31
237.455	267.31
237.689	226.31
237.922	134.31
238.156	150.31
238.39	126.31
238.624	115.31
238.858	116.31
239.091	120.31
239.325	102.31
239.559	114.31
239.793	118.31
240.027	140.31
240.26	153.31
240.494	161.31
240.728	160.31
240.961	163.31
241.195	147.31
241.429	129.31
241.662	145.31
241.896	137.31
242.13	134.31
242.363	136.31
242.597	131.31
242.83	137.31
243.064	151.31
243.298	148.31
243.531	142.31
243.765	146.31
243.998	140.31
244.232	139.31
244.465	142.31
244.699	141.31
244.932	135.31
245.166	139.31
245.399	140.31
245.633	155.31
245.866	141.31
246.099	121.31
246.333	136.31
246.566	136.31
246.8	132.31
247.033	147.31
247.266	164.31
247.5	173.31
247.733	160.31
247.966	169.31
248.2	175.31
248.433	180.31
248.666	181.31
248.899	193.31
249.133	224.31
249.366	210.31
249.599	218.31
249.832	190.31
250.066	187.31
250.299	174.31
250.532	190.31
250.765	200.31
250.998	218.31
251.231	233.31
251.465	207.31
251.698	191.31
251.931	207.31
252.164	203.31
252.397	195.31
252.63	195.31
252.863	212.31
253.096	215.31
253.329	208.31
253.562	227.31
253.795	243.31
254.028	220.31
254.261	224.31
254.494	236.31
254.727	249.31
254.96	306.31
255.193	282.31
255.426	263.31
255.659	256.31
255.892	234.31
256.124	230.31
256.357	198.31
256.59	201.31
256.823	206.31
257.056	211.31
257.289	192.31
257.521	187.31
257.754	187.31
257.987	198.31
258.22	194.31
258.452	193.31
258.685	196.31
258.918	205.31
259.151	217.31
259.383	201.31
259.616	215.31
259.849	221.31
260.081	229.31
260.314	247.31
260.547	251.31
260.779	223.31
261.012	234.31
261.244	226.31
261.477	227.31
261.71	227.31
261.942	235.31
262.175	233.31
262.407	235.31
262.64	218.31
262.872	208.31
263.105	206.31
263.337	215.31
263.57	204.31
263.802	194.31
264.035	183.31
264.267	197.31
264.499	191.31
264.732	202.31
264.964	211.31
265.197	219.31
265.429	181.31
265.661	199.31
265.894	183.31
266.126	209.31
266.358	212.31
266.591	213.31
266.823	206.31
267.055	189.31
267.287	205.31
267.52	212.31
267.752	209.31
267.984	222.31
268.216	194.31
268.448	218.31
268.681	219.31
268.913	225.31
269.145	252.31
269.377	251.31
269.609	269.31
269.841	253.31
270.073	274.31
270.306	281.31
270.538	310.31
270.77	325.31
271.002	315.31
271.234	282.31
271.466	304.31
271.698	317.31
271.93	309.31
272.162	298.31
272.394	320.31
272.626	306.31
272.858	303.31
273.09	295.31
273.322	273.31
273.553	247.31
273.785	266.31
274.017	250.31
274.249	252.31
274.481	240.31
274.713	245.31
274.945	261.31
275.176	242.31
275.408	262.31
275.64	243.31
275.872	249.31
276.104	242.31
276.335	255.31
276.567	260.31
276.799	266.31
277.031	297.31
277.262	317.31
277.494	302.31
277.726	286.31
277.957	260.31
278.189	261.31
278.421	224.31
278.652	258.31
278.884	246.31
279.115	251.31
279.347	237.31
279.579	240.31
279.81	232.31
280.042	224.31
280.273	233.31
280.505	229.31
280.736	242.31
280.968	222.31
281.199	233.31
281.431	233.31
281.662	225.31
281.894	238.31
282.125	256.31
282.356	260.31
282.588	288.31
282.819	283.31
283.051	254.31
283.282	223.31
283.513	243.31
283.745	239.31
283.976	222.31
284.207	233.31
284.439	229.31
284.67	240.31
284.901	241.31
285.132	221.31
285.364	214.31
285.595	235.31
285.826	222.31
286.057	232.31
286.288	217.31
286.52	238.31
286.751	235.31
286.982	227.31
287.213	241.31
287.444	234.31
287.675	236.31
287.906	249.31
288.138	262.31
288.369	279.31
288.6	252.31
288.831	238.31
289.062	260.31
289.293	235.31
289.524	239.31
289.755	247.31
289.986	238.31
290.217	256.31
290.448	238.31
290.679	249.31
290.91	244.31
291.141	240.31
291.371	227.31
291.602	248.31
291.833	241.31
292.064	239.31
292.295	239.31
292.526	255.31
292.757	238.31
292.987	241.31
293.218	236.31
293.449	249.31
293.68	249.31
293.91	238.31
294.141	220.31
294.372	239.31
294.603	246.31
294.833	238.31
295.064	238.31
295.295	257.31
295.525	240.31
295.756	265.31
295.987	269.31
296.217	294.31
296.448	310.31
296.679	275.31
296.909	245.31
297.14	254.31
297.37	261.31
297.601	246.31
297.831	247.31
298.062	252.31
298.292	241.31
298.523	246.31
298.753	242.31
298.984	264.31
299.214	259.31
299.445	272.31
299.675	254.31
299.905	268.31
300.136	286.31
300.366	262.31
300.597	271.31
300.827	270.31
301.057	268.31
301.288	292.31
301.518	275.31
301.748	255.31
301.979	280.31
302.209	271.31
302.439	274.31
302.669	264.31
302.9	268.31
303.13	274.31
303.36	274.31
303.59	280.31
303.82	300.31
304.051	297.31
304.281	278.31
304.511	271.31
304.741	260.31
304.971	257.31
305.201	272.31
305.431	286.31
305.661	273.31
305.891	291.31
306.121	277.31
306.352	276.31
306.582	308.31
306.812	297.31
307.042	274.31
307.272	262.31
307.502	276.31
307.731	290.31
307.961	285.31
308.191	278.31
308.421	286.31
308.651	291.31
308.881	290.31
309.111	295.31
309.341	284.31
309.571	326.31
309.8	320.31
310.03	337.31
310.26	344.31
310.49	333.31
310.72	358.31
310.949	384.31
311.179	378.31
311.409	364.31
311.639	352.31
311.868	350.31
312.098	355.31
312.328	359.31
312.557	382.31
312.787	411.31
313.017	396.31
313.246	359.31
313.476	368.31
313.706	345.31
313.935	362.31
314.165	387.31
314.394	396.31
314.624	377.31
314.853	349.31
315.083	355.31
315.312	338.31
315.542	332.31
315.771	312.31
316.001	340.31
316.23	338.31
316.46	311.31
316.689	354.31
316.919	337.31
317.148	354.31
317.377	368.31
317.607	358.31
317.836	334.31
318.065	330.31
318.295	340.31
318.524	329.31
318.753	329.31
318.983	335.31
319.212	351.31
319.441	354.31
319.67	360.31
319.9	350.31
320.129	344.31
320.358	363.31
320.587	362.31
320.816	363.31
321.046	372.31
321.275	389.31
321.504	372.31
321.733	383.31
321.962	385.31
322.191	403.31
322.42	439.31
322.649	452.31
322.878	456.31
323.108	473.31
323.337	509.31
323.566	558.31
323.795	601.31
324.024	675.31
324.253	856.31
324.482	1331.31
324.71	2001.31
324.939	2824.31
325.168	2465.31
325.397	1357.31
325.626	871.31
325.855	688.31
326.084	580.31
326.313	560.31
326.542	544.31
326.77	599.31
326.999	795.31
327.228	1139.31
327.457	1750.31
327.686	2186.31
327.914	1462.31
328.143	937.31
328.372	773.31
328.6	702.31
328.829	644.31
329.058	672.31
329.287	699.31
329.515	646.31
329.744	560.31
329.972	528.31
330.201	544.31
330.43	577.31
330.658	617.31
330.887	718.31
331.115	708.31
331.344	575.31
331.572	526.31
331.801	496.31
332.03	488.31
332.258	460.31
332.486	441.31
332.715	415.31
332.943	395.31
333.172	395.31
333.4	375.31
333.629	409.31
333.857	391.31
334.085	410.31
334.314	391.31
334.542	404.31
334.771	410.31
334.999	405.31
335.227	411.31
335.455	391.31
335.684	404.31
335.912	376.31
336.14	387.31
336.369	379.31
336.597	403.31
336.825	400.31
337.053	376.31
337.281	401.31
337.51	369.31
337.738	379.31
337.966	392.31
338.194	388.31
338.422	376.31
338.65	380.31
338.878	399.31
339.106	373.31
339.334	370.31
339.562	369.31
339.79	362.31
340.018	363.31
340.246	394.31
340.474	404.31
340.702	400.31
340.93	385.31
341.158	378.31
341.386	382.31
341.614	392.31
341.842	387.31
342.07	373.31
342.298	386.31
342.526	360.31
342.754	354.31
342.981	342.31
343.209	364.31
343.437	349.31
343.665	351.31
343.893	352.31
344.12	369.31
344.348	368.31
344.576	366.31
344.804	396.31
345.031	420.31
345.259	438.31
345.487	416.31
345.714	373.31
345.942	370.31
346.17	374.31
346.397	365.31
346.625	371.31
346.853	393.31
347.08	372.31
347.308	406.31
347.535	382.31
347.763	389.31
347.99	414.31
348.218	405.31
348.445	408.31
348.673	415.31
348.9	389.31
349.128	370.31
349.355	379.31
349.583	352.31
349.81	358.31
350.037	366.31
350.265	368.31
350.492	353.31
350.72	348.31
350.947	374.31
351.174	376.31
351.402	390.31
351.629	398.31
351.856	397.31
352.083	409.31
352.311	412.31
352.538	416.31
352.765	424.31
352.992	394.31
353.22	393.31
353.447	384.31
353.674	400.31
353.901	345.31
354.128	354.31
354.355	339.31
354.583	348.31
354.81	342.31
355.037	334.31
355.264	330.31
355.491	342.31
355.718	326.31
355.945	328.31
356.172	331.31
356.399	318.31
356.626	341.31
356.853	331.31
357.08	328.31
357.307	329.31
357.534	319.31
357.761	347.31
357.988	333.31
358.215	350.31
358.441	333.31
358.668	343.31
358.895	342.31
359.122	348.31
359.349	378.31
359.576	405.31
359.802	415.31
360.029	453.31
360.256	496.31
360.483	467.31
360.709	401.31
360.936	386.31
361.163	380.31
361.39	401.31
361.616	412.31
361.843	385.31
362.07	388.31
362.296	414.31
362.523	376.31
362.749	397.31
362.976	372.31
363.203	372.31
363.429	374.31
363.656	372.31
363.882	359.31
364.109	355.31
364.335	357.31
364.562	344.31
364.788	373.31
365.015	366.31
365.241	367.31
365.468	374.31
365.694	371.31
365.92	384.31
366.147	359.31
366.373	347.31
366.599	361.31
366.826	344.31
367.052	327.31
367.278	333.31
367.505	332.31
367.731	343.31
367.957	343.31
368.184	351.31
368.41	356.31
368.636	359.31
368.862	361.31
369.089	367.31
369.315	347.31
369.541	332.31
369.767	352.31
369.993	338.31
370.219	363.31
370.445	336.31
370.672	319.31
370.898	333.31
371.124	335.31
371.35	318.31
371.576	349.31
371.802	346.31
372.028	329.31
372.254	327.31
372.48	325.31
372.706	326.31
372.932	342.31
373.158	337.31
373.384	339.31
373.61	319.31
373.835	328.31
374.061	333.31
374.287	337.31
374.513	339.31
374.739	325.31
374.965	332.31
375.191	318.31
375.416	328.31
375.642	327.31
375.868	325.31
376.094	316.31
376.319	345.31
376.545	306.31
376.771	328.31
376.997	323.31
377.222	310.31
377.448	329.31
377.674	308.31
377.899	324.31
378.125	314.31
378.35	330.31
378.576	327.31
378.802	326.31
379.027	332.31
379.253	352.31
379.478	304.31
379.704	321.31
379.929	310.31
380.155	352.31
380.38	332.31
380.606	358.31
380.831	342.31
381.057	350.31
381.282	337.31
381.507	325.31
381.733	337.31
381.958	316.31
382.184	340.31
382.409	329.31
382.634	328.31
382.86	319.31
383.085	347.31
383.31	339.31
383.535	331.31
383.761	342.31
383.986	352.31
384.211	346.31
384.436	336.31
384.662	341.31
384.887	326.31
385.112	332.31
385.337	352.31
385.562	351.31
385.787	357.31
386.013	372.31
386.238	372.31
386.463	389.31
386.688	374.31
386.913	376.31
387.138	344.31
387.363	347.31
387.588	355.31
387.813	344.31
388.038	337.31
388.263	339.31
388.488	346.31
388.713	353.31
388.938	341.31
389.163	343.31
389.387	349.31
389.612	352.31
389.837	350.31
390.062	343.31
390.287	350.31
390.512	335.31
390.736	345.31
390.961	331.31
391.186	325.31
391.411	331.31
391.636	374.31
391.86	337.31
392.085	358.31
392.31	371.31
392.534	354.31
392.759	346.31
392.984	356.31
393.208	355.31
393.433	355.31
393.658	347.31
393.882	345.31
394.107	347.31
394.331	336.31
394.556	361.31
394.78	348.31
395.005	352.31
395.229	337.31
395.454	354.31
395.678	352.31
395.903	382.31
396.127	395.31
396.352	394.31
396.576	370.31
396.801	352.31
397.025	362.31
397.249	359.31
397.474	356.31
397.698	379.31
397.922	396.31
398.147	401.31
398.371	381.31
398.595	392.31
398.82	387.31
399.044	378.31
399.268	374.31
399.492	418.31
399.717	431.31
399.941	453.31
400.165	495.31
400.389	512.31
400.613	463.31
400.837	432.31
401.062	431.31
401.286	406.31
401.51	412.31
401.734	395.31
401.958	389.31
402.182	410.31
402.406	432.31
402.63	435.31
402.854	416.31
403.078	398.31
403.302	412.31
403.526	425.31
403.75	428.31
403.974	404.31
404.198	418.31
404.422	403.31
404.645	400.31
404.869	434.31
405.093	458.31
405.317	492.31
405.541	501.31
405.765	478.31
405.988	446.31
406.212	476.31
406.436	512.31
406.66	520.31
406.883	477.31
407.107	506.31
407.331	524.31
407.555	597.31
407.778	586.31
408.002	535.31
408.226	500.31
408.449	467.31
408.673	473.31
408.896	490.31
409.12	550.31
409.344	522.31
409.567	488.31
409.791	458.31
410.014	433.31
410.238	423.31
410.461	430.31
410.685	454.31
410.908	445.31
411.132	498.31
411.355	519.31
411.578	486.31
411.802	454.31
412.025	404.31
412.249	418.31
412.472	452.31
412.695	459.31
412.919	431.31
413.142	411.31
413.365	412.31
413.589	426.31
413.812	410.31
414.035	415.31
414.258	390.31
414.482	384.31
414.705	394.31
414.928	379.31
415.151	398.31
415.374	402.31
415.597	407.31
415.821	392.31
416.044	413.31
416.267	420.31
416.49	398.31
416.713	389.31
416.936	414.31
417.159	409.31
417.382	414.31
417.605	419.31
417.828	420.31
418.051	447.31
418.274	446.31
418.497	434.31
418.72	430.31
418.943	424.31
419.166	432.31
419.389	424.31
419.611	444.31
419.834	414.31
420.057	428.31
420.28	416.31
420.503	427.31
420.726	447.31
420.948	436.31
421.171	518.31
421.394	539.31
421.617	476.31
421.839	442.31
422.062	435.31
422.285	452.31
422.507	505.31
422.73	583.31
422.953	562.31
423.175	497.31
423.398	465.31
423.621	470.31
423.843	498.31
424.066	494.31
424.288	485.31
424.511	510.31
424.733	581.31
424.956	663.31
425.178	634.31
425.401	631.31
425.623	639.31
425.846	546.31
426.068	525.31
426.291	484.31
426.513	545.31
426.735	538.31
426.958	576.31
427.18	668.31
427.402	764.31
427.625	883.31
427.847	827.31
428.069	683.31
428.292	606.31
428.514	543.31
428.736	516.31
428.958	502.31
429.181	482.31
429.403	483.31
429.625	480.31
429.847	541.31
430.069	602.31
430.292	610.31
430.514	514.31
430.736	472.31
430.958	454.31
431.18	411.31
431.402	460.31
431.624	434.31
431.846	425.31
432.068	441.31
432.29	433.31
432.512	436.31
432.734	444.31
432.956	435.31
433.178	451.31
433.4	467.31
433.622	444.31
433.844	425.31
434.066	430.31
434.287	446.31
434.509	433.31
434.731	454.31
434.953	452.31
435.175	477.31
435.397	498.31
435.618	524.31
435.84	571.31
436.062	654.31
436.284	742.31
436.505	623.31
436.727	536.31
436.949	499.31
437.17	492.31
437.392	465.31
437.614	506.31
437.835	562.31
438.057	663.31
438.278	784.31
438.5	738.31
438.721	808.31
438.943	759.31
439.165	619.31
439.386	579.31
439.608	558.31
439.829	570.31
440.05	588.31
440.272	616.31
440.493	577.31
440.715	560.31
440.936	517.31
441.158	487.31
441.379	504.31
441.6	494.31
441.822	538.31
442.043	587.31
442.264	674.31
442.486	669.31
442.707	592.31
442.928	578.31
443.149	555.31
443.371	588.31
443.592	628.31
443.813	708.31
444.034	779.31
444.255	624.31
444.476	527.31
444.698	519.31
444.919	520.31
445.14	592.31
445.361	574.31
445.582	587.31
445.803	634.31
446.024	766.31
446.245	772.31
446.466	687.31
446.687	608.31
446.908	553.31
447.129	524.31
447.35	480.31
447.571	490.31
447.792	495.31
448.013	516.31
448.234	500.31
448.455	572.31
448.675	686.31
448.896	775.31
449.117	682.31
449.338	654.31
449.559	723.31
449.779	827.31
450	685.31
450.221	567.31
450.442	553.31
450.662	492.31
450.883	527.31
451.104	567.31
451.324	537.31
451.545	510.31
451.766	471.31
451.986	464.31
452.207	439.31
452.428	427.31
452.648	442.31
452.869	431.31
453.089	455.31
453.31	470.31
453.53	463.31
453.751	435.31
453.971	465.31
454.192	484.31
454.412	487.31
454.633	464.31
454.853	440.31
455.073	440.31
455.294	463.31
455.514	545.31
455.734	523.31
455.955	448.31
456.175	418.31
456.395	408.31
456.616	384.31
456.836	388.31
457.056	403.31
457.276	376.31
457.497	414.31
457.717	397.31
457.937	419.31
458.157	420.31
458.377	410.31
458.598	465.31
458.818	553.31
459.038	693.31
459.258	676.31
459.478	539.31
459.698	467.31
459.918	459.31
460.138	426.31
460.358	429.31
460.578	413.31
460.798	439.31
461.018	433.31
461.238	414.31
461.458	423.31
461.678	400.31
461.898	414.31
462.118	415.31
462.338	427.31
462.558	406.31
462.777	411.31
462.997	421.31
463.217	432.31
463.437	432.31
463.657	427.31
463.876	418.31
464.096	450.31
464.316	435.31
464.536	451.31
464.755	465.31
464.975	474.31
465.195	551.31
465.414	736.31
465.634	612.31
465.854	522.31
466.073	502.31
466.293	457.31
466.512	443.31
466.732	432.31
466.951	431.31
467.171	438.31
467.391	437.31
467.61	453.31
467.829	488.31
468.049	442.31
468.268	411.31
468.488	425.31
468.707	421.31
468.927	407.31
469.146	419.31
469.365	409.31
469.585	417.31
469.804	427.31
470.023	440.31
470.243	435.31
470.462	463.31
470.681	491.31
470.901	465.31
471.12	451.31
471.339	451.31
471.558	423.31
471.777	463.31
471.997	427.31
472.216	432.31
472.435	438.31
472.654	434.31
472.873	418.31
473.092	428.31
473.311	425.31
473.53	427.31
473.749	452.31
473.968	507.31
474.187	609.31
474.406	663.31
474.625	536.31
474.844	464.31
475.063	430.31
475.282	423.31
475.501	435.31
475.72	451.31
475.939	442.31
476.158	453.31
476.377	459.31
476.596	435.31
476.814	459.31
477.033	476.31
477.252	463.31
477.471	457.31
477.69	464.31
477.908	484.31
478.127	464.31
478.346	476.31
478.564	465.31
478.783	474.31
479.002	497.31
479.22	480.31
479.439	512.31
479.658	509.31
479.876	542.31
480.095	560.31
480.313	566.31
480.532	536.31
480.751	534.31
480.969	533.31
481.188	544.31
481.406	571.31
481.624	534.31
481.843	530.31
482.061	524.31
482.28	528.31
482.498	516.31
482.717	510.31
482.935	496.31
483.153	517.31
483.372	517.31
483.59	537.31
483.808	523.31
484.027	518.31
484.245	494.31
484.463	522.31
484.681	530.31
484.9	530.31
485.118	524.31
485.336	535.31
485.554	540.31
485.772	541.31
485.99	524.31
486.209	567.31
486.427	539.31
486.645	556.31
486.863	594.31
487.081	575.31
487.299	579.31
487.517	592.31
487.735	574.31
487.953	570.31
488.171	554.31
488.389	576.31
488.607	582.31
488.825	574.31
489.043	573.31
489.261	555.31
489.479	584.31
489.696	587.31
489.914	583.31
490.132	579.31
490.35	607.31
490.568	610.31
490.786	626.31
491.003	618.31
491.221	619.31
491.439	617.31
491.657	655.31
491.874	662.31
492.092	657.31
492.31	658.31
492.527	652.31
492.745	671.31
492.963	684.31
493.18	684.31
493.398	655.31
493.615	650.31
493.833	675.31
494.05	662.31
494.268	682.31
494.485	646.31
494.703	679.31
494.92	684.31
495.138	694.31
495.355	686.31
495.573	693.31
495.79	672.31
496.008	668.31
496.225	689.31
496.442	724.31
496.66	703.31
496.877	691.31
497.094	704.31
497.312	664.31
497.529	709.31
497.746	700.31
497.963	703.31
498.181	710.31
498.398	721.31
498.615	720.31
498.832	715.31
499.049	741.31
499.267	714.31
499.484	733.31
499.701	760.31
499.918	772.31
500.135	772.31
500.352	787.31
500.569	777.31
500.786	774.31
501.003	790.31
501.22	803.31
501.437	790.31
501.654	801.31
501.871	802.31
