Data from 1987.PennyLincolnUp.Lamp.En5.5.200Scan.071819.P2_HRD10591_17-14-28-972.txt Node
Date: Thu Jul 18 17:14:28 EDT 2019
User: cochatt
Spectrometer: HR+D1059
Trigger mode: 1
Integration Time (sec): 1.000000E-1
Scans to average: 1
Electric dark correction enabled: true
Nonlinearity correction enabled: false
Boxcar width: 0
XAxis mode: Wavelengths
Number of Pixels in Spectrum: 2048
>>>>>Begin Spectral Data<<<<<
223.165	-15.5
223.4	-15.5
223.635	-15.5
223.869	-23.5
224.104	-13.5
224.338	-13.5
224.573	-4.5
224.808	-14.5
225.042	-5.5
225.277	-11.5
225.511	-11.5
225.746	12.5
225.98	1.5
226.215	20.5
226.449	6.5
226.683	22.5
226.918	25.5
227.152	24.5
227.387	26.5
227.621	23.5
227.856	35.5
228.09	32.5
228.324	58.5
228.559	53.5
228.793	75.5
229.027	85.5
229.262	100.5
229.496	122.5
229.73	127.5
229.964	178.5
230.199	143.5
230.433	120.5
230.667	120.5
230.901	114.5
231.136	101.5
231.37	120.5
231.604	108.5
231.838	118.5
232.072	99.5
232.306	103.5
232.541	98.5
232.775	110.5
233.009	103.5
233.243	104.5
233.477	106.5
233.711	91.5
233.945	100.5
234.179	109.5
234.413	88.5
234.647	86.5
234.881	99.5
235.115	107.5
235.349	117.5
235.583	113.5
235.817	95.5
236.051	122.5
236.285	124.5
236.519	116.5
236.753	108.5
236.987	150.5
237.221	187.5
237.455	228.5
237.689	178.5
237.922	139.5
238.156	126.5
238.39	122.5
238.624	106.5
238.858	116.5
239.091	128.5
239.325	132.5
239.559	128.5
239.793	115.5
240.027	136.5
240.26	131.5
240.494	138.5
240.728	154.5
240.961	154.5
241.195	131.5
241.429	130.5
241.662	124.5
241.896	131.5
242.13	118.5
242.363	132.5
242.597	126.5
242.83	128.5
243.064	137.5
243.298	128.5
243.531	113.5
243.765	120.5
243.998	128.5
244.232	136.5
244.465	135.5
244.699	115.5
244.932	122.5
245.166	134.5
245.399	141.5
245.633	127.5
245.866	129.5
246.099	127.5
246.333	145.5
246.566	135.5
246.8	141.5
247.033	150.5
247.266	147.5
247.5	138.5
247.733	161.5
247.966	166.5
248.2	156.5
248.433	155.5
248.666	152.5
248.899	184.5
249.133	206.5
249.366	200.5
249.599	191.5
249.832	172.5
250.066	180.5
250.299	154.5
250.532	153.5
250.765	156.5
250.998	178.5
251.231	222.5
251.465	203.5
251.698	195.5
251.931	187.5
252.164	174.5
252.397	172.5
252.63	182.5
252.863	180.5
253.096	209.5
253.329	204.5
253.562	220.5
253.795	207.5
254.028	204.5
254.261	204.5
254.494	231.5
254.727	253.5
254.96	234.5
255.193	259.5
255.426	254.5
255.659	230.5
255.892	215.5
256.124	196.5
256.357	198.5
256.59	203.5
256.823	215.5
257.056	195.5
257.289	193.5
257.521	174.5
257.754	180.5
257.987	198.5
258.22	201.5
258.452	199.5
258.685	190.5
258.918	181.5
259.151	204.5
259.383	198.5
259.616	183.5
259.849	221.5
260.081	214.5
260.314	214.5
260.547	215.5
260.779	222.5
261.012	216.5
261.244	216.5
261.477	181.5
261.71	214.5
261.942	201.5
262.175	221.5
262.407	204.5
262.64	203.5
262.872	174.5
263.105	179.5
263.337	207.5
263.57	200.5
263.802	180.5
264.035	185.5
264.267	188.5
264.499	192.5
264.732	193.5
264.964	184.5
265.197	177.5
265.429	180.5
265.661	170.5
265.894	169.5
266.126	159.5
266.358	186.5
266.591	186.5
266.823	189.5
267.055	199.5
267.287	207.5
267.52	168.5
267.752	185.5
267.984	190.5
268.216	186.5
268.448	198.5
268.681	200.5
268.913	204.5
269.145	204.5
269.377	242.5
269.609	231.5
269.841	223.5
270.073	227.5
270.306	260.5
270.538	293.5
270.77	278.5
271.002	274.5
271.234	248.5
271.466	262.5
271.698	288.5
271.93	297.5
272.162	276.5
272.394	298.5
272.626	267.5
272.858	252.5
273.09	240.5
273.322	236.5
273.553	224.5
273.785	226.5
274.017	214.5
274.249	213.5
274.481	214.5
274.713	231.5
274.945	230.5
275.176	210.5
275.408	219.5
275.64	219.5
275.872	211.5
276.104	226.5
276.335	225.5
276.567	226.5
276.799	248.5
277.031	268.5
277.262	275.5
277.494	258.5
277.726	254.5
277.957	250.5
278.189	229.5
278.421	224.5
278.652	202.5
278.884	214.5
279.115	236.5
279.347	220.5
279.579	196.5
279.81	216.5
280.042	217.5
280.273	208.5
280.505	214.5
280.736	215.5
280.968	220.5
281.199	223.5
281.431	203.5
281.662	220.5
281.894	235.5
282.125	227.5
282.356	255.5
282.588	257.5
282.819	260.5
283.051	228.5
283.282	199.5
283.513	214.5
283.745	231.5
283.976	231.5
284.207	221.5
284.439	213.5
284.67	223.5
284.901	224.5
285.132	240.5
285.364	207.5
285.595	210.5
285.826	208.5
286.057	226.5
286.288	212.5
286.52	219.5
286.751	208.5
286.982	224.5
287.213	215.5
287.444	202.5
287.675	248.5
287.906	235.5
288.138	221.5
288.369	233.5
288.6	239.5
288.831	238.5
289.062	242.5
289.293	223.5
289.524	217.5
289.755	225.5
289.986	222.5
290.217	220.5
290.448	223.5
290.679	209.5
290.91	212.5
291.141	238.5
291.371	217.5
291.602	214.5
291.833	212.5
292.064	214.5
292.295	222.5
292.526	210.5
292.757	227.5
292.987	248.5
293.218	220.5
293.449	224.5
293.68	207.5
293.91	219.5
294.141	206.5
294.372	249.5
294.603	217.5
294.833	203.5
295.064	233.5
295.295	218.5
295.525	217.5
295.756	230.5
295.987	245.5
296.217	263.5
296.448	299.5
296.679	238.5
296.909	238.5
297.14	215.5
297.37	211.5
297.601	233.5
297.831	245.5
298.062	216.5
298.292	225.5
298.523	235.5
298.753	225.5
298.984	230.5
299.214	216.5
299.445	232.5
299.675	254.5
299.905	244.5
300.136	242.5
300.366	237.5
300.597	210.5
300.827	230.5
301.057	252.5
301.288	263.5
301.518	266.5
301.748	265.5
301.979	243.5
302.209	250.5
302.439	257.5
302.669	240.5
302.9	238.5
303.13	247.5
303.36	242.5
303.59	283.5
303.82	258.5
304.051	265.5
304.281	243.5
304.511	252.5
304.741	241.5
304.971	256.5
305.201	225.5
305.431	229.5
305.661	254.5
305.891	258.5
306.121	249.5
306.352	259.5
306.582	270.5
306.812	263.5
307.042	259.5
307.272	258.5
307.502	245.5
307.731	248.5
307.961	255.5
308.191	256.5
308.421	262.5
308.651	264.5
308.881	282.5
309.111	265.5
309.341	277.5
309.571	278.5
309.8	293.5
310.03	293.5
310.26	336.5
310.49	322.5
310.72	311.5
310.949	327.5
311.179	343.5
311.409	327.5
311.639	308.5
311.868	318.5
312.098	316.5
312.328	348.5
312.557	343.5
312.787	373.5
313.017	367.5
313.246	323.5
313.476	304.5
313.706	320.5
313.935	308.5
314.165	320.5
314.394	341.5
314.624	305.5
314.853	321.5
315.083	325.5
315.312	315.5
315.542	290.5
315.771	283.5
316.001	296.5
316.23	318.5
316.46	291.5
316.689	292.5
316.919	314.5
317.148	284.5
317.377	328.5
317.607	324.5
317.836	306.5
318.065	298.5
318.295	302.5
318.524	322.5
318.753	306.5
318.983	308.5
319.212	325.5
319.441	323.5
319.67	334.5
319.9	304.5
320.129	314.5
320.358	315.5
320.587	308.5
320.816	313.5
321.046	345.5
321.275	340.5
321.504	323.5
321.733	323.5
321.962	360.5
322.191	369.5
322.42	395.5
322.649	406.5
322.878	419.5
323.108	416.5
323.337	449.5
323.566	475.5
323.795	526.5
324.024	587.5
324.253	736.5
324.482	1064.5
324.71	1651.5
324.939	2309.5
325.168	2007.5
325.397	1098.5
325.626	724.5
325.855	585.5
326.084	509.5
326.313	486.5
326.542	502.5
326.77	546.5
326.999	662.5
327.228	906.5
327.457	1429.5
327.686	1744.5
327.914	1208.5
328.143	778.5
328.372	648.5
328.6	574.5
328.829	572.5
329.058	579.5
329.287	583.5
329.515	539.5
329.744	481.5
329.972	456.5
330.201	457.5
330.43	480.5
330.658	534.5
330.887	575.5
331.115	586.5
331.344	481.5
331.572	444.5
331.801	448.5
332.03	437.5
332.258	414.5
332.486	386.5
332.715	375.5
332.943	363.5
333.172	355.5
333.4	354.5
333.629	362.5
333.857	382.5
334.085	379.5
334.314	356.5
334.542	374.5
334.771	378.5
334.999	359.5
335.227	352.5
335.455	379.5
335.684	360.5
335.912	363.5
336.14	334.5
336.369	346.5
336.597	369.5
336.825	370.5
337.053	335.5
337.281	340.5
337.51	324.5
337.738	344.5
337.966	346.5
338.194	349.5
338.422	372.5
338.65	357.5
338.878	347.5
339.106	336.5
339.334	339.5
339.562	334.5
339.79	327.5
340.018	328.5
340.246	346.5
340.474	363.5
340.702	353.5
340.93	352.5
341.158	347.5
341.386	315.5
341.614	372.5
341.842	348.5
342.07	341.5
342.298	338.5
342.526	327.5
342.754	321.5
342.981	325.5
343.209	316.5
343.437	316.5
343.665	333.5
343.893	342.5
344.12	336.5
344.348	323.5
344.576	343.5
344.804	350.5
345.031	356.5
345.259	363.5
345.487	368.5
345.714	350.5
345.942	345.5
346.17	347.5
346.397	354.5
346.625	348.5
346.853	345.5
347.08	347.5
347.308	354.5
347.535	347.5
347.763	368.5
347.99	371.5
348.218	361.5
348.445	388.5
348.673	359.5
348.9	352.5
349.128	338.5
349.355	344.5
349.583	324.5
349.81	332.5
350.037	315.5
350.265	338.5
350.492	303.5
350.72	325.5
350.947	329.5
351.174	344.5
351.402	366.5
351.629	370.5
351.856	375.5
352.083	364.5
352.311	384.5
352.538	391.5
352.765	379.5
352.992	352.5
353.22	365.5
353.447	349.5
353.674	363.5
353.901	338.5
354.128	325.5
354.355	334.5
354.583	312.5
354.81	310.5
355.037	309.5
355.264	306.5
355.491	314.5
355.718	291.5
355.945	319.5
356.172	303.5
356.399	297.5
356.626	297.5
356.853	299.5
357.08	282.5
357.307	299.5
357.534	295.5
357.761	302.5
357.988	308.5
358.215	297.5
358.441	297.5
358.668	317.5
358.895	314.5
359.122	328.5
359.349	351.5
359.576	350.5
359.802	376.5
360.029	426.5
360.256	450.5
360.483	402.5
360.709	354.5
360.936	344.5
361.163	358.5
361.39	352.5
361.616	346.5
361.843	348.5
362.07	354.5
362.296	353.5
362.523	349.5
362.749	350.5
362.976	342.5
363.203	334.5
363.429	323.5
363.656	346.5
363.882	310.5
364.109	337.5
364.335	327.5
364.562	324.5
364.788	328.5
365.015	321.5
365.241	318.5
365.468	324.5
365.694	338.5
365.92	345.5
366.147	334.5
366.373	335.5
366.599	329.5
366.826	324.5
367.052	310.5
367.278	305.5
367.505	324.5
367.731	332.5
367.957	332.5
368.184	324.5
368.41	325.5
368.636	339.5
368.862	359.5
369.089	352.5
369.315	335.5
369.541	304.5
369.767	319.5
369.993	320.5
370.219	314.5
370.445	300.5
370.672	319.5
370.898	311.5
371.124	314.5
371.35	299.5
371.576	324.5
371.802	315.5
372.028	301.5
372.254	288.5
372.48	291.5
372.706	316.5
372.932	312.5
373.158	315.5
373.384	306.5
373.61	297.5
373.835	312.5
374.061	324.5
374.287	336.5
374.513	313.5
374.739	314.5
374.965	311.5
375.191	313.5
375.416	307.5
375.642	325.5
375.868	335.5
376.094	302.5
376.319	336.5
376.545	306.5
376.771	320.5
376.997	295.5
377.222	311.5
377.448	303.5
377.674	311.5
377.899	292.5
378.125	305.5
378.35	319.5
378.576	316.5
378.802	304.5
379.027	304.5
379.253	295.5
379.478	313.5
379.704	290.5
379.929	303.5
380.155	330.5
380.38	305.5
380.606	296.5
380.831	331.5
381.057	313.5
381.282	331.5
381.507	324.5
381.733	302.5
381.958	300.5
382.184	296.5
382.409	318.5
382.634	299.5
382.86	309.5
383.085	315.5
383.31	310.5
383.535	331.5
383.761	309.5
383.986	318.5
384.211	310.5
384.436	326.5
384.662	315.5
384.887	329.5
385.112	333.5
385.337	301.5
385.562	331.5
385.787	336.5
386.013	340.5
386.238	341.5
386.463	355.5
386.688	339.5
386.913	342.5
387.138	341.5
387.363	304.5
387.588	345.5
387.813	312.5
388.038	313.5
388.263	334.5
388.488	330.5
388.713	334.5
388.938	332.5
389.163	338.5
389.387	333.5
389.612	318.5
389.837	331.5
390.062	331.5
390.287	342.5
390.512	314.5
390.736	323.5
390.961	334.5
391.186	322.5
391.411	332.5
391.636	337.5
391.86	331.5
392.085	323.5
392.31	324.5
392.534	341.5
392.759	316.5
392.984	335.5
393.208	323.5
393.433	349.5
393.658	342.5
393.882	351.5
394.107	314.5
394.331	337.5
394.556	322.5
394.78	315.5
395.005	325.5
395.229	347.5
395.454	317.5
395.678	353.5
395.903	349.5
396.127	373.5
396.352	379.5
396.576	338.5
396.801	340.5
397.025	335.5
397.249	356.5
397.474	328.5
397.698	359.5
397.922	377.5
398.147	378.5
398.371	398.5
398.595	374.5
398.82	376.5
399.044	374.5
399.268	370.5
399.492	398.5
399.717	396.5
399.941	414.5
400.165	446.5
400.389	443.5
400.613	440.5
400.837	399.5
401.062	380.5
401.286	390.5
401.51	366.5
401.734	377.5
401.958	375.5
402.182	396.5
402.406	400.5
402.63	401.5
402.854	386.5
403.078	378.5
403.302	392.5
403.526	394.5
403.75	384.5
403.974	393.5
404.198	377.5
404.422	382.5
404.645	405.5
404.869	411.5
405.093	404.5
405.317	425.5
405.541	457.5
405.765	427.5
405.988	415.5
406.212	428.5
406.436	459.5
406.66	463.5
406.883	448.5
407.107	471.5
407.331	512.5
407.555	564.5
407.778	536.5
408.002	485.5
408.226	470.5
408.449	453.5
408.673	456.5
408.896	487.5
409.12	521.5
409.344	495.5
409.567	440.5
409.791	424.5
410.014	400.5
410.238	401.5
410.461	392.5
410.685	410.5
410.908	414.5
411.132	455.5
411.355	468.5
411.578	463.5
411.802	419.5
412.025	399.5
412.249	399.5
412.472	408.5
412.695	420.5
412.919	406.5
413.142	392.5
413.365	387.5
413.589	386.5
413.812	383.5
414.035	385.5
414.258	370.5
414.482	384.5
414.705	369.5
414.928	380.5
415.151	392.5
415.374	382.5
415.597	373.5
415.821	392.5
416.044	384.5
416.267	374.5
416.49	394.5
416.713	376.5
416.936	377.5
417.159	389.5
417.382	400.5
417.605	392.5
417.828	415.5
418.051	398.5
418.274	403.5
418.497	382.5
418.72	386.5
418.943	383.5
419.166	408.5
419.389	418.5
419.611	395.5
419.834	377.5
420.057	421.5
420.28	411.5
420.503	402.5
420.726	420.5
420.948	424.5
421.171	452.5
421.394	504.5
421.617	450.5
421.839	390.5
422.062	440.5
422.285	460.5
422.507	471.5
422.73	562.5
422.953	558.5
423.175	491.5
423.398	461.5
423.621	438.5
423.843	465.5
424.066	482.5
424.288	461.5
424.511	502.5
424.733	519.5
424.956	616.5
425.178	591.5
425.401	562.5
425.623	601.5
425.846	520.5
426.068	477.5
426.291	474.5
426.513	471.5
426.735	483.5
426.958	522.5
427.18	604.5
427.402	709.5
427.625	798.5
427.847	726.5
428.069	609.5
428.292	540.5
428.514	469.5
428.736	474.5
428.958	459.5
429.181	466.5
429.403	466.5
429.625	454.5
429.847	485.5
430.069	560.5
430.292	558.5
430.514	479.5
430.736	456.5
430.958	443.5
431.18	426.5
431.402	413.5
431.624	403.5
431.846	385.5
432.068	400.5
432.29	404.5
432.512	390.5
432.734	425.5
432.956	404.5
433.178	428.5
433.4	437.5
433.622	400.5
433.844	423.5
434.066	412.5
434.287	395.5
434.509	418.5
434.731	389.5
434.953	414.5
435.175	418.5
435.397	457.5
435.618	476.5
435.84	503.5
436.062	588.5
436.284	661.5
436.505	558.5
436.727	493.5
436.949	497.5
437.17	435.5
437.392	454.5
437.614	465.5
437.835	513.5
438.057	603.5
438.278	702.5
438.5	692.5
438.721	743.5
438.943	686.5
439.165	570.5
439.386	519.5
439.608	546.5
439.829	508.5
440.05	544.5
440.272	551.5
440.493	549.5
440.715	501.5
440.936	458.5
441.158	463.5
441.379	439.5
441.6	464.5
441.822	484.5
442.043	536.5
442.264	610.5
442.486	645.5
442.707	528.5
442.928	517.5
443.149	522.5
443.371	539.5
443.592	574.5
443.813	659.5
444.034	683.5
444.255	587.5
444.476	484.5
444.698	474.5
444.919	489.5
445.14	544.5
445.361	537.5
445.582	524.5
445.803	566.5
446.024	683.5
446.245	688.5
446.466	632.5
446.687	541.5
446.908	487.5
447.129	481.5
447.35	467.5
447.571	462.5
447.792	440.5
448.013	465.5
448.234	473.5
448.455	553.5
448.675	636.5
448.896	700.5
449.117	628.5
449.338	598.5
449.559	682.5
449.779	757.5
450	612.5
450.221	536.5
450.442	474.5
450.662	462.5
450.883	468.5
451.104	499.5
451.324	477.5
451.545	447.5
451.766	425.5
451.986	426.5
452.207	407.5
452.428	400.5
452.648	400.5
452.869	418.5
453.089	426.5
453.31	433.5
453.53	422.5
453.751	417.5
453.971	438.5
454.192	432.5
454.412	434.5
454.633	410.5
454.853	397.5
455.073	395.5
455.294	431.5
455.514	486.5
455.734	479.5
455.955	427.5
456.175	392.5
456.395	371.5
456.616	375.5
456.836	357.5
457.056	372.5
457.276	366.5
457.497	380.5
457.717	377.5
457.937	391.5
458.157	370.5
458.377	395.5
458.598	432.5
458.818	498.5
459.038	599.5
459.258	584.5
459.478	493.5
459.698	438.5
459.918	417.5
460.138	402.5
460.358	399.5
460.578	390.5
460.798	413.5
461.018	417.5
461.238	412.5
461.458	390.5
461.678	402.5
461.898	393.5
462.118	400.5
462.338	390.5
462.558	380.5
462.777	395.5
462.997	397.5
463.217	389.5
463.437	417.5
463.657	392.5
463.876	408.5
464.096	388.5
464.316	416.5
464.536	414.5
464.755	419.5
464.975	438.5
465.195	499.5
465.414	616.5
465.634	525.5
465.854	456.5
466.073	452.5
466.293	449.5
466.512	433.5
466.732	398.5
466.951	417.5
467.171	398.5
467.391	412.5
467.61	417.5
467.829	420.5
468.049	420.5
468.268	400.5
468.488	403.5
468.707	383.5
468.927	388.5
469.146	391.5
469.365	392.5
469.585	393.5
469.804	394.5
470.023	415.5
470.243	431.5
470.462	433.5
470.681	451.5
470.901	456.5
471.12	418.5
471.339	394.5
471.558	404.5
471.777	404.5
471.997	374.5
472.216	389.5
472.435	405.5
472.654	408.5
472.873	389.5
473.092	371.5
473.311	389.5
473.53	393.5
473.749	424.5
473.968	439.5
474.187	570.5
474.406	558.5
474.625	486.5
474.844	439.5
475.063	434.5
475.282	419.5
475.501	424.5
475.72	423.5
475.939	407.5
476.158	423.5
476.377	412.5
476.596	405.5
476.814	433.5
477.033	436.5
477.252	432.5
477.471	407.5
477.69	425.5
477.908	451.5
478.127	461.5
478.346	412.5
478.564	434.5
478.783	430.5
479.002	458.5
479.22	438.5
479.439	480.5
479.658	482.5
479.876	506.5
480.095	510.5
480.313	522.5
480.532	512.5
480.751	490.5
480.969	484.5
481.188	524.5
481.406	523.5
481.624	471.5
481.843	464.5
482.061	473.5
482.28	506.5
482.498	473.5
482.717	471.5
482.935	482.5
483.153	468.5
483.372	465.5
483.59	467.5
483.808	459.5
484.027	472.5
484.245	471.5
484.463	494.5
484.681	496.5
484.9	462.5
485.118	474.5
485.336	481.5
485.554	498.5
485.772	497.5
485.99	514.5
486.209	497.5
486.427	505.5
486.645	516.5
486.863	539.5
487.081	533.5
487.299	521.5
487.517	528.5
487.735	526.5
487.953	512.5
488.171	518.5
488.389	531.5
488.607	526.5
488.825	533.5
489.043	551.5
489.261	518.5
489.479	524.5
489.696	529.5
489.914	532.5
490.132	539.5
490.35	563.5
490.568	542.5
490.786	552.5
491.003	561.5
491.221	589.5
491.439	604.5
491.657	615.5
491.874	601.5
492.092	624.5
492.31	614.5
492.527	614.5
492.745	590.5
492.963	628.5
493.18	615.5
493.398	595.5
493.615	631.5
493.833	612.5
494.05	647.5
494.268	642.5
494.485	638.5
494.703	639.5
494.92	631.5
495.138	603.5
495.355	643.5
495.573	656.5
495.79	627.5
496.008	631.5
496.225	617.5
496.442	640.5
496.66	644.5
496.877	620.5
497.094	656.5
497.312	648.5
497.529	656.5
497.746	678.5
497.963	655.5
498.181	670.5
498.398	668.5
498.615	683.5
498.832	670.5
499.049	688.5
499.267	696.5
499.484	705.5
499.701	686.5
499.918	704.5
500.135	720.5
500.352	745.5
500.569	775.5
500.786	747.5
501.003	768.5
501.22	758.5
501.437	757.5
501.654	771.5
501.871	754.5
502.088	755.5
502.305	712.5
502.522	694.5
502.739	698.5
502.956	696.5
503.172	679.5
503.389	671.5
503.606	684.5
503.823	676.5
504.04	664.5
504.256	660.5
504.473	635.5
504.69	647.5
504.907	644.5
505.123	650.5
505.34	643.5
505.557	650.5
505.773	624.5
505.99	616.5
506.207	625.5
506.423	648.5
506.64	642.5
506.856	638.5
507.073	620.5
507.289	605.5
507.506	629.5
507.722	658.5
507.939	700.5
508.155	662.5
508.372	613.5
508.588	607.5
508.805	624.5
509.021	607.5
509.238	625.5
509.454	616.5
509.67	636.5
509.887	631.5
510.103	604.5
510.319	646.5
510.536	764.5
510.752	1420.5
510.968	1145.5
511.184	683.5
511.401	640.5
511.617	617.5
511.833	598.5
512.049	602.5
512.265	585.5
512.481	586.5
512.698	576.5
512.914	598.5
513.13	569.5
513.346	598.5
513.562	615.5
513.778	602.5
513.994	622.5
514.21	645.5
514.426	670.5
514.642	725.5
514.858	752.5
515.074	826.5
515.29	1042.5
515.506	1585.5
515.721	1322.5
515.937	806.5
516.153	719.5
516.369	676.5
516.585	649.5
516.801	606.5
517.016	607.5
517.232	632.5
517.448	596.5
517.664	596.5
517.879	609.5
518.095	595.5
518.311	622.5
518.527	598.5
518.742	606.5
518.958	594.5
519.173	610.5
519.389	609.5
519.605	604.5
519.82	616.5
