Data from 1987.PennyLincolnUp.Lamp.En5.5.200Scan.071819.P2_HRD10591_17-15-39-971.txt Node
Date: Thu Jul 18 17:15:39 EDT 2019
User: cochatt
Spectrometer: HR+D1059
Trigger mode: 1
Integration Time (sec): 1.000000E-1
Scans to average: 1
Electric dark correction enabled: true
Nonlinearity correction enabled: false
Boxcar width: 0
XAxis mode: Wavelengths
Number of Pixels in Spectrum: 2048
>>>>>Begin Spectral Data<<<<<
223.165	-9.75
223.4	-9.75
223.635	-9.75
223.869	-7.75
224.104	-10.75
224.338	-24.75
224.573	-21.75
224.808	-24.75
225.042	-18.75
225.277	-4.75
225.511	-13.75
225.746	4.25
225.98	7.25
226.215	15.25
226.449	14.25
226.683	29.25
226.918	28.25
227.152	38.25
227.387	52.25
227.621	38.25
227.856	38.25
228.09	50.25
228.324	55.25
228.559	40.25
228.793	68.25
229.027	116.25
229.262	114.25
229.496	126.25
229.73	148.25
229.964	182.25
230.199	130.25
230.433	130.25
230.667	123.25
230.901	119.25
231.136	114.25
231.37	135.25
231.604	106.25
231.838	120.25
232.072	109.25
232.306	121.25
232.541	117.25
232.775	128.25
233.009	121.25
233.243	109.25
233.477	114.25
233.711	106.25
233.945	116.25
234.179	123.25
234.413	126.25
234.647	124.25
234.881	118.25
235.115	134.25
235.349	125.25
235.583	127.25
235.817	120.25
236.051	123.25
236.285	129.25
236.519	139.25
236.753	136.25
236.987	156.25
237.221	189.25
237.455	242.25
237.689	190.25
237.922	147.25
238.156	138.25
238.39	140.25
238.624	119.25
238.858	137.25
239.091	136.25
239.325	136.25
239.559	135.25
239.793	133.25
240.027	118.25
240.26	141.25
240.494	169.25
240.728	177.25
240.961	162.25
241.195	151.25
241.429	144.25
241.662	143.25
241.896	127.25
242.13	137.25
242.363	127.25
242.597	130.25
242.83	125.25
243.064	134.25
243.298	139.25
243.531	122.25
243.765	139.25
243.998	112.25
244.232	132.25
244.465	150.25
244.699	141.25
244.932	138.25
245.166	146.25
245.399	126.25
245.633	149.25
245.866	152.25
246.099	140.25
246.333	131.25
246.566	132.25
246.8	159.25
247.033	145.25
247.266	151.25
247.5	150.25
247.733	156.25
247.966	164.25
248.2	169.25
248.433	167.25
248.666	154.25
248.899	182.25
249.133	194.25
249.366	191.25
249.599	192.25
249.832	164.25
250.066	160.25
250.299	169.25
250.532	166.25
250.765	213.25
250.998	216.25
251.231	235.25
251.465	208.25
251.698	206.25
251.931	203.25
252.164	202.25
252.397	191.25
252.63	212.25
252.863	200.25
253.096	226.25
253.329	216.25
253.562	214.25
253.795	228.25
254.028	195.25
254.261	207.25
254.494	227.25
254.727	244.25
254.96	299.25
255.193	292.25
255.426	269.25
255.659	259.25
255.892	216.25
256.124	210.25
256.357	223.25
256.59	205.25
256.823	206.25
257.056	187.25
257.289	215.25
257.521	198.25
257.754	182.25
257.987	211.25
258.22	175.25
258.452	192.25
258.685	206.25
258.918	194.25
259.151	197.25
259.383	198.25
259.616	212.25
259.849	208.25
260.081	207.25
260.314	243.25
260.547	242.25
260.779	240.25
261.012	249.25
261.244	233.25
261.477	213.25
261.71	223.25
261.942	220.25
262.175	226.25
262.407	229.25
262.64	191.25
262.872	205.25
263.105	195.25
263.337	206.25
263.57	207.25
263.802	189.25
264.035	204.25
264.267	189.25
264.499	194.25
264.732	195.25
264.964	189.25
265.197	193.25
265.429	179.25
265.661	202.25
265.894	201.25
266.126	189.25
266.358	187.25
266.591	196.25
266.823	200.25
267.055	207.25
267.287	198.25
267.52	217.25
267.752	210.25
267.984	207.25
268.216	196.25
268.448	219.25
268.681	204.25
268.913	230.25
269.145	257.25
269.377	251.25
269.609	231.25
269.841	234.25
270.073	258.25
270.306	286.25
270.538	293.25
270.77	290.25
271.002	309.25
271.234	279.25
271.466	297.25
271.698	316.25
271.93	314.25
272.162	296.25
272.394	303.25
272.626	285.25
272.858	287.25
273.09	270.25
273.322	247.25
273.553	250.25
273.785	252.25
274.017	263.25
274.249	266.25
274.481	243.25
274.713	237.25
274.945	237.25
275.176	215.25
275.408	251.25
275.64	256.25
275.872	258.25
276.104	235.25
276.335	239.25
276.567	247.25
276.799	256.25
277.031	283.25
277.262	287.25
277.494	287.25
277.726	292.25
277.957	265.25
278.189	234.25
278.421	250.25
278.652	247.25
278.884	235.25
279.115	244.25
279.347	232.25
279.579	230.25
279.81	222.25
280.042	231.25
280.273	228.25
280.505	215.25
280.736	236.25
280.968	222.25
281.199	205.25
281.431	213.25
281.662	229.25
281.894	235.25
282.125	250.25
282.356	251.25
282.588	279.25
282.819	264.25
283.051	249.25
283.282	243.25
283.513	220.25
283.745	231.25
283.976	254.25
284.207	240.25
284.439	246.25
284.67	244.25
284.901	230.25
285.132	230.25
285.364	228.25
285.595	228.25
285.826	238.25
286.057	248.25
286.288	217.25
286.52	241.25
286.751	207.25
286.982	230.25
287.213	220.25
287.444	244.25
287.675	247.25
287.906	236.25
288.138	260.25
288.369	264.25
288.6	248.25
288.831	244.25
289.062	227.25
289.293	234.25
289.524	232.25
289.755	242.25
289.986	242.25
290.217	224.25
290.448	226.25
290.679	228.25
290.91	237.25
291.141	232.25
291.371	227.25
291.602	249.25
291.833	231.25
292.064	230.25
292.295	235.25
292.526	239.25
292.757	241.25
292.987	235.25
293.218	215.25
293.449	243.25
293.68	234.25
293.91	221.25
294.141	226.25
294.372	231.25
294.603	258.25
294.833	245.25
295.064	221.25
295.295	227.25
295.525	222.25
295.756	259.25
295.987	264.25
296.217	311.25
296.448	303.25
296.679	269.25
296.909	255.25
297.14	233.25
297.37	241.25
297.601	246.25
297.831	223.25
298.062	248.25
298.292	245.25
298.523	256.25
298.753	246.25
298.984	252.25
299.214	242.25
299.445	228.25
299.675	260.25
299.905	262.25
300.136	260.25
300.366	253.25
300.597	248.25
300.827	251.25
301.057	266.25
301.288	274.25
301.518	269.25
301.748	256.25
301.979	264.25
302.209	267.25
302.439	279.25
302.669	267.25
302.9	286.25
303.13	271.25
303.36	264.25
303.59	276.25
303.82	301.25
304.051	288.25
304.281	271.25
304.511	270.25
304.741	251.25
304.971	263.25
305.201	269.25
305.431	266.25
305.661	267.25
305.891	261.25
306.121	279.25
306.352	276.25
306.582	278.25
306.812	293.25
307.042	287.25
307.272	269.25
307.502	273.25
307.731	285.25
307.961	291.25
308.191	284.25
308.421	285.25
308.651	290.25
308.881	286.25
309.111	285.25
309.341	308.25
309.571	301.25
309.8	343.25
310.03	348.25
310.26	348.25
310.49	342.25
310.72	342.25
310.949	392.25
311.179	375.25
311.409	347.25
311.639	340.25
311.868	343.25
312.098	335.25
312.328	359.25
312.557	373.25
312.787	392.25
313.017	388.25
313.246	370.25
313.476	346.25
313.706	361.25
313.935	345.25
314.165	366.25
314.394	385.25
314.624	362.25
314.853	362.25
315.083	352.25
315.312	349.25
315.542	336.25
315.771	333.25
316.001	296.25
316.23	322.25
316.46	324.25
316.689	344.25
316.919	335.25
317.148	328.25
317.377	341.25
317.607	361.25
317.836	329.25
318.065	339.25
318.295	328.25
318.524	327.25
318.753	347.25
318.983	325.25
319.212	340.25
319.441	346.25
319.67	354.25
319.9	327.25
320.129	333.25
320.358	355.25
320.587	329.25
320.816	354.25
321.046	376.25
321.275	368.25
321.504	359.25
321.733	372.25
321.962	390.25
322.191	405.25
322.42	409.25
322.649	445.25
322.878	457.25
323.108	467.25
323.337	500.25
323.566	532.25
323.795	583.25
324.024	654.25
324.253	854.25
324.482	1222.25
324.71	1870.25
324.939	2654.25
325.168	2301.25
325.397	1274.25
325.626	826.25
325.855	643.25
326.084	578.25
326.313	545.25
326.542	562.25
326.77	631.25
326.999	747.25
327.228	1069.25
327.457	1643.25
327.686	1986.25
327.914	1351.25
328.143	873.25
328.372	734.25
328.6	686.25
328.829	634.25
329.058	672.25
329.287	655.25
329.515	589.25
329.744	521.25
329.972	498.25
330.201	503.25
330.43	542.25
330.658	607.25
330.887	666.25
331.115	660.25
331.344	554.25
331.572	477.25
331.801	509.25
332.03	472.25
332.258	441.25
332.486	418.25
332.715	417.25
332.943	395.25
333.172	366.25
333.4	394.25
333.629	400.25
333.857	386.25
334.085	418.25
334.314	384.25
334.542	376.25
334.771	396.25
334.999	385.25
335.227	408.25
335.455	351.25
335.684	382.25
335.912	366.25
336.14	374.25
336.369	390.25
336.597	400.25
336.825	373.25
337.053	395.25
337.281	383.25
337.51	378.25
337.738	354.25
337.966	382.25
338.194	388.25
338.422	394.25
338.65	370.25
338.878	375.25
339.106	368.25
339.334	358.25
339.562	357.25
339.79	366.25
340.018	371.25
340.246	357.25
340.474	402.25
340.702	394.25
340.93	360.25
341.158	372.25
341.386	370.25
341.614	393.25
341.842	368.25
342.07	386.25
342.298	354.25
342.526	357.25
342.754	341.25
342.981	360.25
343.209	345.25
343.437	341.25
343.665	351.25
343.893	348.25
344.12	355.25
344.348	372.25
344.576	350.25
344.804	382.25
345.031	422.25
345.259	399.25
345.487	396.25
345.714	385.25
345.942	383.25
346.17	366.25
346.397	337.25
346.625	359.25
346.853	361.25
347.08	378.25
347.308	370.25
347.535	387.25
347.763	392.25
347.99	386.25
348.218	403.25
348.445	406.25
348.673	388.25
348.9	376.25
349.128	380.25
349.355	357.25
349.583	347.25
349.81	365.25
350.037	365.25
350.265	350.25
350.492	356.25
350.72	347.25
350.947	363.25
351.174	392.25
351.402	396.25
351.629	397.25
351.856	393.25
352.083	397.25
352.311	413.25
352.538	408.25
352.765	409.25
352.992	399.25
353.22	379.25
353.447	381.25
353.674	390.25
353.901	362.25
354.128	350.25
354.355	330.25
354.583	340.25
354.81	329.25
355.037	323.25
355.264	332.25
355.491	318.25
355.718	330.25
355.945	341.25
356.172	336.25
356.399	322.25
356.626	313.25
356.853	327.25
357.08	314.25
357.307	329.25
357.534	323.25
357.761	338.25
357.988	312.25
358.215	326.25
358.441	322.25
358.668	314.25
358.895	357.25
359.122	363.25
359.349	368.25
359.576	387.25
359.802	411.25
360.029	490.25
360.256	472.25
360.483	460.25
360.709	403.25
360.936	377.25
361.163	383.25
361.39	395.25
361.616	376.25
361.843	378.25
362.07	378.25
362.296	397.25
362.523	371.25
362.749	379.25
362.976	371.25
363.203	356.25
363.429	340.25
363.656	352.25
363.882	363.25
364.109	359.25
364.335	354.25
364.562	352.25
364.788	351.25
365.015	358.25
365.241	348.25
365.468	354.25
365.694	368.25
365.92	374.25
366.147	374.25
366.373	364.25
366.599	357.25
366.826	354.25
367.052	356.25
367.278	346.25
367.505	336.25
367.731	351.25
367.957	350.25
368.184	349.25
368.41	332.25
368.636	364.25
368.862	379.25
369.089	363.25
369.315	352.25
369.541	335.25
369.767	331.25
369.993	340.25
370.219	346.25
370.445	342.25
370.672	329.25
370.898	336.25
371.124	344.25
371.35	324.25
371.576	324.25
371.802	333.25
372.028	323.25
372.254	324.25
372.48	310.25
372.706	337.25
372.932	326.25
373.158	338.25
373.384	325.25
373.61	325.25
373.835	333.25
374.061	334.25
374.287	345.25
374.513	326.25
374.739	342.25
374.965	340.25
375.191	346.25
375.416	313.25
375.642	316.25
375.868	351.25
376.094	327.25
376.319	317.25
376.545	326.25
376.771	333.25
376.997	330.25
377.222	323.25
377.448	312.25
377.674	323.25
377.899	328.25
378.125	325.25
378.35	316.25
378.576	340.25
378.802	319.25
379.027	320.25
379.253	325.25
379.478	350.25
379.704	322.25
379.929	348.25
380.155	335.25
380.38	333.25
380.606	347.25
380.831	322.25
381.057	322.25
381.282	326.25
381.507	319.25
381.733	325.25
381.958	340.25
382.184	344.25
382.409	340.25
382.634	332.25
382.86	346.25
383.085	345.25
383.31	324.25
383.535	324.25
383.761	336.25
383.986	338.25
384.211	357.25
384.436	340.25
384.662	350.25
384.887	326.25
385.112	334.25
385.337	347.25
385.562	338.25
385.787	336.25
386.013	365.25
386.238	380.25
386.463	353.25
386.688	362.25
386.913	358.25
387.138	342.25
387.363	352.25
387.588	327.25
387.813	349.25
388.038	345.25
388.263	360.25
388.488	349.25
388.713	362.25
388.938	365.25
389.163	355.25
389.387	355.25
389.612	338.25
389.837	348.25
390.062	354.25
390.287	343.25
390.512	335.25
390.736	331.25
390.961	333.25
391.186	343.25
391.411	330.25
391.636	347.25
391.86	361.25
392.085	342.25
392.31	355.25
392.534	349.25
392.759	388.25
392.984	380.25
393.208	351.25
393.433	357.25
393.658	375.25
393.882	358.25
394.107	344.25
394.331	341.25
394.556	334.25
394.78	349.25
395.005	354.25
395.229	365.25
395.454	350.25
395.678	347.25
395.903	364.25
396.127	384.25
396.352	410.25
396.576	367.25
396.801	367.25
397.025	358.25
397.249	390.25
397.474	378.25
397.698	374.25
397.922	382.25
398.147	395.25
398.371	415.25
398.595	386.25
398.82	413.25
399.044	394.25
399.268	403.25
399.492	416.25
399.717	421.25
399.941	450.25
400.165	516.25
400.389	493.25
400.613	468.25
400.837	447.25
401.062	425.25
401.286	410.25
401.51	414.25
401.734	400.25
401.958	417.25
402.182	401.25
402.406	419.25
402.63	435.25
402.854	411.25
403.078	426.25
403.302	412.25
403.526	419.25
403.75	455.25
403.974	407.25
404.198	408.25
404.422	422.25
404.645	428.25
404.869	438.25
405.093	445.25
405.317	477.25
405.541	493.25
405.765	464.25
405.988	449.25
406.212	464.25
406.436	491.25
406.66	516.25
406.883	498.25
407.107	492.25
407.331	530.25
407.555	579.25
407.778	587.25
408.002	546.25
408.226	480.25
408.449	461.25
408.673	499.25
408.896	522.25
409.12	550.25
409.344	534.25
409.567	460.25
409.791	444.25
410.014	436.25
410.238	418.25
410.461	439.25
410.685	430.25
410.908	456.25
411.132	468.25
411.355	523.25
411.578	509.25
411.802	461.25
412.025	427.25
412.249	436.25
412.472	454.25
412.695	450.25
412.919	432.25
413.142	422.25
413.365	406.25
413.589	403.25
413.812	407.25
414.035	387.25
414.258	413.25
414.482	388.25
414.705	405.25
414.928	394.25
415.151	397.25
415.374	406.25
415.597	376.25
415.821	382.25
416.044	398.25
416.267	424.25
416.49	412.25
416.713	407.25
416.936	398.25
417.159	403.25
417.382	412.25
417.605	407.25
417.828	432.25
418.051	457.25
418.274	438.25
418.497	415.25
418.72	393.25
418.943	423.25
419.166	408.25
419.389	440.25
419.611	442.25
419.834	439.25
420.057	437.25
420.28	440.25
420.503	422.25
420.726	443.25
420.948	453.25
421.171	503.25
421.394	507.25
421.617	474.25
421.839	461.25
422.062	460.25
422.285	478.25
422.507	540.25
422.73	581.25
422.953	574.25
423.175	502.25
423.398	482.25
423.621	480.25
423.843	482.25
424.066	507.25
424.288	506.25
424.511	528.25
424.733	582.25
424.956	644.25
425.178	621.25
425.401	614.25
425.623	653.25
425.846	554.25
426.068	534.25
426.291	529.25
426.513	514.25
426.735	525.25
426.958	573.25
427.18	643.25
427.402	756.25
427.625	876.25
427.847	805.25
428.069	675.25
428.292	586.25
428.514	542.25
428.736	514.25
428.958	492.25
429.181	485.25
429.403	479.25
429.625	494.25
429.847	521.25
430.069	574.25
430.292	581.25
430.514	487.25
430.736	474.25
430.958	456.25
431.18	460.25
431.402	425.25
431.624	427.25
431.846	403.25
432.068	431.25
432.29	436.25
432.512	452.25
432.734	428.25
432.956	453.25
433.178	452.25
433.4	458.25
433.622	438.25
433.844	440.25
434.066	425.25
434.287	422.25
434.509	461.25
434.731	461.25
434.953	451.25
435.175	470.25
435.397	492.25
435.618	527.25
435.84	573.25
436.062	637.25
436.284	696.25
436.505	628.25
436.727	558.25
436.949	491.25
437.17	493.25
437.392	493.25
437.614	493.25
437.835	558.25
438.057	648.25
438.278	730.25
438.5	735.25
438.721	798.25
438.943	762.25
439.165	617.25
439.386	566.25
439.608	556.25
439.829	566.25
440.05	599.25
440.272	629.25
440.493	580.25
440.715	534.25
440.936	519.25
441.158	494.25
441.379	490.25
441.6	493.25
441.822	536.25
442.043	584.25
442.264	637.25
442.486	680.25
442.707	559.25
442.928	562.25
443.149	546.25
443.371	590.25
443.592	622.25
443.813	683.25
444.034	732.25
444.255	628.25
444.476	557.25
444.698	524.25
444.919	519.25
445.14	635.25
445.361	579.25
445.582	573.25
445.803	638.25
446.024	747.25
446.245	792.25
446.466	664.25
446.687	582.25
446.908	538.25
447.129	502.25
447.35	486.25
447.571	493.25
447.792	490.25
448.013	497.25
448.234	515.25
448.455	574.25
448.675	678.25
448.896	779.25
449.117	669.25
449.338	647.25
449.559	716.25
449.779	783.25
450	663.25
450.221	575.25
450.442	527.25
450.662	499.25
450.883	534.25
451.104	544.25
451.324	529.25
451.545	477.25
451.766	458.25
451.986	448.25
452.207	437.25
452.428	427.25
452.648	436.25
452.869	434.25
453.089	433.25
453.31	455.25
453.53	470.25
453.751	440.25
453.971	432.25
454.192	476.25
454.412	458.25
454.633	443.25
454.853	439.25
455.073	446.25
455.294	473.25
455.514	535.25
455.734	540.25
455.955	442.25
456.175	430.25
456.395	393.25
456.616	398.25
456.836	387.25
457.056	386.25
457.276	400.25
457.497	407.25
457.717	404.25
457.937	410.25
458.157	401.25
458.377	429.25
458.598	431.25
458.818	529.25
459.038	632.25
459.258	646.25
459.478	533.25
459.698	463.25
459.918	442.25
460.138	433.25
460.358	439.25
460.578	454.25
460.798	430.25
461.018	427.25
461.238	440.25
461.458	400.25
461.678	410.25
461.898	427.25
462.118	423.25
462.338	406.25
462.558	426.25
462.777	416.25
462.997	436.25
463.217	438.25
463.437	429.25
463.657	432.25
463.876	434.25
464.096	446.25
464.316	433.25
464.536	445.25
464.755	455.25
464.975	460.25
465.195	548.25
465.414	671.25
465.634	602.25
465.854	522.25
466.073	477.25
466.293	456.25
466.512	427.25
466.732	437.25
466.951	425.25
467.171	423.25
467.391	456.25
467.61	431.25
467.829	457.25
468.049	439.25
468.268	422.25
468.488	415.25
468.707	436.25
468.927	413.25
469.146	397.25
469.365	413.25
469.585	411.25
469.804	435.25
470.023	444.25
470.243	451.25
470.462	450.25
470.681	463.25
470.901	458.25
471.12	454.25
471.339	438.25
471.558	423.25
471.777	428.25
471.997	443.25
472.216	394.25
472.435	432.25
472.654	429.25
472.873	419.25
473.092	415.25
473.311	432.25
473.53	423.25
473.749	456.25
473.968	491.25
474.187	601.25
474.406	598.25
474.625	520.25
474.844	472.25
475.063	450.25
475.282	416.25
475.501	434.25
475.72	440.25
475.939	445.25
476.158	435.25
476.377	452.25
476.596	429.25
476.814	428.25
477.033	464.25
477.252	477.25
477.471	472.25
477.69	471.25
477.908	468.25
478.127	463.25
478.346	465.25
478.564	475.25
478.783	470.25
479.002	486.25
479.22	486.25
479.439	503.25
479.658	535.25
479.876	547.25
480.095	527.25
480.313	554.25
480.532	558.25
480.751	519.25
480.969	522.25
481.188	549.25
481.406	555.25
481.624	533.25
481.843	514.25
482.061	518.25
482.28	492.25
482.498	512.25
482.717	482.25
482.935	507.25
483.153	501.25
483.372	491.25
483.59	512.25
483.808	510.25
484.027	509.25
484.245	512.25
484.463	522.25
484.681	519.25
484.9	535.25
485.118	540.25
485.336	515.25
485.554	522.25
485.772	518.25
485.99	518.25
486.209	526.25
486.427	554.25
486.645	564.25
486.863	590.25
487.081	562.25
487.299	582.25
487.517	550.25
487.735	571.25
487.953	554.25
488.171	568.25
488.389	580.25
488.607	571.25
488.825	565.25
489.043	577.25
489.261	566.25
489.479	556.25
489.696	582.25
489.914	566.25
490.132	604.25
490.35	580.25
490.568	606.25
490.786	580.25
491.003	609.25
491.221	611.25
491.439	624.25
491.657	615.25
491.874	635.25
492.092	657.25
492.31	648.25
492.527	640.25
492.745	632.25
492.963	662.25
493.18	668.25
493.398	666.25
493.615	684.25
493.833	652.25
494.05	693.25
494.268	662.25
494.485	676.25
494.703	665.25
494.92	658.25
495.138	685.25
495.355	667.25
495.573	694.25
495.79	684.25
496.008	684.25
496.225	699.25
496.442	681.25
496.66	678.25
496.877	664.25
497.094	687.25
497.312	671.25
497.529	693.25
497.746	710.25
497.963	686.25
498.181	718.25
498.398	700.25
498.615	733.25
498.832	711.25
499.049	731.25
499.267	703.25
499.484	759.25
499.701	760.25
499.918	784.25
500.135	779.25
500.352	793.25
500.569	798.25
500.786	813.25
501.003	782.25
501.22	791.25
501.437	799.25
501.654	788.25
501.871	798.25
