Data from 1987.PennyLincolnUp.Lamp.En5.5.200Scan.071819.P2_HRD10591_17-15-41-971.txt Node
Date: Thu Jul 18 17:15:41 EDT 2019
User: cochatt
Spectrometer: HR+D1059
Trigger mode: 1
Integration Time (sec): 1.000000E-1
Scans to average: 1
Electric dark correction enabled: true
Nonlinearity correction enabled: false
Boxcar width: 0
XAxis mode: Wavelengths
Number of Pixels in Spectrum: 2048
>>>>>Begin Spectral Data<<<<<
223.165	-1.06
223.4	-1.06
223.635	-1.06
223.869	-15.06
224.104	-17.06
224.338	-12.06
224.573	-12.06
224.808	1.94
225.042	-14.06
225.277	-7.06
225.511	-15.06
225.746	6.94
225.98	10.94
226.215	8.94
226.449	17.94
226.683	6.94
226.918	10.94
227.152	28.94
227.387	22.94
227.621	38.94
227.856	35.94
228.09	35.94
228.324	34.94
228.559	52.94
228.793	63.94
229.027	107.94
229.262	111.94
229.496	122.94
229.73	164.94
229.964	172.94
230.199	139.94
230.433	119.94
230.667	124.94
230.901	132.94
231.136	117.94
231.37	112.94
231.604	113.94
231.838	126.94
232.072	102.94
232.306	118.94
232.541	118.94
232.775	119.94
233.009	110.94
233.243	121.94
233.477	100.94
233.711	99.94
233.945	116.94
234.179	111.94
234.413	104.94
234.647	110.94
234.881	101.94
235.115	132.94
235.349	122.94
235.583	127.94
235.817	124.94
236.051	126.94
236.285	124.94
236.519	119.94
236.753	128.94
236.987	166.94
237.221	194.94
237.455	258.94
237.689	193.94
237.922	136.94
238.156	133.94
238.39	130.94
238.624	120.94
238.858	124.94
239.091	133.94
239.325	130.94
239.559	122.94
239.793	139.94
240.027	134.94
240.26	148.94
240.494	174.94
240.728	155.94
240.961	153.94
241.195	149.94
241.429	137.94
241.662	126.94
241.896	130.94
242.13	130.94
242.363	136.94
242.597	121.94
242.83	112.94
243.064	126.94
243.298	136.94
243.531	122.94
243.765	136.94
243.998	144.94
244.232	132.94
244.465	126.94
244.699	142.94
244.932	132.94
245.166	142.94
245.399	140.94
245.633	131.94
245.866	147.94
246.099	157.94
246.333	133.94
246.566	143.94
246.8	156.94
247.033	154.94
247.266	154.94
247.5	132.94
247.733	158.94
247.966	158.94
248.2	153.94
248.433	164.94
248.666	174.94
248.899	175.94
249.133	195.94
249.366	204.94
249.599	198.94
249.832	174.94
250.066	161.94
250.299	183.94
250.532	174.94
250.765	177.94
250.998	214.94
251.231	223.94
251.465	202.94
251.698	194.94
251.931	202.94
252.164	185.94
252.397	189.94
252.63	193.94
252.863	189.94
253.096	214.94
253.329	223.94
253.562	232.94
253.795	240.94
254.028	215.94
254.261	192.94
254.494	220.94
254.727	248.94
254.96	271.94
255.193	288.94
255.426	249.94
255.659	220.94
255.892	220.94
256.124	200.94
256.357	198.94
256.59	199.94
256.823	189.94
257.056	201.94
257.289	209.94
257.521	184.94
257.754	199.94
257.987	185.94
258.22	185.94
258.452	189.94
258.685	196.94
258.918	171.94
259.151	203.94
259.383	206.94
259.616	216.94
259.849	211.94
260.081	202.94
260.314	230.94
260.547	265.94
260.779	252.94
261.012	210.94
261.244	218.94
261.477	216.94
261.71	227.94
261.942	224.94
262.175	227.94
262.407	221.94
262.64	221.94
262.872	196.94
263.105	196.94
263.337	198.94
263.57	191.94
263.802	196.94
264.035	194.94
264.267	190.94
264.499	172.94
264.732	184.94
264.964	186.94
265.197	185.94
265.429	174.94
265.661	190.94
265.894	198.94
266.126	197.94
266.358	182.94
266.591	205.94
266.823	198.94
267.055	184.94
267.287	204.94
267.52	206.94
267.752	195.94
267.984	188.94
268.216	202.94
268.448	203.94
268.681	195.94
268.913	213.94
269.145	217.94
269.377	250.94
269.609	257.94
269.841	236.94
270.073	241.94
270.306	258.94
270.538	290.94
270.77	291.94
271.002	292.94
271.234	282.94
271.466	290.94
271.698	287.94
271.93	295.94
272.162	303.94
272.394	306.94
272.626	307.94
272.858	256.94
273.09	277.94
273.322	261.94
273.553	245.94
273.785	242.94
274.017	242.94
274.249	236.94
274.481	245.94
274.713	225.94
274.945	251.94
275.176	236.94
275.408	234.94
275.64	252.94
275.872	214.94
276.104	250.94
276.335	234.94
276.567	246.94
276.799	273.94
277.031	287.94
277.262	284.94
277.494	266.94
277.726	280.94
277.957	269.94
278.189	245.94
278.421	245.94
278.652	242.94
278.884	231.94
279.115	236.94
279.347	236.94
279.579	232.94
279.81	214.94
280.042	217.94
280.273	226.94
280.505	231.94
280.736	216.94
280.968	224.94
281.199	228.94
281.431	217.94
281.662	218.94
281.894	228.94
282.125	216.94
282.356	261.94
282.588	302.94
282.819	277.94
283.051	223.94
283.282	205.94
283.513	227.94
283.745	239.94
283.976	223.94
284.207	215.94
284.439	224.94
284.67	224.94
284.901	230.94
285.132	241.94
285.364	231.94
285.595	222.94
285.826	228.94
286.057	214.94
286.288	219.94
286.52	233.94
286.751	225.94
286.982	223.94
287.213	223.94
287.444	249.94
287.675	255.94
287.906	251.94
288.138	238.94
288.369	267.94
288.6	250.94
288.831	248.94
289.062	249.94
289.293	254.94
289.524	242.94
289.755	242.94
289.986	249.94
290.217	223.94
290.448	228.94
290.679	235.94
290.91	234.94
291.141	219.94
291.371	227.94
291.602	228.94
291.833	228.94
292.064	223.94
292.295	218.94
292.526	244.94
292.757	233.94
292.987	236.94
293.218	221.94
293.449	225.94
293.68	226.94
293.91	220.94
294.141	224.94
294.372	235.94
294.603	242.94
294.833	232.94
295.064	228.94
295.295	239.94
295.525	232.94
295.756	243.94
295.987	258.94
296.217	280.94
296.448	289.94
296.679	249.94
296.909	236.94
297.14	234.94
297.37	232.94
297.601	237.94
297.831	250.94
298.062	227.94
298.292	242.94
298.523	241.94
298.753	235.94
298.984	248.94
299.214	242.94
299.445	242.94
299.675	254.94
299.905	246.94
300.136	260.94
300.366	263.94
300.597	253.94
300.827	263.94
301.057	271.94
301.288	277.94
301.518	283.94
301.748	263.94
301.979	264.94
302.209	266.94
302.439	282.94
302.669	255.94
302.9	254.94
303.13	249.94
303.36	260.94
303.59	262.94
303.82	299.94
304.051	280.94
304.281	271.94
304.511	248.94
304.741	259.94
304.971	260.94
305.201	257.94
305.431	266.94
305.661	271.94
305.891	266.94
306.121	250.94
306.352	272.94
306.582	276.94
306.812	268.94
307.042	282.94
307.272	268.94
307.502	269.94
307.731	262.94
307.961	279.94
308.191	272.94
308.421	282.94
308.651	287.94
308.881	286.94
309.111	302.94
309.341	287.94
309.571	289.94
309.8	319.94
310.03	317.94
310.26	326.94
310.49	338.94
310.72	345.94
310.949	368.94
311.179	380.94
311.409	322.94
311.639	346.94
311.868	353.94
312.098	354.94
312.328	346.94
312.557	368.94
312.787	398.94
313.017	401.94
313.246	352.94
313.476	337.94
313.706	332.94
313.935	342.94
314.165	354.94
314.394	362.94
314.624	361.94
314.853	358.94
315.083	342.94
315.312	325.94
315.542	346.94
315.771	303.94
316.001	293.94
316.23	306.94
316.46	311.94
316.689	315.94
316.919	323.94
317.148	331.94
317.377	346.94
317.607	364.94
317.836	326.94
318.065	312.94
318.295	334.94
318.524	325.94
318.753	308.94
318.983	310.94
319.212	342.94
319.441	350.94
319.67	350.94
319.9	325.94
320.129	337.94
320.358	329.94
320.587	325.94
320.816	343.94
321.046	363.94
321.275	357.94
321.504	358.94
321.733	378.94
321.962	375.94
322.191	395.94
322.42	424.94
322.649	436.94
322.878	436.94
323.108	440.94
323.337	508.94
323.566	554.94
323.795	578.94
324.024	646.94
324.253	810.94
324.482	1219.94
324.71	1907.94
324.939	2594.94
325.168	2302.94
325.397	1274.94
325.626	802.94
325.855	642.94
326.084	585.94
326.313	550.94
326.542	538.94
326.77	615.94
326.999	752.94
327.228	1050.94
327.457	1610.94
327.686	2017.94
327.914	1371.94
328.143	855.94
328.372	721.94
328.6	643.94
328.829	629.94
329.058	630.94
329.287	634.94
329.515	571.94
329.744	510.94
329.972	483.94
330.201	504.94
330.43	521.94
330.658	582.94
330.887	655.94
331.115	642.94
331.344	529.94
331.572	476.94
331.801	489.94
332.03	471.94
332.258	420.94
332.486	400.94
332.715	388.94
332.943	395.94
333.172	400.94
333.4	389.94
333.629	384.94
333.857	387.94
334.085	396.94
334.314	382.94
334.542	397.94
334.771	380.94
334.999	387.94
335.227	377.94
335.455	370.94
335.684	364.94
335.912	360.94
336.14	352.94
336.369	357.94
336.597	391.94
336.825	398.94
337.053	364.94
337.281	367.94
337.51	376.94
337.738	389.94
337.966	379.94
338.194	370.94
338.422	352.94
338.65	374.94
338.878	354.94
339.106	334.94
339.334	350.94
339.562	350.94
339.79	375.94
340.018	370.94
340.246	367.94
340.474	386.94
340.702	370.94
340.93	377.94
341.158	352.94
341.386	361.94
341.614	373.94
341.842	388.94
342.07	342.94
342.298	356.94
342.526	378.94
342.754	338.94
342.981	335.94
343.209	322.94
343.437	340.94
343.665	350.94
343.893	337.94
344.12	355.94
344.348	354.94
344.576	361.94
344.804	390.94
345.031	384.94
345.259	415.94
345.487	392.94
345.714	384.94
345.942	363.94
346.17	359.94
346.397	368.94
346.625	358.94
346.853	366.94
347.08	363.94
347.308	378.94
347.535	391.94
347.763	378.94
347.99	385.94
348.218	384.94
348.445	394.94
348.673	394.94
348.9	357.94
349.128	362.94
349.355	336.94
349.583	354.94
349.81	366.94
350.037	336.94
350.265	332.94
350.492	369.94
350.72	346.94
350.947	354.94
351.174	383.94
351.402	398.94
351.629	400.94
351.856	377.94
352.083	386.94
352.311	401.94
352.538	415.94
352.765	425.94
352.992	383.94
353.22	360.94
353.447	382.94
353.674	352.94
353.901	354.94
354.128	337.94
354.355	333.94
354.583	344.94
354.81	339.94
355.037	335.94
355.264	316.94
355.491	325.94
355.718	308.94
355.945	318.94
356.172	314.94
356.399	318.94
356.626	315.94
356.853	318.94
357.08	313.94
357.307	309.94
357.534	298.94
357.761	319.94
357.988	322.94
358.215	322.94
358.441	326.94
358.668	334.94
358.895	325.94
359.122	331.94
359.349	343.94
359.576	384.94
359.802	392.94
360.029	445.94
360.256	480.94
360.483	469.94
360.709	410.94
360.936	374.94
361.163	358.94
361.39	404.94
361.616	396.94
361.843	384.94
362.07	391.94
362.296	391.94
362.523	380.94
362.749	367.94
362.976	352.94
363.203	342.94
363.429	332.94
363.656	337.94
363.882	344.94
364.109	357.94
364.335	339.94
364.562	330.94
364.788	350.94
365.015	331.94
365.241	347.94
365.468	352.94
365.694	324.94
365.92	367.94
366.147	330.94
366.373	336.94
366.599	350.94
366.826	311.94
367.052	337.94
367.278	339.94
367.505	335.94
367.731	326.94
367.957	342.94
368.184	344.94
368.41	342.94
368.636	353.94
368.862	356.94
369.089	358.94
369.315	340.94
369.541	332.94
369.767	339.94
369.993	335.94
370.219	338.94
370.445	338.94
370.672	324.94
370.898	302.94
371.124	326.94
371.35	324.94
371.576	310.94
371.802	334.94
372.028	320.94
372.254	321.94
372.48	323.94
372.706	332.94
372.932	306.94
373.158	307.94
373.384	330.94
373.61	336.94
373.835	330.94
374.061	318.94
374.287	327.94
374.513	327.94
374.739	313.94
374.965	307.94
375.191	327.94
375.416	341.94
375.642	329.94
375.868	336.94
376.094	309.94
376.319	322.94
376.545	322.94
376.771	316.94
376.997	310.94
377.222	315.94
377.448	295.94
377.674	326.94
377.899	314.94
378.125	312.94
378.35	315.94
378.576	324.94
378.802	302.94
379.027	315.94
379.253	304.94
379.478	322.94
379.704	344.94
379.929	334.94
380.155	337.94
380.38	331.94
380.606	327.94
380.831	331.94
381.057	321.94
381.282	313.94
381.507	346.94
381.733	336.94
381.958	344.94
382.184	315.94
382.409	319.94
382.634	330.94
382.86	311.94
383.085	316.94
383.31	324.94
383.535	323.94
383.761	321.94
383.986	321.94
384.211	336.94
384.436	343.94
384.662	323.94
384.887	323.94
385.112	336.94
385.337	338.94
385.562	318.94
385.787	334.94
386.013	382.94
386.238	374.94
386.463	364.94
386.688	353.94
386.913	348.94
387.138	334.94
387.363	349.94
387.588	338.94
387.813	345.94
388.038	346.94
388.263	343.94
388.488	328.94
388.713	334.94
388.938	334.94
389.163	341.94
389.387	336.94
389.612	340.94
389.837	335.94
390.062	316.94
390.287	325.94
390.512	331.94
390.736	350.94
390.961	325.94
391.186	342.94
391.411	358.94
391.636	336.94
391.86	348.94
392.085	350.94
392.31	346.94
392.534	362.94
392.759	355.94
392.984	373.94
393.208	342.94
393.433	338.94
393.658	334.94
393.882	339.94
394.107	356.94
394.331	353.94
394.556	332.94
394.78	328.94
395.005	348.94
395.229	327.94
395.454	370.94
395.678	329.94
395.903	368.94
396.127	393.94
396.352	376.94
396.576	379.94
396.801	343.94
397.025	370.94
397.249	352.94
397.474	376.94
397.698	376.94
397.922	379.94
398.147	384.94
398.371	408.94
398.595	388.94
398.82	377.94
399.044	408.94
399.268	384.94
399.492	407.94
399.717	413.94
399.941	446.94
400.165	461.94
400.389	492.94
400.613	453.94
400.837	422.94
401.062	414.94
401.286	397.94
401.51	391.94
401.734	389.94
401.958	406.94
402.182	409.94
402.406	422.94
402.63	427.94
402.854	411.94
403.078	412.94
403.302	428.94
403.526	424.94
403.75	418.94
403.974	420.94
404.198	391.94
404.422	418.94
404.645	427.94
404.869	416.94
405.093	446.94
405.317	467.94
405.541	491.94
405.765	452.94
405.988	449.94
406.212	459.94
406.436	478.94
406.66	490.94
406.883	480.94
407.107	500.94
407.331	526.94
407.555	581.94
407.778	554.94
408.002	537.94
408.226	488.94
408.449	470.94
408.673	468.94
408.896	486.94
409.12	532.94
409.344	495.94
409.567	452.94
409.791	403.94
410.014	435.94
410.238	436.94
410.461	393.94
410.685	446.94
410.908	437.94
411.132	473.94
411.355	505.94
411.578	490.94
411.802	448.94
412.025	412.94
412.249	396.94
412.472	438.94
412.695	416.94
412.919	418.94
413.142	421.94
413.365	398.94
413.589	403.94
413.812	397.94
414.035	412.94
414.258	401.94
414.482	391.94
414.705	390.94
414.928	393.94
415.151	412.94
415.374	394.94
415.597	409.94
415.821	377.94
416.044	402.94
416.267	391.94
416.49	402.94
416.713	393.94
416.936	393.94
417.159	401.94
417.382	416.94
417.605	407.94
417.828	409.94
418.051	444.94
418.274	423.94
418.497	405.94
418.72	396.94
418.943	383.94
419.166	402.94
419.389	423.94
419.611	416.94
419.834	432.94
420.057	430.94
420.28	433.94
420.503	415.94
420.726	412.94
420.948	451.94
421.171	495.94
421.394	520.94
421.617	461.94
421.839	438.94
422.062	434.94
422.285	463.94
422.507	524.94
422.73	595.94
422.953	563.94
423.175	510.94
423.398	473.94
423.621	466.94
423.843	489.94
424.066	487.94
424.288	482.94
424.511	504.94
424.733	560.94
424.956	638.94
425.178	624.94
425.401	626.94
425.623	639.94
425.846	549.94
426.068	526.94
426.291	510.94
426.513	518.94
426.735	516.94
426.958	563.94
427.18	644.94
427.402	764.94
427.625	850.94
427.847	788.94
428.069	618.94
428.292	568.94
428.514	525.94
428.736	516.94
428.958	511.94
429.181	472.94
429.403	481.94
429.625	470.94
429.847	528.94
430.069	582.94
430.292	586.94
430.514	494.94
430.736	464.94
430.958	466.94
431.18	437.94
431.402	441.94
431.624	418.94
431.846	405.94
432.068	424.94
432.29	422.94
432.512	431.94
432.734	440.94
432.956	424.94
433.178	447.94
433.4	438.94
433.622	436.94
433.844	426.94
434.066	430.94
434.287	400.94
434.509	429.94
434.731	411.94
434.953	420.94
435.175	457.94
435.397	499.94
435.618	500.94
435.84	556.94
436.062	669.94
436.284	706.94
436.505	618.94
436.727	532.94
436.949	507.94
437.17	475.94
437.392	460.94
437.614	521.94
437.835	554.94
438.057	644.94
438.278	710.94
438.5	731.94
438.721	791.94
438.943	744.94
439.165	630.94
439.386	560.94
439.608	556.94
439.829	583.94
440.05	571.94
440.272	600.94
440.493	579.94
440.715	536.94
440.936	491.94
441.158	501.94
441.379	470.94
441.6	491.94
441.822	529.94
442.043	566.94
442.264	662.94
442.486	678.94
442.707	562.94
442.928	550.94
443.149	553.94
443.371	575.94
443.592	585.94
443.813	680.94
444.034	724.94
444.255	602.94
444.476	560.94
444.698	534.94
444.919	500.94
445.14	627.94
445.361	580.94
445.582	549.94
445.803	632.94
446.024	746.94
446.245	750.94
446.466	664.94
446.687	575.94
446.908	528.94
447.129	518.94
447.35	475.94
447.571	472.94
447.792	479.94
448.013	475.94
448.234	518.94
448.455	554.94
448.675	688.94
448.896	768.94
449.117	628.94
449.338	637.94
449.559	726.94
449.779	800.94
450	682.94
450.221	560.94
450.442	516.94
450.662	489.94
450.883	504.94
451.104	549.94
451.324	524.94
451.545	490.94
451.766	435.94
451.986	441.94
452.207	404.94
452.428	426.94
452.648	423.94
452.869	426.94
453.089	443.94
453.31	448.94
453.53	439.94
453.751	435.94
453.971	466.94
454.192	496.94
454.412	494.94
454.633	444.94
454.853	427.94
455.073	435.94
455.294	473.94
455.514	524.94
455.734	515.94
455.955	449.94
456.175	410.94
456.395	375.94
456.616	386.94
456.836	384.94
457.056	388.94
457.276	397.94
457.497	399.94
457.717	387.94
457.937	396.94
458.157	405.94
458.377	432.94
458.598	427.94
458.818	535.94
459.038	625.94
459.258	636.94
459.478	501.94
459.698	482.94
459.918	434.94
460.138	401.94
460.358	411.94
460.578	405.94
460.798	418.94
461.018	396.94
461.238	400.94
461.458	416.94
461.678	403.94
461.898	408.94
462.118	398.94
462.338	427.94
462.558	395.94
462.777	424.94
462.997	418.94
463.217	411.94
463.437	422.94
463.657	423.94
463.876	431.94
464.096	430.94
464.316	440.94
464.536	454.94
464.755	457.94
464.975	458.94
465.195	544.94
465.414	656.94
465.634	570.94
465.854	534.94
466.073	458.94
466.293	448.94
466.512	434.94
466.732	429.94
466.951	426.94
467.171	414.94
467.391	416.94
467.61	450.94
467.829	455.94
468.049	432.94
468.268	434.94
468.488	420.94
468.707	399.94
468.927	415.94
469.146	402.94
469.365	386.94
469.585	399.94
469.804	414.94
470.023	447.94
470.243	449.94
470.462	448.94
470.681	472.94
470.901	460.94
471.12	444.94
471.339	418.94
471.558	427.94
471.777	434.94
471.997	423.94
472.216	409.94
472.435	421.94
472.654	416.94
472.873	418.94
473.092	419.94
473.311	407.94
473.53	423.94
473.749	442.94
473.968	489.94
474.187	596.94
474.406	626.94
474.625	512.94
474.844	460.94
475.063	430.94
475.282	440.94
475.501	408.94
475.72	439.94
475.939	440.94
476.158	443.94
476.377	431.94
476.596	425.94
476.814	450.94
477.033	455.94
477.252	478.94
477.471	461.94
477.69	450.94
477.908	450.94
478.127	443.94
478.346	439.94
478.564	449.94
478.783	447.94
479.002	474.94
479.22	502.94
479.439	494.94
479.658	534.94
479.876	520.94
480.095	514.94
480.313	574.94
480.532	529.94
480.751	514.94
480.969	517.94
481.188	533.94
481.406	541.94
481.624	501.94
481.843	514.94
482.061	519.94
482.28	481.94
482.498	487.94
482.717	484.94
482.935	515.94
483.153	494.94
483.372	496.94
483.59	497.94
483.808	511.94
484.027	515.94
484.245	504.94
484.463	511.94
484.681	512.94
484.9	529.94
485.118	539.94
485.336	501.94
485.554	509.94
485.772	516.94
485.99	503.94
486.209	532.94
486.427	538.94
486.645	538.94
486.863	574.94
487.081	586.94
487.299	580.94
487.517	558.94
487.735	545.94
487.953	556.94
488.171	566.94
488.389	554.94
488.607	547.94
488.825	563.94
489.043	542.94
489.261	569.94
489.479	580.94
489.696	588.94
489.914	558.94
490.132	582.94
490.35	591.94
490.568	575.94
490.786	584.94
491.003	602.94
491.221	604.94
491.439	619.94
491.657	617.94
491.874	615.94
492.092	619.94
492.31	630.94
492.527	672.94
492.745	644.94
492.963	627.94
493.18	647.94
493.398	642.94
493.615	633.94
493.833	660.94
494.05	663.94
494.268	662.94
494.485	672.94
494.703	650.94
494.92	653.94
495.138	663.94
495.355	646.94
495.573	672.94
495.79	687.94
496.008	675.94
496.225	667.94
496.442	656.94
496.66	678.94
496.877	656.94
497.094	650.94
497.312	648.94
497.529	670.94
497.746	691.94
497.963	682.94
498.181	715.94
498.398	714.94
498.615	692.94
498.832	717.94
499.049	699.94
499.267	702.94
499.484	718.94
499.701	727.94
499.918	728.94
500.135	755.94
500.352	766.94
500.569	801.94
500.786	774.94
501.003	764.94
501.22	787.94
501.437	792.94
501.654	786.94
501.871	798.94
