Data from 1987.PennyLincolnUp.Lamp.En5.5.200Scan.071819.P2_HRD10591_17-14-43-971.txt Node
Date: Thu Jul 18 17:14:43 EDT 2019
User: cochatt
Spectrometer: HR+D1059
Trigger mode: 1
Integration Time (sec): 1.000000E-1
Scans to average: 1
Electric dark correction enabled: true
Nonlinearity correction enabled: false
Boxcar width: 0
XAxis mode: Wavelengths
Number of Pixels in Spectrum: 2048
>>>>>Begin Spectral Data<<<<<
223.165	-13.88
223.4	-13.88
223.635	-13.88
223.869	-9.88
224.104	-20.88
224.338	-11.88
224.573	-19.88
224.808	-12.88
225.042	-3.88
225.277	-12.88
225.511	-8.88
225.746	7.12
225.98	-0.88
226.215	4.12
226.449	25.12
226.683	14.12
226.918	34.12
227.152	31.12
227.387	55.12
227.621	41.12
227.856	53.12
228.09	54.12
228.324	58.12
228.559	63.12
228.793	84.12
229.027	110.12
229.262	117.12
229.496	131.12
229.73	162.12
229.964	181.12
230.199	143.12
230.433	107.12
230.667	131.12
230.901	105.12
231.136	115.12
231.37	115.12
231.604	115.12
231.838	117.12
232.072	114.12
232.306	106.12
232.541	126.12
232.775	115.12
233.009	109.12
233.243	118.12
233.477	122.12
233.711	131.12
233.945	123.12
234.179	115.12
234.413	108.12
234.647	121.12
234.881	113.12
235.115	121.12
235.349	119.12
235.583	143.12
235.817	129.12
236.051	134.12
236.285	129.12
236.519	144.12
236.753	126.12
236.987	160.12
237.221	190.12
237.455	253.12
237.689	193.12
237.922	137.12
238.156	162.12
238.39	124.12
238.624	132.12
238.858	125.12
239.091	122.12
239.325	134.12
239.559	113.12
239.793	115.12
240.027	128.12
240.26	138.12
240.494	161.12
240.728	161.12
240.961	140.12
241.195	152.12
241.429	160.12
241.662	126.12
241.896	120.12
242.13	126.12
242.363	128.12
242.597	131.12
242.83	135.12
243.064	132.12
243.298	131.12
243.531	133.12
243.765	144.12
243.998	125.12
244.232	139.12
244.465	129.12
244.699	144.12
244.932	146.12
245.166	138.12
245.399	129.12
245.633	130.12
245.866	132.12
246.099	149.12
246.333	130.12
246.566	133.12
246.8	151.12
247.033	142.12
247.266	151.12
247.5	161.12
247.733	171.12
247.966	168.12
248.2	163.12
248.433	156.12
248.666	172.12
248.899	173.12
249.133	191.12
249.366	216.12
249.599	187.12
249.832	167.12
250.066	175.12
250.299	166.12
250.532	174.12
250.765	182.12
250.998	207.12
251.231	222.12
251.465	207.12
251.698	190.12
251.931	186.12
252.164	182.12
252.397	188.12
252.63	201.12
252.863	200.12
253.096	194.12
253.329	223.12
253.562	216.12
253.795	213.12
254.028	220.12
254.261	213.12
254.494	226.12
254.727	274.12
254.96	269.12
255.193	259.12
255.426	246.12
255.659	221.12
255.892	219.12
256.124	191.12
256.357	208.12
256.59	191.12
256.823	175.12
257.056	206.12
257.289	189.12
257.521	190.12
257.754	190.12
257.987	185.12
258.22	197.12
258.452	184.12
258.685	187.12
258.918	196.12
259.151	187.12
259.383	217.12
259.616	201.12
259.849	201.12
260.081	215.12
260.314	207.12
260.547	245.12
260.779	248.12
261.012	210.12
261.244	222.12
261.477	218.12
261.71	210.12
261.942	213.12
262.175	240.12
262.407	223.12
262.64	211.12
262.872	189.12
263.105	198.12
263.337	195.12
263.57	190.12
263.802	196.12
264.035	180.12
264.267	199.12
264.499	201.12
264.732	174.12
264.964	179.12
265.197	197.12
265.429	176.12
265.661	186.12
265.894	210.12
266.126	191.12
266.358	185.12
266.591	176.12
266.823	206.12
267.055	198.12
267.287	197.12
267.52	204.12
267.752	213.12
267.984	206.12
268.216	202.12
268.448	219.12
268.681	213.12
268.913	220.12
269.145	237.12
269.377	244.12
269.609	241.12
269.841	261.12
270.073	263.12
270.306	260.12
270.538	268.12
270.77	294.12
271.002	277.12
271.234	262.12
271.466	264.12
271.698	269.12
271.93	303.12
272.162	287.12
272.394	284.12
272.626	292.12
272.858	261.12
273.09	278.12
273.322	257.12
273.553	237.12
273.785	262.12
274.017	224.12
274.249	235.12
274.481	242.12
274.713	227.12
274.945	232.12
275.176	249.12
275.408	228.12
275.64	207.12
275.872	242.12
276.104	231.12
276.335	228.12
276.567	234.12
276.799	257.12
277.031	259.12
277.262	283.12
277.494	283.12
277.726	286.12
277.957	268.12
278.189	238.12
278.421	235.12
278.652	247.12
278.884	231.12
279.115	228.12
279.347	231.12
279.579	235.12
279.81	235.12
280.042	226.12
280.273	213.12
280.505	216.12
280.736	206.12
280.968	234.12
281.199	219.12
281.431	221.12
281.662	204.12
281.894	232.12
282.125	210.12
282.356	242.12
282.588	283.12
282.819	278.12
283.051	232.12
283.282	237.12
283.513	217.12
283.745	229.12
283.976	204.12
284.207	247.12
284.439	236.12
284.67	241.12
284.901	229.12
285.132	225.12
285.364	211.12
285.595	228.12
285.826	213.12
286.057	221.12
286.288	225.12
286.52	221.12
286.751	224.12
286.982	229.12
287.213	230.12
287.444	231.12
287.675	225.12
287.906	223.12
288.138	236.12
288.369	245.12
288.6	244.12
288.831	237.12
289.062	249.12
289.293	243.12
289.524	216.12
289.755	233.12
289.986	215.12
290.217	229.12
290.448	230.12
290.679	229.12
290.91	211.12
291.141	229.12
291.371	244.12
291.602	252.12
291.833	227.12
292.064	221.12
292.295	231.12
292.526	216.12
292.757	233.12
292.987	221.12
293.218	234.12
293.449	227.12
293.68	217.12
293.91	231.12
294.141	226.12
294.372	236.12
294.603	226.12
294.833	222.12
295.064	221.12
295.295	230.12
295.525	221.12
295.756	243.12
295.987	263.12
296.217	263.12
296.448	301.12
296.679	258.12
296.909	231.12
297.14	247.12
297.37	238.12
297.601	230.12
297.831	238.12
298.062	251.12
298.292	238.12
298.523	257.12
298.753	253.12
298.984	236.12
299.214	227.12
299.445	248.12
299.675	254.12
299.905	256.12
300.136	245.12
300.366	252.12
300.597	242.12
300.827	250.12
301.057	265.12
301.288	275.12
301.518	278.12
301.748	258.12
301.979	249.12
302.209	262.12
302.439	267.12
302.669	255.12
302.9	246.12
303.13	264.12
303.36	263.12
303.59	282.12
303.82	296.12
304.051	276.12
304.281	270.12
304.511	268.12
304.741	266.12
304.971	262.12
305.201	271.12
305.431	253.12
305.661	244.12
305.891	250.12
306.121	288.12
306.352	269.12
306.582	295.12
306.812	259.12
307.042	270.12
307.272	249.12
307.502	249.12
307.731	281.12
307.961	275.12
308.191	270.12
308.421	275.12
308.651	276.12
308.881	286.12
309.111	296.12
309.341	283.12
309.571	305.12
309.8	310.12
310.03	303.12
310.26	302.12
310.49	332.12
310.72	345.12
310.949	365.12
311.179	362.12
311.409	347.12
311.639	339.12
311.868	331.12
312.098	340.12
312.328	347.12
312.557	357.12
312.787	367.12
313.017	377.12
313.246	353.12
313.476	335.12
313.706	341.12
313.935	331.12
314.165	338.12
314.394	368.12
314.624	344.12
314.853	341.12
315.083	339.12
315.312	324.12
315.542	330.12
315.771	313.12
316.001	301.12
316.23	305.12
316.46	322.12
316.689	301.12
316.919	328.12
317.148	331.12
317.377	342.12
317.607	329.12
317.836	301.12
318.065	311.12
318.295	319.12
318.524	313.12
318.753	308.12
318.983	318.12
319.212	300.12
319.441	337.12
319.67	331.12
319.9	328.12
320.129	339.12
320.358	328.12
320.587	311.12
320.816	363.12
321.046	352.12
321.275	348.12
321.504	364.12
321.733	365.12
321.962	349.12
322.191	378.12
322.42	403.12
322.649	413.12
322.878	413.12
323.108	429.12
323.337	483.12
323.566	511.12
323.795	542.12
324.024	602.12
324.253	791.12
324.482	1118.12
324.71	1703.12
324.939	2420.12
325.168	2060.12
325.397	1146.12
325.626	729.12
325.855	578.12
326.084	551.12
326.313	526.12
326.542	494.12
326.77	591.12
326.999	685.12
327.228	969.12
327.457	1528.12
327.686	1826.12
327.914	1277.12
328.143	819.12
328.372	705.12
328.6	614.12
328.829	585.12
329.058	597.12
329.287	614.12
329.515	558.12
329.744	498.12
329.972	479.12
330.201	475.12
330.43	508.12
330.658	596.12
330.887	621.12
331.115	599.12
331.344	511.12
331.572	443.12
331.801	464.12
332.03	451.12
332.258	427.12
332.486	375.12
332.715	383.12
332.943	388.12
333.172	394.12
333.4	383.12
333.629	376.12
333.857	398.12
334.085	419.12
334.314	379.12
334.542	379.12
334.771	361.12
334.999	364.12
335.227	367.12
335.455	354.12
335.684	344.12
335.912	355.12
336.14	358.12
336.369	363.12
336.597	359.12
336.825	386.12
337.053	356.12
337.281	348.12
337.51	356.12
337.738	364.12
337.966	381.12
338.194	366.12
338.422	366.12
338.65	354.12
338.878	349.12
339.106	353.12
339.334	366.12
339.562	338.12
339.79	345.12
340.018	345.12
340.246	366.12
340.474	361.12
340.702	355.12
340.93	350.12
341.158	356.12
341.386	349.12
341.614	377.12
341.842	370.12
342.07	355.12
342.298	351.12
342.526	355.12
342.754	324.12
342.981	328.12
343.209	337.12
343.437	351.12
343.665	327.12
343.893	348.12
344.12	334.12
344.348	351.12
344.576	362.12
344.804	362.12
345.031	377.12
345.259	388.12
345.487	385.12
345.714	365.12
345.942	367.12
346.17	346.12
346.397	351.12
346.625	362.12
346.853	351.12
347.08	349.12
347.308	370.12
347.535	381.12
347.763	386.12
347.99	370.12
348.218	393.12
348.445	388.12
348.673	382.12
348.9	356.12
349.128	355.12
349.355	353.12
349.583	344.12
349.81	341.12
350.037	339.12
350.265	339.12
350.492	338.12
350.72	327.12
350.947	363.12
351.174	363.12
351.402	366.12
351.629	380.12
351.856	382.12
352.083	395.12
352.311	382.12
352.538	379.12
352.765	381.12
352.992	378.12
353.22	367.12
353.447	375.12
353.674	364.12
353.901	345.12
354.128	353.12
354.355	329.12
354.583	331.12
354.81	313.12
355.037	319.12
355.264	320.12
355.491	326.12
355.718	315.12
355.945	313.12
356.172	339.12
356.399	313.12
356.626	314.12
356.853	306.12
357.08	327.12
357.307	306.12
357.534	334.12
357.761	324.12
357.988	313.12
358.215	323.12
358.441	316.12
358.668	327.12
358.895	334.12
359.122	329.12
359.349	345.12
359.576	375.12
359.802	393.12
360.029	433.12
360.256	431.12
360.483	412.12
360.709	375.12
360.936	356.12
361.163	366.12
361.39	388.12
361.616	389.12
361.843	369.12
362.07	367.12
362.296	358.12
362.523	353.12
362.749	360.12
362.976	367.12
363.203	349.12
363.429	349.12
363.656	351.12
363.882	344.12
364.109	342.12
364.335	334.12
364.562	359.12
364.788	342.12
365.015	341.12
365.241	326.12
365.468	335.12
365.694	348.12
365.92	353.12
366.147	348.12
366.373	339.12
366.599	331.12
366.826	326.12
367.052	343.12
367.278	338.12
367.505	320.12
367.731	336.12
367.957	347.12
368.184	331.12
368.41	334.12
368.636	355.12
368.862	375.12
369.089	334.12
369.315	333.12
369.541	328.12
369.767	334.12
369.993	340.12
370.219	339.12
370.445	338.12
370.672	312.12
370.898	322.12
371.124	319.12
371.35	324.12
371.576	308.12
371.802	316.12
372.028	307.12
372.254	308.12
372.48	317.12
372.706	316.12
372.932	314.12
373.158	335.12
373.384	316.12
373.61	327.12
373.835	322.12
374.061	335.12
374.287	331.12
374.513	327.12
374.739	332.12
374.965	337.12
375.191	325.12
375.416	328.12
375.642	322.12
375.868	323.12
376.094	300.12
376.319	346.12
376.545	318.12
376.771	325.12
376.997	334.12
377.222	330.12
377.448	313.12
377.674	325.12
377.899	320.12
378.125	303.12
378.35	319.12
378.576	317.12
378.802	308.12
379.027	332.12
379.253	317.12
379.478	311.12
379.704	335.12
379.929	324.12
380.155	311.12
380.38	327.12
380.606	324.12
380.831	329.12
381.057	327.12
381.282	318.12
381.507	328.12
381.733	324.12
381.958	327.12
382.184	329.12
382.409	322.12
382.634	335.12
382.86	325.12
383.085	329.12
383.31	334.12
383.535	335.12
383.761	329.12
383.986	333.12
384.211	340.12
384.436	333.12
384.662	335.12
384.887	330.12
385.112	317.12
385.337	324.12
385.562	339.12
385.787	345.12
386.013	351.12
386.238	355.12
386.463	346.12
386.688	330.12
386.913	342.12
387.138	332.12
387.363	347.12
387.588	366.12
387.813	342.12
388.038	336.12
388.263	347.12
388.488	344.12
388.713	337.12
388.938	334.12
389.163	341.12
389.387	338.12
389.612	335.12
389.837	334.12
390.062	341.12
390.287	333.12
390.512	329.12
390.736	351.12
390.961	356.12
391.186	326.12
391.411	345.12
391.636	317.12
391.86	341.12
392.085	345.12
392.31	356.12
392.534	337.12
392.759	345.12
392.984	364.12
393.208	381.12
393.433	357.12
393.658	369.12
393.882	337.12
394.107	341.12
394.331	361.12
394.556	350.12
394.78	338.12
395.005	352.12
395.229	362.12
395.454	356.12
395.678	369.12
395.903	357.12
396.127	383.12
396.352	391.12
396.576	351.12
396.801	351.12
397.025	385.12
397.249	358.12
397.474	355.12
397.698	375.12
397.922	393.12
398.147	401.12
398.371	407.12
398.595	376.12
398.82	356.12
399.044	391.12
399.268	393.12
399.492	417.12
399.717	425.12
399.941	447.12
400.165	463.12
400.389	492.12
400.613	452.12
400.837	422.12
401.062	413.12
401.286	401.12
401.51	403.12
401.734	410.12
401.958	406.12
402.182	418.12
402.406	416.12
402.63	396.12
402.854	411.12
403.078	412.12
403.302	390.12
403.526	400.12
403.75	408.12
403.974	401.12
404.198	409.12
404.422	423.12
404.645	409.12
404.869	415.12
405.093	423.12
405.317	444.12
405.541	478.12
405.765	451.12
405.988	449.12
406.212	455.12
406.436	482.12
406.66	507.12
406.883	474.12
407.107	499.12
407.331	524.12
407.555	574.12
407.778	575.12
408.002	519.12
408.226	499.12
408.449	491.12
408.673	479.12
408.896	503.12
409.12	528.12
409.344	489.12
409.567	445.12
409.791	415.12
410.014	427.12
410.238	420.12
410.461	418.12
410.685	430.12
410.908	440.12
411.132	481.12
411.355	509.12
411.578	468.12
411.802	416.12
412.025	418.12
412.249	415.12
412.472	420.12
412.695	420.12
412.919	408.12
413.142	393.12
413.365	400.12
413.589	408.12
413.812	392.12
414.035	395.12
414.258	381.12
414.482	395.12
414.705	387.12
414.928	388.12
415.151	385.12
415.374	376.12
415.597	393.12
415.821	390.12
416.044	389.12
416.267	392.12
416.49	409.12
416.713	395.12
416.936	390.12
417.159	398.12
417.382	403.12
417.605	405.12
417.828	396.12
418.051	404.12
418.274	423.12
418.497	405.12
418.72	419.12
418.943	398.12
419.166	413.12
419.389	434.12
419.611	427.12
419.834	411.12
420.057	421.12
420.28	418.12
420.503	424.12
420.726	422.12
420.948	433.12
421.171	467.12
421.394	511.12
421.617	471.12
421.839	441.12
422.062	442.12
422.285	444.12
422.507	510.12
422.73	596.12
422.953	583.12
423.175	478.12
423.398	463.12
423.621	481.12
423.843	463.12
424.066	481.12
424.288	495.12
424.511	499.12
424.733	555.12
424.956	617.12
425.178	607.12
425.401	600.12
425.623	625.12
425.846	532.12
426.068	490.12
426.291	496.12
426.513	493.12
426.735	517.12
426.958	555.12
427.18	618.12
427.402	729.12
427.625	845.12
427.847	776.12
428.069	622.12
428.292	567.12
428.514	507.12
428.736	489.12
428.958	478.12
429.181	466.12
429.403	471.12
429.625	445.12
429.847	500.12
430.069	563.12
430.292	585.12
430.514	493.12
430.736	454.12
430.958	440.12
431.18	433.12
431.402	452.12
431.624	410.12
431.846	407.12
432.068	404.12
432.29	410.12
432.512	416.12
432.734	429.12
432.956	425.12
433.178	440.12
433.4	437.12
433.622	442.12
433.844	419.12
434.066	407.12
434.287	414.12
434.509	430.12
434.731	417.12
434.953	433.12
435.175	448.12
435.397	456.12
435.618	503.12
435.84	549.12
436.062	611.12
436.284	681.12
436.505	590.12
436.727	533.12
436.949	482.12
437.17	463.12
437.392	486.12
437.614	486.12
437.835	527.12
438.057	638.12
438.278	743.12
438.5	714.12
438.721	778.12
438.943	708.12
439.165	596.12
439.386	542.12
439.608	527.12
439.829	546.12
440.05	572.12
440.272	605.12
440.493	575.12
440.715	515.12
440.936	491.12
441.158	473.12
441.379	482.12
441.6	473.12
441.822	515.12
442.043	558.12
442.264	626.12
442.486	646.12
442.707	562.12
442.928	526.12
443.149	537.12
443.371	529.12
443.592	603.12
443.813	679.12
444.034	713.12
444.255	609.12
444.476	532.12
444.698	498.12
444.919	497.12
445.14	587.12
445.361	554.12
445.582	555.12
445.803	602.12
446.024	702.12
446.245	730.12
446.466	646.12
446.687	557.12
446.908	499.12
447.129	493.12
447.35	464.12
447.571	474.12
447.792	466.12
448.013	477.12
448.234	511.12
448.455	564.12
448.675	658.12
448.896	729.12
449.117	648.12
449.338	610.12
449.559	703.12
449.779	783.12
450	638.12
450.221	521.12
450.442	494.12
450.662	475.12
450.883	504.12
451.104	521.12
451.324	505.12
451.545	473.12
451.766	433.12
451.986	427.12
452.207	431.12
452.428	413.12
452.648	412.12
452.869	408.12
453.089	435.12
453.31	438.12
453.53	421.12
453.751	412.12
453.971	437.12
454.192	471.12
454.412	468.12
454.633	450.12
454.853	411.12
455.073	398.12
455.294	452.12
455.514	514.12
455.734	506.12
455.955	426.12
456.175	399.12
456.395	389.12
456.616	405.12
456.836	362.12
457.056	387.12
457.276	375.12
457.497	381.12
457.717	379.12
457.937	386.12
458.157	411.12
458.377	400.12
458.598	431.12
458.818	551.12
459.038	634.12
459.258	608.12
459.478	519.12
459.698	452.12
459.918	437.12
460.138	434.12
460.358	419.12
460.578	419.12
460.798	413.12
461.018	429.12
461.238	406.12
461.458	406.12
461.678	410.12
461.898	414.12
462.118	411.12
462.338	417.12
462.558	425.12
462.777	413.12
462.997	414.12
463.217	418.12
463.437	414.12
463.657	429.12
463.876	426.12
464.096	437.12
464.316	410.12
464.536	471.12
464.755	455.12
464.975	462.12
465.195	524.12
465.414	646.12
465.634	558.12
465.854	473.12
466.073	457.12
466.293	446.12
466.512	427.12
466.732	407.12
466.951	422.12
467.171	414.12
467.391	433.12
467.61	441.12
467.829	450.12
468.049	429.12
468.268	400.12
468.488	412.12
468.707	389.12
468.927	418.12
469.146	388.12
469.365	426.12
469.585	400.12
469.804	404.12
470.023	442.12
470.243	427.12
470.462	433.12
470.681	463.12
470.901	457.12
471.12	418.12
471.339	407.12
471.558	425.12
471.777	409.12
471.997	407.12
472.216	417.12
472.435	425.12
472.654	405.12
472.873	399.12
473.092	419.12
473.311	425.12
473.53	416.12
473.749	449.12
473.968	486.12
474.187	622.12
474.406	622.12
474.625	506.12
474.844	434.12
475.063	424.12
475.282	446.12
475.501	431.12
475.72	440.12
475.939	423.12
476.158	451.12
476.377	449.12
476.596	441.12
476.814	446.12
477.033	465.12
477.252	462.12
477.471	435.12
477.69	470.12
477.908	466.12
478.127	451.12
478.346	462.12
478.564	466.12
478.783	443.12
479.002	474.12
479.22	484.12
479.439	493.12
479.658	524.12
479.876	512.12
480.095	525.12
480.313	536.12
480.532	509.12
480.751	509.12
480.969	489.12
481.188	535.12
481.406	517.12
481.624	497.12
481.843	500.12
482.061	506.12
482.28	490.12
482.498	517.12
482.717	489.12
482.935	515.12
483.153	516.12
483.372	501.12
483.59	495.12
483.808	514.12
484.027	483.12
484.245	483.12
484.463	501.12
484.681	539.12
484.9	510.12
485.118	519.12
485.336	492.12
485.554	513.12
485.772	500.12
485.99	512.12
486.209	518.12
486.427	542.12
486.645	541.12
486.863	573.12
487.081	555.12
487.299	549.12
487.517	534.12
487.735	545.12
487.953	535.12
488.171	566.12
488.389	542.12
488.607	553.12
488.825	567.12
489.043	551.12
489.261	554.12
489.479	561.12
489.696	568.12
489.914	558.12
490.132	554.12
490.35	579.12
490.568	590.12
490.786	578.12
491.003	595.12
491.221	597.12
491.439	618.12
491.657	604.12
491.874	631.12
492.092	625.12
492.31	632.12
492.527	638.12
492.745	635.12
492.963	638.12
493.18	629.12
493.398	651.12
493.615	661.12
493.833	625.12
494.05	621.12
494.268	637.12
494.485	648.12
494.703	635.12
494.92	656.12
495.138	647.12
495.355	635.12
495.573	642.12
495.79	653.12
496.008	649.12
496.225	633.12
496.442	647.12
496.66	630.12
496.877	678.12
497.094	669.12
497.312	673.12
497.529	660.12
497.746	686.12
497.963	668.12
498.181	682.12
498.398	705.12
498.615	711.12
498.832	713.12
499.049	709.12
499.267	749.12
499.484	744.12
499.701	744.12
499.918	712.12
500.135	766.12
500.352	775.12
500.569	770.12
500.786	756.12
501.003	789.12
501.22	770.12
501.437	786.12
501.654	758.12
501.871	787.12
