Data from 1987.PennyLincolnUp.Lamp.En5.5.200Scan.071819.P2_HRD10591_17-16-04-972.txt Node
Date: Thu Jul 18 17:16:04 EDT 2019
User: cochatt
Spectrometer: HR+D1059
Trigger mode: 1
Integration Time (sec): 1.000000E-1
Scans to average: 1
Electric dark correction enabled: true
Nonlinearity correction enabled: false
Boxcar width: 0
XAxis mode: Wavelengths
Number of Pixels in Spectrum: 2048
>>>>>Begin Spectral Data<<<<<
223.165	-0.38
223.4	-0.38
223.635	-0.38
223.869	-21.38
224.104	-22.38
224.338	-20.38
224.573	-7.38
224.808	-7.38
225.042	-11.38
225.277	1.62
225.511	-7.38
225.746	-6.38
225.98	11.62
226.215	17.62
226.449	8.62
226.683	18.62
226.918	27.62
227.152	18.62
227.387	37.62
227.621	37.62
227.856	60.62
228.09	55.62
228.324	47.62
228.559	39.62
228.793	52.62
229.027	99.62
229.262	108.62
229.496	132.62
229.73	146.62
229.964	181.62
230.199	151.62
230.433	125.62
230.667	113.62
230.901	119.62
231.136	115.62
231.37	108.62
231.604	109.62
231.838	112.62
232.072	113.62
232.306	122.62
232.541	107.62
232.775	114.62
233.009	121.62
233.243	121.62
233.477	131.62
233.711	112.62
233.945	121.62
234.179	116.62
234.413	105.62
234.647	111.62
234.881	117.62
235.115	102.62
235.349	136.62
235.583	112.62
235.817	120.62
236.051	127.62
236.285	139.62
236.519	125.62
236.753	133.62
236.987	160.62
237.221	201.62
237.455	257.62
237.689	196.62
237.922	157.62
238.156	144.62
238.39	136.62
238.624	121.62
238.858	123.62
239.091	118.62
239.325	122.62
239.559	128.62
239.793	141.62
240.027	129.62
240.26	140.62
240.494	179.62
240.728	146.62
240.961	145.62
241.195	145.62
241.429	146.62
241.662	137.62
241.896	123.62
242.13	125.62
242.363	129.62
242.597	141.62
242.83	131.62
243.064	134.62
243.298	136.62
243.531	137.62
243.765	136.62
243.998	141.62
244.232	129.62
244.465	119.62
244.699	143.62
244.932	138.62
245.166	139.62
245.399	138.62
245.633	130.62
245.866	128.62
246.099	140.62
246.333	133.62
246.566	149.62
246.8	157.62
247.033	146.62
247.266	149.62
247.5	149.62
247.733	166.62
247.966	172.62
248.2	178.62
248.433	158.62
248.666	170.62
248.899	191.62
249.133	208.62
249.366	215.62
249.599	215.62
249.832	184.62
250.066	191.62
250.299	191.62
250.532	183.62
250.765	194.62
250.998	206.62
251.231	228.62
251.465	220.62
251.698	212.62
251.931	213.62
252.164	199.62
252.397	200.62
252.63	196.62
252.863	205.62
253.096	213.62
253.329	228.62
253.562	231.62
253.795	218.62
254.028	209.62
254.261	216.62
254.494	228.62
254.727	261.62
254.96	285.62
255.193	279.62
255.426	259.62
255.659	227.62
255.892	237.62
256.124	218.62
256.357	201.62
256.59	185.62
256.823	206.62
257.056	204.62
257.289	214.62
257.521	208.62
257.754	182.62
257.987	213.62
258.22	197.62
258.452	188.62
258.685	200.62
258.918	209.62
259.151	191.62
259.383	197.62
259.616	220.62
259.849	219.62
260.081	238.62
260.314	229.62
260.547	239.62
260.779	249.62
261.012	234.62
261.244	220.62
261.477	226.62
261.71	220.62
261.942	220.62
262.175	245.62
262.407	237.62
262.64	217.62
262.872	199.62
263.105	206.62
263.337	197.62
263.57	188.62
263.802	195.62
264.035	183.62
264.267	187.62
264.499	179.62
264.732	189.62
264.964	191.62
265.197	184.62
265.429	205.62
265.661	200.62
265.894	185.62
266.126	202.62
266.358	196.62
266.591	194.62
266.823	203.62
267.055	203.62
267.287	208.62
267.52	207.62
267.752	194.62
267.984	195.62
268.216	217.62
268.448	210.62
268.681	228.62
268.913	216.62
269.145	235.62
269.377	240.62
269.609	236.62
269.841	253.62
270.073	245.62
270.306	289.62
270.538	310.62
270.77	300.62
271.002	291.62
271.234	273.62
271.466	279.62
271.698	283.62
271.93	297.62
272.162	319.62
272.394	319.62
272.626	302.62
272.858	282.62
273.09	278.62
273.322	259.62
273.553	255.62
273.785	230.62
274.017	243.62
274.249	231.62
274.481	236.62
274.713	235.62
274.945	227.62
275.176	241.62
275.408	241.62
275.64	250.62
275.872	247.62
276.104	241.62
276.335	231.62
276.567	258.62
276.799	270.62
277.031	289.62
277.262	310.62
277.494	297.62
277.726	267.62
277.957	248.62
278.189	239.62
278.421	235.62
278.652	216.62
278.884	229.62
279.115	218.62
279.347	217.62
279.579	215.62
279.81	241.62
280.042	220.62
280.273	221.62
280.505	212.62
280.736	228.62
280.968	218.62
281.199	223.62
281.431	241.62
281.662	244.62
281.894	208.62
282.125	228.62
282.356	239.62
282.588	289.62
282.819	292.62
283.051	241.62
283.282	220.62
283.513	234.62
283.745	219.62
283.976	230.62
284.207	239.62
284.439	241.62
284.67	235.62
284.901	246.62
285.132	229.62
285.364	231.62
285.595	218.62
285.826	244.62
286.057	223.62
286.288	216.62
286.52	223.62
286.751	225.62
286.982	226.62
287.213	228.62
287.444	229.62
287.675	213.62
287.906	240.62
288.138	242.62
288.369	252.62
288.6	267.62
288.831	252.62
289.062	247.62
289.293	223.62
289.524	237.62
289.755	242.62
289.986	224.62
290.217	241.62
290.448	237.62
290.679	232.62
290.91	232.62
291.141	228.62
291.371	227.62
291.602	225.62
291.833	234.62
292.064	243.62
292.295	231.62
292.526	242.62
292.757	231.62
292.987	225.62
293.218	231.62
293.449	227.62
293.68	234.62
293.91	226.62
294.141	247.62
294.372	239.62
294.603	241.62
294.833	241.62
295.064	218.62
295.295	248.62
295.525	227.62
295.756	261.62
295.987	272.62
296.217	293.62
296.448	281.62
296.679	254.62
296.909	243.62
297.14	235.62
297.37	241.62
297.601	235.62
297.831	216.62
298.062	233.62
298.292	258.62
298.523	260.62
298.753	250.62
298.984	233.62
299.214	239.62
299.445	244.62
299.675	260.62
299.905	262.62
300.136	246.62
300.366	244.62
300.597	259.62
300.827	259.62
301.057	266.62
301.288	292.62
301.518	269.62
301.748	266.62
301.979	271.62
302.209	272.62
302.439	259.62
302.669	259.62
302.9	263.62
303.13	260.62
303.36	280.62
303.59	282.62
303.82	271.62
304.051	283.62
304.281	260.62
304.511	267.62
304.741	249.62
304.971	263.62
305.201	254.62
305.431	241.62
305.661	262.62
305.891	259.62
306.121	282.62
306.352	292.62
306.582	281.62
306.812	273.62
307.042	266.62
307.272	267.62
307.502	278.62
307.731	298.62
307.961	292.62
308.191	277.62
308.421	294.62
308.651	271.62
308.881	278.62
309.111	305.62
309.341	309.62
309.571	306.62
309.8	311.62
310.03	342.62
310.26	341.62
310.49	326.62
310.72	337.62
310.949	385.62
311.179	397.62
311.409	355.62
311.639	345.62
311.868	326.62
312.098	339.62
312.328	352.62
312.557	386.62
312.787	407.62
313.017	386.62
313.246	352.62
313.476	344.62
313.706	335.62
313.935	343.62
314.165	357.62
314.394	375.62
314.624	363.62
314.853	362.62
315.083	370.62
315.312	337.62
315.542	324.62
315.771	308.62
316.001	303.62
316.23	318.62
316.46	337.62
316.689	326.62
316.919	349.62
317.148	347.62
317.377	347.62
317.607	351.62
317.836	342.62
318.065	338.62
318.295	325.62
318.524	330.62
318.753	311.62
318.983	311.62
319.212	350.62
319.441	353.62
319.67	341.62
319.9	351.62
320.129	319.62
320.358	336.62
320.587	348.62
320.816	337.62
321.046	349.62
321.275	362.62
321.504	381.62
321.733	371.62
321.962	347.62
322.191	400.62
322.42	423.62
322.649	451.62
322.878	468.62
323.108	481.62
323.337	501.62
323.566	553.62
323.795	577.62
324.024	675.62
324.253	834.62
324.482	1245.62
324.71	1919.62
324.939	2697.62
325.168	2308.62
325.397	1287.62
325.626	834.62
325.855	620.62
326.084	556.62
326.313	540.62
326.542	566.62
326.77	610.62
326.999	740.62
327.228	1056.62
327.457	1660.62
327.686	2018.62
327.914	1394.62
328.143	871.62
328.372	734.62
328.6	674.62
328.829	636.62
329.058	635.62
329.287	683.62
329.515	608.62
329.744	531.62
329.972	504.62
330.201	537.62
330.43	541.62
330.658	592.62
330.887	687.62
331.115	658.62
331.344	539.62
331.572	484.62
331.801	501.62
332.03	490.62
332.258	429.62
332.486	394.62
332.715	389.62
332.943	387.62
333.172	370.62
333.4	375.62
333.629	381.62
333.857	381.62
334.085	406.62
334.314	390.62
334.542	385.62
334.771	385.62
334.999	401.62
335.227	379.62
335.455	358.62
335.684	389.62
335.912	353.62
336.14	367.62
336.369	371.62
336.597	376.62
336.825	401.62
337.053	368.62
337.281	353.62
337.51	362.62
337.738	368.62
337.966	359.62
338.194	390.62
338.422	407.62
338.65	389.62
338.878	358.62
339.106	354.62
339.334	364.62
339.562	351.62
339.79	345.62
340.018	389.62
340.246	381.62
340.474	371.62
340.702	394.62
340.93	367.62
341.158	371.62
341.386	373.62
341.614	392.62
341.842	383.62
342.07	361.62
342.298	351.62
342.526	353.62
342.754	341.62
342.981	336.62
343.209	345.62
343.437	359.62
343.665	347.62
343.893	367.62
344.12	341.62
344.348	355.62
344.576	371.62
344.804	385.62
345.031	369.62
345.259	378.62
345.487	393.62
345.714	380.62
345.942	376.62
346.17	374.62
346.397	380.62
346.625	358.62
346.853	373.62
347.08	360.62
347.308	378.62
347.535	378.62
347.763	384.62
347.99	397.62
348.218	403.62
348.445	379.62
348.673	403.62
348.9	362.62
349.128	332.62
349.355	345.62
349.583	337.62
349.81	345.62
350.037	360.62
350.265	346.62
350.492	335.62
350.72	355.62
350.947	373.62
351.174	373.62
351.402	404.62
351.629	380.62
351.856	389.62
352.083	395.62
352.311	417.62
352.538	417.62
352.765	411.62
352.992	384.62
353.22	402.62
353.447	375.62
353.674	375.62
353.901	353.62
354.128	350.62
354.355	332.62
354.583	336.62
354.81	339.62
355.037	321.62
355.264	314.62
355.491	321.62
355.718	330.62
355.945	314.62
356.172	315.62
356.399	322.62
356.626	314.62
356.853	315.62
357.08	336.62
357.307	334.62
357.534	331.62
357.761	311.62
357.988	315.62
358.215	320.62
358.441	313.62
358.668	351.62
358.895	332.62
359.122	356.62
359.349	349.62
359.576	368.62
359.802	409.62
360.029	468.62
360.256	503.62
360.483	431.62
360.709	375.62
360.936	395.62
361.163	361.62
361.39	378.62
361.616	383.62
361.843	406.62
362.07	379.62
362.296	367.62
362.523	369.62
362.749	378.62
362.976	360.62
363.203	368.62
363.429	358.62
363.656	360.62
363.882	368.62
364.109	361.62
364.335	351.62
364.562	346.62
364.788	362.62
365.015	342.62
365.241	350.62
365.468	347.62
365.694	352.62
365.92	351.62
366.147	342.62
366.373	355.62
366.599	354.62
366.826	330.62
367.052	346.62
367.278	349.62
367.505	327.62
367.731	340.62
367.957	332.62
368.184	339.62
368.41	370.62
368.636	369.62
368.862	380.62
369.089	358.62
369.315	355.62
369.541	346.62
369.767	325.62
369.993	326.62
370.219	343.62
370.445	321.62
370.672	343.62
370.898	320.62
371.124	317.62
371.35	318.62
371.576	341.62
371.802	321.62
372.028	331.62
372.254	304.62
372.48	311.62
372.706	307.62
372.932	333.62
373.158	311.62
373.384	333.62
373.61	333.62
373.835	334.62
374.061	323.62
374.287	338.62
374.513	328.62
374.739	333.62
374.965	327.62
375.191	337.62
375.416	321.62
375.642	323.62
375.868	339.62
376.094	308.62
376.319	308.62
376.545	346.62
376.771	332.62
376.997	326.62
377.222	311.62
377.448	322.62
377.674	317.62
377.899	330.62
378.125	314.62
378.35	313.62
378.576	320.62
378.802	298.62
379.027	320.62
379.253	305.62
379.478	321.62
379.704	322.62
379.929	332.62
380.155	326.62
380.38	342.62
380.606	333.62
380.831	318.62
381.057	328.62
381.282	313.62
381.507	320.62
381.733	314.62
381.958	322.62
382.184	314.62
382.409	313.62
382.634	318.62
382.86	333.62
383.085	340.62
383.31	327.62
383.535	328.62
383.761	323.62
383.986	322.62
384.211	327.62
384.436	329.62
384.662	319.62
384.887	322.62
385.112	324.62
385.337	329.62
385.562	331.62
385.787	333.62
386.013	350.62
386.238	342.62
386.463	348.62
386.688	336.62
386.913	347.62
387.138	362.62
387.363	353.62
387.588	341.62
387.813	327.62
388.038	325.62
388.263	331.62
388.488	348.62
388.713	329.62
388.938	362.62
389.163	351.62
389.387	348.62
389.612	355.62
389.837	329.62
390.062	345.62
390.287	345.62
390.512	341.62
390.736	339.62
390.961	323.62
391.186	329.62
391.411	349.62
391.636	351.62
391.86	322.62
392.085	344.62
392.31	337.62
392.534	339.62
392.759	355.62
392.984	316.62
393.208	319.62
393.433	339.62
393.658	363.62
393.882	337.62
394.107	332.62
394.331	344.62
394.556	341.62
394.78	351.62
395.005	319.62
395.229	348.62
395.454	350.62
395.678	337.62
395.903	363.62
396.127	377.62
396.352	397.62
396.576	378.62
396.801	379.62
397.025	339.62
397.249	349.62
397.474	365.62
397.698	351.62
397.922	367.62
398.147	393.62
398.371	383.62
398.595	382.62
398.82	387.62
399.044	382.62
399.268	381.62
399.492	387.62
399.717	403.62
399.941	447.62
400.165	462.62
400.389	493.62
400.613	434.62
400.837	411.62
401.062	419.62
401.286	396.62
401.51	393.62
401.734	403.62
401.958	415.62
402.182	420.62
402.406	408.62
402.63	434.62
402.854	398.62
403.078	419.62
403.302	388.62
403.526	442.62
403.75	407.62
403.974	407.62
404.198	419.62
404.422	411.62
404.645	398.62
404.869	426.62
405.093	426.62
405.317	460.62
405.541	483.62
405.765	451.62
405.988	456.62
406.212	470.62
406.436	498.62
406.66	519.62
406.883	493.62
407.107	481.62
407.331	524.62
407.555	587.62
407.778	589.62
408.002	538.62
408.226	494.62
408.449	470.62
408.673	460.62
408.896	516.62
409.12	533.62
409.344	503.62
409.567	418.62
409.791	442.62
410.014	426.62
410.238	409.62
410.461	415.62
410.685	414.62
410.908	458.62
411.132	483.62
411.355	525.62
411.578	496.62
411.802	444.62
412.025	420.62
412.249	404.62
412.472	426.62
412.695	433.62
412.919	428.62
413.142	422.62
413.365	379.62
413.589	405.62
413.812	400.62
414.035	404.62
414.258	369.62
414.482	371.62
414.705	385.62
414.928	386.62
415.151	376.62
415.374	390.62
415.597	387.62
415.821	401.62
416.044	394.62
416.267	367.62
416.49	417.62
416.713	392.62
416.936	398.62
417.159	405.62
417.382	396.62
417.605	394.62
417.828	428.62
418.051	441.62
418.274	422.62
418.497	403.62
418.72	406.62
418.943	416.62
419.166	401.62
419.389	422.62
419.611	407.62
419.834	424.62
420.057	427.62
420.28	425.62
420.503	428.62
420.726	427.62
420.948	453.62
421.171	488.62
421.394	500.62
421.617	461.62
421.839	456.62
422.062	416.62
422.285	455.62
422.507	524.62
422.73	574.62
422.953	575.62
423.175	473.62
423.398	485.62
423.621	458.62
423.843	492.62
424.066	484.62
424.288	467.62
424.511	513.62
424.733	551.62
424.956	625.62
425.178	595.62
425.401	613.62
425.623	615.62
425.846	530.62
426.068	515.62
426.291	505.62
426.513	483.62
426.735	505.62
426.958	558.62
427.18	623.62
427.402	744.62
427.625	833.62
427.847	801.62
428.069	647.62
428.292	577.62
428.514	529.62
428.736	505.62
428.958	475.62
429.181	464.62
429.403	460.62
429.625	486.62
429.847	528.62
430.069	588.62
430.292	580.62
430.514	512.62
430.736	476.62
430.958	461.62
431.18	437.62
431.402	440.62
431.624	408.62
431.846	428.62
432.068	434.62
432.29	417.62
432.512	427.62
432.734	440.62
432.956	441.62
433.178	439.62
433.4	453.62
433.622	420.62
433.844	444.62
434.066	439.62
434.287	401.62
434.509	415.62
434.731	429.62
434.953	433.62
435.175	448.62
435.397	480.62
435.618	495.62
435.84	533.62
436.062	623.62
436.284	699.62
436.505	593.62
436.727	519.62
436.949	499.62
437.17	474.62
437.392	495.62
437.614	475.62
437.835	554.62
438.057	649.62
438.278	714.62
438.5	720.62
438.721	745.62
438.943	742.62
439.165	616.62
439.386	572.62
439.608	553.62
439.829	531.62
440.05	557.62
440.272	627.62
440.493	596.62
440.715	523.62
440.936	510.62
441.158	481.62
441.379	484.62
441.6	498.62
441.822	517.62
442.043	563.62
442.264	641.62
442.486	670.62
442.707	594.62
442.928	553.62
443.149	534.62
443.371	560.62
443.592	591.62
443.813	666.62
444.034	741.62
444.255	610.62
444.476	519.62
444.698	500.62
444.919	490.62
445.14	589.62
445.361	585.62
445.582	549.62
445.803	616.62
446.024	758.62
446.245	780.62
446.466	711.62
446.687	605.62
446.908	546.62
447.129	506.62
447.35	504.62
447.571	487.62
447.792	494.62
448.013	481.62
448.234	517.62
448.455	577.62
448.675	663.62
448.896	762.62
449.117	669.62
449.338	654.62
449.559	717.62
449.779	790.62
450	660.62
450.221	577.62
450.442	515.62
450.662	492.62
450.883	519.62
451.104	530.62
451.324	503.62
451.545	479.62
451.766	439.62
451.986	444.62
452.207	438.62
452.428	425.62
452.648	421.62
452.869	431.62
453.089	433.62
453.31	454.62
453.53	477.62
453.751	448.62
453.971	438.62
454.192	470.62
454.412	452.62
454.633	460.62
454.853	424.62
455.073	433.62
455.294	468.62
455.514	562.62
455.734	513.62
455.955	436.62
456.175	427.62
456.395	375.62
456.616	401.62
456.836	384.62
457.056	382.62
457.276	363.62
457.497	399.62
457.717	377.62
457.937	395.62
458.157	402.62
458.377	395.62
458.598	456.62
458.818	539.62
459.038	662.62
459.258	623.62
459.478	519.62
459.698	472.62
459.918	441.62
460.138	429.62
460.358	416.62
460.578	419.62
460.798	403.62
461.018	417.62
461.238	424.62
461.458	414.62
461.678	398.62
461.898	403.62
462.118	405.62
462.338	406.62
462.558	415.62
462.777	417.62
462.997	415.62
463.217	425.62
463.437	426.62
463.657	423.62
463.876	428.62
464.096	420.62
464.316	428.62
464.536	438.62
464.755	459.62
464.975	471.62
465.195	555.62
465.414	695.62
465.634	589.62
465.854	516.62
466.073	479.62
466.293	438.62
466.512	422.62
466.732	415.62
466.951	413.62
467.171	415.62
467.391	412.62
467.61	445.62
467.829	461.62
468.049	440.62
468.268	440.62
468.488	416.62
468.707	407.62
468.927	407.62
469.146	409.62
469.365	422.62
469.585	413.62
469.804	426.62
470.023	443.62
470.243	437.62
470.462	463.62
470.681	462.62
470.901	443.62
471.12	433.62
471.339	441.62
471.558	422.62
471.777	448.62
471.997	431.62
472.216	429.62
472.435	437.62
472.654	427.62
472.873	419.62
473.092	411.62
473.311	424.62
473.53	410.62
473.749	453.62
473.968	498.62
474.187	604.62
474.406	632.62
474.625	504.62
474.844	468.62
475.063	425.62
475.282	424.62
475.501	423.62
475.72	434.62
475.939	439.62
476.158	452.62
476.377	447.62
476.596	447.62
476.814	451.62
477.033	452.62
477.252	465.62
477.471	461.62
477.69	453.62
477.908	470.62
478.127	463.62
478.346	457.62
478.564	463.62
478.783	468.62
479.002	480.62
479.22	495.62
479.439	488.62
479.658	505.62
479.876	548.62
480.095	545.62
480.313	566.62
480.532	517.62
480.751	491.62
480.969	520.62
481.188	537.62
481.406	540.62
481.624	507.62
481.843	511.62
482.061	518.62
482.28	521.62
482.498	502.62
482.717	513.62
482.935	497.62
483.153	508.62
483.372	523.62
483.59	505.62
483.808	495.62
484.027	504.62
484.245	522.62
484.463	505.62
484.681	502.62
484.9	493.62
485.118	524.62
485.336	489.62
485.554	496.62
485.772	489.62
485.99	512.62
486.209	515.62
486.427	515.62
486.645	541.62
486.863	577.62
487.081	581.62
487.299	574.62
487.517	552.62
487.735	541.62
487.953	563.62
488.171	576.62
488.389	542.62
488.607	541.62
488.825	553.62
489.043	540.62
489.261	557.62
489.479	579.62
489.696	567.62
489.914	554.62
490.132	565.62
490.35	580.62
490.568	584.62
490.786	561.62
491.003	598.62
491.221	623.62
491.439	614.62
491.657	634.62
491.874	659.62
492.092	627.62
492.31	632.62
492.527	629.62
492.745	639.62
492.963	643.62
493.18	668.62
493.398	678.62
493.615	633.62
493.833	676.62
494.05	699.62
494.268	650.62
494.485	661.62
494.703	681.62
494.92	656.62
495.138	662.62
495.355	677.62
495.573	670.62
495.79	634.62
496.008	654.62
496.225	683.62
496.442	653.62
496.66	692.62
496.877	673.62
497.094	691.62
497.312	682.62
497.529	659.62
497.746	681.62
497.963	714.62
498.181	702.62
498.398	720.62
498.615	696.62
498.832	727.62
499.049	708.62
499.267	710.62
499.484	736.62
499.701	734.62
499.918	747.62
500.135	767.62
500.352	773.62
500.569	770.62
500.786	757.62
501.003	773.62
501.22	796.62
501.437	782.62
501.654	761.62
501.871	800.62
