Data from 1987.PennyLincolnUp.Lamp.En5.5.200Scan.071819.P2_HRD10591_17-17-06-972.txt Node
Date: Thu Jul 18 17:17:06 EDT 2019
User: cochatt
Spectrometer: HR+D1059
Trigger mode: 1
Integration Time (sec): 1.000000E-1
Scans to average: 1
Electric dark correction enabled: true
Nonlinearity correction enabled: false
Boxcar width: 0
XAxis mode: Wavelengths
Number of Pixels in Spectrum: 2048
>>>>>Begin Spectral Data<<<<<
223.165	-24.44
223.4	-24.44
223.635	-24.44
223.869	-22.44
224.104	-6.44
224.338	-12.44
224.573	-13.44
224.808	-18.44
225.042	1.56
225.277	-4.44
225.511	-8.44
225.746	-4.44
225.98	-0.44
226.215	5.56
226.449	19.56
226.683	24.56
226.918	31.56
227.152	32.56
227.387	44.56
227.621	37.56
227.856	34.56
228.09	40.56
228.324	64.56
228.559	67.56
228.793	83.56
229.027	104.56
229.262	121.56
229.496	136.56
229.73	149.56
229.964	177.56
230.199	151.56
230.433	108.56
230.667	125.56
230.901	131.56
231.136	103.56
231.37	115.56
231.604	115.56
231.838	129.56
232.072	107.56
232.306	104.56
232.541	122.56
232.775	121.56
233.009	119.56
233.243	122.56
233.477	125.56
233.711	118.56
233.945	111.56
234.179	116.56
234.413	123.56
234.647	118.56
234.881	117.56
235.115	121.56
235.349	118.56
235.583	130.56
235.817	139.56
236.051	138.56
236.285	135.56
236.519	132.56
236.753	143.56
236.987	149.56
237.221	195.56
237.455	272.56
237.689	210.56
237.922	154.56
238.156	134.56
238.39	140.56
238.624	125.56
238.858	123.56
239.091	138.56
239.325	130.56
239.559	130.56
239.793	136.56
240.027	129.56
240.26	147.56
240.494	179.56
240.728	157.56
240.961	155.56
241.195	150.56
241.429	155.56
241.662	144.56
241.896	129.56
242.13	131.56
242.363	143.56
242.597	134.56
242.83	133.56
243.064	134.56
243.298	118.56
243.531	134.56
243.765	130.56
243.998	144.56
244.232	144.56
244.465	151.56
244.699	142.56
244.932	141.56
245.166	130.56
245.399	157.56
245.633	149.56
245.866	130.56
246.099	129.56
246.333	138.56
246.566	155.56
246.8	138.56
247.033	142.56
247.266	149.56
247.5	127.56
247.733	173.56
247.966	169.56
248.2	169.56
248.433	158.56
248.666	179.56
248.899	185.56
249.133	200.56
249.366	221.56
249.599	195.56
249.832	179.56
250.066	188.56
250.299	188.56
250.532	190.56
250.765	189.56
250.998	217.56
251.231	223.56
251.465	220.56
251.698	207.56
251.931	208.56
252.164	212.56
252.397	201.56
252.63	213.56
252.863	202.56
253.096	212.56
253.329	236.56
253.562	226.56
253.795	225.56
254.028	235.56
254.261	212.56
254.494	215.56
254.727	265.56
254.96	300.56
255.193	277.56
255.426	253.56
255.659	233.56
255.892	230.56
256.124	246.56
256.357	209.56
256.59	212.56
256.823	201.56
257.056	213.56
257.289	192.56
257.521	203.56
257.754	202.56
257.987	211.56
258.22	198.56
258.452	211.56
258.685	211.56
258.918	200.56
259.151	200.56
259.383	212.56
259.616	219.56
259.849	213.56
260.081	234.56
260.314	247.56
260.547	261.56
260.779	248.56
261.012	242.56
261.244	231.56
261.477	215.56
261.71	212.56
261.942	236.56
262.175	256.56
262.407	256.56
262.64	229.56
262.872	206.56
263.105	198.56
263.337	204.56
263.57	202.56
263.802	182.56
264.035	202.56
264.267	200.56
264.499	199.56
264.732	214.56
264.964	195.56
265.197	205.56
265.429	193.56
265.661	196.56
265.894	203.56
266.126	201.56
266.358	214.56
266.591	193.56
266.823	211.56
267.055	222.56
267.287	223.56
267.52	205.56
267.752	204.56
267.984	215.56
268.216	205.56
268.448	221.56
268.681	202.56
268.913	223.56
269.145	251.56
269.377	278.56
269.609	259.56
269.841	265.56
270.073	261.56
270.306	287.56
270.538	323.56
270.77	325.56
271.002	320.56
271.234	281.56
271.466	292.56
271.698	302.56
271.93	333.56
272.162	333.56
272.394	330.56
272.626	298.56
272.858	285.56
273.09	270.56
273.322	269.56
273.553	258.56
273.785	261.56
274.017	246.56
274.249	273.56
274.481	243.56
274.713	234.56
274.945	247.56
275.176	238.56
275.408	245.56
275.64	235.56
275.872	234.56
276.104	250.56
276.335	238.56
276.567	262.56
276.799	275.56
277.031	300.56
277.262	295.56
277.494	297.56
277.726	293.56
277.957	274.56
278.189	285.56
278.421	246.56
278.652	255.56
278.884	250.56
279.115	241.56
279.347	238.56
279.579	233.56
279.81	241.56
280.042	234.56
280.273	235.56
280.505	236.56
280.736	233.56
280.968	217.56
281.199	225.56
281.431	222.56
281.662	248.56
281.894	243.56
282.125	245.56
282.356	262.56
282.588	290.56
282.819	293.56
283.051	257.56
283.282	241.56
283.513	236.56
283.745	228.56
283.976	251.56
284.207	227.56
284.439	262.56
284.67	238.56
284.901	236.56
285.132	248.56
285.364	236.56
285.595	242.56
285.826	235.56
286.057	231.56
286.288	218.56
286.52	238.56
286.751	234.56
286.982	238.56
287.213	222.56
287.444	249.56
287.675	241.56
287.906	243.56
288.138	250.56
288.369	247.56
288.6	267.56
288.831	231.56
289.062	243.56
289.293	256.56
289.524	253.56
289.755	237.56
289.986	239.56
290.217	239.56
290.448	234.56
290.679	243.56
290.91	260.56
291.141	244.56
291.371	236.56
291.602	240.56
291.833	238.56
292.064	248.56
292.295	234.56
292.526	244.56
292.757	229.56
292.987	238.56
293.218	235.56
293.449	252.56
293.68	241.56
293.91	257.56
294.141	220.56
294.372	230.56
294.603	243.56
294.833	252.56
295.064	248.56
295.295	249.56
295.525	246.56
295.756	256.56
295.987	284.56
296.217	291.56
296.448	318.56
296.679	249.56
296.909	244.56
297.14	247.56
297.37	247.56
297.601	254.56
297.831	273.56
298.062	246.56
298.292	254.56
298.523	263.56
298.753	249.56
298.984	248.56
299.214	249.56
299.445	248.56
299.675	257.56
299.905	283.56
300.136	271.56
300.366	267.56
300.597	257.56
300.827	271.56
301.057	287.56
301.288	286.56
301.518	293.56
301.748	273.56
301.979	244.56
302.209	281.56
302.439	272.56
302.669	276.56
302.9	269.56
303.13	263.56
303.36	270.56
303.59	281.56
303.82	293.56
304.051	310.56
304.281	274.56
304.511	281.56
304.741	267.56
304.971	270.56
305.201	246.56
305.431	265.56
305.661	285.56
305.891	284.56
306.121	282.56
306.352	301.56
306.582	301.56
306.812	294.56
307.042	275.56
307.272	270.56
307.502	295.56
307.731	264.56
307.961	293.56
308.191	296.56
308.421	283.56
308.651	295.56
308.881	292.56
309.111	300.56
309.341	306.56
309.571	327.56
309.8	347.56
310.03	358.56
310.26	365.56
310.49	353.56
310.72	389.56
310.949	406.56
311.179	379.56
311.409	355.56
311.639	330.56
311.868	352.56
312.098	353.56
312.328	378.56
312.557	396.56
312.787	420.56
313.017	403.56
313.246	381.56
313.476	362.56
313.706	344.56
313.935	351.56
314.165	378.56
314.394	376.56
314.624	358.56
314.853	364.56
315.083	361.56
315.312	355.56
315.542	350.56
315.771	347.56
316.001	338.56
316.23	333.56
316.46	311.56
316.689	312.56
316.919	346.56
317.148	373.56
317.377	375.56
317.607	348.56
317.836	341.56
318.065	341.56
318.295	340.56
318.524	326.56
318.753	330.56
318.983	346.56
319.212	348.56
319.441	335.56
319.67	364.56
319.9	353.56
320.129	333.56
320.358	343.56
320.587	335.56
320.816	369.56
321.046	379.56
321.275	382.56
321.504	372.56
321.733	389.56
321.962	411.56
322.191	427.56
322.42	462.56
322.649	466.56
322.878	484.56
323.108	506.56
323.337	523.56
323.566	548.56
323.795	612.56
324.024	708.56
324.253	895.56
324.482	1311.56
324.71	2065.56
324.939	2807.56
325.168	2478.56
325.397	1336.56
325.626	881.56
325.855	681.56
326.084	606.56
326.313	569.56
326.542	574.56
326.77	653.56
326.999	773.56
327.228	1153.56
327.457	1798.56
327.686	2159.56
327.914	1457.56
328.143	931.56
328.372	758.56
328.6	715.56
328.829	679.56
329.058	684.56
329.287	709.56
329.515	623.56
329.744	569.56
329.972	525.56
330.201	537.56
330.43	579.56
330.658	637.56
330.887	715.56
331.115	693.56
331.344	572.56
331.572	507.56
331.801	508.56
332.03	508.56
332.258	476.56
332.486	438.56
332.715	401.56
332.943	403.56
333.172	411.56
333.4	417.56
333.629	403.56
333.857	418.56
334.085	399.56
334.314	424.56
334.542	411.56
334.771	423.56
334.999	418.56
335.227	419.56
335.455	408.56
335.684	388.56
335.912	383.56
336.14	378.56
336.369	367.56
336.597	411.56
336.825	393.56
337.053	390.56
337.281	378.56
337.51	387.56
337.738	379.56
337.966	389.56
338.194	393.56
338.422	406.56
338.65	376.56
338.878	378.56
339.106	372.56
339.334	365.56
339.562	379.56
339.79	376.56
340.018	363.56
340.246	379.56
340.474	385.56
340.702	388.56
340.93	388.56
341.158	379.56
341.386	383.56
341.614	378.56
341.842	381.56
342.07	374.56
342.298	378.56
342.526	378.56
342.754	369.56
342.981	362.56
343.209	353.56
343.437	340.56
343.665	349.56
343.893	345.56
344.12	353.56
344.348	359.56
344.576	373.56
344.804	410.56
345.031	405.56
345.259	423.56
345.487	423.56
345.714	396.56
345.942	383.56
346.17	365.56
346.397	375.56
346.625	386.56
346.853	376.56
347.08	380.56
347.308	379.56
347.535	387.56
347.763	399.56
347.99	399.56
348.218	402.56
348.445	424.56
348.673	426.56
348.9	385.56
349.128	369.56
349.355	367.56
349.583	356.56
349.81	373.56
350.037	369.56
350.265	351.56
350.492	358.56
350.72	353.56
350.947	392.56
351.174	390.56
351.402	400.56
351.629	397.56
351.856	395.56
352.083	389.56
352.311	406.56
352.538	441.56
352.765	429.56
352.992	411.56
353.22	397.56
353.447	401.56
353.674	371.56
353.901	351.56
354.128	354.56
354.355	337.56
354.583	334.56
354.81	345.56
355.037	349.56
355.264	339.56
355.491	323.56
355.718	334.56
355.945	312.56
356.172	325.56
356.399	353.56
356.626	321.56
356.853	339.56
357.08	336.56
357.307	340.56
357.534	335.56
357.761	345.56
357.988	346.56
358.215	341.56
358.441	334.56
358.668	351.56
358.895	358.56
359.122	351.56
359.349	371.56
359.576	394.56
359.802	430.56
360.029	492.56
360.256	490.56
360.483	488.56
360.709	399.56
360.936	397.56
361.163	397.56
361.39	399.56
361.616	392.56
361.843	387.56
362.07	392.56
362.296	421.56
362.523	382.56
362.749	395.56
362.976	394.56
363.203	378.56
363.429	376.56
363.656	369.56
363.882	361.56
364.109	351.56
364.335	342.56
364.562	355.56
364.788	366.56
365.015	353.56
365.241	362.56
365.468	373.56
365.694	389.56
365.92	367.56
366.147	373.56
366.373	350.56
366.599	357.56
366.826	362.56
367.052	354.56
367.278	363.56
367.505	342.56
367.731	355.56
367.957	334.56
368.184	362.56
368.41	361.56
368.636	375.56
368.862	377.56
369.089	363.56
369.315	348.56
369.541	355.56
369.767	345.56
369.993	342.56
370.219	343.56
370.445	335.56
370.672	342.56
370.898	328.56
371.124	322.56
371.35	334.56
371.576	334.56
371.802	343.56
372.028	342.56
372.254	334.56
372.48	334.56
372.706	340.56
372.932	345.56
373.158	325.56
373.384	335.56
373.61	338.56
373.835	334.56
374.061	313.56
374.287	350.56
374.513	346.56
374.739	324.56
374.965	335.56
375.191	327.56
375.416	336.56
375.642	322.56
375.868	343.56
376.094	334.56
376.319	326.56
376.545	316.56
376.771	325.56
376.997	321.56
377.222	353.56
377.448	347.56
377.674	320.56
377.899	323.56
378.125	313.56
378.35	321.56
378.576	303.56
378.802	318.56
379.027	325.56
379.253	329.56
379.478	325.56
379.704	328.56
379.929	359.56
380.155	329.56
380.38	344.56
380.606	337.56
380.831	336.56
381.057	341.56
381.282	336.56
381.507	320.56
381.733	322.56
381.958	319.56
382.184	341.56
382.409	343.56
382.634	342.56
382.86	342.56
383.085	329.56
383.31	330.56
383.535	356.56
383.761	349.56
383.986	334.56
384.211	331.56
384.436	335.56
384.662	348.56
384.887	354.56
385.112	365.56
385.337	343.56
385.562	345.56
385.787	351.56
386.013	350.56
386.238	378.56
386.463	375.56
386.688	378.56
386.913	373.56
387.138	337.56
387.363	349.56
387.588	359.56
387.813	331.56
388.038	342.56
388.263	359.56
388.488	351.56
388.713	359.56
388.938	355.56
389.163	335.56
389.387	362.56
389.612	350.56
389.837	346.56
390.062	360.56
390.287	335.56
390.512	359.56
390.736	333.56
390.961	352.56
391.186	334.56
391.411	350.56
391.636	334.56
391.86	360.56
392.085	355.56
392.31	337.56
392.534	337.56
392.759	344.56
392.984	350.56
393.208	371.56
393.433	344.56
393.658	353.56
393.882	347.56
394.107	360.56
394.331	353.56
394.556	354.56
394.78	337.56
395.005	377.56
395.229	353.56
395.454	345.56
395.678	363.56
395.903	361.56
396.127	393.56
396.352	392.56
396.576	366.56
396.801	363.56
397.025	366.56
397.249	363.56
397.474	354.56
397.698	380.56
397.922	394.56
398.147	413.56
398.371	403.56
398.595	383.56
398.82	381.56
399.044	396.56
399.268	381.56
399.492	406.56
399.717	417.56
399.941	449.56
400.165	485.56
400.389	504.56
400.613	473.56
400.837	439.56
401.062	406.56
401.286	395.56
401.51	404.56
401.734	400.56
401.958	389.56
402.182	419.56
402.406	426.56
402.63	441.56
402.854	405.56
403.078	447.56
403.302	423.56
403.526	438.56
403.75	421.56
403.974	401.56
404.198	415.56
404.422	428.56
404.645	429.56
404.869	451.56
405.093	451.56
405.317	473.56
405.541	475.56
405.765	473.56
405.988	460.56
406.212	455.56
406.436	533.56
406.66	523.56
406.883	489.56
407.107	509.56
407.331	540.56
407.555	577.56
407.778	589.56
408.002	545.56
408.226	476.56
408.449	471.56
408.673	498.56
408.896	537.56
409.12	562.56
409.344	523.56
409.567	473.56
409.791	439.56
410.014	433.56
410.238	422.56
410.461	409.56
410.685	430.56
410.908	464.56
411.132	478.56
411.355	510.56
411.578	492.56
411.802	433.56
412.025	425.56
412.249	438.56
412.472	433.56
412.695	443.56
412.919	450.56
413.142	405.56
413.365	403.56
413.589	404.56
413.812	422.56
414.035	399.56
414.258	398.56
414.482	388.56
414.705	409.56
414.928	386.56
415.151	393.56
415.374	375.56
415.597	397.56
415.821	384.56
416.044	408.56
416.267	413.56
416.49	389.56
416.713	377.56
416.936	391.56
417.159	398.56
417.382	416.56
417.605	434.56
417.828	434.56
418.051	452.56
418.274	457.56
418.497	429.56
418.72	417.56
418.943	432.56
419.166	411.56
419.389	464.56
419.611	442.56
419.834	436.56
420.057	422.56
420.28	427.56
420.503	435.56
420.726	436.56
420.948	472.56
421.171	498.56
421.394	517.56
421.617	479.56
421.839	446.56
422.062	447.56
422.285	478.56
422.507	532.56
422.73	608.56
422.953	574.56
423.175	524.56
423.398	478.56
423.621	486.56
423.843	494.56
424.066	497.56
424.288	495.56
424.511	499.56
424.733	565.56
424.956	659.56
425.178	651.56
425.401	649.56
425.623	656.56
425.846	561.56
426.068	531.56
426.291	542.56
426.513	517.56
426.735	526.56
426.958	573.56
427.18	635.56
427.402	791.56
427.625	889.56
427.847	825.56
428.069	685.56
428.292	586.56
428.514	565.56
428.736	508.56
428.958	521.56
429.181	493.56
429.403	460.56
429.625	501.56
429.847	546.56
430.069	581.56
430.292	587.56
430.514	504.56
430.736	477.56
430.958	476.56
431.18	469.56
431.402	420.56
431.624	421.56
431.846	419.56
432.068	424.56
432.29	424.56
432.512	416.56
432.734	435.56
432.956	435.56
433.178	475.56
433.4	462.56
433.622	445.56
433.844	426.56
434.066	419.56
434.287	436.56
434.509	447.56
434.731	431.56
434.953	468.56
435.175	478.56
435.397	507.56
435.618	502.56
435.84	574.56
436.062	655.56
436.284	722.56
436.505	605.56
436.727	559.56
436.949	502.56
437.17	510.56
437.392	474.56
437.614	497.56
437.835	552.56
438.057	678.56
438.278	776.56
438.5	734.56
438.721	801.56
438.943	732.56
439.165	637.56
439.386	583.56
439.608	568.56
439.829	569.56
440.05	595.56
440.272	639.56
440.493	617.56
440.715	537.56
440.936	509.56
441.158	497.56
441.379	490.56
441.6	512.56
441.822	526.56
442.043	568.56
442.264	654.56
442.486	678.56
442.707	606.56
442.928	550.56
443.149	574.56
443.371	573.56
443.592	634.56
443.813	718.56
444.034	765.56
444.255	654.56
444.476	563.56
444.698	530.56
444.919	512.56
445.14	605.56
445.361	556.56
445.582	558.56
445.803	648.56
446.024	735.56
446.245	769.56
446.466	705.56
446.687	601.56
446.908	571.56
447.129	523.56
447.35	494.56
447.571	504.56
447.792	514.56
448.013	507.56
448.234	525.56
448.455	587.56
448.675	684.56
448.896	767.56
449.117	695.56
449.338	653.56
449.559	726.56
449.779	785.56
450	667.56
450.221	557.56
450.442	513.56
450.662	503.56
450.883	507.56
451.104	548.56
451.324	523.56
451.545	483.56
451.766	466.56
451.986	468.56
452.207	427.56
452.428	424.56
452.648	430.56
452.869	464.56
453.089	475.56
453.31	456.56
453.53	465.56
453.751	461.56
453.971	488.56
454.192	500.56
454.412	473.56
454.633	459.56
454.853	448.56
455.073	430.56
455.294	467.56
455.514	579.56
455.734	527.56
455.955	450.56
456.175	407.56
456.395	393.56
456.616	418.56
456.836	417.56
457.056	385.56
457.276	388.56
457.497	404.56
457.717	387.56
457.937	393.56
458.157	405.56
458.377	422.56
458.598	462.56
458.818	558.56
459.038	648.56
459.258	661.56
459.478	542.56
459.698	497.56
459.918	458.56
460.138	437.56
460.358	443.56
460.578	437.56
460.798	429.56
461.018	430.56
461.238	436.56
461.458	412.56
461.678	409.56
461.898	415.56
462.118	394.56
462.338	417.56
462.558	430.56
462.777	425.56
462.997	430.56
463.217	437.56
463.437	441.56
463.657	427.56
463.876	445.56
464.096	423.56
464.316	435.56
464.536	453.56
464.755	469.56
464.975	487.56
465.195	569.56
465.414	694.56
465.634	614.56
465.854	505.56
466.073	453.56
466.293	454.56
466.512	429.56
466.732	412.56
466.951	439.56
467.171	427.56
467.391	419.56
467.61	447.56
467.829	454.56
468.049	456.56
468.268	409.56
468.488	433.56
468.707	421.56
468.927	415.56
469.146	390.56
469.365	407.56
469.585	410.56
469.804	421.56
470.023	443.56
470.243	479.56
470.462	457.56
470.681	511.56
470.901	477.56
471.12	445.56
471.339	446.56
471.558	435.56
471.777	443.56
471.997	428.56
472.216	429.56
472.435	449.56
472.654	418.56
472.873	413.56
473.092	440.56
473.311	411.56
473.53	437.56
473.749	435.56
473.968	519.56
474.187	636.56
474.406	641.56
474.625	521.56
474.844	473.56
475.063	423.56
475.282	431.56
475.501	445.56
475.72	419.56
475.939	435.56
476.158	429.56
476.377	447.56
476.596	457.56
476.814	480.56
477.033	472.56
477.252	451.56
477.471	454.56
477.69	454.56
477.908	458.56
478.127	458.56
478.346	455.56
478.564	480.56
478.783	469.56
479.002	508.56
479.22	467.56
479.439	508.56
479.658	544.56
479.876	531.56
480.095	529.56
480.313	565.56
480.532	527.56
480.751	520.56
480.969	529.56
481.188	543.56
481.406	547.56
481.624	543.56
481.843	524.56
482.061	533.56
482.28	493.56
482.498	487.56
482.717	497.56
482.935	517.56
483.153	501.56
483.372	513.56
483.59	504.56
483.808	516.56
484.027	518.56
484.245	513.56
484.463	521.56
484.681	541.56
484.9	523.56
485.118	533.56
485.336	531.56
485.554	527.56
485.772	543.56
485.99	553.56
486.209	539.56
486.427	550.56
486.645	568.56
486.863	590.56
487.081	591.56
487.299	583.56
487.517	570.56
487.735	587.56
487.953	566.56
488.171	553.56
488.389	555.56
488.607	568.56
488.825	554.56
489.043	604.56
489.261	569.56
489.479	579.56
489.696	598.56
489.914	584.56
490.132	558.56
490.35	610.56
490.568	608.56
490.786	617.56
491.003	602.56
491.221	614.56
491.439	650.56
491.657	653.56
491.874	648.56
492.092	661.56
492.31	678.56
492.527	667.56
492.745	657.56
492.963	659.56
493.18	674.56
493.398	674.56
493.615	675.56
493.833	671.56
494.05	674.56
494.268	681.56
494.485	683.56
494.703	701.56
494.92	676.56
495.138	697.56
495.355	716.56
495.573	681.56
495.79	682.56
496.008	692.56
496.225	669.56
496.442	661.56
496.66	709.56
496.877	675.56
497.094	700.56
497.312	689.56
497.529	699.56
497.746	713.56
497.963	689.56
498.181	722.56
498.398	730.56
498.615	719.56
498.832	725.56
499.049	739.56
499.267	749.56
499.484	744.56
499.701	714.56
499.918	741.56
500.135	753.56
500.352	801.56
500.569	771.56
500.786	789.56
501.003	822.56
501.22	791.56
501.437	795.56
501.654	802.56
501.871	830.56
