Data from 1987.PennyLincolnUp.Lamp.En5.5.200Scan.071819.P2_HRD10591_17-16-09-970.txt Node
Date: Thu Jul 18 17:16:09 EDT 2019
User: cochatt
Spectrometer: HR+D1059
Trigger mode: 1
Integration Time (sec): 1.000000E-1
Scans to average: 1
Electric dark correction enabled: true
Nonlinearity correction enabled: false
Boxcar width: 0
XAxis mode: Wavelengths
Number of Pixels in Spectrum: 2048
>>>>>Begin Spectral Data<<<<<
223.165	-8.25
223.4	-8.25
223.635	-8.25
223.869	-23.25
224.104	-19.25
224.338	-16.25
224.573	-10.25
224.808	-8.25
225.042	-1.25
225.277	-5.25
225.511	-7.25
225.746	2.75
225.98	-3.25
226.215	12.75
226.449	20.75
226.683	11.75
226.918	29.75
227.152	24.75
227.387	48.75
227.621	29.75
227.856	50.75
228.09	43.75
228.324	46.75
228.559	51.75
228.793	72.75
229.027	120.75
229.262	116.75
229.496	123.75
229.73	156.75
229.964	183.75
230.199	137.75
230.433	127.75
230.667	122.75
230.901	116.75
231.136	115.75
231.37	131.75
231.604	125.75
231.838	133.75
232.072	108.75
232.306	106.75
232.541	133.75
232.775	116.75
233.009	126.75
233.243	106.75
233.477	109.75
233.711	107.75
233.945	120.75
234.179	111.75
234.413	113.75
234.647	119.75
234.881	125.75
235.115	105.75
235.349	90.75
235.583	124.75
235.817	131.75
236.051	126.75
236.285	138.75
236.519	147.75
236.753	134.75
236.987	142.75
237.221	207.75
237.455	280.75
237.689	204.75
237.922	158.75
238.156	152.75
238.39	129.75
238.624	137.75
238.858	134.75
239.091	137.75
239.325	142.75
239.559	123.75
239.793	117.75
240.027	138.75
240.26	141.75
240.494	180.75
240.728	168.75
240.961	160.75
241.195	152.75
241.429	149.75
241.662	128.75
241.896	136.75
242.13	140.75
242.363	141.75
242.597	123.75
242.83	129.75
243.064	136.75
243.298	134.75
243.531	118.75
243.765	140.75
243.998	142.75
244.232	145.75
244.465	141.75
244.699	148.75
244.932	145.75
245.166	140.75
245.399	126.75
245.633	140.75
245.866	141.75
246.099	155.75
246.333	139.75
246.566	145.75
246.8	154.75
247.033	142.75
247.266	161.75
247.5	160.75
247.733	175.75
247.966	162.75
248.2	167.75
248.433	163.75
248.666	167.75
248.899	180.75
249.133	219.75
249.366	252.75
249.599	208.75
249.832	184.75
250.066	183.75
250.299	179.75
250.532	175.75
250.765	201.75
250.998	223.75
251.231	241.75
251.465	229.75
251.698	210.75
251.931	203.75
252.164	195.75
252.397	207.75
252.63	195.75
252.863	200.75
253.096	213.75
253.329	221.75
253.562	225.75
253.795	231.75
254.028	242.75
254.261	235.75
254.494	248.75
254.727	268.75
254.96	312.75
255.193	300.75
255.426	274.75
255.659	233.75
255.892	230.75
256.124	233.75
256.357	215.75
256.59	219.75
256.823	209.75
257.056	214.75
257.289	210.75
257.521	213.75
257.754	207.75
257.987	213.75
258.22	203.75
258.452	212.75
258.685	191.75
258.918	205.75
259.151	206.75
259.383	209.75
259.616	225.75
259.849	217.75
260.081	230.75
260.314	253.75
260.547	259.75
260.779	242.75
261.012	226.75
261.244	229.75
261.477	220.75
261.71	218.75
261.942	242.75
262.175	235.75
262.407	243.75
262.64	216.75
262.872	191.75
263.105	188.75
263.337	205.75
263.57	200.75
263.802	190.75
264.035	210.75
264.267	197.75
264.499	197.75
264.732	214.75
264.964	199.75
265.197	188.75
265.429	195.75
265.661	202.75
265.894	207.75
266.126	195.75
266.358	210.75
266.591	183.75
266.823	205.75
267.055	201.75
267.287	212.75
267.52	206.75
267.752	210.75
267.984	213.75
268.216	215.75
268.448	252.75
268.681	208.75
268.913	239.75
269.145	242.75
269.377	276.75
269.609	263.75
269.841	275.75
270.073	254.75
270.306	294.75
270.538	316.75
270.77	302.75
271.002	310.75
271.234	296.75
271.466	315.75
271.698	313.75
271.93	314.75
272.162	354.75
272.394	321.75
272.626	299.75
272.858	276.75
273.09	291.75
273.322	277.75
273.553	257.75
273.785	251.75
274.017	254.75
274.249	264.75
274.481	253.75
274.713	233.75
274.945	259.75
275.176	254.75
275.408	265.75
275.64	246.75
275.872	246.75
276.104	258.75
276.335	251.75
276.567	250.75
276.799	281.75
277.031	299.75
277.262	316.75
277.494	312.75
277.726	289.75
277.957	285.75
278.189	269.75
278.421	254.75
278.652	265.75
278.884	241.75
279.115	234.75
279.347	251.75
279.579	229.75
279.81	249.75
280.042	243.75
280.273	225.75
280.505	217.75
280.736	220.75
280.968	247.75
281.199	246.75
281.431	238.75
281.662	231.75
281.894	248.75
282.125	243.75
282.356	277.75
282.588	277.75
282.819	289.75
283.051	259.75
283.282	234.75
283.513	241.75
283.745	244.75
283.976	251.75
284.207	254.75
284.439	243.75
284.67	241.75
284.901	239.75
285.132	234.75
285.364	224.75
285.595	221.75
285.826	221.75
286.057	244.75
286.288	241.75
286.52	247.75
286.751	246.75
286.982	236.75
287.213	241.75
287.444	243.75
287.675	246.75
287.906	266.75
288.138	259.75
288.369	269.75
288.6	283.75
288.831	275.75
289.062	251.75
289.293	260.75
289.524	247.75
289.755	254.75
289.986	229.75
290.217	248.75
290.448	233.75
290.679	252.75
290.91	229.75
291.141	247.75
291.371	245.75
291.602	249.75
291.833	246.75
292.064	251.75
292.295	242.75
292.526	236.75
292.757	232.75
292.987	245.75
293.218	241.75
293.449	262.75
293.68	253.75
293.91	247.75
294.141	238.75
294.372	244.75
294.603	237.75
294.833	247.75
295.064	265.75
295.295	247.75
295.525	249.75
295.756	258.75
295.987	258.75
296.217	298.75
296.448	291.75
296.679	289.75
296.909	252.75
297.14	242.75
297.37	253.75
297.601	268.75
297.831	244.75
298.062	249.75
298.292	270.75
298.523	265.75
298.753	260.75
298.984	262.75
299.214	246.75
299.445	268.75
299.675	254.75
299.905	253.75
300.136	271.75
300.366	258.75
300.597	274.75
300.827	272.75
301.057	241.75
301.288	293.75
301.518	290.75
301.748	277.75
301.979	276.75
302.209	289.75
302.439	289.75
302.669	290.75
302.9	270.75
303.13	276.75
303.36	275.75
303.59	289.75
303.82	299.75
304.051	298.75
304.281	258.75
304.511	271.75
304.741	265.75
304.971	271.75
305.201	278.75
305.431	277.75
305.661	275.75
305.891	278.75
306.121	285.75
306.352	296.75
306.582	315.75
306.812	285.75
307.042	284.75
307.272	288.75
307.502	272.75
307.731	298.75
307.961	280.75
308.191	270.75
308.421	306.75
308.651	289.75
308.881	315.75
309.111	308.75
309.341	298.75
309.571	309.75
309.8	336.75
310.03	330.75
310.26	375.75
310.49	351.75
310.72	385.75
310.949	393.75
311.179	403.75
311.409	366.75
311.639	340.75
311.868	352.75
312.098	368.75
312.328	380.75
312.557	406.75
312.787	418.75
313.017	424.75
313.246	386.75
313.476	346.75
313.706	362.75
313.935	361.75
314.165	372.75
314.394	397.75
314.624	383.75
314.853	371.75
315.083	357.75
315.312	341.75
315.542	340.75
315.771	311.75
316.001	329.75
316.23	352.75
316.46	346.75
316.689	356.75
316.919	359.75
317.148	350.75
317.377	354.75
317.607	353.75
317.836	339.75
318.065	332.75
318.295	329.75
318.524	342.75
318.753	331.75
318.983	331.75
319.212	342.75
319.441	339.75
319.67	376.75
319.9	330.75
320.129	331.75
320.358	361.75
320.587	362.75
320.816	365.75
321.046	376.75
321.275	382.75
321.504	396.75
321.733	385.75
321.962	373.75
322.191	402.75
322.42	447.75
322.649	457.75
322.878	474.75
323.108	517.75
323.337	521.75
323.566	584.75
323.795	651.75
324.024	714.75
324.253	894.75
324.482	1323.75
324.71	2035.75
324.939	2827.75
325.168	2485.75
325.397	1349.75
325.626	854.75
325.855	686.75
326.084	583.75
326.313	565.75
326.542	580.75
326.77	652.75
326.999	806.75
327.228	1123.75
327.457	1733.75
327.686	2130.75
327.914	1498.75
328.143	933.75
328.372	791.75
328.6	716.75
328.829	673.75
329.058	699.75
329.287	697.75
329.515	614.75
329.744	557.75
329.972	522.75
330.201	534.75
330.43	584.75
330.658	637.75
330.887	709.75
331.115	712.75
331.344	568.75
331.572	515.75
331.801	495.75
332.03	520.75
332.258	477.75
332.486	441.75
332.715	414.75
332.943	385.75
333.172	413.75
333.4	417.75
333.629	389.75
333.857	419.75
334.085	423.75
334.314	421.75
334.542	432.75
334.771	433.75
334.999	420.75
335.227	395.75
335.455	395.75
335.684	381.75
335.912	367.75
336.14	378.75
336.369	383.75
336.597	396.75
336.825	414.75
337.053	408.75
337.281	380.75
337.51	388.75
337.738	406.75
337.966	403.75
338.194	401.75
338.422	403.75
338.65	391.75
338.878	409.75
339.106	395.75
339.334	391.75
339.562	365.75
339.79	359.75
340.018	386.75
340.246	393.75
340.474	407.75
340.702	399.75
340.93	393.75
341.158	385.75
341.386	413.75
341.614	389.75
341.842	371.75
342.07	374.75
342.298	369.75
342.526	381.75
342.754	361.75
342.981	360.75
343.209	353.75
343.437	363.75
343.665	357.75
343.893	346.75
344.12	370.75
344.348	375.75
344.576	372.75
344.804	399.75
345.031	404.75
345.259	401.75
345.487	382.75
345.714	411.75
345.942	388.75
346.17	381.75
346.397	379.75
346.625	376.75
346.853	393.75
347.08	370.75
347.308	392.75
347.535	411.75
347.763	421.75
347.99	397.75
348.218	413.75
348.445	412.75
348.673	417.75
348.9	397.75
349.128	373.75
349.355	370.75
349.583	355.75
349.81	364.75
350.037	371.75
350.265	371.75
350.492	374.75
350.72	362.75
350.947	383.75
351.174	405.75
351.402	407.75
351.629	390.75
351.856	417.75
352.083	435.75
352.311	428.75
352.538	444.75
352.765	435.75
352.992	413.75
353.22	423.75
353.447	379.75
353.674	387.75
353.901	379.75
354.128	336.75
354.355	357.75
354.583	357.75
354.81	376.75
355.037	355.75
355.264	333.75
355.491	339.75
355.718	335.75
355.945	334.75
356.172	339.75
356.399	327.75
356.626	336.75
356.853	355.75
357.08	328.75
357.307	333.75
357.534	325.75
357.761	339.75
357.988	331.75
358.215	332.75
358.441	339.75
358.668	339.75
358.895	366.75
359.122	361.75
359.349	387.75
359.576	389.75
359.802	453.75
360.029	494.75
360.256	493.75
360.483	463.75
360.709	413.75
360.936	403.75
361.163	394.75
361.39	401.75
361.616	409.75
361.843	388.75
362.07	397.75
362.296	405.75
362.523	406.75
362.749	391.75
362.976	375.75
363.203	368.75
363.429	360.75
363.656	379.75
363.882	364.75
364.109	369.75
364.335	355.75
364.562	369.75
364.788	371.75
365.015	376.75
365.241	381.75
365.468	378.75
365.694	383.75
365.92	387.75
366.147	365.75
366.373	373.75
366.599	351.75
366.826	359.75
367.052	358.75
367.278	369.75
367.505	355.75
367.731	369.75
367.957	353.75
368.184	363.75
368.41	376.75
368.636	373.75
368.862	371.75
369.089	370.75
369.315	359.75
369.541	345.75
369.767	356.75
369.993	347.75
370.219	361.75
370.445	355.75
370.672	343.75
370.898	343.75
371.124	353.75
371.35	335.75
371.576	331.75
371.802	338.75
372.028	323.75
372.254	329.75
372.48	346.75
372.706	325.75
372.932	332.75
373.158	322.75
373.384	348.75
373.61	343.75
373.835	346.75
374.061	341.75
374.287	364.75
374.513	346.75
374.739	363.75
374.965	340.75
375.191	337.75
375.416	328.75
375.642	345.75
375.868	345.75
376.094	332.75
376.319	330.75
376.545	357.75
376.771	327.75
376.997	337.75
377.222	355.75
377.448	358.75
377.674	341.75
377.899	343.75
378.125	330.75
378.35	341.75
378.576	340.75
378.802	323.75
379.027	315.75
379.253	342.75
379.478	349.75
379.704	345.75
379.929	339.75
380.155	332.75
380.38	344.75
380.606	367.75
380.831	337.75
381.057	350.75
381.282	363.75
381.507	334.75
381.733	356.75
381.958	323.75
382.184	331.75
382.409	332.75
382.634	346.75
382.86	350.75
383.085	350.75
383.31	366.75
383.535	345.75
383.761	353.75
383.986	339.75
384.211	350.75
384.436	354.75
384.662	357.75
384.887	370.75
385.112	349.75
385.337	363.75
385.562	352.75
385.787	355.75
386.013	359.75
386.238	372.75
386.463	375.75
386.688	346.75
386.913	358.75
387.138	356.75
387.363	362.75
387.588	353.75
387.813	355.75
388.038	360.75
388.263	366.75
388.488	351.75
388.713	357.75
388.938	361.75
389.163	375.75
389.387	364.75
389.612	368.75
389.837	349.75
390.062	341.75
390.287	353.75
390.512	364.75
390.736	353.75
390.961	369.75
391.186	371.75
391.411	370.75
391.636	347.75
391.86	366.75
392.085	357.75
392.31	364.75
392.534	382.75
392.759	355.75
392.984	377.75
393.208	366.75
393.433	357.75
393.658	370.75
393.882	362.75
394.107	373.75
394.331	369.75
394.556	348.75
394.78	358.75
395.005	368.75
395.229	362.75
395.454	362.75
395.678	370.75
395.903	373.75
396.127	385.75
396.352	423.75
396.576	380.75
396.801	374.75
397.025	374.75
397.249	387.75
397.474	385.75
397.698	383.75
397.922	395.75
398.147	418.75
398.371	417.75
398.595	389.75
398.82	392.75
399.044	402.75
399.268	420.75
399.492	423.75
399.717	453.75
399.941	458.75
400.165	492.75
400.389	511.75
400.613	481.75
400.837	459.75
401.062	419.75
401.286	411.75
401.51	414.75
401.734	428.75
401.958	413.75
402.182	431.75
402.406	455.75
402.63	430.75
402.854	434.75
403.078	435.75
403.302	454.75
403.526	433.75
403.75	439.75
403.974	441.75
404.198	420.75
404.422	458.75
404.645	425.75
404.869	447.75
405.093	447.75
405.317	466.75
405.541	501.75
405.765	497.75
405.988	468.75
406.212	472.75
406.436	513.75
406.66	514.75
406.883	500.75
407.107	520.75
407.331	566.75
407.555	613.75
407.778	609.75
408.002	564.75
408.226	509.75
408.449	491.75
408.673	486.75
408.896	542.75
409.12	564.75
409.344	533.75
409.567	480.75
409.791	460.75
410.014	454.75
410.238	433.75
410.461	443.75
410.685	447.75
410.908	460.75
411.132	524.75
411.355	521.75
411.578	517.75
411.802	469.75
412.025	425.75
412.249	435.75
412.472	459.75
412.695	464.75
412.919	433.75
413.142	410.75
413.365	409.75
413.589	413.75
413.812	422.75
414.035	431.75
414.258	397.75
414.482	426.75
414.705	400.75
414.928	407.75
415.151	395.75
415.374	412.75
415.597	413.75
415.821	406.75
416.044	402.75
416.267	434.75
416.49	405.75
416.713	419.75
416.936	429.75
417.159	421.75
417.382	424.75
417.605	433.75
417.828	456.75
418.051	457.75
418.274	461.75
418.497	450.75
418.72	406.75
418.943	403.75
419.166	436.75
419.389	445.75
419.611	433.75
419.834	435.75
420.057	468.75
420.28	443.75
420.503	435.75
420.726	443.75
420.948	451.75
421.171	504.75
421.394	557.75
421.617	475.75
421.839	467.75
422.062	439.75
422.285	464.75
422.507	540.75
422.73	590.75
422.953	583.75
423.175	500.75
423.398	494.75
423.621	501.75
423.843	503.75
424.066	490.75
424.288	520.75
424.511	504.75
424.733	603.75
424.956	652.75
425.178	649.75
425.401	644.75
425.623	637.75
425.846	565.75
426.068	557.75
426.291	545.75
426.513	521.75
426.735	535.75
426.958	602.75
427.18	659.75
427.402	782.75
427.625	911.75
427.847	867.75
428.069	705.75
428.292	587.75
428.514	532.75
428.736	525.75
428.958	506.75
429.181	493.75
429.403	500.75
429.625	509.75
429.847	538.75
430.069	607.75
430.292	622.75
430.514	525.75
430.736	481.75
430.958	466.75
431.18	457.75
431.402	444.75
431.624	444.75
431.846	434.75
432.068	441.75
432.29	462.75
432.512	445.75
432.734	466.75
432.956	446.75
433.178	463.75
433.4	479.75
433.622	442.75
433.844	430.75
434.066	450.75
434.287	431.75
434.509	446.75
434.731	448.75
434.953	470.75
435.175	479.75
435.397	498.75
435.618	562.75
435.84	586.75
436.062	678.75
436.284	718.75
436.505	616.75
436.727	561.75
436.949	530.75
437.17	493.75
437.392	476.75
437.614	512.75
437.835	565.75
438.057	690.75
438.278	788.75
438.5	774.75
438.721	793.75
438.943	787.75
439.165	641.75
439.386	567.75
439.608	580.75
439.829	568.75
440.05	626.75
440.272	662.75
440.493	626.75
440.715	539.75
440.936	524.75
441.158	510.75
441.379	510.75
441.6	498.75
441.822	548.75
442.043	575.75
442.264	664.75
442.486	693.75
442.707	590.75
442.928	574.75
443.149	594.75
443.371	598.75
443.592	632.75
443.813	695.75
444.034	758.75
444.255	654.75
444.476	565.75
444.698	531.75
444.919	537.75
445.14	581.75
445.361	596.75
445.582	600.75
445.803	658.75
446.024	762.75
446.245	759.75
446.466	703.75
446.687	619.75
446.908	558.75
447.129	543.75
447.35	517.75
447.571	501.75
447.792	519.75
448.013	523.75
448.234	549.75
448.455	604.75
448.675	736.75
448.896	810.75
449.117	709.75
449.338	653.75
449.559	756.75
449.779	817.75
450	668.75
450.221	583.75
450.442	545.75
450.662	527.75
450.883	548.75
451.104	556.75
451.324	550.75
451.545	503.75
451.766	477.75
451.986	461.75
452.207	452.75
452.428	444.75
452.648	439.75
452.869	463.75
453.089	468.75
453.31	490.75
453.53	494.75
453.751	461.75
453.971	465.75
454.192	503.75
454.412	486.75
454.633	463.75
454.853	460.75
455.073	454.75
455.294	483.75
455.514	581.75
455.734	570.75
455.955	482.75
456.175	414.75
456.395	419.75
456.616	422.75
456.836	400.75
457.056	422.75
457.276	393.75
457.497	388.75
457.717	399.75
457.937	431.75
458.157	429.75
458.377	425.75
458.598	473.75
458.818	574.75
459.038	676.75
459.258	691.75
459.478	555.75
459.698	484.75
459.918	458.75
460.138	446.75
460.358	452.75
460.578	458.75
460.798	447.75
461.018	456.75
461.238	445.75
461.458	421.75
461.678	418.75
461.898	416.75
462.118	430.75
462.338	426.75
462.558	454.75
462.777	431.75
462.997	437.75
463.217	450.75
463.437	451.75
463.657	426.75
463.876	445.75
464.096	457.75
464.316	476.75
464.536	451.75
464.755	474.75
464.975	480.75
465.195	570.75
465.414	714.75
465.634	610.75
465.854	556.75
466.073	498.75
466.293	469.75
466.512	469.75
466.732	437.75
466.951	446.75
467.171	458.75
467.391	459.75
467.61	475.75
467.829	475.75
468.049	449.75
468.268	407.75
468.488	447.75
468.707	436.75
468.927	429.75
469.146	422.75
469.365	413.75
469.585	430.75
469.804	451.75
470.023	486.75
470.243	444.75
470.462	454.75
470.681	493.75
470.901	492.75
471.12	490.75
471.339	467.75
471.558	459.75
471.777	459.75
471.997	438.75
472.216	438.75
472.435	439.75
472.654	421.75
472.873	422.75
473.092	456.75
473.311	441.75
473.53	442.75
473.749	440.75
473.968	511.75
474.187	635.75
474.406	655.75
474.625	528.75
474.844	490.75
475.063	445.75
475.282	445.75
475.501	454.75
475.72	447.75
475.939	447.75
476.158	454.75
476.377	445.75
476.596	453.75
476.814	478.75
477.033	480.75
477.252	482.75
477.471	455.75
477.69	461.75
477.908	470.75
478.127	505.75
478.346	488.75
478.564	463.75
478.783	496.75
479.002	492.75
479.22	494.75
479.439	520.75
479.658	567.75
479.876	545.75
480.095	540.75
480.313	572.75
480.532	567.75
480.751	538.75
480.969	537.75
481.188	565.75
481.406	548.75
481.624	542.75
481.843	531.75
482.061	520.75
482.28	531.75
482.498	549.75
482.717	531.75
482.935	537.75
483.153	511.75
483.372	526.75
483.59	528.75
483.808	511.75
484.027	533.75
484.245	552.75
484.463	530.75
484.681	527.75
484.9	531.75
485.118	542.75
485.336	535.75
485.554	563.75
485.772	546.75
485.99	535.75
486.209	536.75
486.427	551.75
486.645	591.75
486.863	602.75
487.081	599.75
487.299	583.75
487.517	564.75
487.735	570.75
487.953	582.75
488.171	581.75
488.389	574.75
488.607	584.75
488.825	608.75
489.043	579.75
489.261	591.75
489.479	582.75
489.696	568.75
489.914	593.75
490.132	602.75
490.35	603.75
490.568	609.75
490.786	630.75
491.003	635.75
491.221	631.75
491.439	643.75
491.657	620.75
491.874	643.75
492.092	638.75
492.31	691.75
492.527	682.75
492.745	667.75
492.963	660.75
493.18	663.75
493.398	674.75
493.615	670.75
493.833	698.75
494.05	703.75
494.268	687.75
494.485	682.75
494.703	671.75
494.92	699.75
495.138	686.75
495.355	709.75
495.573	715.75
495.79	706.75
496.008	726.75
496.225	708.75
496.442	701.75
496.66	718.75
496.877	694.75
497.094	717.75
497.312	689.75
497.529	706.75
497.746	732.75
497.963	734.75
498.181	755.75
498.398	747.75
498.615	749.75
498.832	761.75
499.049	745.75
499.267	733.75
499.484	753.75
499.701	802.75
499.918	753.75
500.135	775.75
500.352	808.75
500.569	829.75
500.786	827.75
501.003	794.75
501.22	841.75
501.437	810.75
501.654	815.75
501.871	834.75
