Data from 1987.PennyLincolnUp.Lamp.En5.5.200Scan.071819.P2_HRD10591_17-16-03-971.txt Node
Date: Thu Jul 18 17:16:03 EDT 2019
User: cochatt
Spectrometer: HR+D1059
Trigger mode: 1
Integration Time (sec): 1.000000E-1
Scans to average: 1
Electric dark correction enabled: true
Nonlinearity correction enabled: false
Boxcar width: 0
XAxis mode: Wavelengths
Number of Pixels in Spectrum: 2048
>>>>>Begin Spectral Data<<<<<
223.165	-20.75
223.4	-20.75
223.635	-20.75
223.869	-16.75
224.104	-13.75
224.338	-10.75
224.573	-10.75
224.808	-12.75
225.042	10.25
225.277	-13.75
225.511	1.25
225.746	6.25
225.98	-4.75
226.215	18.25
226.449	21.25
226.683	10.25
226.918	2.25
227.152	34.25
227.387	25.25
227.621	34.25
227.856	41.25
228.09	43.25
228.324	52.25
228.559	57.25
228.793	66.25
229.027	93.25
229.262	115.25
229.496	125.25
229.73	138.25
229.964	170.25
230.199	148.25
230.433	132.25
230.667	122.25
230.901	117.25
231.136	104.25
231.37	102.25
231.604	123.25
231.838	121.25
232.072	109.25
232.306	113.25
232.541	103.25
232.775	103.25
233.009	100.25
233.243	103.25
233.477	107.25
233.711	122.25
233.945	106.25
234.179	106.25
234.413	110.25
234.647	105.25
234.881	113.25
235.115	127.25
235.349	121.25
235.583	129.25
235.817	123.25
236.051	123.25
236.285	131.25
236.519	130.25
236.753	135.25
236.987	139.25
237.221	203.25
237.455	259.25
237.689	207.25
237.922	161.25
238.156	141.25
238.39	134.25
238.624	133.25
238.858	121.25
239.091	127.25
239.325	126.25
239.559	128.25
239.793	133.25
240.027	135.25
240.26	159.25
240.494	167.25
240.728	161.25
240.961	143.25
241.195	136.25
241.429	145.25
241.662	141.25
241.896	129.25
242.13	127.25
242.363	116.25
242.597	125.25
242.83	132.25
243.064	137.25
243.298	130.25
243.531	143.25
243.765	134.25
243.998	150.25
244.232	140.25
244.465	152.25
244.699	135.25
244.932	134.25
245.166	148.25
245.399	149.25
245.633	130.25
245.866	140.25
246.099	139.25
246.333	149.25
246.566	131.25
246.8	155.25
247.033	157.25
247.266	147.25
247.5	152.25
247.733	151.25
247.966	167.25
248.2	159.25
248.433	157.25
248.666	175.25
248.899	180.25
249.133	199.25
249.366	221.25
249.599	223.25
249.832	187.25
250.066	174.25
250.299	181.25
250.532	179.25
250.765	200.25
250.998	202.25
251.231	222.25
251.465	212.25
251.698	215.25
251.931	207.25
252.164	206.25
252.397	208.25
252.63	187.25
252.863	205.25
253.096	221.25
253.329	214.25
253.562	227.25
253.795	228.25
254.028	214.25
254.261	236.25
254.494	231.25
254.727	257.25
254.96	268.25
255.193	281.25
255.426	273.25
255.659	232.25
255.892	221.25
256.124	215.25
256.357	220.25
256.59	197.25
256.823	206.25
257.056	204.25
257.289	197.25
257.521	219.25
257.754	214.25
257.987	201.25
258.22	209.25
258.452	197.25
258.685	191.25
258.918	213.25
259.151	218.25
259.383	212.25
259.616	222.25
259.849	216.25
260.081	221.25
260.314	273.25
260.547	261.25
260.779	236.25
261.012	228.25
261.244	218.25
261.477	224.25
261.71	214.25
261.942	227.25
262.175	241.25
262.407	230.25
262.64	208.25
262.872	196.25
263.105	214.25
263.337	208.25
263.57	205.25
263.802	205.25
264.035	218.25
264.267	206.25
264.499	204.25
264.732	202.25
264.964	207.25
265.197	205.25
265.429	202.25
265.661	200.25
265.894	190.25
266.126	190.25
266.358	199.25
266.591	194.25
266.823	215.25
267.055	202.25
267.287	214.25
267.52	206.25
267.752	208.25
267.984	203.25
268.216	203.25
268.448	211.25
268.681	219.25
268.913	241.25
269.145	252.25
269.377	244.25
269.609	253.25
269.841	263.25
270.073	261.25
270.306	273.25
270.538	299.25
270.77	311.25
271.002	326.25
271.234	294.25
271.466	296.25
271.698	306.25
271.93	309.25
272.162	316.25
272.394	307.25
272.626	283.25
272.858	284.25
273.09	268.25
273.322	267.25
273.553	263.25
273.785	261.25
274.017	247.25
274.249	247.25
274.481	238.25
274.713	227.25
274.945	239.25
275.176	255.25
275.408	235.25
275.64	241.25
275.872	242.25
276.104	238.25
276.335	260.25
276.567	233.25
276.799	270.25
277.031	299.25
277.262	305.25
277.494	309.25
277.726	282.25
277.957	263.25
278.189	257.25
278.421	242.25
278.652	257.25
278.884	242.25
279.115	226.25
279.347	215.25
279.579	234.25
279.81	225.25
280.042	217.25
280.273	231.25
280.505	244.25
280.736	243.25
280.968	230.25
281.199	221.25
281.431	231.25
281.662	239.25
281.894	208.25
282.125	233.25
282.356	272.25
282.588	279.25
282.819	289.25
283.051	243.25
283.282	237.25
283.513	235.25
283.745	231.25
283.976	234.25
284.207	241.25
284.439	243.25
284.67	229.25
284.901	249.25
285.132	213.25
285.364	217.25
285.595	218.25
285.826	246.25
286.057	227.25
286.288	230.25
286.52	220.25
286.751	241.25
286.982	243.25
287.213	229.25
287.444	224.25
287.675	238.25
287.906	245.25
288.138	243.25
288.369	274.25
288.6	269.25
288.831	269.25
289.062	255.25
289.293	228.25
289.524	245.25
289.755	250.25
289.986	247.25
290.217	230.25
290.448	248.25
290.679	235.25
290.91	234.25
291.141	238.25
291.371	233.25
291.602	244.25
291.833	245.25
292.064	244.25
292.295	259.25
292.526	250.25
292.757	231.25
292.987	245.25
293.218	245.25
293.449	229.25
293.68	255.25
293.91	243.25
294.141	227.25
294.372	234.25
294.603	246.25
294.833	253.25
295.064	237.25
295.295	233.25
295.525	241.25
295.756	249.25
295.987	263.25
296.217	301.25
296.448	296.25
296.679	262.25
296.909	252.25
297.14	252.25
297.37	247.25
297.601	239.25
297.831	250.25
298.062	236.25
298.292	273.25
298.523	245.25
298.753	247.25
298.984	261.25
299.214	256.25
299.445	232.25
299.675	267.25
299.905	255.25
300.136	257.25
300.366	259.25
300.597	259.25
300.827	262.25
301.057	292.25
301.288	295.25
301.518	280.25
301.748	261.25
301.979	279.25
302.209	276.25
302.439	294.25
302.669	272.25
302.9	264.25
303.13	284.25
303.36	274.25
303.59	267.25
303.82	301.25
304.051	266.25
304.281	271.25
304.511	270.25
304.741	260.25
304.971	271.25
305.201	281.25
305.431	263.25
305.661	261.25
305.891	251.25
306.121	276.25
306.352	277.25
306.582	293.25
306.812	284.25
307.042	278.25
307.272	285.25
307.502	308.25
307.731	300.25
307.961	284.25
308.191	284.25
308.421	280.25
308.651	274.25
308.881	299.25
309.111	289.25
309.341	316.25
309.571	315.25
309.8	315.25
310.03	323.25
310.26	337.25
310.49	344.25
310.72	358.25
310.949	379.25
311.179	391.25
311.409	379.25
311.639	335.25
311.868	349.25
312.098	359.25
312.328	364.25
312.557	382.25
312.787	375.25
313.017	399.25
313.246	366.25
313.476	341.25
313.706	341.25
313.935	341.25
314.165	381.25
314.394	381.25
314.624	395.25
314.853	362.25
315.083	355.25
315.312	326.25
315.542	327.25
315.771	333.25
316.001	321.25
316.23	338.25
316.46	320.25
316.689	341.25
316.919	334.25
317.148	354.25
317.377	341.25
317.607	361.25
317.836	335.25
318.065	346.25
318.295	334.25
318.524	334.25
318.753	340.25
318.983	336.25
319.212	340.25
319.441	346.25
319.67	375.25
319.9	339.25
320.129	337.25
320.358	345.25
320.587	349.25
320.816	362.25
321.046	370.25
321.275	369.25
321.504	376.25
321.733	383.25
321.962	373.25
322.191	411.25
322.42	422.25
322.649	445.25
322.878	482.25
323.108	480.25
323.337	517.25
323.566	564.25
323.795	591.25
324.024	674.25
324.253	873.25
324.482	1235.25
324.71	1927.25
324.939	2691.25
325.168	2350.25
325.397	1277.25
325.626	799.25
325.855	674.25
326.084	591.25
326.313	552.25
326.542	550.25
326.77	631.25
326.999	754.25
327.228	1035.25
327.457	1639.25
327.686	2026.25
327.914	1404.25
328.143	897.25
328.372	744.25
328.6	675.25
328.829	632.25
329.058	654.25
329.287	649.25
329.515	599.25
329.744	552.25
329.972	498.25
330.201	500.25
330.43	552.25
330.658	610.25
330.887	712.25
331.115	657.25
331.344	553.25
331.572	484.25
331.801	490.25
332.03	473.25
332.258	458.25
332.486	394.25
332.715	409.25
332.943	399.25
333.172	393.25
333.4	403.25
333.629	395.25
333.857	411.25
334.085	389.25
334.314	396.25
334.542	398.25
334.771	399.25
334.999	387.25
335.227	397.25
335.455	408.25
335.684	386.25
335.912	354.25
336.14	379.25
336.369	381.25
336.597	405.25
336.825	403.25
337.053	388.25
337.281	359.25
337.51	387.25
337.738	381.25
337.966	391.25
338.194	401.25
338.422	395.25
338.65	383.25
338.878	371.25
339.106	384.25
339.334	378.25
339.562	383.25
339.79	384.25
340.018	368.25
340.246	373.25
340.474	375.25
340.702	388.25
340.93	369.25
341.158	386.25
341.386	362.25
341.614	371.25
341.842	374.25
342.07	386.25
342.298	350.25
342.526	362.25
342.754	350.25
342.981	340.25
343.209	359.25
343.437	350.25
343.665	342.25
343.893	362.25
344.12	372.25
344.348	376.25
344.576	372.25
344.804	376.25
345.031	396.25
345.259	436.25
345.487	409.25
345.714	385.25
345.942	363.25
346.17	385.25
346.397	385.25
346.625	357.25
346.853	372.25
347.08	367.25
347.308	383.25
347.535	397.25
347.763	412.25
347.99	394.25
348.218	399.25
348.445	413.25
348.673	413.25
348.9	387.25
349.128	373.25
349.355	353.25
349.583	344.25
349.81	367.25
350.037	350.25
350.265	351.25
350.492	362.25
350.72	352.25
350.947	379.25
351.174	363.25
351.402	412.25
351.629	387.25
351.856	386.25
352.083	403.25
352.311	414.25
352.538	409.25
352.765	403.25
352.992	403.25
353.22	418.25
353.447	395.25
353.674	381.25
353.901	351.25
354.128	352.25
354.355	342.25
354.583	356.25
354.81	342.25
355.037	330.25
355.264	317.25
355.491	342.25
355.718	318.25
355.945	329.25
356.172	333.25
356.399	299.25
356.626	342.25
356.853	335.25
357.08	339.25
357.307	319.25
357.534	336.25
357.761	341.25
357.988	342.25
358.215	347.25
358.441	324.25
358.668	334.25
358.895	349.25
359.122	355.25
359.349	375.25
359.576	389.25
359.802	429.25
360.029	489.25
360.256	483.25
360.483	447.25
360.709	409.25
360.936	390.25
361.163	378.25
361.39	376.25
361.616	400.25
361.843	403.25
362.07	395.25
362.296	378.25
362.523	382.25
362.749	378.25
362.976	388.25
363.203	371.25
363.429	362.25
363.656	348.25
363.882	374.25
364.109	348.25
364.335	358.25
364.562	360.25
364.788	362.25
365.015	360.25
365.241	361.25
365.468	371.25
365.694	371.25
365.92	361.25
366.147	377.25
366.373	366.25
366.599	358.25
366.826	364.25
367.052	348.25
367.278	347.25
367.505	339.25
367.731	340.25
367.957	365.25
368.184	370.25
368.41	346.25
368.636	385.25
368.862	358.25
369.089	367.25
369.315	377.25
369.541	338.25
369.767	334.25
369.993	344.25
370.219	358.25
370.445	344.25
370.672	336.25
370.898	330.25
371.124	353.25
371.35	341.25
371.576	334.25
371.802	329.25
372.028	338.25
372.254	329.25
372.48	341.25
372.706	333.25
372.932	332.25
373.158	318.25
373.384	345.25
373.61	347.25
373.835	332.25
374.061	326.25
374.287	345.25
374.513	353.25
374.739	339.25
374.965	323.25
375.191	330.25
375.416	337.25
375.642	331.25
375.868	350.25
376.094	353.25
376.319	340.25
376.545	314.25
376.771	332.25
376.997	342.25
377.222	328.25
377.448	337.25
377.674	332.25
377.899	339.25
378.125	338.25
378.35	340.25
378.576	340.25
378.802	339.25
379.027	332.25
379.253	325.25
379.478	331.25
379.704	345.25
379.929	323.25
380.155	342.25
380.38	320.25
380.606	343.25
380.831	356.25
381.057	349.25
381.282	329.25
381.507	344.25
381.733	334.25
381.958	334.25
382.184	337.25
382.409	335.25
382.634	344.25
382.86	313.25
383.085	347.25
383.31	336.25
383.535	338.25
383.761	353.25
383.986	332.25
384.211	356.25
384.436	341.25
384.662	349.25
384.887	354.25
385.112	346.25
385.337	341.25
385.562	356.25
385.787	354.25
386.013	363.25
386.238	354.25
386.463	346.25
386.688	347.25
386.913	344.25
387.138	357.25
387.363	342.25
387.588	344.25
387.813	349.25
388.038	357.25
388.263	355.25
388.488	356.25
388.713	339.25
388.938	358.25
389.163	363.25
389.387	344.25
389.612	355.25
389.837	347.25
390.062	360.25
390.287	350.25
390.512	352.25
390.736	351.25
390.961	348.25
391.186	351.25
391.411	334.25
391.636	333.25
391.86	340.25
392.085	350.25
392.31	366.25
392.534	360.25
392.759	375.25
392.984	353.25
393.208	343.25
393.433	343.25
393.658	335.25
393.882	359.25
394.107	346.25
394.331	353.25
394.556	339.25
394.78	339.25
395.005	377.25
395.229	357.25
395.454	362.25
395.678	379.25
395.903	365.25
396.127	381.25
396.352	393.25
396.576	382.25
396.801	364.25
397.025	352.25
397.249	392.25
397.474	361.25
397.698	373.25
397.922	371.25
398.147	409.25
398.371	410.25
398.595	396.25
398.82	405.25
399.044	384.25
399.268	396.25
399.492	423.25
399.717	439.25
399.941	449.25
400.165	486.25
400.389	487.25
400.613	477.25
400.837	429.25
401.062	418.25
401.286	427.25
401.51	421.25
401.734	391.25
401.958	410.25
402.182	419.25
402.406	441.25
402.63	438.25
402.854	433.25
403.078	427.25
403.302	430.25
403.526	438.25
403.75	443.25
403.974	421.25
404.198	398.25
404.422	431.25
404.645	443.25
404.869	450.25
405.093	447.25
405.317	465.25
405.541	498.25
405.765	471.25
405.988	450.25
406.212	450.25
406.436	493.25
406.66	513.25
406.883	494.25
407.107	501.25
407.331	535.25
407.555	581.25
407.778	589.25
408.002	536.25
408.226	488.25
408.449	504.25
408.673	473.25
408.896	511.25
409.12	561.25
409.344	521.25
409.567	462.25
409.791	447.25
410.014	445.25
410.238	441.25
410.461	435.25
410.685	443.25
410.908	453.25
411.132	493.25
411.355	502.25
411.578	515.25
411.802	428.25
412.025	422.25
412.249	439.25
412.472	469.25
412.695	439.25
412.919	441.25
413.142	413.25
413.365	426.25
413.589	407.25
413.812	416.25
414.035	419.25
414.258	391.25
414.482	396.25
414.705	403.25
414.928	406.25
415.151	406.25
415.374	403.25
415.597	389.25
415.821	393.25
416.044	409.25
416.267	421.25
416.49	391.25
416.713	405.25
416.936	377.25
417.159	411.25
417.382	419.25
417.605	425.25
417.828	439.25
418.051	445.25
418.274	435.25
418.497	425.25
418.72	433.25
418.943	419.25
419.166	435.25
419.389	450.25
419.611	462.25
419.834	433.25
420.057	437.25
420.28	431.25
420.503	439.25
420.726	437.25
420.948	418.25
421.171	509.25
421.394	543.25
421.617	470.25
421.839	447.25
422.062	454.25
422.285	477.25
422.507	529.25
422.73	595.25
422.953	559.25
423.175	502.25
423.398	480.25
423.621	476.25
423.843	517.25
424.066	485.25
424.288	475.25
424.511	545.25
424.733	559.25
424.956	641.25
425.178	631.25
425.401	641.25
425.623	653.25
425.846	543.25
426.068	506.25
426.291	521.25
426.513	540.25
426.735	549.25
426.958	599.25
427.18	663.25
427.402	767.25
427.625	872.25
427.847	816.25
428.069	671.25
428.292	617.25
428.514	551.25
428.736	502.25
428.958	510.25
429.181	474.25
429.403	473.25
429.625	485.25
429.847	516.25
430.069	567.25
430.292	586.25
430.514	485.25
430.736	473.25
430.958	471.25
431.18	457.25
431.402	449.25
431.624	430.25
431.846	425.25
432.068	437.25
432.29	459.25
432.512	435.25
432.734	452.25
432.956	434.25
433.178	462.25
433.4	457.25
433.622	431.25
433.844	447.25
434.066	437.25
434.287	457.25
434.509	446.25
434.731	445.25
434.953	445.25
435.175	464.25
435.397	482.25
435.618	498.25
435.84	554.25
436.062	628.25
436.284	714.25
436.505	606.25
436.727	539.25
436.949	515.25
437.17	487.25
437.392	477.25
437.614	501.25
437.835	536.25
438.057	657.25
438.278	742.25
438.5	755.25
438.721	805.25
438.943	785.25
439.165	632.25
439.386	579.25
439.608	561.25
439.829	552.25
440.05	587.25
440.272	637.25
440.493	588.25
440.715	531.25
440.936	523.25
441.158	489.25
441.379	485.25
441.6	494.25
441.822	531.25
442.043	556.25
442.264	655.25
442.486	729.25
442.707	588.25
442.928	557.25
443.149	537.25
443.371	574.25
443.592	599.25
443.813	689.25
444.034	745.25
444.255	668.25
444.476	539.25
444.698	520.25
444.919	504.25
445.14	594.25
445.361	567.25
445.582	572.25
445.803	646.25
446.024	756.25
446.245	795.25
446.466	715.25
446.687	586.25
446.908	536.25
447.129	501.25
447.35	501.25
447.571	490.25
447.792	489.25
448.013	502.25
448.234	518.25
448.455	565.25
448.675	673.25
448.896	789.25
449.117	676.25
449.338	643.25
449.559	715.25
449.779	798.25
450	680.25
450.221	541.25
450.442	542.25
450.662	508.25
450.883	526.25
451.104	540.25
451.324	538.25
451.545	509.25
451.766	468.25
451.986	471.25
452.207	447.25
452.428	428.25
452.648	429.25
452.869	452.25
453.089	446.25
453.31	470.25
453.53	438.25
453.751	440.25
453.971	438.25
454.192	458.25
454.412	465.25
454.633	461.25
454.853	444.25
455.073	427.25
455.294	489.25
455.514	549.25
455.734	533.25
455.955	447.25
456.175	427.25
456.395	426.25
456.616	404.25
456.836	416.25
457.056	402.25
457.276	366.25
457.497	393.25
457.717	408.25
457.937	401.25
458.157	398.25
458.377	419.25
458.598	454.25
458.818	547.25
459.038	657.25
459.258	654.25
459.478	513.25
459.698	483.25
459.918	439.25
460.138	436.25
460.358	435.25
460.578	413.25
460.798	430.25
461.018	421.25
461.238	437.25
461.458	449.25
461.678	434.25
461.898	418.25
462.118	419.25
462.338	394.25
462.558	437.25
462.777	443.25
462.997	434.25
463.217	406.25
463.437	429.25
463.657	429.25
463.876	442.25
464.096	468.25
464.316	443.25
464.536	460.25
464.755	471.25
464.975	485.25
465.195	569.25
465.414	697.25
465.634	595.25
465.854	529.25
466.073	487.25
466.293	462.25
466.512	430.25
466.732	428.25
466.951	447.25
467.171	437.25
467.391	422.25
467.61	436.25
467.829	484.25
468.049	460.25
468.268	429.25
468.488	417.25
468.707	414.25
468.927	417.25
469.146	405.25
469.365	415.25
469.585	398.25
469.804	418.25
470.023	452.25
470.243	446.25
470.462	448.25
470.681	486.25
470.901	483.25
471.12	456.25
471.339	445.25
471.558	446.25
471.777	453.25
471.997	423.25
472.216	425.25
472.435	423.25
472.654	420.25
472.873	437.25
473.092	424.25
473.311	419.25
473.53	434.25
473.749	466.25
473.968	510.25
474.187	630.25
474.406	622.25
474.625	525.25
474.844	477.25
475.063	417.25
475.282	443.25
475.501	436.25
475.72	450.25
475.939	447.25
476.158	442.25
476.377	434.25
476.596	445.25
476.814	480.25
477.033	465.25
477.252	487.25
477.471	444.25
477.69	462.25
477.908	464.25
478.127	471.25
478.346	467.25
478.564	469.25
478.783	466.25
479.002	493.25
479.22	484.25
479.439	494.25
479.658	535.25
479.876	556.25
480.095	534.25
480.313	584.25
480.532	525.25
480.751	523.25
480.969	524.25
481.188	555.25
481.406	545.25
481.624	524.25
481.843	521.25
482.061	489.25
482.28	509.25
482.498	502.25
482.717	515.25
482.935	508.25
483.153	494.25
483.372	509.25
483.59	490.25
483.808	491.25
484.027	525.25
484.245	503.25
484.463	515.25
484.681	527.25
484.9	539.25
485.118	541.25
485.336	545.25
485.554	539.25
485.772	539.25
485.99	523.25
486.209	544.25
486.427	550.25
486.645	548.25
486.863	582.25
487.081	597.25
487.299	572.25
487.517	563.25
487.735	550.25
487.953	577.25
488.171	574.25
488.389	561.25
488.607	556.25
488.825	568.25
489.043	568.25
489.261	570.25
489.479	571.25
489.696	596.25
489.914	603.25
490.132	598.25
490.35	611.25
490.568	590.25
490.786	597.25
491.003	614.25
491.221	613.25
491.439	631.25
491.657	649.25
491.874	655.25
492.092	662.25
492.31	678.25
492.527	643.25
492.745	634.25
492.963	672.25
493.18	654.25
493.398	660.25
493.615	676.25
493.833	673.25
494.05	685.25
494.268	669.25
494.485	682.25
494.703	679.25
494.92	673.25
495.138	681.25
495.355	683.25
495.573	708.25
495.79	684.25
496.008	696.25
496.225	667.25
496.442	678.25
496.66	686.25
496.877	679.25
497.094	678.25
497.312	708.25
497.529	705.25
497.746	703.25
497.963	701.25
498.181	719.25
498.398	733.25
498.615	743.25
498.832	731.25
499.049	741.25
499.267	730.25
499.484	742.25
499.701	776.25
499.918	759.25
500.135	786.25
500.352	791.25
500.569	783.25
500.786	803.25
501.003	778.25
501.22	787.25
501.437	797.25
501.654	789.25
501.871	809.25
