Data from 1987.PennyLincolnUp.Lamp.En5.5.200Scan.071819.P2_HRD10591_17-15-23-971.txt Node
Date: Thu Jul 18 17:15:23 EDT 2019
User: cochatt
Spectrometer: HR+D1059
Trigger mode: 1
Integration Time (sec): 1.000000E-1
Scans to average: 1
Electric dark correction enabled: true
Nonlinearity correction enabled: false
Boxcar width: 0
XAxis mode: Wavelengths
Number of Pixels in Spectrum: 2048
>>>>>Begin Spectral Data<<<<<
223.165	-9.56
223.4	-9.56
223.635	-9.56
223.869	-10.56
224.104	-7.56
224.338	0.44
224.573	-10.56
224.808	-5.56
225.042	-7.56
225.277	-20.56
225.511	-2.56
225.746	-1.56
225.98	7.44
226.215	13.44
226.449	13.44
226.683	14.44
226.918	23.44
227.152	3.44
227.387	36.44
227.621	33.44
227.856	35.44
228.09	53.44
228.324	48.44
228.559	51.44
228.793	75.44
229.027	109.44
229.262	106.44
229.496	120.44
229.73	138.44
229.964	168.44
230.199	145.44
230.433	120.44
230.667	114.44
230.901	114.44
231.136	107.44
231.37	117.44
231.604	106.44
231.838	109.44
232.072	98.44
232.306	112.44
232.541	112.44
232.775	120.44
233.009	121.44
233.243	102.44
233.477	109.44
233.711	123.44
233.945	111.44
234.179	116.44
234.413	120.44
234.647	108.44
234.881	111.44
235.115	119.44
235.349	133.44
235.583	119.44
235.817	123.44
236.051	123.44
236.285	109.44
236.519	125.44
236.753	132.44
236.987	161.44
237.221	193.44
237.455	265.44
237.689	193.44
237.922	150.44
238.156	144.44
238.39	143.44
238.624	121.44
238.858	111.44
239.091	143.44
239.325	132.44
239.559	119.44
239.793	137.44
240.027	124.44
240.26	150.44
240.494	159.44
240.728	166.44
240.961	141.44
241.195	147.44
241.429	133.44
241.662	125.44
241.896	133.44
242.13	132.44
242.363	123.44
242.597	130.44
242.83	145.44
243.064	142.44
243.298	134.44
243.531	133.44
243.765	129.44
243.998	122.44
244.232	131.44
244.465	129.44
244.699	122.44
244.932	130.44
245.166	140.44
245.399	131.44
245.633	146.44
245.866	131.44
246.099	129.44
246.333	141.44
246.566	135.44
246.8	145.44
247.033	129.44
247.266	145.44
247.5	170.44
247.733	152.44
247.966	163.44
248.2	162.44
248.433	172.44
248.666	161.44
248.899	184.44
249.133	204.44
249.366	199.44
249.599	211.44
249.832	173.44
250.066	176.44
250.299	171.44
250.532	179.44
250.765	192.44
250.998	207.44
251.231	217.44
251.465	208.44
251.698	199.44
251.931	177.44
252.164	182.44
252.397	187.44
252.63	196.44
252.863	197.44
253.096	205.44
253.329	220.44
253.562	224.44
253.795	197.44
254.028	208.44
254.261	229.44
254.494	214.44
254.727	231.44
254.96	285.44
255.193	265.44
255.426	246.44
255.659	234.44
255.892	219.44
256.124	219.44
256.357	217.44
256.59	205.44
256.823	201.44
257.056	202.44
257.289	196.44
257.521	204.44
257.754	196.44
257.987	187.44
258.22	193.44
258.452	200.44
258.685	186.44
258.918	183.44
259.151	202.44
259.383	199.44
259.616	200.44
259.849	213.44
260.081	218.44
260.314	235.44
260.547	249.44
260.779	232.44
261.012	216.44
261.244	224.44
261.477	219.44
261.71	215.44
261.942	208.44
262.175	218.44
262.407	225.44
262.64	211.44
262.872	207.44
263.105	194.44
263.337	204.44
263.57	208.44
263.802	212.44
264.035	185.44
264.267	183.44
264.499	188.44
264.732	191.44
264.964	172.44
265.197	189.44
265.429	187.44
265.661	190.44
265.894	192.44
266.126	188.44
266.358	187.44
266.591	187.44
266.823	204.44
267.055	203.44
267.287	207.44
267.52	198.44
267.752	181.44
267.984	205.44
268.216	200.44
268.448	218.44
268.681	204.44
268.913	221.44
269.145	247.44
269.377	239.44
269.609	241.44
269.841	264.44
270.073	261.44
270.306	268.44
270.538	297.44
270.77	290.44
271.002	283.44
271.234	272.44
271.466	282.44
271.698	300.44
271.93	306.44
272.162	315.44
272.394	292.44
272.626	291.44
272.858	260.44
273.09	257.44
273.322	265.44
273.553	239.44
273.785	241.44
274.017	234.44
274.249	246.44
274.481	224.44
274.713	243.44
274.945	227.44
275.176	230.44
275.408	242.44
275.64	242.44
275.872	235.44
276.104	241.44
276.335	247.44
276.567	235.44
276.799	261.44
277.031	282.44
277.262	294.44
277.494	280.44
277.726	287.44
277.957	264.44
278.189	245.44
278.421	241.44
278.652	247.44
278.884	227.44
279.115	237.44
279.347	231.44
279.579	236.44
279.81	236.44
280.042	231.44
280.273	234.44
280.505	228.44
280.736	220.44
280.968	239.44
281.199	219.44
281.431	213.44
281.662	216.44
281.894	239.44
282.125	217.44
282.356	244.44
282.588	273.44
282.819	301.44
283.051	240.44
283.282	218.44
283.513	212.44
283.745	216.44
283.976	235.44
284.207	227.44
284.439	213.44
284.67	237.44
284.901	228.44
285.132	227.44
285.364	222.44
285.595	221.44
285.826	230.44
286.057	235.44
286.288	229.44
286.52	228.44
286.751	227.44
286.982	221.44
287.213	219.44
287.444	231.44
287.675	218.44
287.906	229.44
288.138	244.44
288.369	245.44
288.6	257.44
288.831	245.44
289.062	226.44
289.293	243.44
289.524	245.44
289.755	229.44
289.986	228.44
290.217	241.44
290.448	230.44
290.679	239.44
290.91	232.44
291.141	243.44
291.371	233.44
291.602	237.44
291.833	237.44
292.064	221.44
292.295	229.44
292.526	232.44
292.757	244.44
292.987	241.44
293.218	220.44
293.449	233.44
293.68	231.44
293.91	236.44
294.141	240.44
294.372	226.44
294.603	258.44
294.833	229.44
295.064	217.44
295.295	232.44
295.525	250.44
295.756	250.44
295.987	262.44
296.217	297.44
296.448	293.44
296.679	272.44
296.909	247.44
297.14	251.44
297.37	247.44
297.601	236.44
297.831	226.44
298.062	244.44
298.292	253.44
298.523	225.44
298.753	245.44
298.984	229.44
299.214	260.44
299.445	251.44
299.675	250.44
299.905	260.44
300.136	255.44
300.366	270.44
300.597	250.44
300.827	281.44
301.057	267.44
301.288	273.44
301.518	258.44
301.748	261.44
301.979	252.44
302.209	280.44
302.439	252.44
302.669	266.44
302.9	269.44
303.13	260.44
303.36	260.44
303.59	257.44
303.82	285.44
304.051	266.44
304.281	277.44
304.511	266.44
304.741	255.44
304.971	257.44
305.201	271.44
305.431	265.44
305.661	266.44
305.891	252.44
306.121	255.44
306.352	260.44
306.582	272.44
306.812	279.44
307.042	265.44
307.272	264.44
307.502	269.44
307.731	275.44
307.961	265.44
308.191	250.44
308.421	275.44
308.651	287.44
308.881	284.44
309.111	272.44
309.341	283.44
309.571	303.44
309.8	301.44
310.03	327.44
310.26	346.44
310.49	347.44
310.72	326.44
310.949	351.44
311.179	377.44
311.409	356.44
311.639	337.44
311.868	333.44
312.098	345.44
312.328	344.44
312.557	379.44
312.787	401.44
313.017	380.44
313.246	347.44
313.476	338.44
313.706	334.44
313.935	352.44
314.165	349.44
314.394	357.44
314.624	359.44
314.853	370.44
315.083	356.44
315.312	324.44
315.542	335.44
315.771	299.44
316.001	314.44
316.23	317.44
316.46	307.44
316.689	316.44
316.919	317.44
317.148	347.44
317.377	337.44
317.607	338.44
317.836	342.44
318.065	331.44
318.295	317.44
318.524	312.44
318.753	312.44
318.983	315.44
319.212	322.44
319.441	326.44
319.67	332.44
319.9	327.44
320.129	324.44
320.358	347.44
320.587	330.44
320.816	350.44
321.046	353.44
321.275	356.44
321.504	348.44
321.733	351.44
321.962	372.44
322.191	393.44
322.42	390.44
322.649	436.44
322.878	441.44
323.108	453.44
323.337	481.44
323.566	529.44
323.795	595.44
324.024	634.44
324.253	827.44
324.482	1207.44
324.71	1868.44
324.939	2581.44
325.168	2267.44
325.397	1206.44
325.626	802.44
325.855	613.44
326.084	559.44
326.313	532.44
326.542	542.44
326.77	607.44
326.999	739.44
327.228	1033.44
327.457	1649.44
327.686	1920.44
327.914	1340.44
328.143	839.44
328.372	707.44
328.6	650.44
328.829	604.44
329.058	630.44
329.287	653.44
329.515	576.44
329.744	521.44
329.972	500.44
330.201	496.44
330.43	534.44
330.658	601.44
330.887	661.44
331.115	671.44
331.344	530.44
331.572	471.44
331.801	469.44
332.03	473.44
332.258	441.44
332.486	402.44
332.715	399.44
332.943	402.44
333.172	378.44
333.4	357.44
333.629	401.44
333.857	377.44
334.085	390.44
334.314	389.44
334.542	386.44
334.771	401.44
334.999	381.44
335.227	388.44
335.455	370.44
335.684	386.44
335.912	366.44
336.14	345.44
336.369	368.44
336.597	387.44
336.825	378.44
337.053	389.44
337.281	373.44
337.51	364.44
337.738	361.44
337.966	365.44
338.194	387.44
338.422	371.44
338.65	350.44
338.878	358.44
339.106	349.44
339.334	400.44
339.562	349.44
339.79	372.44
340.018	369.44
340.246	364.44
340.474	394.44
340.702	376.44
340.93	381.44
341.158	378.44
341.386	377.44
341.614	363.44
341.842	375.44
342.07	374.44
342.298	356.44
342.526	353.44
342.754	347.44
342.981	342.44
343.209	337.44
343.437	326.44
343.665	358.44
343.893	345.44
344.12	339.44
344.348	358.44
344.576	352.44
344.804	373.44
345.031	407.44
345.259	407.44
345.487	404.44
345.714	389.44
345.942	378.44
346.17	374.44
346.397	341.44
346.625	360.44
346.853	359.44
347.08	363.44
347.308	362.44
347.535	397.44
347.763	397.44
347.99	385.44
348.218	378.44
348.445	380.44
348.673	394.44
348.9	358.44
349.128	358.44
349.355	357.44
349.583	345.44
349.81	338.44
350.037	347.44
350.265	361.44
350.492	349.44
350.72	371.44
350.947	337.44
351.174	364.44
351.402	394.44
351.629	385.44
351.856	391.44
352.083	407.44
352.311	404.44
352.538	395.44
352.765	405.44
352.992	380.44
353.22	379.44
353.447	363.44
353.674	364.44
353.901	339.44
354.128	333.44
354.355	321.44
354.583	329.44
354.81	322.44
355.037	323.44
355.264	313.44
355.491	316.44
355.718	291.44
355.945	315.44
356.172	319.44
356.399	329.44
356.626	314.44
356.853	326.44
357.08	334.44
357.307	344.44
357.534	322.44
357.761	298.44
357.988	318.44
358.215	316.44
358.441	334.44
358.668	345.44
358.895	322.44
359.122	358.44
359.349	378.44
359.576	383.44
359.802	408.44
360.029	430.44
360.256	468.44
360.483	434.44
360.709	385.44
360.936	367.44
361.163	356.44
361.39	374.44
361.616	367.44
361.843	378.44
362.07	378.44
362.296	388.44
362.523	378.44
362.749	376.44
362.976	363.44
363.203	362.44
363.429	341.44
363.656	349.44
363.882	327.44
364.109	348.44
364.335	340.44
364.562	346.44
364.788	336.44
365.015	335.44
365.241	341.44
365.468	366.44
365.694	357.44
365.92	366.44
366.147	360.44
366.373	337.44
366.599	336.44
366.826	326.44
367.052	350.44
367.278	343.44
367.505	328.44
367.731	352.44
367.957	352.44
368.184	353.44
368.41	359.44
368.636	350.44
368.862	364.44
369.089	351.44
369.315	345.44
369.541	344.44
369.767	349.44
369.993	336.44
370.219	345.44
370.445	326.44
370.672	332.44
370.898	326.44
371.124	311.44
371.35	321.44
371.576	343.44
371.802	315.44
372.028	320.44
372.254	316.44
372.48	318.44
372.706	335.44
372.932	319.44
373.158	311.44
373.384	335.44
373.61	315.44
373.835	321.44
374.061	315.44
374.287	341.44
374.513	326.44
374.739	329.44
374.965	333.44
375.191	312.44
375.416	316.44
375.642	314.44
375.868	319.44
376.094	315.44
376.319	325.44
376.545	322.44
376.771	323.44
376.997	309.44
377.222	325.44
377.448	319.44
377.674	316.44
377.899	299.44
378.125	329.44
378.35	319.44
378.576	317.44
378.802	315.44
379.027	328.44
379.253	334.44
379.478	323.44
379.704	311.44
379.929	339.44
380.155	333.44
380.38	309.44
380.606	340.44
380.831	326.44
381.057	331.44
381.282	327.44
381.507	336.44
381.733	339.44
381.958	327.44
382.184	340.44
382.409	330.44
382.634	333.44
382.86	307.44
383.085	357.44
383.31	318.44
383.535	319.44
383.761	317.44
383.986	343.44
384.211	332.44
384.436	330.44
384.662	338.44
384.887	333.44
385.112	350.44
385.337	349.44
385.562	349.44
385.787	342.44
386.013	354.44
386.238	366.44
386.463	363.44
386.688	351.44
386.913	359.44
387.138	336.44
387.363	355.44
387.588	345.44
387.813	347.44
388.038	352.44
388.263	343.44
388.488	349.44
388.713	343.44
388.938	336.44
389.163	353.44
389.387	341.44
389.612	343.44
389.837	353.44
390.062	346.44
390.287	325.44
390.512	339.44
390.736	338.44
390.961	340.44
391.186	344.44
391.411	327.44
391.636	356.44
391.86	348.44
392.085	338.44
392.31	353.44
392.534	359.44
392.759	340.44
392.984	340.44
393.208	339.44
393.433	333.44
393.658	370.44
393.882	343.44
394.107	343.44
394.331	347.44
394.556	347.44
394.78	349.44
395.005	353.44
395.229	354.44
395.454	359.44
395.678	355.44
395.903	363.44
396.127	387.44
396.352	402.44
396.576	369.44
396.801	348.44
397.025	377.44
397.249	364.44
397.474	357.44
397.698	378.44
397.922	376.44
398.147	392.44
398.371	388.44
398.595	386.44
398.82	385.44
399.044	382.44
399.268	396.44
399.492	386.44
399.717	423.44
399.941	428.44
400.165	478.44
400.389	487.44
400.613	433.44
400.837	407.44
401.062	433.44
401.286	411.44
401.51	395.44
401.734	374.44
401.958	401.44
402.182	375.44
402.406	415.44
402.63	434.44
402.854	421.44
403.078	433.44
403.302	428.44
403.526	409.44
403.75	437.44
403.974	408.44
404.198	431.44
404.422	411.44
404.645	422.44
404.869	406.44
405.093	444.44
405.317	452.44
405.541	489.44
405.765	441.44
405.988	419.44
406.212	441.44
406.436	488.44
406.66	512.44
406.883	457.44
407.107	490.44
407.331	515.44
407.555	589.44
407.778	581.44
408.002	519.44
408.226	503.44
408.449	489.44
408.673	482.44
408.896	507.44
409.12	553.44
409.344	507.44
409.567	467.44
409.791	438.44
410.014	435.44
410.238	416.44
410.461	416.44
410.685	423.44
410.908	461.44
411.132	481.44
411.355	513.44
411.578	488.44
411.802	430.44
412.025	402.44
412.249	421.44
412.472	422.44
412.695	436.44
412.919	418.44
413.142	411.44
413.365	364.44
413.589	403.44
413.812	394.44
414.035	409.44
414.258	394.44
414.482	392.44
414.705	396.44
414.928	386.44
415.151	384.44
415.374	373.44
415.597	377.44
415.821	383.44
416.044	399.44
416.267	400.44
416.49	394.44
416.713	389.44
416.936	401.44
417.159	379.44
417.382	403.44
417.605	406.44
417.828	427.44
418.051	432.44
418.274	420.44
418.497	389.44
418.72	399.44
418.943	383.44
419.166	394.44
419.389	427.44
419.611	413.44
419.834	417.44
420.057	416.44
420.28	404.44
420.503	419.44
420.726	414.44
420.948	456.44
421.171	481.44
421.394	524.44
421.617	464.44
421.839	449.44
422.062	424.44
422.285	437.44
422.507	501.44
422.73	569.44
422.953	582.44
423.175	521.44
423.398	474.44
423.621	469.44
423.843	482.44
424.066	499.44
424.288	480.44
424.511	525.44
424.733	573.44
424.956	628.44
425.178	615.44
425.401	608.44
425.623	627.44
425.846	547.44
426.068	513.44
426.291	505.44
426.513	499.44
426.735	511.44
426.958	548.44
427.18	643.44
427.402	740.44
427.625	806.44
427.847	790.44
428.069	653.44
428.292	559.44
428.514	515.44
428.736	478.44
428.958	501.44
429.181	463.44
429.403	452.44
429.625	503.44
429.847	527.44
430.069	594.44
430.292	605.44
430.514	481.44
430.736	483.44
430.958	460.44
431.18	434.44
431.402	427.44
431.624	403.44
431.846	420.44
432.068	441.44
432.29	415.44
432.512	428.44
432.734	418.44
432.956	439.44
433.178	441.44
433.4	443.44
433.622	440.44
433.844	435.44
434.066	418.44
434.287	434.44
434.509	416.44
434.731	418.44
434.953	445.44
435.175	461.44
435.397	479.44
435.618	530.44
435.84	546.44
436.062	640.44
436.284	699.44
436.505	572.44
436.727	537.44
436.949	485.44
437.17	467.44
437.392	472.44
437.614	480.44
437.835	554.44
438.057	658.44
438.278	727.44
438.5	713.44
438.721	773.44
438.943	728.44
439.165	625.44
439.386	551.44
439.608	537.44
439.829	556.44
440.05	587.44
440.272	601.44
440.493	571.44
440.715	512.44
440.936	479.44
441.158	485.44
441.379	470.44
441.6	494.44
441.822	523.44
442.043	549.44
442.264	625.44
442.486	673.44
442.707	573.44
442.928	539.44
443.149	540.44
443.371	589.44
443.592	596.44
443.813	675.44
444.034	725.44
444.255	618.44
444.476	544.44
444.698	520.44
444.919	490.44
445.14	617.44
445.361	572.44
445.582	553.44
445.803	635.44
446.024	724.44
446.245	707.44
446.466	643.44
446.687	580.44
446.908	531.44
447.129	494.44
447.35	475.44
447.571	490.44
447.792	484.44
448.013	486.44
448.234	503.44
448.455	548.44
448.675	671.44
448.896	749.44
449.117	643.44
449.338	624.44
449.559	701.44
449.779	782.44
450	671.44
450.221	529.44
450.442	510.44
450.662	491.44
450.883	521.44
451.104	535.44
451.324	523.44
451.545	497.44
451.766	443.44
451.986	440.44
452.207	435.44
452.428	416.44
452.648	441.44
452.869	420.44
453.089	453.44
453.31	433.44
453.53	452.44
453.751	448.44
453.971	435.44
454.192	467.44
454.412	449.44
454.633	447.44
454.853	450.44
455.073	437.44
455.294	462.44
455.514	503.44
455.734	522.44
455.955	433.44
456.175	405.44
456.395	382.44
456.616	398.44
456.836	381.44
457.056	390.44
457.276	380.44
457.497	390.44
457.717	404.44
457.937	405.44
458.157	407.44
458.377	406.44
458.598	439.44
458.818	516.44
459.038	641.44
459.258	637.44
459.478	515.44
459.698	463.44
459.918	433.44
460.138	427.44
460.358	410.44
460.578	422.44
460.798	432.44
461.018	420.44
461.238	420.44
461.458	392.44
461.678	395.44
461.898	420.44
462.118	407.44
462.338	432.44
462.558	415.44
462.777	424.44
462.997	422.44
463.217	422.44
463.437	427.44
463.657	419.44
463.876	435.44
464.096	425.44
464.316	445.44
464.536	425.44
464.755	433.44
464.975	461.44
465.195	541.44
465.414	671.44
465.634	577.44
465.854	492.44
466.073	460.44
466.293	452.44
466.512	433.44
466.732	439.44
466.951	424.44
467.171	420.44
467.391	426.44
467.61	438.44
467.829	449.44
468.049	436.44
468.268	431.44
468.488	396.44
468.707	401.44
468.927	401.44
469.146	402.44
469.365	391.44
469.585	403.44
469.804	424.44
470.023	443.44
470.243	453.44
470.462	443.44
470.681	459.44
470.901	461.44
471.12	432.44
471.339	406.44
471.558	431.44
471.777	436.44
471.997	411.44
472.216	417.44
472.435	412.44
472.654	398.44
472.873	419.44
473.092	422.44
473.311	420.44
473.53	439.44
473.749	423.44
473.968	484.44
474.187	599.44
474.406	625.44
474.625	522.44
474.844	440.44
475.063	446.44
475.282	433.44
475.501	438.44
475.72	439.44
475.939	447.44
476.158	436.44
476.377	448.44
476.596	432.44
476.814	437.44
477.033	453.44
477.252	466.44
477.471	452.44
477.69	439.44
477.908	440.44
478.127	453.44
478.346	456.44
478.564	467.44
478.783	483.44
479.002	470.44
479.22	476.44
479.439	505.44
479.658	502.44
479.876	530.44
480.095	520.44
480.313	538.44
480.532	537.44
480.751	508.44
480.969	518.44
481.188	551.44
481.406	532.44
481.624	502.44
481.843	507.44
482.061	499.44
482.28	505.44
482.498	506.44
482.717	486.44
482.935	481.44
483.153	462.44
483.372	512.44
483.59	508.44
483.808	512.44
484.027	506.44
484.245	482.44
484.463	531.44
484.681	521.44
484.9	499.44
485.118	527.44
485.336	532.44
485.554	515.44
485.772	523.44
485.99	519.44
486.209	527.44
486.427	530.44
486.645	545.44
486.863	564.44
487.081	577.44
487.299	556.44
487.517	547.44
487.735	557.44
487.953	569.44
488.171	551.44
488.389	564.44
488.607	555.44
488.825	556.44
489.043	559.44
489.261	551.44
489.479	562.44
489.696	551.44
489.914	555.44
490.132	556.44
490.35	576.44
490.568	593.44
490.786	614.44
491.003	582.44
491.221	595.44
491.439	597.44
491.657	631.44
491.874	608.44
492.092	635.44
492.31	631.44
492.527	624.44
492.745	632.44
492.963	638.44
493.18	638.44
493.398	643.44
493.615	649.44
493.833	652.44
494.05	653.44
494.268	623.44
494.485	657.44
494.703	637.44
494.92	675.44
495.138	648.44
495.355	659.44
495.573	679.44
495.79	647.44
496.008	684.44
496.225	661.44
496.442	669.44
496.66	676.44
496.877	651.44
497.094	658.44
497.312	657.44
497.529	664.44
497.746	681.44
497.963	706.44
498.181	737.44
498.398	708.44
498.615	711.44
498.832	713.44
499.049	699.44
499.267	720.44
499.484	730.44
499.701	740.44
499.918	743.44
500.135	770.44
500.352	791.44
500.569	776.44
500.786	784.44
501.003	767.44
501.22	775.44
501.437	785.44
501.654	791.44
501.871	794.44
