Data from 1987.PennyLincolnUp.Lamp.En5.5.200Scan.071819.P2_HRD10591_17-13-48-972.txt Node
Date: Thu Jul 18 17:13:48 EDT 2019
User: cochatt
Spectrometer: HR+D1059
Trigger mode: 1
Integration Time (sec): 1.000000E-1
Scans to average: 1
Electric dark correction enabled: true
Nonlinearity correction enabled: false
Boxcar width: 0
XAxis mode: Wavelengths
Number of Pixels in Spectrum: 2048
>>>>>Begin Spectral Data<<<<<
223.165	-6.75
223.4	-6.75
223.635	-6.75
223.869	-6.75
224.104	-30.75
224.338	4.25
224.573	-13.75
224.808	-0.75
225.042	-14.75
225.277	-20.75
225.511	-14.75
225.746	-8.75
225.98	9.25
226.215	12.25
226.449	15.25
226.683	19.25
226.918	28.25
227.152	29.25
227.387	42.25
227.621	36.25
227.856	44.25
228.09	49.25
228.324	53.25
228.559	68.25
228.793	72.25
229.027	107.25
229.262	111.25
229.496	120.25
229.73	147.25
229.964	171.25
230.199	135.25
230.433	117.25
230.667	121.25
230.901	137.25
231.136	121.25
231.37	108.25
231.604	122.25
231.838	92.25
232.072	109.25
232.306	116.25
232.541	128.25
232.775	99.25
233.009	112.25
233.243	107.25
233.477	97.25
233.711	112.25
233.945	120.25
234.179	117.25
234.413	110.25
234.647	113.25
234.881	101.25
235.115	105.25
235.349	127.25
235.583	116.25
235.817	108.25
236.051	122.25
236.285	119.25
236.519	132.25
236.753	153.25
236.987	165.25
237.221	200.25
237.455	247.25
237.689	203.25
237.922	163.25
238.156	148.25
238.39	124.25
238.624	130.25
238.858	104.25
239.091	126.25
239.325	130.25
239.559	127.25
239.793	135.25
240.027	129.25
240.26	141.25
240.494	159.25
240.728	159.25
240.961	159.25
241.195	140.25
241.429	131.25
241.662	118.25
241.896	134.25
242.13	124.25
242.363	123.25
242.597	136.25
242.83	135.25
243.064	123.25
243.298	129.25
243.531	125.25
243.765	121.25
243.998	120.25
244.232	141.25
244.465	133.25
244.699	129.25
244.932	133.25
245.166	127.25
245.399	131.25
245.633	134.25
245.866	136.25
246.099	125.25
246.333	143.25
246.566	149.25
246.8	148.25
247.033	150.25
247.266	147.25
247.5	142.25
247.733	171.25
247.966	165.25
248.2	161.25
248.433	164.25
248.666	170.25
248.899	190.25
249.133	200.25
249.366	204.25
249.599	195.25
249.832	192.25
250.066	178.25
250.299	171.25
250.532	191.25
250.765	180.25
250.998	199.25
251.231	222.25
251.465	196.25
251.698	212.25
251.931	200.25
252.164	211.25
252.397	179.25
252.63	192.25
252.863	200.25
253.096	219.25
253.329	215.25
253.562	197.25
253.795	208.25
254.028	206.25
254.261	203.25
254.494	209.25
254.727	219.25
254.96	271.25
255.193	249.25
255.426	234.25
255.659	216.25
255.892	211.25
256.124	220.25
256.357	192.25
256.59	195.25
256.823	186.25
257.056	192.25
257.289	201.25
257.521	164.25
257.754	186.25
257.987	185.25
258.22	187.25
258.452	173.25
258.685	184.25
258.918	191.25
259.151	187.25
259.383	214.25
259.616	187.25
259.849	209.25
260.081	213.25
260.314	230.25
260.547	234.25
260.779	223.25
261.012	229.25
261.244	210.25
261.477	211.25
261.71	221.25
261.942	227.25
262.175	212.25
262.407	239.25
262.64	215.25
262.872	192.25
263.105	200.25
263.337	195.25
263.57	189.25
263.802	183.25
264.035	180.25
264.267	192.25
264.499	176.25
264.732	187.25
264.964	185.25
265.197	178.25
265.429	194.25
265.661	188.25
265.894	186.25
266.126	176.25
266.358	187.25
266.591	191.25
266.823	179.25
267.055	183.25
267.287	201.25
267.52	209.25
267.752	191.25
267.984	198.25
268.216	210.25
268.448	214.25
268.681	210.25
268.913	212.25
269.145	226.25
269.377	225.25
269.609	233.25
269.841	248.25
270.073	258.25
270.306	268.25
270.538	291.25
270.77	292.25
271.002	274.25
271.234	266.25
271.466	280.25
271.698	294.25
271.93	293.25
272.162	297.25
272.394	306.25
272.626	279.25
272.858	264.25
273.09	257.25
273.322	257.25
273.553	234.25
273.785	247.25
274.017	232.25
274.249	223.25
274.481	237.25
274.713	245.25
274.945	229.25
275.176	231.25
275.408	246.25
275.64	234.25
275.872	226.25
276.104	231.25
276.335	224.25
276.567	258.25
276.799	263.25
277.031	291.25
277.262	301.25
277.494	280.25
277.726	270.25
277.957	256.25
278.189	259.25
278.421	219.25
278.652	220.25
278.884	223.25
279.115	227.25
279.347	239.25
279.579	271.25
279.81	328.25
280.042	289.25
280.273	266.25
280.505	275.25
280.736	253.25
280.968	221.25
281.199	228.25
281.431	221.25
281.662	221.25
281.894	214.25
282.125	252.25
282.356	253.25
282.588	283.25
282.819	274.25
283.051	251.25
283.282	233.25
283.513	247.25
283.745	231.25
283.976	215.25
284.207	213.25
284.439	245.25
284.67	228.25
284.901	210.25
285.132	230.25
285.364	243.25
285.595	226.25
285.826	217.25
286.057	251.25
286.288	223.25
286.52	228.25
286.751	204.25
286.982	225.25
287.213	223.25
287.444	228.25
287.675	235.25
287.906	234.25
288.138	257.25
288.369	255.25
288.6	248.25
288.831	259.25
289.062	267.25
289.293	228.25
289.524	236.25
289.755	230.25
289.986	216.25
290.217	236.25
290.448	234.25
290.679	238.25
290.91	211.25
291.141	232.25
291.371	235.25
291.602	218.25
291.833	228.25
292.064	205.25
292.295	214.25
292.526	225.25
292.757	239.25
292.987	223.25
293.218	239.25
293.449	233.25
293.68	230.25
293.91	223.25
294.141	241.25
294.372	245.25
294.603	245.25
294.833	222.25
295.064	241.25
295.295	231.25
295.525	228.25
295.756	243.25
295.987	251.25
296.217	278.25
296.448	298.25
296.679	261.25
296.909	232.25
297.14	250.25
297.37	229.25
297.601	237.25
297.831	239.25
298.062	241.25
298.292	241.25
298.523	242.25
298.753	246.25
298.984	255.25
299.214	233.25
299.445	253.25
299.675	268.25
299.905	279.25
300.136	240.25
300.366	247.25
300.597	245.25
300.827	248.25
301.057	248.25
301.288	285.25
301.518	268.25
301.748	266.25
301.979	262.25
302.209	281.25
302.439	258.25
302.669	268.25
302.9	272.25
303.13	260.25
303.36	269.25
303.59	265.25
303.82	294.25
304.051	293.25
304.281	265.25
304.511	260.25
304.741	264.25
304.971	264.25
305.201	285.25
305.431	261.25
305.661	267.25
305.891	265.25
306.121	281.25
306.352	277.25
306.582	292.25
306.812	278.25
307.042	271.25
307.272	276.25
307.502	268.25
307.731	288.25
307.961	260.25
308.191	273.25
308.421	276.25
308.651	283.25
308.881	309.25
309.111	308.25
309.341	298.25
309.571	313.25
309.8	329.25
310.03	332.25
310.26	341.25
310.49	357.25
310.72	360.25
310.949	395.25
311.179	383.25
311.409	354.25
311.639	347.25
311.868	342.25
312.098	335.25
312.328	340.25
312.557	384.25
312.787	389.25
313.017	403.25
313.246	356.25
313.476	330.25
313.706	353.25
313.935	356.25
314.165	368.25
314.394	380.25
314.624	369.25
314.853	370.25
315.083	341.25
315.312	337.25
315.542	319.25
315.771	322.25
316.001	339.25
316.23	327.25
316.46	330.25
316.689	327.25
316.919	342.25
317.148	345.25
317.377	357.25
317.607	354.25
317.836	345.25
318.065	349.25
318.295	358.25
318.524	349.25
318.753	340.25
318.983	317.25
319.212	331.25
319.441	321.25
319.67	329.25
319.9	322.25
320.129	337.25
320.358	327.25
320.587	348.25
320.816	355.25
321.046	367.25
321.275	377.25
321.504	370.25
321.733	371.25
321.962	381.25
322.191	417.25
322.42	410.25
322.649	438.25
322.878	463.25
323.108	503.25
323.337	537.25
323.566	566.25
323.795	625.25
324.024	712.25
324.253	931.25
324.482	1367.25
324.71	2153.25
324.939	3005.25
325.168	2573.25
325.397	1365.25
325.626	873.25
325.855	663.25
326.084	583.25
326.313	547.25
326.542	573.25
326.77	653.25
326.999	800.25
327.228	1196.25
327.457	1864.25
327.686	2276.25
327.914	1537.25
328.143	943.25
328.372	777.25
328.6	679.25
328.829	657.25
329.058	649.25
329.287	714.25
329.515	617.25
329.744	533.25
329.972	496.25
330.201	531.25
330.43	583.25
330.658	641.25
330.887	708.25
331.115	666.25
331.344	539.25
331.572	487.25
331.801	482.25
332.03	494.25
332.258	431.25
332.486	417.25
332.715	373.25
332.943	376.25
333.172	383.25
333.4	362.25
333.629	401.25
333.857	399.25
334.085	419.25
334.314	389.25
334.542	413.25
334.771	439.25
334.999	411.25
335.227	411.25
335.455	396.25
335.684	377.25
335.912	383.25
336.14	365.25
336.369	387.25
336.597	394.25
336.825	374.25
337.053	374.25
337.281	377.25
337.51	367.25
337.738	378.25
337.966	392.25
338.194	391.25
338.422	391.25
338.65	384.25
338.878	356.25
339.106	365.25
339.334	333.25
339.562	359.25
339.79	346.25
340.018	368.25
340.246	356.25
340.474	357.25
340.702	371.25
340.93	363.25
341.158	364.25
341.386	362.25
341.614	384.25
341.842	363.25
342.07	353.25
342.298	377.25
342.526	363.25
342.754	340.25
342.981	324.25
343.209	334.25
343.437	331.25
343.665	339.25
343.893	334.25
344.12	344.25
344.348	346.25
344.576	364.25
344.804	388.25
345.031	389.25
345.259	407.25
345.487	398.25
345.714	381.25
345.942	376.25
346.17	359.25
346.397	361.25
346.625	360.25
346.853	361.25
347.08	358.25
347.308	394.25
347.535	384.25
347.763	409.25
347.99	398.25
348.218	381.25
348.445	423.25
348.673	411.25
348.9	369.25
349.128	358.25
349.355	359.25
349.583	365.25
349.81	369.25
350.037	337.25
350.265	343.25
350.492	338.25
350.72	339.25
350.947	368.25
351.174	382.25
351.402	403.25
351.629	404.25
351.856	376.25
352.083	380.25
352.311	436.25
352.538	440.25
352.765	425.25
352.992	427.25
353.22	385.25
353.447	375.25
353.674	370.25
353.901	356.25
354.128	340.25
354.355	332.25
354.583	343.25
354.81	314.25
355.037	330.25
355.264	321.25
355.491	315.25
355.718	300.25
355.945	310.25
356.172	307.25
356.399	303.25
356.626	305.25
356.853	330.25
357.08	329.25
357.307	311.25
357.534	323.25
357.761	327.25
357.988	329.25
358.215	325.25
358.441	340.25
358.668	327.25
358.895	353.25
359.122	347.25
359.349	375.25
359.576	373.25
359.802	433.25
360.029	480.25
360.256	478.25
360.483	454.25
360.709	390.25
360.936	394.25
361.163	386.25
361.39	393.25
361.616	392.25
361.843	378.25
362.07	392.25
362.296	409.25
362.523	376.25
362.749	376.25
362.976	371.25
363.203	360.25
363.429	356.25
363.656	358.25
363.882	360.25
364.109	329.25
364.335	341.25
364.562	353.25
364.788	330.25
365.015	348.25
365.241	349.25
365.468	359.25
365.694	354.25
365.92	355.25
366.147	376.25
366.373	346.25
366.599	336.25
366.826	311.25
367.052	314.25
367.278	341.25
367.505	347.25
367.731	355.25
367.957	341.25
368.184	326.25
368.41	369.25
368.636	355.25
368.862	347.25
369.089	341.25
369.315	336.25
369.541	353.25
369.767	327.25
369.993	335.25
370.219	343.25
370.445	321.25
370.672	316.25
370.898	319.25
371.124	351.25
371.35	321.25
371.576	324.25
371.802	312.25
372.028	326.25
372.254	331.25
372.48	315.25
372.706	320.25
372.932	321.25
373.158	310.25
373.384	336.25
373.61	325.25
373.835	334.25
374.061	323.25
374.287	319.25
374.513	342.25
374.739	324.25
374.965	321.25
375.191	324.25
375.416	333.25
375.642	315.25
375.868	330.25
376.094	314.25
376.319	336.25
376.545	310.25
376.771	330.25
376.997	338.25
377.222	312.25
377.448	314.25
377.674	306.25
377.899	289.25
378.125	305.25
378.35	315.25
378.576	321.25
378.802	298.25
379.027	313.25
379.253	325.25
379.478	305.25
379.704	307.25
379.929	321.25
380.155	319.25
380.38	320.25
380.606	321.25
380.831	325.25
381.057	322.25
381.282	326.25
381.507	317.25
381.733	339.25
381.958	323.25
382.184	334.25
382.409	327.25
382.634	344.25
382.86	335.25
383.085	325.25
383.31	330.25
383.535	321.25
383.761	324.25
383.986	338.25
384.211	337.25
384.436	339.25
384.662	319.25
384.887	324.25
385.112	319.25
385.337	337.25
385.562	346.25
385.787	341.25
386.013	375.25
386.238	388.25
386.463	362.25
386.688	361.25
386.913	332.25
387.138	356.25
387.363	357.25
387.588	346.25
387.813	329.25
388.038	359.25
388.263	338.25
388.488	349.25
388.713	329.25
388.938	341.25
389.163	363.25
389.387	371.25
389.612	340.25
389.837	334.25
390.062	336.25
390.287	343.25
390.512	354.25
390.736	337.25
390.961	343.25
391.186	338.25
391.411	345.25
391.636	335.25
391.86	340.25
392.085	345.25
392.31	354.25
392.534	370.25
392.759	385.25
392.984	406.25
393.208	504.25
393.433	714.25
393.658	783.25
393.882	463.25
394.107	391.25
394.331	373.25
394.556	340.25
394.78	343.25
395.005	346.25
395.229	349.25
395.454	363.25
395.678	354.25
395.903	370.25
396.127	400.25
396.352	431.25
396.576	437.25
396.801	512.25
397.025	607.25
397.249	521.25
397.474	400.25
397.698	384.25
397.922	386.25
398.147	383.25
398.371	387.25
398.595	380.25
398.82	363.25
399.044	371.25
399.268	385.25
399.492	408.25
399.717	404.25
399.941	446.25
400.165	470.25
400.389	474.25
400.613	429.25
400.837	415.25
401.062	413.25
401.286	398.25
401.51	390.25
401.734	389.25
401.958	388.25
402.182	392.25
402.406	404.25
402.63	433.25
402.854	413.25
403.078	425.25
403.302	391.25
403.526	392.25
403.75	400.25
403.974	399.25
404.198	395.25
404.422	417.25
404.645	422.25
404.869	425.25
405.093	422.25
405.317	451.25
405.541	503.25
405.765	471.25
405.988	447.25
406.212	453.25
406.436	487.25
406.66	490.25
406.883	459.25
407.107	487.25
407.331	514.25
407.555	576.25
407.778	569.25
408.002	537.25
408.226	490.25
408.449	464.25
408.673	467.25
408.896	505.25
409.12	520.25
409.344	493.25
409.567	449.25
409.791	431.25
410.014	427.25
410.238	392.25
410.461	411.25
410.685	412.25
410.908	439.25
411.132	456.25
411.355	509.25
411.578	476.25
411.802	426.25
412.025	427.25
412.249	409.25
412.472	402.25
412.695	443.25
412.919	441.25
413.142	401.25
413.365	383.25
413.589	392.25
413.812	393.25
414.035	398.25
414.258	391.25
414.482	376.25
414.705	389.25
414.928	387.25
415.151	376.25
415.374	368.25
415.597	386.25
415.821	378.25
416.044	380.25
416.267	422.25
416.49	396.25
416.713	390.25
416.936	379.25
417.159	386.25
417.382	389.25
417.605	401.25
417.828	398.25
418.051	426.25
418.274	391.25
418.497	402.25
418.72	404.25
418.943	385.25
419.166	393.25
419.389	428.25
419.611	433.25
419.834	409.25
420.057	407.25
420.28	412.25
420.503	409.25
420.726	411.25
420.948	457.25
421.171	463.25
421.394	511.25
421.617	458.25
421.839	401.25
422.062	422.25
422.285	452.25
422.507	508.25
422.73	651.25
422.953	658.25
423.175	496.25
423.398	448.25
423.621	437.25
423.843	472.25
424.066	475.25
424.288	476.25
424.511	495.25
424.733	571.25
424.956	628.25
425.178	608.25
425.401	626.25
425.623	601.25
425.846	531.25
426.068	497.25
426.291	498.25
426.513	493.25
426.735	504.25
426.958	537.25
427.18	639.25
427.402	769.25
427.625	825.25
427.847	821.25
428.069	666.25
428.292	597.25
428.514	539.25
428.736	501.25
428.958	473.25
429.181	456.25
429.403	461.25
429.625	472.25
429.847	507.25
430.069	581.25
430.292	575.25
430.514	499.25
430.736	475.25
430.958	447.25
431.18	441.25
431.402	420.25
431.624	408.25
431.846	398.25
432.068	405.25
432.29	418.25
432.512	416.25
432.734	422.25
432.956	435.25
433.178	431.25
433.4	462.25
433.622	406.25
433.844	421.25
434.066	397.25
434.287	412.25
434.509	409.25
434.731	401.25
434.953	433.25
435.175	444.25
435.397	470.25
435.618	495.25
435.84	537.25
436.062	627.25
436.284	695.25
436.505	575.25
436.727	528.25
436.949	496.25
437.17	458.25
437.392	469.25
437.614	484.25
437.835	547.25
438.057	674.25
438.278	751.25
438.5	735.25
438.721	768.25
438.943	750.25
439.165	603.25
439.386	526.25
439.608	541.25
439.829	556.25
440.05	591.25
440.272	622.25
440.493	587.25
440.715	517.25
440.936	493.25
441.158	498.25
441.379	466.25
441.6	473.25
441.822	504.25
442.043	559.25
442.264	629.25
442.486	646.25
442.707	551.25
442.928	542.25
443.149	537.25
443.371	555.25
443.592	588.25
443.813	668.25
444.034	683.25
444.255	597.25
444.476	528.25
444.698	482.25
444.919	492.25
445.14	595.25
445.361	545.25
445.582	571.25
445.803	628.25
446.024	730.25
446.245	740.25
446.466	680.25
446.687	578.25
446.908	515.25
447.129	479.25
447.35	479.25
447.571	486.25
447.792	474.25
448.013	487.25
448.234	523.25
448.455	565.25
448.675	677.25
448.896	736.25
449.117	658.25
449.338	624.25
449.559	726.25
449.779	780.25
450	653.25
450.221	543.25
450.442	523.25
450.662	494.25
450.883	511.25
451.104	534.25
451.324	517.25
451.545	503.25
451.766	471.25
451.986	475.25
452.207	415.25
452.428	408.25
452.648	410.25
452.869	428.25
453.089	425.25
453.31	461.25
453.53	432.25
453.751	423.25
453.971	454.25
454.192	477.25
454.412	483.25
454.633	449.25
454.853	433.25
455.073	423.25
455.294	477.25
455.514	578.25
455.734	559.25
455.955	432.25
456.175	399.25
456.395	404.25
456.616	384.25
456.836	386.25
457.056	371.25
457.276	378.25
457.497	385.25
457.717	391.25
457.937	405.25
458.157	364.25
458.377	405.25
458.598	452.25
458.818	559.25
459.038	657.25
459.258	656.25
459.478	538.25
459.698	454.25
459.918	451.25
460.138	442.25
460.358	431.25
460.578	418.25
460.798	396.25
461.018	431.25
461.238	407.25
461.458	397.25
461.678	412.25
461.898	415.25
462.118	411.25
462.338	410.25
462.558	405.25
462.777	396.25
462.997	402.25
463.217	417.25
463.437	412.25
463.657	405.25
463.876	422.25
464.096	432.25
464.316	424.25
464.536	457.25
464.755	456.25
464.975	490.25
465.195	564.25
465.414	712.25
465.634	612.25
465.854	529.25
466.073	465.25
466.293	455.25
466.512	441.25
466.732	419.25
466.951	437.25
467.171	416.25
467.391	415.25
467.61	447.25
467.829	461.25
468.049	447.25
468.268	412.25
468.488	395.25
468.707	432.25
468.927	396.25
469.146	400.25
469.365	405.25
469.585	394.25
469.804	421.25
470.023	457.25
470.243	448.25
470.462	455.25
470.681	475.25
470.901	469.25
471.12	449.25
471.339	444.25
471.558	440.25
471.777	426.25
471.997	419.25
472.216	435.25
472.435	438.25
472.654	404.25
472.873	411.25
473.092	411.25
473.311	405.25
473.53	419.25
473.749	435.25
473.968	488.25
474.187	599.25
474.406	591.25
474.625	506.25
474.844	466.25
475.063	432.25
475.282	436.25
475.501	440.25
475.72	454.25
475.939	431.25
476.158	444.25
476.377	440.25
476.596	442.25
476.814	456.25
477.033	473.25
477.252	471.25
477.471	453.25
477.69	441.25
477.908	453.25
478.127	457.25
478.346	463.25
478.564	467.25
478.783	469.25
479.002	461.25
479.22	483.25
479.439	502.25
479.658	543.25
479.876	540.25
480.095	534.25
480.313	552.25
480.532	551.25
480.751	515.25
480.969	517.25
481.188	524.25
481.406	563.25
481.624	532.25
481.843	506.25
482.061	499.25
482.28	485.25
482.498	509.25
482.717	507.25
482.935	502.25
483.153	488.25
483.372	502.25
483.59	506.25
483.808	498.25
484.027	531.25
484.245	525.25
484.463	503.25
484.681	529.25
484.9	523.25
485.118	529.25
485.336	511.25
485.554	526.25
485.772	536.25
485.99	531.25
486.209	540.25
486.427	554.25
486.645	560.25
486.863	588.25
487.081	609.25
487.299	601.25
487.517	549.25
487.735	552.25
487.953	543.25
488.171	522.25
488.389	557.25
488.607	549.25
488.825	559.25
489.043	546.25
489.261	586.25
489.479	574.25
489.696	554.25
489.914	571.25
490.132	570.25
490.35	578.25
490.568	582.25
490.786	588.25
491.003	607.25
491.221	591.25
491.439	596.25
491.657	635.25
491.874	625.25
492.092	631.25
492.31	635.25
492.527	619.25
492.745	637.25
492.963	629.25
493.18	651.25
493.398	647.25
493.615	679.25
493.833	663.25
494.05	650.25
494.268	647.25
494.485	654.25
494.703	677.25
494.92	644.25
495.138	661.25
495.355	677.25
495.573	676.25
495.79	645.25
496.008	662.25
496.225	648.25
496.442	653.25
496.66	683.25
496.877	667.25
497.094	647.25
497.312	672.25
497.529	643.25
497.746	649.25
497.963	673.25
498.181	693.25
498.398	709.25
498.615	689.25
498.832	716.25
499.049	703.25
499.267	694.25
499.484	685.25
499.701	702.25
499.918	697.25
500.135	728.25
500.352	751.25
500.569	769.25
500.786	758.25
501.003	772.25
501.22	767.25
501.437	768.25
501.654	783.25
501.871	790.25
