Data from 1987.PennyLincolnUp.Lamp.En5.5.200Scan.071819.P2_HRD10591_17-15-07-973.txt Node
Date: Thu Jul 18 17:15:07 EDT 2019
User: cochatt
Spectrometer: HR+D1059
Trigger mode: 1
Integration Time (sec): 1.000000E-1
Scans to average: 1
Electric dark correction enabled: true
Nonlinearity correction enabled: false
Boxcar width: 0
XAxis mode: Wavelengths
Number of Pixels in Spectrum: 2048
>>>>>Begin Spectral Data<<<<<
223.165	-9.38
223.4	-9.38
223.635	-9.38
223.869	-8.38
224.104	-17.38
224.338	-13.38
224.573	-33.38
224.808	-11.38
225.042	-3.38
225.277	-17.38
225.511	-9.38
225.746	3.62
225.98	12.62
226.215	14.62
226.449	13.62
226.683	19.62
226.918	23.62
227.152	35.62
227.387	26.62
227.621	54.62
227.856	47.62
228.09	52.62
228.324	42.62
228.559	53.62
228.793	67.62
229.027	106.62
229.262	118.62
229.496	126.62
229.73	127.62
229.964	158.62
230.199	131.62
230.433	111.62
230.667	125.62
230.901	116.62
231.136	116.62
231.37	116.62
231.604	101.62
231.838	98.62
232.072	116.62
232.306	116.62
232.541	109.62
232.775	112.62
233.009	121.62
233.243	116.62
233.477	106.62
233.711	119.62
233.945	119.62
234.179	118.62
234.413	119.62
234.647	117.62
234.881	111.62
235.115	123.62
235.349	128.62
235.583	109.62
235.817	114.62
236.051	118.62
236.285	124.62
236.519	119.62
236.753	141.62
236.987	160.62
237.221	184.62
237.455	260.62
237.689	195.62
237.922	149.62
238.156	142.62
238.39	144.62
238.624	128.62
238.858	124.62
239.091	141.62
239.325	120.62
239.559	130.62
239.793	133.62
240.027	124.62
240.26	143.62
240.494	161.62
240.728	161.62
240.961	143.62
241.195	141.62
241.429	119.62
241.662	112.62
241.896	118.62
242.13	126.62
242.363	132.62
242.597	130.62
242.83	128.62
243.064	132.62
243.298	133.62
243.531	134.62
243.765	133.62
243.998	126.62
244.232	124.62
244.465	135.62
244.699	155.62
244.932	145.62
245.166	151.62
245.399	138.62
245.633	133.62
245.866	132.62
246.099	137.62
246.333	133.62
246.566	142.62
246.8	133.62
247.033	141.62
247.266	131.62
247.5	143.62
247.733	168.62
247.966	155.62
248.2	171.62
248.433	154.62
248.666	173.62
248.899	184.62
249.133	199.62
249.366	198.62
249.599	203.62
249.832	182.62
250.066	160.62
250.299	164.62
250.532	184.62
250.765	190.62
250.998	223.62
251.231	189.62
251.465	212.62
251.698	206.62
251.931	194.62
252.164	191.62
252.397	165.62
252.63	177.62
252.863	199.62
253.096	206.62
253.329	211.62
253.562	216.62
253.795	212.62
254.028	206.62
254.261	226.62
254.494	215.62
254.727	235.62
254.96	262.62
255.193	276.62
255.426	267.62
255.659	224.62
255.892	217.62
256.124	208.62
256.357	211.62
256.59	197.62
256.823	199.62
257.056	201.62
257.289	185.62
257.521	180.62
257.754	205.62
257.987	194.62
258.22	185.62
258.452	192.62
258.685	191.62
258.918	170.62
259.151	192.62
259.383	207.62
259.616	200.62
259.849	223.62
260.081	211.62
260.314	246.62
260.547	250.62
260.779	214.62
261.012	213.62
261.244	220.62
261.477	216.62
261.71	214.62
261.942	223.62
262.175	237.62
262.407	220.62
262.64	206.62
262.872	211.62
263.105	201.62
263.337	197.62
263.57	194.62
263.802	186.62
264.035	184.62
264.267	181.62
264.499	192.62
264.732	206.62
264.964	200.62
265.197	196.62
265.429	187.62
265.661	182.62
265.894	176.62
266.126	214.62
266.358	191.62
266.591	206.62
266.823	194.62
267.055	200.62
267.287	194.62
267.52	194.62
267.752	193.62
267.984	205.62
268.216	195.62
268.448	203.62
268.681	222.62
268.913	219.62
269.145	222.62
269.377	238.62
269.609	235.62
269.841	244.62
270.073	246.62
270.306	287.62
270.538	293.62
270.77	303.62
271.002	282.62
271.234	288.62
271.466	304.62
271.698	282.62
271.93	288.62
272.162	302.62
272.394	308.62
272.626	282.62
272.858	280.62
273.09	266.62
273.322	254.62
273.553	239.62
273.785	246.62
274.017	255.62
274.249	250.62
274.481	237.62
274.713	229.62
274.945	231.62
275.176	231.62
275.408	229.62
275.64	231.62
275.872	237.62
276.104	227.62
276.335	244.62
276.567	217.62
276.799	254.62
277.031	286.62
277.262	284.62
277.494	284.62
277.726	254.62
277.957	243.62
278.189	238.62
278.421	247.62
278.652	221.62
278.884	233.62
279.115	223.62
279.347	242.62
279.579	212.62
279.81	232.62
280.042	223.62
280.273	232.62
280.505	225.62
280.736	234.62
280.968	224.62
281.199	214.62
281.431	214.62
281.662	233.62
281.894	235.62
282.125	226.62
282.356	232.62
282.588	282.62
282.819	268.62
283.051	247.62
283.282	231.62
283.513	214.62
283.745	240.62
283.976	226.62
284.207	230.62
284.439	226.62
284.67	219.62
284.901	216.62
285.132	217.62
285.364	216.62
285.595	231.62
285.826	235.62
286.057	224.62
286.288	228.62
286.52	226.62
286.751	236.62
286.982	230.62
287.213	209.62
287.444	250.62
287.675	238.62
287.906	245.62
288.138	254.62
288.369	235.62
288.6	246.62
288.831	237.62
289.062	258.62
289.293	244.62
289.524	242.62
289.755	222.62
289.986	229.62
290.217	240.62
290.448	244.62
290.679	215.62
290.91	242.62
291.141	234.62
291.371	219.62
291.602	240.62
291.833	224.62
292.064	219.62
292.295	239.62
292.526	242.62
292.757	228.62
292.987	245.62
293.218	240.62
293.449	236.62
293.68	224.62
293.91	238.62
294.141	247.62
294.372	226.62
294.603	228.62
294.833	210.62
295.064	240.62
295.295	230.62
295.525	246.62
295.756	244.62
295.987	260.62
296.217	274.62
296.448	299.62
296.679	259.62
296.909	237.62
297.14	244.62
297.37	240.62
297.601	230.62
297.831	246.62
298.062	257.62
298.292	246.62
298.523	262.62
298.753	258.62
298.984	235.62
299.214	239.62
299.445	243.62
299.675	259.62
299.905	262.62
300.136	256.62
300.366	231.62
300.597	248.62
300.827	264.62
301.057	264.62
301.288	264.62
301.518	256.62
301.748	257.62
301.979	272.62
302.209	268.62
302.439	256.62
302.669	236.62
302.9	262.62
303.13	256.62
303.36	268.62
303.59	266.62
303.82	270.62
304.051	277.62
304.281	268.62
304.511	258.62
304.741	264.62
304.971	264.62
305.201	247.62
305.431	271.62
305.661	277.62
305.891	263.62
306.121	263.62
306.352	276.62
306.582	290.62
306.812	278.62
307.042	271.62
307.272	272.62
307.502	272.62
307.731	261.62
307.961	276.62
308.191	271.62
308.421	257.62
308.651	282.62
308.881	277.62
309.111	299.62
309.341	277.62
309.571	306.62
309.8	310.62
310.03	329.62
310.26	335.62
310.49	310.62
310.72	338.62
310.949	381.62
311.179	386.62
311.409	332.62
311.639	327.62
311.868	331.62
312.098	319.62
312.328	333.62
312.557	376.62
312.787	376.62
313.017	379.62
313.246	354.62
313.476	328.62
313.706	338.62
313.935	320.62
314.165	340.62
314.394	374.62
314.624	353.62
314.853	335.62
315.083	337.62
315.312	338.62
315.542	311.62
315.771	320.62
316.001	321.62
316.23	333.62
316.46	310.62
316.689	336.62
316.919	331.62
317.148	350.62
317.377	342.62
317.607	332.62
317.836	307.62
318.065	333.62
318.295	331.62
318.524	301.62
318.753	319.62
318.983	331.62
319.212	336.62
319.441	351.62
319.67	334.62
319.9	348.62
320.129	332.62
320.358	328.62
320.587	334.62
320.816	366.62
321.046	358.62
321.275	354.62
321.504	362.62
321.733	367.62
321.962	377.62
322.191	386.62
322.42	384.62
322.649	427.62
322.878	434.62
323.108	456.62
323.337	483.62
323.566	525.62
323.795	578.62
324.024	650.62
324.253	773.62
324.482	1181.62
324.71	1817.62
324.939	2535.62
325.168	2212.62
325.397	1196.62
325.626	790.62
325.855	606.62
326.084	551.62
326.313	534.62
326.542	539.62
326.77	598.62
326.999	720.62
327.228	998.62
327.457	1561.62
327.686	1942.62
327.914	1334.62
328.143	860.62
328.372	723.62
328.6	655.62
328.829	629.62
329.058	638.62
329.287	637.62
329.515	579.62
329.744	504.62
329.972	464.62
330.201	489.62
330.43	504.62
330.658	594.62
330.887	669.62
331.115	624.62
331.344	532.62
331.572	512.62
331.801	490.62
332.03	475.62
332.258	420.62
332.486	408.62
332.715	371.62
332.943	374.62
333.172	381.62
333.4	377.62
333.629	390.62
333.857	383.62
334.085	406.62
334.314	371.62
334.542	372.62
334.771	363.62
334.999	378.62
335.227	386.62
335.455	377.62
335.684	357.62
335.912	366.62
336.14	367.62
336.369	367.62
336.597	379.62
336.825	370.62
337.053	380.62
337.281	388.62
337.51	347.62
337.738	372.62
337.966	375.62
338.194	378.62
338.422	382.62
338.65	368.62
338.878	370.62
339.106	352.62
339.334	358.62
339.562	352.62
339.79	357.62
340.018	356.62
340.246	364.62
340.474	376.62
340.702	379.62
340.93	358.62
341.158	380.62
341.386	376.62
341.614	376.62
341.842	366.62
342.07	357.62
342.298	348.62
342.526	355.62
342.754	357.62
342.981	355.62
343.209	333.62
343.437	346.62
343.665	351.62
343.893	348.62
344.12	367.62
344.348	365.62
344.576	349.62
344.804	373.62
345.031	402.62
345.259	408.62
345.487	388.62
345.714	376.62
345.942	371.62
346.17	356.62
346.397	346.62
346.625	372.62
346.853	373.62
347.08	363.62
347.308	362.62
347.535	363.62
347.763	381.62
347.99	378.62
348.218	388.62
348.445	397.62
348.673	390.62
348.9	381.62
349.128	362.62
349.355	351.62
349.583	353.62
349.81	353.62
350.037	328.62
350.265	343.62
350.492	358.62
350.72	337.62
350.947	378.62
351.174	371.62
351.402	372.62
351.629	395.62
351.856	375.62
352.083	398.62
352.311	392.62
352.538	403.62
352.765	408.62
352.992	394.62
353.22	383.62
353.447	389.62
353.674	344.62
353.901	338.62
354.128	319.62
354.355	336.62
354.583	318.62
354.81	311.62
355.037	330.62
355.264	318.62
355.491	327.62
355.718	319.62
355.945	309.62
356.172	320.62
356.399	312.62
356.626	319.62
356.853	336.62
357.08	311.62
357.307	309.62
357.534	338.62
357.761	320.62
357.988	320.62
358.215	329.62
358.441	325.62
358.668	325.62
358.895	313.62
359.122	354.62
359.349	360.62
359.576	363.62
359.802	418.62
360.029	446.62
360.256	487.62
360.483	422.62
360.709	389.62
360.936	383.62
361.163	381.62
361.39	388.62
361.616	374.62
361.843	378.62
362.07	372.62
362.296	376.62
362.523	373.62
362.749	373.62
362.976	355.62
363.203	352.62
363.429	346.62
363.656	342.62
363.882	332.62
364.109	331.62
364.335	355.62
364.562	347.62
364.788	351.62
365.015	335.62
365.241	334.62
365.468	345.62
365.694	346.62
365.92	361.62
366.147	356.62
366.373	331.62
366.599	321.62
366.826	341.62
367.052	316.62
367.278	350.62
367.505	340.62
367.731	350.62
367.957	339.62
368.184	346.62
368.41	353.62
368.636	351.62
368.862	351.62
369.089	346.62
369.315	343.62
369.541	333.62
369.767	348.62
369.993	328.62
370.219	349.62
370.445	322.62
370.672	326.62
370.898	329.62
371.124	331.62
371.35	326.62
371.576	333.62
371.802	319.62
372.028	328.62
372.254	319.62
372.48	338.62
372.706	318.62
372.932	337.62
373.158	316.62
373.384	327.62
373.61	324.62
373.835	341.62
374.061	321.62
374.287	335.62
374.513	332.62
374.739	313.62
374.965	326.62
375.191	327.62
375.416	332.62
375.642	331.62
375.868	326.62
376.094	338.62
376.319	312.62
376.545	330.62
376.771	330.62
376.997	319.62
377.222	316.62
377.448	326.62
377.674	319.62
377.899	337.62
378.125	321.62
378.35	310.62
378.576	319.62
378.802	312.62
379.027	332.62
379.253	309.62
379.478	303.62
379.704	326.62
379.929	306.62
380.155	322.62
380.38	324.62
380.606	347.62
380.831	336.62
381.057	344.62
381.282	309.62
381.507	318.62
381.733	321.62
381.958	322.62
382.184	319.62
382.409	321.62
382.634	320.62
382.86	345.62
383.085	328.62
383.31	346.62
383.535	324.62
383.761	339.62
383.986	340.62
384.211	339.62
384.436	340.62
384.662	333.62
384.887	346.62
385.112	341.62
385.337	351.62
385.562	343.62
385.787	344.62
386.013	376.62
386.238	359.62
386.463	358.62
386.688	342.62
386.913	351.62
387.138	351.62
387.363	335.62
387.588	336.62
387.813	341.62
388.038	364.62
388.263	338.62
388.488	335.62
388.713	340.62
388.938	344.62
389.163	337.62
389.387	353.62
389.612	337.62
389.837	346.62
390.062	342.62
390.287	341.62
390.512	335.62
390.736	320.62
390.961	330.62
391.186	363.62
391.411	349.62
391.636	346.62
391.86	340.62
392.085	350.62
392.31	330.62
392.534	354.62
392.759	355.62
392.984	339.62
393.208	340.62
393.433	355.62
393.658	341.62
393.882	336.62
394.107	327.62
394.331	334.62
394.556	364.62
394.78	325.62
395.005	345.62
395.229	348.62
395.454	333.62
395.678	368.62
395.903	357.62
396.127	382.62
396.352	380.62
396.576	364.62
396.801	377.62
397.025	363.62
397.249	363.62
397.474	373.62
397.698	370.62
397.922	362.62
398.147	388.62
398.371	394.62
398.595	399.62
398.82	384.62
399.044	384.62
399.268	382.62
399.492	418.62
399.717	418.62
399.941	441.62
400.165	475.62
400.389	486.62
400.613	442.62
400.837	415.62
401.062	422.62
401.286	411.62
401.51	382.62
401.734	396.62
401.958	401.62
402.182	403.62
402.406	405.62
402.63	419.62
402.854	410.62
403.078	406.62
403.302	405.62
403.526	418.62
403.75	420.62
403.974	402.62
404.198	395.62
404.422	427.62
404.645	433.62
404.869	416.62
405.093	435.62
405.317	452.62
405.541	480.62
405.765	439.62
405.988	424.62
406.212	450.62
406.436	491.62
406.66	514.62
406.883	484.62
407.107	494.62
407.331	528.62
407.555	577.62
407.778	585.62
408.002	523.62
408.226	482.62
408.449	458.62
408.673	455.62
408.896	511.62
409.12	525.62
409.344	503.62
409.567	435.62
409.791	438.62
410.014	428.62
410.238	418.62
410.461	406.62
410.685	438.62
410.908	448.62
411.132	468.62
411.355	494.62
411.578	472.62
411.802	433.62
412.025	424.62
412.249	392.62
412.472	413.62
412.695	428.62
412.919	397.62
413.142	410.62
413.365	390.62
413.589	406.62
413.812	395.62
414.035	400.62
414.258	401.62
414.482	390.62
414.705	384.62
414.928	370.62
415.151	378.62
415.374	394.62
415.597	372.62
415.821	399.62
416.044	376.62
416.267	405.62
416.49	400.62
416.713	412.62
416.936	385.62
417.159	372.62
417.382	386.62
417.605	405.62
417.828	416.62
418.051	441.62
418.274	445.62
418.497	409.62
418.72	401.62
418.943	411.62
419.166	422.62
419.389	429.62
419.611	426.62
419.834	423.62
420.057	419.62
420.28	421.62
420.503	425.62
420.726	422.62
420.948	432.62
421.171	473.62
421.394	525.62
421.617	464.62
421.839	438.62
422.062	442.62
422.285	455.62
422.507	504.62
422.73	577.62
422.953	557.62
423.175	512.62
423.398	472.62
423.621	455.62
423.843	469.62
424.066	496.62
424.288	475.62
424.511	495.62
424.733	573.62
424.956	622.62
425.178	616.62
425.401	607.62
425.623	639.62
425.846	547.62
426.068	510.62
426.291	511.62
426.513	508.62
426.735	520.62
426.958	552.62
427.18	640.62
427.402	747.62
427.625	845.62
427.847	778.62
428.069	662.62
428.292	568.62
428.514	506.62
428.736	477.62
428.958	480.62
429.181	457.62
429.403	491.62
429.625	489.62
429.847	514.62
430.069	555.62
430.292	568.62
430.514	478.62
430.736	471.62
430.958	438.62
431.18	423.62
431.402	431.62
431.624	416.62
431.846	413.62
432.068	418.62
432.29	420.62
432.512	407.62
432.734	423.62
432.956	445.62
433.178	467.62
433.4	465.62
433.622	426.62
433.844	425.62
434.066	427.62
434.287	396.62
434.509	428.62
434.731	429.62
434.953	419.62
435.175	440.62
435.397	503.62
435.618	499.62
435.84	568.62
436.062	646.62
436.284	700.62
436.505	593.62
436.727	525.62
436.949	486.62
437.17	460.62
437.392	459.62
437.614	493.62
437.835	536.62
438.057	658.62
438.278	740.62
438.5	722.62
438.721	757.62
438.943	708.62
439.165	598.62
439.386	530.62
439.608	545.62
439.829	538.62
440.05	566.62
440.272	616.62
440.493	583.62
440.715	523.62
440.936	495.62
441.158	483.62
441.379	467.62
441.6	482.62
441.822	504.62
442.043	540.62
442.264	635.62
442.486	679.62
442.707	550.62
442.928	532.62
443.149	536.62
443.371	562.62
443.592	596.62
443.813	666.62
444.034	736.62
444.255	608.62
444.476	528.62
444.698	491.62
444.919	504.62
445.14	608.62
445.361	572.62
445.582	543.62
445.803	650.62
446.024	727.62
446.245	749.62
446.466	668.62
446.687	583.62
446.908	531.62
447.129	467.62
447.35	486.62
447.571	463.62
447.792	488.62
448.013	499.62
448.234	514.62
448.455	581.62
448.675	639.62
448.896	722.62
449.117	657.62
449.338	604.62
449.559	682.62
449.779	770.62
450	659.62
450.221	563.62
450.442	495.62
450.662	455.62
450.883	511.62
451.104	521.62
451.324	503.62
451.545	470.62
451.766	463.62
451.986	450.62
452.207	423.62
452.428	426.62
452.648	426.62
452.869	426.62
453.089	456.62
453.31	463.62
453.53	447.62
453.751	420.62
453.971	447.62
454.192	464.62
454.412	456.62
454.633	426.62
454.853	426.62
455.073	440.62
455.294	451.62
455.514	532.62
455.734	507.62
455.955	411.62
456.175	407.62
456.395	415.62
456.616	404.62
456.836	410.62
457.056	378.62
457.276	375.62
457.497	392.62
457.717	370.62
457.937	389.62
458.157	410.62
458.377	415.62
458.598	441.62
458.818	520.62
459.038	638.62
459.258	631.62
459.478	506.62
459.698	457.62
459.918	424.62
460.138	397.62
460.358	413.62
460.578	407.62
460.798	433.62
461.018	404.62
461.238	412.62
461.458	423.62
461.678	408.62
461.898	405.62
462.118	399.62
462.338	415.62
462.558	412.62
462.777	401.62
462.997	414.62
463.217	404.62
463.437	440.62
463.657	413.62
463.876	419.62
464.096	427.62
464.316	436.62
464.536	454.62
464.755	452.62
464.975	483.62
465.195	549.62
465.414	654.62
465.634	597.62
465.854	520.62
466.073	472.62
466.293	454.62
466.512	445.62
466.732	435.62
466.951	413.62
467.171	420.62
467.391	408.62
467.61	448.62
467.829	439.62
468.049	441.62
468.268	423.62
468.488	404.62
468.707	394.62
468.927	396.62
469.146	397.62
469.365	391.62
469.585	389.62
469.804	426.62
470.023	430.62
470.243	439.62
470.462	431.62
470.681	445.62
470.901	454.62
471.12	439.62
471.339	423.62
471.558	436.62
471.777	418.62
471.997	412.62
472.216	417.62
472.435	431.62
472.654	413.62
472.873	417.62
473.092	390.62
473.311	402.62
473.53	406.62
473.749	456.62
473.968	486.62
474.187	568.62
474.406	627.62
474.625	492.62
474.844	445.62
475.063	460.62
475.282	412.62
475.501	441.62
475.72	444.62
475.939	448.62
476.158	463.62
476.377	455.62
476.596	431.62
476.814	438.62
477.033	470.62
477.252	459.62
477.471	465.62
477.69	456.62
477.908	434.62
478.127	462.62
478.346	458.62
478.564	450.62
478.783	467.62
479.002	463.62
479.22	475.62
479.439	491.62
479.658	508.62
479.876	522.62
480.095	498.62
480.313	567.62
480.532	516.62
480.751	493.62
480.969	524.62
481.188	562.62
481.406	512.62
481.624	508.62
481.843	500.62
482.061	505.62
482.28	483.62
482.498	477.62
482.717	489.62
482.935	464.62
483.153	508.62
483.372	486.62
483.59	488.62
483.808	493.62
484.027	493.62
484.245	494.62
484.463	500.62
484.681	518.62
484.9	502.62
485.118	514.62
485.336	495.62
485.554	518.62
485.772	516.62
485.99	526.62
486.209	504.62
486.427	522.62
486.645	532.62
486.863	565.62
487.081	587.62
487.299	547.62
487.517	555.62
487.735	548.62
487.953	537.62
488.171	555.62
488.389	542.62
488.607	548.62
488.825	527.62
489.043	561.62
489.261	574.62
489.479	580.62
489.696	546.62
489.914	568.62
490.132	574.62
490.35	587.62
490.568	574.62
490.786	581.62
491.003	589.62
491.221	595.62
491.439	602.62
491.657	634.62
491.874	641.62
492.092	617.62
492.31	613.62
492.527	635.62
492.745	653.62
492.963	632.62
493.18	664.62
493.398	661.62
493.615	646.62
493.833	662.62
494.05	679.62
494.268	655.62
494.485	659.62
494.703	636.62
494.92	666.62
495.138	656.62
495.355	637.62
495.573	672.62
495.79	663.62
496.008	660.62
496.225	670.62
496.442	631.62
496.66	666.62
496.877	662.62
497.094	660.62
497.312	673.62
497.529	683.62
497.746	674.62
497.963	692.62
498.181	713.62
498.398	698.62
498.615	695.62
498.832	695.62
499.049	712.62
499.267	727.62
499.484	719.62
499.701	729.62
499.918	725.62
500.135	739.62
500.352	774.62
500.569	739.62
500.786	762.62
501.003	754.62
501.22	751.62
501.437	760.62
501.654	755.62
501.871	775.62
