Data from 1987.PennyLincolnUp.Lamp.En5.5.200Scan.071819.P2_HRD10591_17-15-33-973.txt Node
Date: Thu Jul 18 17:15:33 EDT 2019
User: cochatt
Spectrometer: HR+D1059
Trigger mode: 1
Integration Time (sec): 1.000000E-1
Scans to average: 1
Electric dark correction enabled: true
Nonlinearity correction enabled: false
Boxcar width: 0
XAxis mode: Wavelengths
Number of Pixels in Spectrum: 2048
>>>>>Begin Spectral Data<<<<<
223.165	-40.5
223.4	-40.5
223.635	-40.5
223.869	-9.5
224.104	-12.5
224.338	-28.5
224.573	-9.5
224.808	-24.5
225.042	-4.5
225.277	-2.5
225.511	-5.5
225.746	11.5
225.98	14.5
226.215	25.5
226.449	13.5
226.683	21.5
226.918	26.5
227.152	24.5
227.387	35.5
227.621	29.5
227.856	40.5
228.09	58.5
228.324	52.5
228.559	51.5
228.793	68.5
229.027	107.5
229.262	123.5
229.496	125.5
229.73	133.5
229.964	166.5
230.199	133.5
230.433	136.5
230.667	124.5
230.901	113.5
231.136	104.5
231.37	106.5
231.604	104.5
231.838	118.5
232.072	122.5
232.306	126.5
232.541	107.5
232.775	101.5
233.009	115.5
233.243	104.5
233.477	115.5
233.711	116.5
233.945	108.5
234.179	103.5
234.413	124.5
234.647	106.5
234.881	118.5
235.115	117.5
235.349	116.5
235.583	116.5
235.817	137.5
236.051	131.5
236.285	118.5
236.519	106.5
236.753	129.5
236.987	135.5
237.221	207.5
237.455	271.5
237.689	211.5
237.922	145.5
238.156	141.5
238.39	118.5
238.624	132.5
238.858	117.5
239.091	126.5
239.325	124.5
239.559	119.5
239.793	135.5
240.027	142.5
240.26	146.5
240.494	162.5
240.728	156.5
240.961	142.5
241.195	145.5
241.429	159.5
241.662	133.5
241.896	131.5
242.13	129.5
242.363	126.5
242.597	127.5
242.83	119.5
243.064	138.5
243.298	121.5
243.531	121.5
243.765	127.5
243.998	133.5
244.232	143.5
244.465	138.5
244.699	142.5
244.932	142.5
245.166	144.5
245.399	149.5
245.633	131.5
245.866	148.5
246.099	145.5
246.333	122.5
246.566	146.5
246.8	158.5
247.033	131.5
247.266	151.5
247.5	146.5
247.733	180.5
247.966	166.5
248.2	173.5
248.433	161.5
248.666	174.5
248.899	166.5
249.133	189.5
249.366	229.5
249.599	220.5
249.832	209.5
250.066	181.5
250.299	161.5
250.532	169.5
250.765	190.5
250.998	193.5
251.231	222.5
251.465	211.5
251.698	186.5
251.931	187.5
252.164	182.5
252.397	205.5
252.63	206.5
252.863	183.5
253.096	192.5
253.329	214.5
253.562	234.5
253.795	203.5
254.028	214.5
254.261	224.5
254.494	217.5
254.727	257.5
254.96	289.5
255.193	272.5
255.426	257.5
255.659	237.5
255.892	228.5
256.124	228.5
256.357	210.5
256.59	212.5
256.823	177.5
257.056	193.5
257.289	182.5
257.521	201.5
257.754	211.5
257.987	197.5
258.22	195.5
258.452	188.5
258.685	206.5
258.918	186.5
259.151	189.5
259.383	202.5
259.616	221.5
259.849	197.5
260.081	227.5
260.314	252.5
260.547	234.5
260.779	216.5
261.012	218.5
261.244	215.5
261.477	217.5
261.71	227.5
261.942	200.5
262.175	242.5
262.407	233.5
262.64	209.5
262.872	204.5
263.105	201.5
263.337	202.5
263.57	205.5
263.802	207.5
264.035	204.5
264.267	177.5
264.499	196.5
264.732	195.5
264.964	177.5
265.197	186.5
265.429	200.5
265.661	185.5
265.894	195.5
266.126	213.5
266.358	185.5
266.591	197.5
266.823	190.5
267.055	201.5
267.287	192.5
267.52	217.5
267.752	208.5
267.984	223.5
268.216	214.5
268.448	213.5
268.681	204.5
268.913	213.5
269.145	218.5
269.377	249.5
269.609	251.5
269.841	267.5
270.073	261.5
270.306	274.5
270.538	305.5
270.77	305.5
271.002	302.5
271.234	287.5
271.466	282.5
271.698	294.5
271.93	293.5
272.162	314.5
272.394	297.5
272.626	290.5
272.858	273.5
273.09	281.5
273.322	233.5
273.553	253.5
273.785	264.5
274.017	261.5
274.249	237.5
274.481	250.5
274.713	257.5
274.945	241.5
275.176	249.5
275.408	242.5
275.64	227.5
275.872	225.5
276.104	238.5
276.335	233.5
276.567	246.5
276.799	277.5
277.031	282.5
277.262	289.5
277.494	290.5
277.726	278.5
277.957	262.5
278.189	236.5
278.421	221.5
278.652	259.5
278.884	241.5
279.115	242.5
279.347	245.5
279.579	230.5
279.81	233.5
280.042	227.5
280.273	222.5
280.505	237.5
280.736	215.5
280.968	214.5
281.199	223.5
281.431	217.5
281.662	239.5
281.894	243.5
282.125	228.5
282.356	236.5
282.588	270.5
282.819	268.5
283.051	249.5
283.282	243.5
283.513	238.5
283.745	250.5
283.976	244.5
284.207	250.5
284.439	226.5
284.67	241.5
284.901	231.5
285.132	222.5
285.364	234.5
285.595	211.5
285.826	225.5
286.057	239.5
286.288	214.5
286.52	241.5
286.751	229.5
286.982	221.5
287.213	235.5
287.444	230.5
287.675	225.5
287.906	254.5
288.138	250.5
288.369	259.5
288.6	256.5
288.831	262.5
289.062	224.5
289.293	243.5
289.524	236.5
289.755	237.5
289.986	230.5
290.217	233.5
290.448	223.5
290.679	248.5
290.91	222.5
291.141	228.5
291.371	231.5
291.602	215.5
291.833	220.5
292.064	248.5
292.295	237.5
292.526	233.5
292.757	258.5
292.987	241.5
293.218	238.5
293.449	227.5
293.68	233.5
293.91	242.5
294.141	222.5
294.372	225.5
294.603	231.5
294.833	231.5
295.064	240.5
295.295	251.5
295.525	225.5
295.756	248.5
295.987	229.5
296.217	293.5
296.448	302.5
296.679	245.5
296.909	241.5
297.14	230.5
297.37	237.5
297.601	268.5
297.831	255.5
298.062	239.5
298.292	241.5
298.523	267.5
298.753	243.5
298.984	254.5
299.214	263.5
299.445	259.5
299.675	257.5
299.905	272.5
300.136	253.5
300.366	259.5
300.597	246.5
300.827	244.5
301.057	270.5
301.288	283.5
301.518	286.5
301.748	267.5
301.979	280.5
302.209	246.5
302.439	272.5
302.669	263.5
302.9	265.5
303.13	259.5
303.36	278.5
303.59	263.5
303.82	282.5
304.051	290.5
304.281	262.5
304.511	269.5
304.741	266.5
304.971	273.5
305.201	251.5
305.431	269.5
305.661	289.5
305.891	265.5
306.121	255.5
306.352	276.5
306.582	278.5
306.812	286.5
307.042	271.5
307.272	275.5
307.502	269.5
307.731	261.5
307.961	277.5
308.191	286.5
308.421	304.5
308.651	262.5
308.881	283.5
309.111	316.5
309.341	300.5
309.571	301.5
309.8	318.5
310.03	326.5
310.26	322.5
310.49	323.5
310.72	358.5
310.949	397.5
311.179	365.5
311.409	345.5
311.639	353.5
311.868	338.5
312.098	353.5
312.328	354.5
312.557	371.5
312.787	387.5
313.017	385.5
313.246	366.5
313.476	342.5
313.706	348.5
313.935	352.5
314.165	359.5
314.394	378.5
314.624	369.5
314.853	356.5
315.083	353.5
315.312	332.5
315.542	332.5
315.771	324.5
316.001	322.5
316.23	327.5
316.46	294.5
316.689	304.5
316.919	336.5
317.148	361.5
317.377	349.5
317.607	334.5
317.836	332.5
318.065	338.5
318.295	321.5
318.524	313.5
318.753	316.5
318.983	319.5
319.212	328.5
319.441	354.5
319.67	360.5
319.9	362.5
320.129	320.5
320.358	340.5
320.587	332.5
320.816	348.5
321.046	365.5
321.275	362.5
321.504	353.5
321.733	364.5
321.962	385.5
322.191	412.5
322.42	435.5
322.649	443.5
322.878	459.5
323.108	449.5
323.337	511.5
323.566	531.5
323.795	577.5
324.024	673.5
324.253	860.5
324.482	1236.5
324.71	1884.5
324.939	2624.5
325.168	2261.5
325.397	1280.5
325.626	826.5
325.855	649.5
326.084	592.5
326.313	535.5
326.542	568.5
326.77	614.5
326.999	737.5
327.228	1053.5
327.457	1605.5
327.686	1988.5
327.914	1371.5
328.143	869.5
328.372	702.5
328.6	657.5
328.829	620.5
329.058	661.5
329.287	665.5
329.515	606.5
329.744	533.5
329.972	498.5
330.201	493.5
330.43	528.5
330.658	599.5
330.887	677.5
331.115	676.5
331.344	534.5
331.572	501.5
331.801	481.5
332.03	475.5
332.258	448.5
332.486	421.5
332.715	392.5
332.943	398.5
333.172	419.5
333.4	385.5
333.629	404.5
333.857	417.5
334.085	397.5
334.314	383.5
334.542	382.5
334.771	389.5
334.999	393.5
335.227	379.5
335.455	384.5
335.684	373.5
335.912	380.5
336.14	381.5
336.369	371.5
336.597	408.5
336.825	373.5
337.053	374.5
337.281	368.5
337.51	350.5
337.738	379.5
337.966	371.5
338.194	401.5
338.422	400.5
338.65	382.5
338.878	376.5
339.106	363.5
339.334	368.5
339.562	367.5
339.79	350.5
340.018	363.5
340.246	362.5
340.474	388.5
340.702	375.5
340.93	386.5
341.158	354.5
341.386	380.5
341.614	356.5
341.842	348.5
342.07	362.5
342.298	361.5
342.526	353.5
342.754	370.5
342.981	344.5
343.209	328.5
343.437	344.5
343.665	339.5
343.893	347.5
344.12	352.5
344.348	348.5
344.576	350.5
344.804	362.5
345.031	380.5
345.259	397.5
345.487	394.5
345.714	378.5
345.942	345.5
346.17	359.5
346.397	360.5
346.625	354.5
346.853	360.5
347.08	348.5
347.308	366.5
347.535	378.5
347.763	393.5
347.99	380.5
348.218	376.5
348.445	405.5
348.673	412.5
348.9	378.5
349.128	351.5
349.355	337.5
349.583	336.5
349.81	337.5
350.037	351.5
350.265	365.5
350.492	354.5
350.72	362.5
350.947	370.5
351.174	388.5
351.402	394.5
351.629	401.5
351.856	399.5
352.083	395.5
352.311	397.5
352.538	414.5
352.765	423.5
352.992	391.5
353.22	382.5
353.447	385.5
353.674	362.5
353.901	358.5
354.128	343.5
354.355	334.5
354.583	316.5
354.81	330.5
355.037	309.5
355.264	311.5
355.491	315.5
355.718	321.5
355.945	327.5
356.172	318.5
356.399	330.5
356.626	329.5
356.853	302.5
357.08	323.5
357.307	332.5
357.534	298.5
357.761	334.5
357.988	305.5
358.215	325.5
358.441	328.5
358.668	317.5
358.895	334.5
359.122	330.5
359.349	365.5
359.576	391.5
359.802	430.5
360.029	454.5
360.256	485.5
360.483	454.5
360.709	401.5
360.936	372.5
361.163	364.5
361.39	377.5
361.616	381.5
361.843	375.5
362.07	367.5
362.296	377.5
362.523	375.5
362.749	378.5
362.976	368.5
363.203	353.5
363.429	345.5
363.656	359.5
363.882	334.5
364.109	367.5
364.335	340.5
364.562	350.5
364.788	351.5
365.015	362.5
365.241	350.5
365.468	354.5
365.694	357.5
365.92	369.5
366.147	341.5
366.373	344.5
366.599	343.5
366.826	331.5
367.052	324.5
367.278	326.5
367.505	364.5
367.731	339.5
367.957	330.5
368.184	343.5
368.41	359.5
368.636	357.5
368.862	355.5
369.089	346.5
369.315	345.5
369.541	329.5
369.767	337.5
369.993	330.5
370.219	341.5
370.445	337.5
370.672	323.5
370.898	305.5
371.124	327.5
371.35	318.5
371.576	318.5
371.802	333.5
372.028	317.5
372.254	329.5
372.48	312.5
372.706	314.5
372.932	337.5
373.158	328.5
373.384	330.5
373.61	338.5
373.835	331.5
374.061	338.5
374.287	340.5
374.513	327.5
374.739	327.5
374.965	321.5
375.191	331.5
375.416	337.5
375.642	317.5
375.868	314.5
376.094	319.5
376.319	320.5
376.545	311.5
376.771	326.5
376.997	329.5
377.222	326.5
377.448	317.5
377.674	335.5
377.899	300.5
378.125	317.5
378.35	308.5
378.576	321.5
378.802	326.5
379.027	327.5
379.253	337.5
379.478	297.5
379.704	323.5
379.929	351.5
380.155	325.5
380.38	334.5
380.606	336.5
380.831	338.5
381.057	336.5
381.282	323.5
381.507	303.5
381.733	348.5
381.958	322.5
382.184	326.5
382.409	359.5
382.634	318.5
382.86	316.5
383.085	343.5
383.31	325.5
383.535	313.5
383.761	317.5
383.986	331.5
384.211	323.5
384.436	349.5
384.662	339.5
384.887	363.5
385.112	344.5
385.337	335.5
385.562	351.5
385.787	352.5
386.013	361.5
386.238	357.5
386.463	364.5
386.688	343.5
386.913	331.5
387.138	349.5
387.363	342.5
387.588	336.5
387.813	339.5
388.038	344.5
388.263	326.5
388.488	329.5
388.713	339.5
388.938	335.5
389.163	347.5
389.387	366.5
389.612	334.5
389.837	355.5
390.062	352.5
390.287	352.5
390.512	344.5
390.736	339.5
390.961	340.5
391.186	336.5
391.411	335.5
391.636	346.5
391.86	338.5
392.085	335.5
392.31	342.5
392.534	338.5
392.759	328.5
392.984	345.5
393.208	335.5
393.433	353.5
393.658	353.5
393.882	325.5
394.107	341.5
394.331	329.5
394.556	323.5
394.78	333.5
395.005	343.5
395.229	332.5
395.454	350.5
395.678	355.5
395.903	382.5
396.127	387.5
396.352	388.5
396.576	376.5
396.801	373.5
397.025	351.5
397.249	358.5
397.474	352.5
397.698	365.5
397.922	398.5
398.147	422.5
398.371	407.5
398.595	373.5
398.82	383.5
399.044	390.5
399.268	385.5
399.492	413.5
399.717	411.5
399.941	427.5
400.165	484.5
400.389	511.5
400.613	453.5
400.837	425.5
401.062	413.5
401.286	407.5
401.51	394.5
401.734	406.5
401.958	403.5
402.182	398.5
402.406	427.5
402.63	419.5
402.854	419.5
403.078	400.5
403.302	403.5
403.526	424.5
403.75	397.5
403.974	382.5
404.198	401.5
404.422	409.5
404.645	414.5
404.869	422.5
405.093	436.5
405.317	454.5
405.541	519.5
405.765	439.5
405.988	422.5
406.212	450.5
406.436	499.5
406.66	509.5
406.883	476.5
407.107	489.5
407.331	516.5
407.555	593.5
407.778	587.5
408.002	532.5
408.226	474.5
408.449	468.5
408.673	466.5
408.896	498.5
409.12	554.5
409.344	526.5
409.567	442.5
409.791	407.5
410.014	418.5
410.238	415.5
410.461	418.5
410.685	418.5
410.908	442.5
411.132	472.5
411.355	523.5
411.578	469.5
411.802	425.5
412.025	433.5
412.249	417.5
412.472	429.5
412.695	429.5
412.919	423.5
413.142	425.5
413.365	377.5
413.589	408.5
413.812	391.5
414.035	379.5
414.258	389.5
414.482	399.5
414.705	382.5
414.928	367.5
415.151	390.5
415.374	387.5
415.597	379.5
415.821	382.5
416.044	420.5
416.267	387.5
416.49	400.5
416.713	401.5
416.936	382.5
417.159	412.5
417.382	403.5
417.605	396.5
417.828	429.5
418.051	431.5
418.274	418.5
418.497	404.5
418.72	408.5
418.943	412.5
419.166	409.5
419.389	423.5
419.611	414.5
419.834	417.5
420.057	405.5
420.28	406.5
420.503	399.5
420.726	403.5
420.948	447.5
421.171	491.5
421.394	521.5
421.617	460.5
421.839	442.5
422.062	429.5
422.285	447.5
422.507	536.5
422.73	576.5
422.953	565.5
423.175	477.5
423.398	481.5
423.621	482.5
423.843	476.5
424.066	459.5
424.288	480.5
424.511	522.5
424.733	577.5
424.956	651.5
425.178	639.5
425.401	621.5
425.623	645.5
425.846	546.5
426.068	490.5
426.291	507.5
426.513	509.5
426.735	494.5
426.958	530.5
427.18	634.5
427.402	735.5
427.625	839.5
427.847	767.5
428.069	632.5
428.292	555.5
428.514	524.5
428.736	490.5
428.958	502.5
429.181	468.5
429.403	475.5
429.625	485.5
429.847	514.5
430.069	565.5
430.292	600.5
430.514	487.5
430.736	447.5
430.958	460.5
431.18	452.5
431.402	441.5
431.624	424.5
431.846	400.5
432.068	424.5
432.29	429.5
432.512	433.5
432.734	420.5
432.956	437.5
433.178	425.5
433.4	463.5
433.622	421.5
433.844	428.5
434.066	428.5
434.287	427.5
434.509	421.5
434.731	443.5
434.953	435.5
435.175	470.5
435.397	472.5
435.618	504.5
435.84	555.5
436.062	630.5
436.284	710.5
436.505	591.5
436.727	571.5
436.949	511.5
437.17	477.5
437.392	474.5
437.614	491.5
437.835	551.5
438.057	656.5
438.278	741.5
438.5	731.5
438.721	775.5
438.943	748.5
439.165	582.5
439.386	561.5
439.608	539.5
439.829	530.5
440.05	595.5
440.272	617.5
440.493	579.5
440.715	522.5
440.936	483.5
441.158	488.5
441.379	476.5
441.6	490.5
441.822	507.5
442.043	556.5
442.264	606.5
442.486	650.5
442.707	580.5
442.928	537.5
443.149	531.5
443.371	556.5
443.592	610.5
443.813	686.5
444.034	731.5
444.255	601.5
444.476	525.5
444.698	523.5
444.919	486.5
445.14	653.5
445.361	569.5
445.582	569.5
445.803	601.5
446.024	753.5
446.245	752.5
446.466	674.5
446.687	579.5
446.908	538.5
447.129	490.5
447.35	491.5
447.571	489.5
447.792	488.5
448.013	469.5
448.234	516.5
448.455	564.5
448.675	691.5
448.896	780.5
449.117	653.5
449.338	650.5
449.559	734.5
449.779	791.5
450	643.5
450.221	567.5
450.442	512.5
450.662	494.5
450.883	509.5
451.104	543.5
451.324	530.5
451.545	486.5
451.766	436.5
451.986	421.5
452.207	415.5
452.428	413.5
452.648	424.5
452.869	437.5
453.089	443.5
453.31	444.5
453.53	431.5
453.751	427.5
453.971	453.5
454.192	467.5
454.412	462.5
454.633	446.5
454.853	429.5
455.073	442.5
455.294	461.5
455.514	516.5
455.734	527.5
455.955	437.5
456.175	398.5
456.395	409.5
456.616	387.5
456.836	385.5
457.056	368.5
457.276	370.5
457.497	380.5
457.717	380.5
457.937	400.5
458.157	394.5
458.377	423.5
458.598	442.5
458.818	523.5
459.038	645.5
459.258	649.5
459.478	510.5
459.698	459.5
459.918	449.5
460.138	419.5
460.358	428.5
460.578	426.5
460.798	414.5
461.018	435.5
461.238	424.5
461.458	414.5
461.678	406.5
461.898	421.5
462.118	381.5
462.338	414.5
462.558	416.5
462.777	439.5
462.997	425.5
463.217	413.5
463.437	426.5
463.657	419.5
463.876	439.5
464.096	424.5
464.316	419.5
464.536	462.5
464.755	440.5
464.975	460.5
465.195	536.5
465.414	690.5
465.634	562.5
465.854	491.5
466.073	479.5
466.293	437.5
466.512	457.5
466.732	391.5
466.951	417.5
467.171	442.5
467.391	422.5
467.61	417.5
467.829	454.5
468.049	418.5
468.268	410.5
468.488	389.5
468.707	404.5
468.927	389.5
469.146	407.5
469.365	403.5
469.585	417.5
469.804	452.5
470.023	418.5
470.243	434.5
470.462	441.5
470.681	457.5
470.901	482.5
471.12	452.5
471.339	426.5
471.558	435.5
471.777	415.5
471.997	417.5
472.216	410.5
472.435	408.5
472.654	413.5
472.873	413.5
473.092	397.5
473.311	409.5
473.53	417.5
473.749	427.5
473.968	489.5
474.187	616.5
474.406	622.5
474.625	509.5
474.844	437.5
475.063	440.5
475.282	429.5
475.501	414.5
475.72	437.5
475.939	433.5
476.158	442.5
476.377	461.5
476.596	436.5
476.814	442.5
477.033	441.5
477.252	449.5
477.471	441.5
477.69	471.5
477.908	449.5
478.127	453.5
478.346	453.5
478.564	439.5
478.783	467.5
479.002	495.5
479.22	497.5
479.439	475.5
479.658	524.5
479.876	529.5
480.095	555.5
480.313	572.5
480.532	518.5
480.751	495.5
480.969	517.5
481.188	514.5
481.406	545.5
481.624	519.5
481.843	503.5
482.061	514.5
482.28	502.5
482.498	498.5
482.717	484.5
482.935	507.5
483.153	469.5
483.372	502.5
483.59	508.5
483.808	517.5
484.027	518.5
484.245	490.5
484.463	506.5
484.681	508.5
484.9	521.5
485.118	517.5
485.336	518.5
485.554	519.5
485.772	501.5
485.99	522.5
486.209	519.5
486.427	542.5
486.645	546.5
486.863	584.5
487.081	563.5
487.299	553.5
487.517	569.5
487.735	562.5
487.953	565.5
488.171	547.5
488.389	553.5
488.607	559.5
488.825	547.5
489.043	546.5
489.261	554.5
489.479	564.5
489.696	561.5
489.914	587.5
490.132	583.5
490.35	557.5
490.568	609.5
490.786	598.5
491.003	598.5
491.221	601.5
491.439	593.5
491.657	622.5
491.874	592.5
492.092	646.5
492.31	619.5
492.527	661.5
492.745	657.5
492.963	651.5
493.18	665.5
493.398	646.5
493.615	639.5
493.833	688.5
494.05	677.5
494.268	659.5
494.485	656.5
494.703	649.5
494.92	662.5
495.138	659.5
495.355	683.5
495.573	667.5
495.79	650.5
496.008	674.5
496.225	663.5
496.442	675.5
496.66	660.5
496.877	675.5
497.094	680.5
497.312	691.5
497.529	694.5
497.746	694.5
497.963	701.5
498.181	703.5
498.398	724.5
498.615	707.5
498.832	727.5
499.049	699.5
499.267	715.5
499.484	733.5
499.701	735.5
499.918	762.5
500.135	768.5
500.352	780.5
500.569	801.5
500.786	797.5
501.003	801.5
501.22	786.5
501.437	754.5
501.654	779.5
501.871	780.5
502.088	764.5
502.305	755.5
502.522	730.5
502.739	697.5
502.956	721.5
503.172	695.5
503.389	691.5
503.606	723.5
503.823	696.5
504.04	697.5
504.256	716.5
504.473	667.5
504.69	657.5
504.907	694.5
505.123	666.5
505.34	673.5
505.557	668.5
505.773	652.5
505.99	673.5
506.207	662.5
506.423	660.5
506.64	669.5
506.856	643.5
507.073	634.5
507.289	661.5
507.506	650.5
507.722	662.5
507.939	694.5
508.155	675.5
508.372	653.5
508.588	656.5
508.805	630.5
509.021	658.5
509.238	665.5
509.454	665.5
509.67	638.5
509.887	631.5
510.103	648.5
510.319	675.5
510.536	802.5
510.752	1495.5
510.968	1249.5
511.184	727.5
511.401	680.5
511.617	665.5
511.833	636.5
512.049	595.5
512.265	610.5
512.481	591.5
512.698	644.5
512.914	609.5
513.13	622.5
513.346	611.5
513.562	645.5
513.778	661.5
513.994	653.5
514.21	684.5
514.426	718.5
514.642	790.5
514.858	842.5
515.074	909.5
515.29	1179.5
515.506	1805.5
515.721	1489.5
515.937	891.5
516.153	794.5
516.369	713.5
516.585	686.5
516.801	669.5
517.016	650.5
517.232	645.5
517.448	633.5
517.664	643.5
517.879	643.5
518.095	624.5
518.311	605.5
518.527	643.5
518.742	631.5
518.958	627.5
519.173	639.5
519.389	635.5
519.605	660.5
519.82	665.5
