Data from 1987.PennyLincolnUp.Lamp.En5.5.200Scan.071819.P2_HRD10591_17-14-04-972.txt Node
Date: Thu Jul 18 17:14:04 EDT 2019
User: cochatt
Spectrometer: HR+D1059
Trigger mode: 1
Integration Time (sec): 1.000000E-1
Scans to average: 1
Electric dark correction enabled: true
Nonlinearity correction enabled: false
Boxcar width: 0
XAxis mode: Wavelengths
Number of Pixels in Spectrum: 2048
>>>>>Begin Spectral Data<<<<<
223.165	-13.62
223.4	-13.62
223.635	-13.62
223.869	-16.62
224.104	-12.62
224.338	-22.62
224.573	-11.62
224.808	-9.62
225.042	0.38
225.277	6.38
225.511	2.38
225.746	1.38
225.98	6.38
226.215	5.38
226.449	15.38
226.683	4.38
226.918	24.38
227.152	20.38
227.387	35.38
227.621	47.38
227.856	46.38
228.09	28.38
228.324	52.38
228.559	56.38
228.793	68.38
229.027	97.38
229.262	100.38
229.496	117.38
229.73	127.38
229.964	143.38
230.199	127.38
230.433	114.38
230.667	107.38
230.901	106.38
231.136	112.38
231.37	109.38
231.604	96.38
231.838	115.38
232.072	100.38
232.306	114.38
232.541	99.38
232.775	116.38
233.009	118.38
233.243	113.38
233.477	103.38
233.711	110.38
233.945	87.38
234.179	108.38
234.413	111.38
234.647	118.38
234.881	117.38
235.115	124.38
235.349	115.38
235.583	107.38
235.817	124.38
236.051	126.38
236.285	114.38
236.519	100.38
236.753	136.38
236.987	143.38
237.221	175.38
237.455	224.38
237.689	192.38
237.922	132.38
238.156	130.38
238.39	137.38
238.624	117.38
238.858	124.38
239.091	119.38
239.325	110.38
239.559	112.38
239.793	112.38
240.027	124.38
240.26	137.38
240.494	145.38
240.728	142.38
240.961	127.38
241.195	124.38
241.429	115.38
241.662	130.38
241.896	127.38
242.13	141.38
242.363	123.38
242.597	120.38
242.83	124.38
243.064	120.38
243.298	145.38
243.531	120.38
243.765	132.38
243.998	116.38
244.232	131.38
244.465	128.38
244.699	128.38
244.932	122.38
245.166	123.38
245.399	129.38
245.633	126.38
245.866	123.38
246.099	130.38
246.333	138.38
246.566	153.38
246.8	134.38
247.033	146.38
247.266	139.38
247.5	146.38
247.733	146.38
247.966	147.38
248.2	160.38
248.433	151.38
248.666	166.38
248.899	169.38
249.133	170.38
249.366	176.38
249.599	162.38
249.832	158.38
250.066	160.38
250.299	160.38
250.532	176.38
250.765	177.38
250.998	187.38
251.231	198.38
251.465	181.38
251.698	185.38
251.931	187.38
252.164	166.38
252.397	168.38
252.63	180.38
252.863	176.38
253.096	199.38
253.329	214.38
253.562	208.38
253.795	197.38
254.028	187.38
254.261	199.38
254.494	217.38
254.727	226.38
254.96	236.38
255.193	230.38
255.426	211.38
255.659	206.38
255.892	190.38
256.124	194.38
256.357	172.38
256.59	172.38
256.823	184.38
257.056	178.38
257.289	187.38
257.521	184.38
257.754	186.38
257.987	174.38
258.22	184.38
258.452	171.38
258.685	188.38
258.918	182.38
259.151	184.38
259.383	180.38
259.616	192.38
259.849	186.38
260.081	192.38
260.314	214.38
260.547	214.38
260.779	217.38
261.012	213.38
261.244	181.38
261.477	202.38
261.71	188.38
261.942	192.38
262.175	203.38
262.407	214.38
262.64	183.38
262.872	179.38
263.105	180.38
263.337	186.38
263.57	173.38
263.802	172.38
264.035	157.38
264.267	184.38
264.499	164.38
264.732	170.38
264.964	186.38
265.197	171.38
265.429	162.38
265.661	182.38
265.894	184.38
266.126	168.38
266.358	163.38
266.591	185.38
266.823	162.38
267.055	192.38
267.287	194.38
267.52	172.38
267.752	183.38
267.984	187.38
268.216	180.38
268.448	166.38
268.681	188.38
268.913	196.38
269.145	210.38
269.377	201.38
269.609	227.38
269.841	225.38
270.073	224.38
270.306	232.38
270.538	270.38
270.77	242.38
271.002	260.38
271.234	235.38
271.466	244.38
271.698	251.38
271.93	266.38
272.162	267.38
272.394	254.38
272.626	263.38
272.858	248.38
273.09	237.38
273.322	244.38
273.553	203.38
273.785	218.38
274.017	204.38
274.249	216.38
274.481	212.38
274.713	208.38
274.945	217.38
275.176	204.38
275.408	202.38
275.64	208.38
275.872	201.38
276.104	219.38
276.335	225.38
276.567	209.38
276.799	232.38
277.031	237.38
277.262	256.38
277.494	260.38
277.726	248.38
277.957	229.38
278.189	220.38
278.421	215.38
278.652	229.38
278.884	206.38
279.115	192.38
279.347	206.38
279.579	207.38
279.81	205.38
280.042	220.38
280.273	218.38
280.505	199.38
280.736	205.38
280.968	192.38
281.199	191.38
281.431	199.38
281.662	203.38
281.894	198.38
282.125	195.38
282.356	230.38
282.588	226.38
282.819	236.38
283.051	205.38
283.282	205.38
283.513	193.38
283.745	210.38
283.976	206.38
284.207	197.38
284.439	225.38
284.67	216.38
284.901	219.38
285.132	205.38
285.364	211.38
285.595	212.38
285.826	198.38
286.057	224.38
286.288	202.38
286.52	221.38
286.751	213.38
286.982	212.38
287.213	206.38
287.444	216.38
287.675	214.38
287.906	201.38
288.138	218.38
288.369	238.38
288.6	233.38
288.831	216.38
289.062	215.38
289.293	220.38
289.524	216.38
289.755	209.38
289.986	187.38
290.217	221.38
290.448	220.38
290.679	211.38
290.91	219.38
291.141	225.38
291.371	212.38
291.602	191.38
291.833	217.38
292.064	196.38
292.295	216.38
292.526	213.38
292.757	210.38
292.987	212.38
293.218	212.38
293.449	213.38
293.68	216.38
293.91	213.38
294.141	199.38
294.372	215.38
294.603	211.38
294.833	211.38
295.064	209.38
295.295	201.38
295.525	213.38
295.756	212.38
295.987	208.38
296.217	260.38
296.448	274.38
296.679	223.38
296.909	212.38
297.14	215.38
297.37	221.38
297.601	217.38
297.831	221.38
298.062	213.38
298.292	216.38
298.523	228.38
298.753	231.38
298.984	213.38
299.214	222.38
299.445	228.38
299.675	211.38
299.905	226.38
300.136	230.38
300.366	210.38
300.597	203.38
300.827	224.38
301.057	219.38
301.288	226.38
301.518	236.38
301.748	224.38
301.979	245.38
302.209	250.38
302.439	222.38
302.669	229.38
302.9	239.38
303.13	233.38
303.36	229.38
303.59	226.38
303.82	244.38
304.051	249.38
304.281	242.38
304.511	238.38
304.741	222.38
304.971	230.38
305.201	241.38
305.431	242.38
305.661	227.38
305.891	225.38
306.121	243.38
306.352	240.38
306.582	230.38
306.812	256.38
307.042	241.38
307.272	252.38
307.502	245.38
307.731	236.38
307.961	233.38
308.191	253.38
308.421	231.38
308.651	233.38
308.881	254.38
309.111	251.38
309.341	262.38
309.571	284.38
309.8	272.38
310.03	294.38
310.26	296.38
310.49	289.38
310.72	280.38
310.949	312.38
311.179	308.38
311.409	284.38
311.639	278.38
311.868	301.38
312.098	304.38
312.328	270.38
312.557	308.38
312.787	342.38
313.017	321.38
313.246	291.38
313.476	283.38
313.706	288.38
313.935	299.38
314.165	307.38
314.394	322.38
314.624	300.38
314.853	302.38
315.083	273.38
315.312	274.38
315.542	279.38
315.771	277.38
316.001	268.38
316.23	262.38
316.46	278.38
316.689	292.38
316.919	275.38
317.148	297.38
317.377	286.38
317.607	297.38
317.836	275.38
318.065	296.38
318.295	282.38
318.524	283.38
318.753	289.38
318.983	276.38
319.212	295.38
319.441	292.38
319.67	301.38
319.9	282.38
320.129	290.38
320.358	288.38
320.587	288.38
320.816	296.38
321.046	304.38
321.275	316.38
321.504	325.38
321.733	294.38
321.962	309.38
322.191	324.38
322.42	326.38
322.649	344.38
322.878	362.38
323.108	348.38
323.337	390.38
323.566	424.38
323.795	458.38
324.024	507.38
324.253	613.38
324.482	872.38
324.71	1326.38
324.939	1899.38
325.168	1686.38
325.397	919.38
325.626	607.38
325.855	489.38
326.084	448.38
326.313	425.38
326.542	429.38
326.77	441.38
326.999	576.38
327.228	763.38
327.457	1152.38
327.686	1474.38
327.914	984.38
328.143	657.38
328.372	544.38
328.6	499.38
328.829	480.38
329.058	508.38
329.287	505.38
329.515	426.38
329.744	405.38
329.972	396.38
330.201	386.38
330.43	410.38
330.658	449.38
330.887	486.38
331.115	521.38
331.344	437.38
331.572	383.38
331.801	390.38
332.03	367.38
332.258	353.38
332.486	343.38
332.715	343.38
332.943	329.38
333.172	334.38
333.4	339.38
333.629	317.38
333.857	357.38
334.085	360.38
334.314	326.38
334.542	343.38
334.771	352.38
334.999	345.38
335.227	343.38
335.455	327.38
335.684	320.38
335.912	332.38
336.14	325.38
336.369	315.38
336.597	336.38
336.825	334.38
337.053	326.38
337.281	326.38
337.51	322.38
337.738	323.38
337.966	320.38
338.194	324.38
338.422	312.38
338.65	310.38
338.878	321.38
339.106	312.38
339.334	320.38
339.562	326.38
339.79	321.38
340.018	300.38
340.246	326.38
340.474	335.38
340.702	317.38
340.93	315.38
341.158	332.38
341.386	311.38
341.614	323.38
341.842	333.38
342.07	321.38
342.298	321.38
342.526	320.38
342.754	293.38
342.981	280.38
343.209	310.38
343.437	309.38
343.665	313.38
343.893	318.38
344.12	313.38
344.348	314.38
344.576	321.38
344.804	319.38
345.031	348.38
345.259	350.38
345.487	329.38
345.714	345.38
345.942	330.38
346.17	319.38
346.397	306.38
346.625	331.38
346.853	312.38
347.08	332.38
347.308	332.38
347.535	341.38
347.763	331.38
347.99	333.38
348.218	326.38
348.445	347.38
348.673	340.38
348.9	314.38
349.128	294.38
349.355	308.38
349.583	303.38
349.81	305.38
350.037	307.38
350.265	314.38
350.492	309.38
350.72	296.38
350.947	345.38
351.174	326.38
351.402	318.38
351.629	337.38
351.856	338.38
352.083	339.38
352.311	346.38
352.538	343.38
352.765	338.38
352.992	339.38
353.22	333.38
353.447	326.38
353.674	333.38
353.901	292.38
354.128	306.38
354.355	291.38
354.583	302.38
354.81	291.38
355.037	303.38
355.264	291.38
355.491	293.38
355.718	297.38
355.945	306.38
356.172	300.38
356.399	297.38
356.626	275.38
356.853	290.38
357.08	288.38
357.307	281.38
357.534	289.38
357.761	279.38
357.988	299.38
358.215	288.38
358.441	285.38
358.668	309.38
358.895	298.38
359.122	292.38
359.349	310.38
359.576	317.38
359.802	338.38
360.029	378.38
360.256	384.38
360.483	364.38
360.709	347.38
360.936	321.38
361.163	337.38
361.39	324.38
361.616	331.38
361.843	310.38
362.07	329.38
362.296	317.38
362.523	327.38
362.749	313.38
362.976	304.38
363.203	304.38
363.429	300.38
363.656	308.38
363.882	315.38
364.109	310.38
364.335	308.38
364.562	302.38
364.788	294.38
365.015	277.38
365.241	308.38
365.468	329.38
365.694	314.38
365.92	322.38
366.147	288.38
366.373	316.38
366.599	304.38
366.826	279.38
367.052	297.38
367.278	304.38
367.505	315.38
367.731	301.38
367.957	301.38
368.184	294.38
368.41	303.38
368.636	322.38
368.862	305.38
369.089	315.38
369.315	304.38
369.541	301.38
369.767	280.38
369.993	299.38
370.219	293.38
370.445	308.38
370.672	313.38
370.898	304.38
371.124	289.38
371.35	292.38
371.576	284.38
371.802	282.38
372.028	299.38
372.254	302.38
372.48	278.38
372.706	292.38
372.932	301.38
373.158	297.38
373.384	281.38
373.61	299.38
373.835	291.38
374.061	306.38
374.287	291.38
374.513	304.38
374.739	308.38
374.965	309.38
375.191	306.38
375.416	304.38
375.642	316.38
375.868	292.38
376.094	288.38
376.319	302.38
376.545	314.38
376.771	294.38
376.997	282.38
377.222	314.38
377.448	291.38
377.674	298.38
377.899	281.38
378.125	288.38
378.35	299.38
378.576	288.38
378.802	294.38
379.027	291.38
379.253	291.38
379.478	295.38
379.704	312.38
379.929	306.38
380.155	293.38
380.38	288.38
380.606	303.38
380.831	304.38
381.057	300.38
381.282	296.38
381.507	297.38
381.733	309.38
381.958	300.38
382.184	299.38
382.409	316.38
382.634	300.38
382.86	312.38
383.085	307.38
383.31	322.38
383.535	306.38
383.761	311.38
383.986	297.38
384.211	294.38
384.436	313.38
384.662	314.38
384.887	313.38
385.112	299.38
385.337	309.38
385.562	331.38
385.787	325.38
386.013	322.38
386.238	320.38
386.463	312.38
386.688	327.38
386.913	318.38
387.138	317.38
387.363	312.38
387.588	325.38
387.813	317.38
388.038	323.38
388.263	321.38
388.488	296.38
388.713	316.38
388.938	324.38
389.163	337.38
389.387	321.38
389.612	318.38
389.837	331.38
390.062	315.38
390.287	319.38
390.512	329.38
390.736	307.38
390.961	318.38
391.186	321.38
391.411	321.38
391.636	341.38
391.86	314.38
392.085	324.38
392.31	327.38
392.534	328.38
392.759	316.38
392.984	334.38
393.208	320.38
393.433	350.38
393.658	342.38
393.882	333.38
394.107	315.38
394.331	310.38
394.556	315.38
394.78	332.38
395.005	318.38
395.229	321.38
395.454	333.38
395.678	339.38
395.903	342.38
396.127	351.38
396.352	355.38
396.576	363.38
396.801	342.38
397.025	351.38
397.249	362.38
397.474	344.38
397.698	348.38
397.922	346.38
398.147	345.38
398.371	361.38
398.595	368.38
398.82	347.38
399.044	362.38
399.268	363.38
399.492	386.38
399.717	380.38
399.941	420.38
400.165	420.38
400.389	437.38
400.613	428.38
400.837	390.38
401.062	365.38
401.286	380.38
401.51	376.38
401.734	372.38
401.958	355.38
402.182	376.38
402.406	378.38
402.63	382.38
402.854	384.38
403.078	372.38
403.302	374.38
403.526	382.38
403.75	381.38
403.974	364.38
404.198	366.38
404.422	366.38
404.645	391.38
404.869	370.38
405.093	384.38
405.317	409.38
405.541	452.38
405.765	412.38
405.988	391.38
406.212	418.38
406.436	430.38
406.66	442.38
406.883	429.38
407.107	434.38
407.331	469.38
407.555	514.38
407.778	517.38
408.002	488.38
408.226	448.38
408.449	430.38
408.673	426.38
408.896	454.38
409.12	488.38
409.344	461.38
409.567	410.38
409.791	402.38
410.014	381.38
410.238	381.38
410.461	417.38
410.685	396.38
410.908	400.38
411.132	424.38
411.355	450.38
411.578	455.38
411.802	411.38
412.025	400.38
412.249	377.38
412.472	395.38
412.695	401.38
412.919	404.38
413.142	371.38
413.365	356.38
413.589	376.38
413.812	352.38
414.035	361.38
414.258	357.38
414.482	342.38
414.705	371.38
414.928	378.38
415.151	355.38
415.374	340.38
415.597	355.38
415.821	369.38
416.044	361.38
416.267	362.38
416.49	363.38
416.713	363.38
416.936	394.38
417.159	374.38
417.382	373.38
417.605	375.38
417.828	387.38
418.051	389.38
418.274	381.38
418.497	367.38
418.72	376.38
418.943	371.38
419.166	392.38
419.389	392.38
419.611	381.38
419.834	396.38
420.057	384.38
420.28	373.38
420.503	387.38
420.726	393.38
420.948	412.38
421.171	441.38
421.394	468.38
421.617	434.38
421.839	396.38
422.062	414.38
422.285	398.38
422.507	453.38
422.73	520.38
422.953	506.38
423.175	474.38
423.398	431.38
423.621	427.38
423.843	420.38
424.066	456.38
424.288	413.38
424.511	462.38
424.733	509.38
424.956	568.38
425.178	590.38
425.401	578.38
425.623	570.38
425.846	497.38
426.068	458.38
426.291	446.38
426.513	441.38
426.735	441.38
426.958	494.38
427.18	572.38
427.402	677.38
427.625	736.38
427.847	667.38
428.069	584.38
428.292	515.38
428.514	470.38
428.736	466.38
428.958	429.38
429.181	425.38
429.403	431.38
429.625	434.38
429.847	460.38
430.069	512.38
430.292	506.38
430.514	453.38
430.736	454.38
430.958	423.38
431.18	388.38
431.402	412.38
431.624	395.38
431.846	393.38
432.068	379.38
432.29	408.38
432.512	411.38
432.734	398.38
432.956	402.38
433.178	411.38
433.4	421.38
433.622	386.38
433.844	391.38
434.066	384.38
434.287	373.38
434.509	372.38
434.731	398.38
434.953	412.38
435.175	424.38
435.397	450.38
435.618	460.38
435.84	498.38
436.062	589.38
436.284	661.38
436.505	556.38
436.727	470.38
436.949	442.38
437.17	451.38
437.392	441.38
437.614	429.38
437.835	467.38
438.057	564.38
438.278	644.38
438.5	640.38
438.721	686.38
438.943	691.38
439.165	561.38
439.386	482.38
439.608	497.38
439.829	474.38
440.05	496.38
440.272	533.38
440.493	502.38
440.715	457.38
440.936	456.38
441.158	425.38
441.379	423.38
441.6	419.38
441.822	454.38
442.043	518.38
442.264	573.38
442.486	594.38
442.707	502.38
442.928	494.38
443.149	493.38
443.371	490.38
443.592	554.38
443.813	604.38
444.034	641.38
444.255	556.38
444.476	482.38
444.698	479.38
444.919	451.38
445.14	534.38
445.361	496.38
445.582	488.38
445.803	539.38
446.024	632.38
446.245	646.38
446.466	594.38
446.687	514.38
446.908	463.38
447.129	452.38
447.35	421.38
447.571	434.38
447.792	431.38
448.013	434.38
448.234	450.38
448.455	493.38
448.675	592.38
448.896	649.38
449.117	590.38
449.338	587.38
449.559	641.38
449.779	708.38
450	586.38
450.221	492.38
450.442	431.38
450.662	428.38
450.883	432.38
451.104	427.38
451.324	448.38
451.545	428.38
451.766	399.38
451.986	403.38
452.207	363.38
452.428	375.38
452.648	380.38
452.869	396.38
453.089	392.38
453.31	407.38
453.53	404.38
453.751	380.38
453.971	395.38
454.192	388.38
454.412	390.38
454.633	380.38
454.853	403.38
455.073	373.38
455.294	401.38
455.514	490.38
455.734	472.38
455.955	396.38
456.175	393.38
456.395	342.38
456.616	339.38
456.836	343.38
457.056	354.38
457.276	346.38
457.497	355.38
457.717	365.38
457.937	357.38
458.157	394.38
458.377	378.38
458.598	380.38
458.818	451.38
459.038	527.38
459.258	555.38
459.478	435.38
459.698	392.38
459.918	387.38
460.138	402.38
460.358	391.38
460.578	376.38
460.798	390.38
461.018	382.38
461.238	380.38
461.458	380.38
461.678	380.38
461.898	383.38
462.118	377.38
462.338	389.38
462.558	382.38
462.777	401.38
462.997	393.38
463.217	399.38
463.437	388.38
463.657	390.38
463.876	407.38
464.096	397.38
464.316	410.38
464.536	412.38
464.755	392.38
464.975	427.38
465.195	459.38
465.414	539.38
465.634	491.38
465.854	429.38
466.073	383.38
466.293	396.38
466.512	394.38
466.732	388.38
466.951	410.38
467.171	368.38
467.391	389.38
467.61	393.38
467.829	406.38
468.049	382.38
468.268	376.38
468.488	378.38
468.707	361.38
468.927	370.38
469.146	380.38
469.365	373.38
469.585	357.38
469.804	378.38
470.023	386.38
470.243	398.38
470.462	392.38
470.681	428.38
470.901	420.38
471.12	380.38
471.339	401.38
471.558	389.38
471.777	390.38
471.997	390.38
472.216	386.38
472.435	400.38
472.654	400.38
472.873	374.38
473.092	388.38
473.311	385.38
473.53	377.38
473.749	404.38
473.968	433.38
474.187	552.38
474.406	572.38
474.625	456.38
474.844	399.38
475.063	409.38
475.282	400.38
475.501	384.38
475.72	416.38
475.939	395.38
476.158	400.38
476.377	397.38
476.596	416.38
476.814	395.38
477.033	418.38
477.252	427.38
477.471	423.38
477.69	407.38
477.908	417.38
478.127	412.38
478.346	415.38
478.564	411.38
478.783	418.38
479.002	436.38
479.22	427.38
479.439	430.38
479.658	482.38
479.876	485.38
480.095	503.38
480.313	501.38
480.532	486.38
480.751	473.38
480.969	468.38
481.188	500.38
481.406	490.38
481.624	476.38
481.843	451.38
482.061	466.38
482.28	461.38
482.498	459.38
482.717	454.38
482.935	484.38
483.153	456.38
483.372	452.38
483.59	434.38
483.808	480.38
484.027	471.38
484.245	452.38
484.463	476.38
484.681	467.38
484.9	467.38
485.118	483.38
485.336	479.38
485.554	479.38
485.772	481.38
485.99	473.38
486.209	514.38
486.427	457.38
486.645	476.38
486.863	504.38
487.081	518.38
487.299	505.38
487.517	508.38
487.735	518.38
487.953	502.38
488.171	496.38
488.389	499.38
488.607	506.38
488.825	524.38
489.043	510.38
489.261	512.38
489.479	504.38
489.696	516.38
489.914	516.38
490.132	524.38
490.35	515.38
490.568	532.38
490.786	532.38
491.003	548.38
491.221	550.38
491.439	560.38
491.657	572.38
491.874	560.38
492.092	581.38
492.31	583.38
492.527	593.38
492.745	572.38
492.963	605.38
493.18	598.38
493.398	592.38
493.615	594.38
493.833	598.38
494.05	600.38
494.268	591.38
494.485	585.38
494.703	598.38
494.92	619.38
495.138	589.38
495.355	614.38
495.573	596.38
495.79	606.38
496.008	601.38
496.225	595.38
496.442	603.38
496.66	616.38
496.877	618.38
497.094	592.38
497.312	598.38
497.529	609.38
497.746	634.38
497.963	620.38
498.181	634.38
498.398	656.38
498.615	644.38
498.832	667.38
499.049	655.38
499.267	653.38
499.484	673.38
499.701	683.38
499.918	700.38
500.135	708.38
500.352	720.38
500.569	755.38
500.786	736.38
501.003	729.38
501.22	718.38
501.437	729.38
501.654	719.38
501.871	753.38
502.088	732.38
