Data from 1987.PennyLincolnUp.Lamp.En5.5.200Scan.071819.P2_HRD10591_17-16-11-973.txt Node
Date: Thu Jul 18 17:16:11 EDT 2019
User: cochatt
Spectrometer: HR+D1059
Trigger mode: 1
Integration Time (sec): 1.000000E-1
Scans to average: 1
Electric dark correction enabled: true
Nonlinearity correction enabled: false
Boxcar width: 0
XAxis mode: Wavelengths
Number of Pixels in Spectrum: 2048
>>>>>Begin Spectral Data<<<<<
223.165	-15
223.4	-15
223.635	-15
223.869	-11
224.104	-7
224.338	-19
224.573	-21
224.808	-21
225.042	-13
225.277	-5
225.511	16
225.746	4
225.98	3
226.215	19
226.449	11
226.683	22
226.918	15
227.152	22
227.387	46
227.621	41
227.856	38
228.09	45
228.324	49
228.559	62
228.793	78
229.027	98
229.262	122
229.496	137
229.73	156
229.964	181
230.199	159
230.433	119
230.667	133
230.901	121
231.136	109
231.37	113
231.604	105
231.838	113
232.072	137
232.306	118
232.541	123
232.775	110
233.009	106
233.243	109
233.477	113
233.711	116
233.945	127
234.179	119
234.413	124
234.647	109
234.881	135
235.115	126
235.349	100
235.583	116
235.817	136
236.051	133
236.285	134
236.519	135
236.753	127
236.987	143
237.221	184
237.455	265
237.689	208
237.922	153
238.156	131
238.39	137
238.624	131
238.858	138
239.091	126
239.325	122
239.559	134
239.793	123
240.027	142
240.26	151
240.494	171
240.728	153
240.961	142
241.195	149
241.429	149
241.662	153
241.896	117
242.13	142
242.363	133
242.597	132
242.83	141
243.064	133
243.298	132
243.531	136
243.765	131
243.998	126
244.232	137
244.465	131
244.699	149
244.932	135
245.166	134
245.399	138
245.633	126
245.866	138
246.099	144
246.333	143
246.566	139
246.8	155
247.033	151
247.266	151
247.5	141
247.733	168
247.966	185
248.2	170
248.433	174
248.666	164
248.899	187
249.133	209
249.366	204
249.599	214
249.832	184
250.066	163
250.299	183
250.532	184
250.765	191
250.998	219
251.231	217
251.465	213
251.698	201
251.931	217
252.164	202
252.397	197
252.63	191
252.863	211
253.096	217
253.329	233
253.562	216
253.795	208
254.028	215
254.261	205
254.494	235
254.727	270
254.96	285
255.193	282
255.426	255
255.659	250
255.892	221
256.124	224
256.357	209
256.59	213
256.823	210
257.056	198
257.289	201
257.521	221
257.754	193
257.987	180
258.22	212
258.452	217
258.685	212
258.918	178
259.151	198
259.383	213
259.616	219
259.849	247
260.081	236
260.314	246
260.547	250
260.779	258
261.012	246
261.244	230
261.477	219
261.71	220
261.942	238
262.175	242
262.407	238
262.64	209
262.872	202
263.105	215
263.337	203
263.57	197
263.802	206
264.035	200
264.267	190
264.499	183
264.732	193
264.964	215
265.197	180
265.429	202
265.661	195
265.894	188
266.126	214
266.358	205
266.591	193
266.823	209
267.055	198
267.287	190
267.52	224
267.752	211
267.984	220
268.216	204
268.448	223
268.681	206
268.913	229
269.145	246
269.377	279
269.609	278
269.841	259
270.073	250
270.306	283
270.538	314
270.77	313
271.002	296
271.234	294
271.466	302
271.698	308
271.93	324
272.162	306
272.394	338
272.626	314
272.858	292
273.09	281
273.322	261
273.553	247
273.785	255
274.017	260
274.249	248
274.481	264
274.713	247
274.945	249
275.176	248
275.408	254
275.64	234
275.872	244
276.104	240
276.335	257
276.567	245
276.799	266
277.031	307
277.262	298
277.494	302
277.726	290
277.957	261
278.189	250
278.421	241
278.652	248
278.884	239
279.115	234
279.347	248
279.579	224
279.81	231
280.042	230
280.273	226
280.505	209
280.736	229
280.968	229
281.199	254
281.431	218
281.662	220
281.894	230
282.125	231
282.356	269
282.588	298
282.819	299
283.051	237
283.282	225
283.513	230
283.745	223
283.976	253
284.207	249
284.439	239
284.67	234
284.901	219
285.132	244
285.364	241
285.595	244
285.826	214
286.057	243
286.288	238
286.52	243
286.751	235
286.982	226
287.213	234
287.444	221
287.675	249
287.906	258
288.138	259
288.369	264
288.6	274
288.831	238
289.062	250
289.293	265
289.524	250
289.755	242
289.986	241
290.217	253
290.448	230
290.679	249
290.91	251
291.141	236
291.371	236
291.602	238
291.833	249
292.064	247
292.295	236
292.526	239
292.757	241
292.987	258
293.218	257
293.449	267
293.68	251
293.91	256
294.141	235
294.372	245
294.603	238
294.833	229
295.064	235
295.295	244
295.525	249
295.756	230
295.987	263
296.217	284
296.448	311
296.679	307
296.909	254
297.14	252
297.37	251
297.601	248
297.831	238
298.062	217
298.292	257
298.523	263
298.753	251
298.984	261
299.214	243
299.445	260
299.675	268
299.905	283
300.136	256
300.366	268
300.597	250
300.827	263
301.057	264
301.288	299
301.518	275
301.748	264
301.979	265
302.209	299
302.439	277
302.669	279
302.9	265
303.13	270
303.36	283
303.59	291
303.82	311
304.051	290
304.281	275
304.511	262
304.741	271
304.971	261
305.201	260
305.431	273
305.661	283
305.891	274
306.121	277
306.352	285
306.582	290
306.812	295
307.042	273
307.272	271
307.502	275
307.731	274
307.961	282
308.191	277
308.421	275
308.651	290
308.881	297
309.111	303
309.341	303
309.571	338
309.8	340
310.03	319
310.26	364
310.49	355
310.72	364
310.949	418
311.179	398
311.409	386
311.639	379
311.868	359
312.098	359
312.328	365
312.557	404
312.787	421
313.017	418
313.246	373
313.476	354
313.706	344
313.935	357
314.165	371
314.394	385
314.624	373
314.853	351
315.083	350
315.312	348
315.542	320
315.771	337
316.001	327
316.23	338
316.46	330
316.689	339
316.919	365
317.148	369
317.377	370
317.607	356
317.836	355
318.065	360
318.295	338
318.524	348
318.753	344
318.983	324
319.212	334
319.441	367
319.67	365
319.9	348
320.129	350
320.358	348
320.587	352
320.816	376
321.046	373
321.275	375
321.504	391
321.733	381
321.962	391
322.191	388
322.42	430
322.649	472
322.878	470
323.108	485
323.337	541
323.566	581
323.795	618
324.024	717
324.253	883
324.482	1297
324.71	2011
324.939	2817
325.168	2438
325.397	1335
325.626	831
325.855	662
326.084	615
326.313	555
326.542	585
326.77	661
326.999	796
327.228	1119
327.457	1734
327.686	2132
327.914	1417
328.143	929
328.372	770
328.6	715
328.829	657
329.058	677
329.287	689
329.515	605
329.744	545
329.972	517
330.201	531
330.43	565
330.658	608
330.887	720
331.115	685
331.344	558
331.572	494
331.801	502
332.03	494
332.258	452
332.486	438
332.715	406
332.943	396
333.172	413
333.4	393
333.629	397
333.857	413
334.085	433
334.314	389
334.542	401
334.771	409
334.999	409
335.227	405
335.455	393
335.684	389
335.912	391
336.14	388
336.369	378
336.597	395
336.825	406
337.053	395
337.281	377
337.51	377
337.738	385
337.966	383
338.194	395
338.422	393
338.65	357
338.878	369
339.106	373
339.334	362
339.562	385
339.79	357
340.018	373
340.246	366
340.474	407
340.702	395
340.93	389
341.158	392
341.386	371
341.614	384
341.842	379
342.07	375
342.298	376
342.526	369
342.754	355
342.981	358
343.209	350
343.437	355
343.665	369
343.893	377
344.12	347
344.348	355
344.576	344
344.804	385
345.031	411
345.259	422
345.487	405
345.714	398
345.942	364
346.17	389
346.397	381
346.625	385
346.853	357
347.08	387
347.308	387
347.535	414
347.763	397
347.99	389
348.218	406
348.445	421
348.673	401
348.9	401
349.128	386
349.355	360
349.583	361
349.81	328
350.037	346
350.265	351
350.492	362
350.72	365
350.947	382
351.174	379
351.402	416
351.629	411
351.856	403
352.083	408
352.311	420
352.538	433
352.765	413
352.992	396
353.22	401
353.447	391
353.674	400
353.901	351
354.128	327
354.355	344
354.583	346
354.81	329
355.037	335
355.264	318
355.491	339
355.718	321
355.945	333
356.172	345
356.399	329
356.626	344
356.853	330
357.08	324
357.307	331
357.534	337
357.761	334
357.988	329
358.215	335
358.441	354
358.668	327
358.895	360
359.122	379
359.349	346
359.576	391
359.802	435
360.029	498
360.256	522
360.483	457
360.709	416
360.936	381
361.163	385
361.39	408
361.616	393
361.843	393
362.07	373
362.296	403
362.523	387
362.749	380
362.976	391
363.203	385
363.429	377
363.656	347
363.882	340
364.109	360
364.335	354
364.562	349
364.788	374
365.015	369
365.241	365
365.468	375
365.694	379
365.92	372
366.147	365
366.373	355
366.599	343
366.826	360
367.052	359
367.278	338
367.505	351
367.731	344
367.957	353
368.184	349
368.41	352
368.636	377
368.862	379
369.089	373
369.315	373
369.541	354
369.767	345
369.993	356
370.219	340
370.445	330
370.672	342
370.898	320
371.124	355
371.35	328
371.576	336
371.802	324
372.028	342
372.254	321
372.48	321
372.706	327
372.932	326
373.158	334
373.384	348
373.61	325
373.835	328
374.061	338
374.287	356
374.513	343
374.739	335
374.965	334
375.191	338
375.416	333
375.642	330
375.868	314
376.094	329
376.319	321
376.545	330
376.771	332
376.997	345
377.222	343
377.448	345
377.674	334
377.899	326
378.125	315
378.35	321
378.576	323
378.802	332
379.027	315
379.253	319
379.478	326
379.704	316
379.929	325
380.155	350
380.38	337
380.606	342
380.831	333
381.057	340
381.282	323
381.507	327
381.733	331
381.958	323
382.184	335
382.409	336
382.634	347
382.86	336
383.085	335
383.31	341
383.535	347
383.761	354
383.986	320
384.211	345
384.436	366
384.662	333
384.887	325
385.112	338
385.337	345
385.562	336
385.787	346
386.013	359
386.238	381
386.463	339
386.688	360
386.913	367
387.138	346
387.363	350
387.588	350
387.813	352
388.038	346
388.263	348
388.488	357
388.713	332
388.938	341
389.163	361
389.387	383
389.612	357
389.837	361
390.062	354
390.287	340
390.512	359
390.736	351
390.961	353
391.186	333
391.411	361
391.636	362
391.86	380
392.085	369
392.31	369
392.534	357
392.759	359
392.984	360
393.208	349
393.433	343
393.658	362
393.882	332
394.107	349
394.331	370
394.556	361
394.78	368
395.005	339
395.229	341
395.454	363
395.678	372
395.903	381
396.127	406
396.352	412
396.576	377
396.801	356
397.025	391
397.249	362
397.474	385
397.698	380
397.922	400
398.147	421
398.371	414
398.595	384
398.82	417
399.044	402
399.268	407
399.492	409
399.717	436
399.941	447
400.165	484
400.389	492
400.613	445
400.837	433
401.062	430
401.286	408
401.51	409
401.734	422
401.958	405
402.182	401
402.406	440
402.63	444
402.854	419
403.078	419
403.302	417
403.526	451
403.75	424
403.974	421
404.198	422
404.422	436
404.645	436
404.869	439
405.093	460
405.317	475
405.541	512
405.765	490
405.988	462
406.212	474
406.436	526
406.66	517
406.883	471
407.107	509
407.331	543
407.555	603
407.778	609
408.002	554
408.226	538
408.449	495
408.673	507
408.896	525
409.12	531
409.344	519
409.567	460
409.791	457
410.014	451
410.238	416
410.461	428
410.685	446
410.908	460
411.132	485
411.355	525
411.578	509
411.802	447
412.025	439
412.249	439
412.472	427
412.695	444
412.919	419
413.142	415
413.365	435
413.589	405
413.812	400
414.035	403
414.258	398
414.482	395
414.705	377
414.928	401
415.151	412
415.374	392
415.597	407
415.821	418
416.044	399
416.267	435
416.49	406
416.713	391
416.936	415
417.159	423
417.382	439
417.605	422
417.828	427
418.051	467
418.274	459
418.497	411
418.72	415
418.943	417
419.166	417
419.389	437
419.611	435
419.834	419
420.057	438
420.28	440
420.503	439
420.726	439
420.948	457
421.171	505
421.394	542
421.617	492
421.839	459
422.062	461
422.285	485
422.507	533
422.73	635
422.953	575
423.175	521
423.398	493
423.621	471
423.843	495
424.066	497
424.288	485
424.511	525
424.733	581
424.956	647
425.178	673
425.401	652
425.623	653
425.846	602
426.068	535
426.291	521
426.513	506
426.735	548
426.958	577
427.18	651
427.402	805
427.625	892
427.847	851
428.069	700
428.292	609
428.514	533
428.736	525
428.958	524
429.181	490
429.403	479
429.625	489
429.847	529
430.069	600
430.292	586
430.514	515
430.736	482
430.958	455
431.18	429
431.402	428
431.624	442
431.846	405
432.068	428
432.29	452
432.512	451
432.734	449
432.956	448
433.178	464
433.4	467
433.622	443
433.844	429
434.066	436
434.287	439
434.509	427
434.731	457
434.953	434
435.175	447
435.397	520
435.618	541
435.84	558
436.062	658
436.284	713
436.505	604
436.727	562
436.949	521
437.17	514
437.392	500
437.614	516
437.835	591
438.057	655
438.278	800
438.5	774
438.721	826
438.943	784
439.165	627
439.386	579
439.608	577
439.829	570
440.05	606
440.272	634
440.493	603
440.715	557
440.936	497
441.158	500
441.379	479
441.6	525
441.822	529
442.043	557
442.264	674
442.486	709
442.707	611
442.928	561
443.149	556
443.371	569
443.592	623
443.813	692
444.034	758
444.255	633
444.476	538
444.698	539
444.919	500
445.14	589
445.361	574
445.582	587
445.803	646
446.024	743
446.245	774
446.466	697
446.687	605
446.908	546
447.129	542
447.35	474
447.571	492
447.792	502
448.013	505
448.234	553
448.455	566
448.675	694
448.896	796
449.117	664
449.338	664
449.559	767
449.779	810
450	670
450.221	569
450.442	509
450.662	501
450.883	527
451.104	557
451.324	522
451.545	504
451.766	459
451.986	460
452.207	425
452.428	453
452.648	436
452.869	461
453.089	462
453.31	462
453.53	450
453.751	449
453.971	463
454.192	503
454.412	521
454.633	441
454.853	423
455.073	446
455.294	483
455.514	538
455.734	531
455.955	446
456.175	426
456.395	404
456.616	400
456.836	410
457.056	400
457.276	379
457.497	410
457.717	405
457.937	398
458.157	419
458.377	438
458.598	441
458.818	558
459.038	661
459.258	661
459.478	540
459.698	478
459.918	446
460.138	430
460.358	422
460.578	439
460.798	439
461.018	424
461.238	428
461.458	426
461.678	422
461.898	435
462.118	430
462.338	414
462.558	418
462.777	439
462.997	435
463.217	457
463.437	446
463.657	430
463.876	451
464.096	450
464.316	449
464.536	457
464.755	448
464.975	480
465.195	567
465.414	714
465.634	601
465.854	521
466.073	476
466.293	455
466.512	471
466.732	456
466.951	445
467.171	429
467.391	424
467.61	453
467.829	475
468.049	467
468.268	447
468.488	414
468.707	419
468.927	437
469.146	415
469.365	443
469.585	430
469.804	435
470.023	451
470.243	475
470.462	446
470.681	485
470.901	481
471.12	446
471.339	439
471.558	446
471.777	429
471.997	423
472.216	448
472.435	440
472.654	429
472.873	429
473.092	424
473.311	430
473.53	450
473.749	436
473.968	486
474.187	618
474.406	658
474.625	531
474.844	465
475.063	437
475.282	443
475.501	430
475.72	443
475.939	441
476.158	457
476.377	437
476.596	444
476.814	445
477.033	482
477.252	468
477.471	475
477.69	489
477.908	460
478.127	470
478.346	467
478.564	494
478.783	490
479.002	467
479.22	492
479.439	519
479.658	523
479.876	545
480.095	576
480.313	578
480.532	555
480.751	517
480.969	551
481.188	551
481.406	582
481.624	532
481.843	534
482.061	532
482.28	527
482.498	529
482.717	482
482.935	515
483.153	526
483.372	502
483.59	507
483.808	526
484.027	520
484.245	507
484.463	504
484.681	525
484.9	536
485.118	515
485.336	537
485.554	528
485.772	543
485.99	561
486.209	558
486.427	545
486.645	571
486.863	611
487.081	598
487.299	572
487.517	579
487.735	552
487.953	575
488.171	588
488.389	577
488.607	599
488.825	572
489.043	588
489.261	554
489.479	567
489.696	598
489.914	610
490.132	593
490.35	581
490.568	604
490.786	603
491.003	622
491.221	637
491.439	638
491.657	663
491.874	649
492.092	653
492.31	638
492.527	659
492.745	641
492.963	682
493.18	693
493.398	670
493.615	696
493.833	659
494.05	668
494.268	704
494.485	691
494.703	674
494.92	680
495.138	685
495.355	680
495.573	704
495.79	707
496.008	691
496.225	684
496.442	683
496.66	705
496.877	701
497.094	692
497.312	716
497.529	687
497.746	702
497.963	699
498.181	748
498.398	729
498.615	755
498.832	756
499.049	739
499.267	735
499.484	749
499.701	745
499.918	760
500.135	794
500.352	823
500.569	822
500.786	803
501.003	813
501.22	793
501.437	795
501.654	814
501.871	835
502.088	838
502.305	797
502.522	765
502.739	761
502.956	729
503.172	714
503.389	717
503.606	710
503.823	738
504.04	740
504.256	708
504.473	677
504.69	676
504.907	714
505.123	683
505.34	693
505.557	691
505.773	702
505.99	679
506.207	675
506.423	685
506.64	695
506.856	677
507.073	673
507.289	689
507.506	679
507.722	704
507.939	756
508.155	726
508.372	673
508.588	659
508.805	673
509.021	682
509.238	683
509.454	679
509.67	681
509.887	667
510.103	696
510.319	716
510.536	853
510.752	1619
510.968	1319
511.184	744
511.401	683
511.617	670
511.833	631
512.049	649
512.265	648
512.481	651
512.698	631
512.914	636
513.13	650
513.346	655
513.562	652
513.778	665
513.994	680
514.21	703
514.426	766
514.642	819
514.858	859
515.074	957
515.29	1211
515.506	1938
515.721	1547
515.937	928
516.153	801
516.369	759
516.585	715
516.801	673
517.016	669
517.232	664
517.448	640
517.664	661
517.879	637
518.095	633
518.311	644
518.527	647
518.742	636
518.958	647
519.173	661
519.389	643
519.605	666
519.82	683
520.036	721
520.251	748
520.467	814
520.682	797
520.898	820
521.113	858
521.329	962
521.544	1125
521.76	1515
521.975	2633
522.19	2618
522.406	1306
522.621	925
522.836	801
523.052	735
523.267	693
523.482	647
523.698	623
523.913	653
524.128	635
524.343	609
524.559	579
524.774	578
524.989	579
525.204	574
525.419	574
525.634	552
525.849	553
526.064	548
526.28	534
526.495	523
526.71	529
526.925	534
527.14	509
527.355	495
527.57	506
527.785	492
527.999	501
528.214	490
528.429	505
528.644	492
528.859	515
529.074	531
529.289	572
529.503	686
529.718	663
529.933	595
530.148	548
530.363	548
530.577	517
530.792	510
531.007	506
531.221	503
531.436	480
531.651	483
531.865	493
532.08	495
532.295	479
532.509	491
532.724	500
532.938	482
533.153	472
533.367	473
533.582	443
533.796	445
534.011	475
534.225	471
534.44	433
534.654	445
534.868	470
535.083	458
535.297	462
535.511	473
535.726	487
535.94	476
536.154	465
536.369	454
536.583	470
536.797	443
537.011	450
537.225	447
537.44	457
537.654	430
537.868	458
538.082	427
538.296	460
538.51	445
538.724	467
538.938	464
539.153	456
539.367	465
539.581	484
539.795	453
540.009	445
540.222	446
540.436	459
540.65	461
540.864	446
541.078	479
541.292	480
541.506	450
541.72	456
541.934	440
542.147	472
542.361	444
542.575	431
542.789	444
543.002	433
543.216	440
543.43	456
543.644	445
543.857	433
544.071	426
544.285	453
544.498	429
544.712	419
544.925	434
545.139	428
545.352	419
545.566	429
545.779	409
545.993	422
546.206	409
546.42	449
546.633	426
546.847	390
547.06	407
547.274	386
547.487	424
547.7	385
547.914	405
548.127	400
548.34	395
548.554	396
548.767	410
548.98	391
549.193	388
549.407	392
549.62	386
549.833	409
550.046	404
550.259	398
550.473	398
550.686	380
550.899	395
551.112	364
551.325	401
551.538	385
551.751	398
551.964	391
552.177	398
552.39	381
552.603	404
552.816	393
553.029	385
553.242	394
553.455	395
553.667	400
553.88	447
554.093	412
554.306	411
554.519	402
554.732	408
554.944	386
555.157	395
555.37	395
555.583	397
555.795	399
556.008	385
556.221	389
556.433	385
556.646	383
556.859	366
557.071	385
557.284	365
557.496	386
557.709	362
557.921	369
558.134	380
558.346	381
558.559	364
558.771	352
558.984	363
559.196	370
559.409	357
559.621	357
559.833	349
560.046	352
560.258	354
560.47	360
560.683	368
560.895	360
561.107	359
561.32	356
561.532	344
561.744	347
561.956	341
562.168	355
562.381	371
562.593	361
562.805	343
563.017	346
563.229	345
563.441	347
