Data from 1987.PennyLincolnUp.Lamp.En5.5.200Scan.071819.P2_HRD10591_17-16-12-971.txt Node
Date: Thu Jul 18 17:16:12 EDT 2019
User: cochatt
Spectrometer: HR+D1059
Trigger mode: 1
Integration Time (sec): 1.000000E-1
Scans to average: 1
Electric dark correction enabled: true
Nonlinearity correction enabled: false
Boxcar width: 0
XAxis mode: Wavelengths
Number of Pixels in Spectrum: 2048
>>>>>Begin Spectral Data<<<<<
223.165	-11.56
223.4	-11.56
223.635	-11.56
223.869	-15.56
224.104	-7.56
224.338	-21.56
224.573	-23.56
224.808	-14.56
225.042	0.44
225.277	-0.56
225.511	-5.56
225.746	2.44
225.98	8.44
226.215	9.44
226.449	22.44
226.683	17.44
226.918	19.44
227.152	20.44
227.387	20.44
227.621	32.44
227.856	57.44
228.09	36.44
228.324	52.44
228.559	37.44
228.793	65.44
229.027	99.44
229.262	127.44
229.496	116.44
229.73	146.44
229.964	164.44
230.199	149.44
230.433	127.44
230.667	111.44
230.901	114.44
231.136	113.44
231.37	96.44
231.604	122.44
231.838	108.44
232.072	115.44
232.306	100.44
232.541	90.44
232.775	109.44
233.009	108.44
233.243	103.44
233.477	115.44
233.711	118.44
233.945	108.44
234.179	111.44
234.413	107.44
234.647	116.44
234.881	109.44
235.115	116.44
235.349	131.44
235.583	118.44
235.817	115.44
236.051	120.44
236.285	116.44
236.519	134.44
236.753	137.44
236.987	152.44
237.221	204.44
237.455	254.44
237.689	191.44
237.922	146.44
238.156	127.44
238.39	138.44
238.624	129.44
238.858	135.44
239.091	121.44
239.325	123.44
239.559	121.44
239.793	120.44
240.027	128.44
240.26	147.44
240.494	174.44
240.728	147.44
240.961	158.44
241.195	145.44
241.429	137.44
241.662	134.44
241.896	115.44
242.13	121.44
242.363	137.44
242.597	122.44
242.83	145.44
243.064	131.44
243.298	116.44
243.531	130.44
243.765	135.44
243.998	144.44
244.232	131.44
244.465	130.44
244.699	136.44
244.932	161.44
245.166	124.44
245.399	124.44
245.633	135.44
245.866	129.44
246.099	147.44
246.333	145.44
246.566	138.44
246.8	148.44
247.033	141.44
247.266	156.44
247.5	164.44
247.733	157.44
247.966	168.44
248.2	157.44
248.433	166.44
248.666	168.44
248.899	188.44
249.133	197.44
249.366	208.44
249.599	184.44
249.832	188.44
250.066	177.44
250.299	185.44
250.532	188.44
250.765	167.44
250.998	203.44
251.231	222.44
251.465	198.44
251.698	188.44
251.931	202.44
252.164	200.44
252.397	207.44
252.63	195.44
252.863	196.44
253.096	200.44
253.329	221.44
253.562	213.44
253.795	214.44
254.028	209.44
254.261	219.44
254.494	222.44
254.727	236.44
254.96	289.44
255.193	286.44
255.426	253.44
255.659	214.44
255.892	202.44
256.124	216.44
256.357	211.44
256.59	208.44
256.823	192.44
257.056	209.44
257.289	200.44
257.521	190.44
257.754	192.44
257.987	184.44
258.22	194.44
258.452	191.44
258.685	188.44
258.918	193.44
259.151	199.44
259.383	198.44
259.616	194.44
259.849	209.44
260.081	220.44
260.314	241.44
260.547	270.44
260.779	253.44
261.012	213.44
261.244	208.44
261.477	222.44
261.71	225.44
261.942	215.44
262.175	252.44
262.407	242.44
262.64	209.44
262.872	211.44
263.105	203.44
263.337	208.44
263.57	194.44
263.802	199.44
264.035	192.44
264.267	194.44
264.499	195.44
264.732	185.44
264.964	187.44
265.197	192.44
265.429	199.44
265.661	205.44
265.894	191.44
266.126	185.44
266.358	195.44
266.591	188.44
266.823	196.44
267.055	198.44
267.287	194.44
267.52	213.44
267.752	201.44
267.984	207.44
268.216	208.44
268.448	213.44
268.681	224.44
268.913	208.44
269.145	241.44
269.377	253.44
269.609	249.44
269.841	255.44
270.073	249.44
270.306	267.44
270.538	303.44
270.77	319.44
271.002	300.44
271.234	283.44
271.466	302.44
271.698	300.44
271.93	304.44
272.162	309.44
272.394	313.44
272.626	296.44
272.858	285.44
273.09	264.44
273.322	256.44
273.553	229.44
273.785	246.44
274.017	250.44
274.249	264.44
274.481	243.44
274.713	245.44
274.945	250.44
275.176	245.44
275.408	246.44
275.64	252.44
275.872	228.44
276.104	243.44
276.335	239.44
276.567	242.44
276.799	273.44
277.031	293.44
277.262	303.44
277.494	302.44
277.726	280.44
277.957	287.44
278.189	247.44
278.421	247.44
278.652	246.44
278.884	233.44
279.115	230.44
279.347	228.44
279.579	224.44
279.81	212.44
280.042	216.44
280.273	217.44
280.505	218.44
280.736	207.44
280.968	233.44
281.199	205.44
281.431	228.44
281.662	229.44
281.894	228.44
282.125	231.44
282.356	246.44
282.588	282.44
282.819	300.44
283.051	254.44
283.282	245.44
283.513	228.44
283.745	227.44
283.976	214.44
284.207	226.44
284.439	240.44
284.67	244.44
284.901	221.44
285.132	220.44
285.364	231.44
285.595	240.44
285.826	236.44
286.057	223.44
286.288	230.44
286.52	224.44
286.751	241.44
286.982	229.44
287.213	233.44
287.444	252.44
287.675	238.44
287.906	247.44
288.138	274.44
288.369	260.44
288.6	268.44
288.831	261.44
289.062	240.44
289.293	250.44
289.524	255.44
289.755	238.44
289.986	236.44
290.217	233.44
290.448	229.44
290.679	239.44
290.91	252.44
291.141	228.44
291.371	228.44
291.602	238.44
291.833	220.44
292.064	245.44
292.295	229.44
292.526	227.44
292.757	241.44
292.987	252.44
293.218	218.44
293.449	239.44
293.68	233.44
293.91	231.44
294.141	244.44
294.372	226.44
294.603	226.44
294.833	236.44
295.064	232.44
295.295	237.44
295.525	237.44
295.756	257.44
295.987	253.44
296.217	285.44
296.448	300.44
296.679	274.44
296.909	242.44
297.14	234.44
297.37	244.44
297.601	255.44
297.831	244.44
298.062	250.44
298.292	247.44
298.523	269.44
298.753	260.44
298.984	246.44
299.214	242.44
299.445	249.44
299.675	253.44
299.905	247.44
300.136	272.44
300.366	247.44
300.597	259.44
300.827	259.44
301.057	280.44
301.288	278.44
301.518	273.44
301.748	276.44
301.979	262.44
302.209	261.44
302.439	268.44
302.669	278.44
302.9	264.44
303.13	265.44
303.36	297.44
303.59	275.44
303.82	287.44
304.051	277.44
304.281	255.44
304.511	265.44
304.741	268.44
304.971	270.44
305.201	247.44
305.431	258.44
305.661	264.44
305.891	252.44
306.121	272.44
306.352	283.44
306.582	279.44
306.812	287.44
307.042	264.44
307.272	285.44
307.502	274.44
307.731	266.44
307.961	284.44
308.191	281.44
308.421	281.44
308.651	275.44
308.881	280.44
309.111	309.44
309.341	314.44
309.571	319.44
309.8	321.44
310.03	333.44
310.26	357.44
310.49	348.44
310.72	368.44
310.949	390.44
311.179	394.44
311.409	372.44
311.639	357.44
311.868	352.44
312.098	345.44
312.328	357.44
312.557	367.44
312.787	398.44
313.017	391.44
313.246	354.44
313.476	346.44
313.706	349.44
313.935	344.44
314.165	370.44
314.394	378.44
314.624	378.44
314.853	364.44
315.083	342.44
315.312	336.44
315.542	317.44
315.771	320.44
316.001	326.44
316.23	315.44
316.46	327.44
316.689	309.44
316.919	344.44
317.148	348.44
317.377	330.44
317.607	349.44
317.836	341.44
318.065	328.44
318.295	324.44
318.524	328.44
318.753	324.44
318.983	321.44
319.212	327.44
319.441	338.44
319.67	351.44
319.9	350.44
320.129	330.44
320.358	344.44
320.587	347.44
320.816	359.44
321.046	355.44
321.275	360.44
321.504	373.44
321.733	359.44
321.962	393.44
322.191	406.44
322.42	431.44
322.649	456.44
322.878	449.44
323.108	479.44
323.337	536.44
323.566	582.44
323.795	622.44
324.024	679.44
324.253	851.44
324.482	1288.44
324.71	1991.44
324.939	2796.44
325.168	2393.44
325.397	1316.44
325.626	845.44
325.855	660.44
326.084	567.44
326.313	554.44
326.542	552.44
326.77	636.44
326.999	754.44
327.228	1093.44
327.457	1692.44
327.686	2088.44
327.914	1475.44
328.143	900.44
328.372	746.44
328.6	684.44
328.829	642.44
329.058	655.44
329.287	673.44
329.515	613.44
329.744	564.44
329.972	527.44
330.201	520.44
330.43	540.44
330.658	620.44
330.887	705.44
331.115	668.44
331.344	542.44
331.572	495.44
331.801	502.44
332.03	487.44
332.258	468.44
332.486	445.44
332.715	398.44
332.943	398.44
333.172	412.44
333.4	388.44
333.629	392.44
333.857	422.44
334.085	417.44
334.314	402.44
334.542	402.44
334.771	423.44
334.999	408.44
335.227	416.44
335.455	371.44
335.684	387.44
335.912	383.44
336.14	377.44
336.369	394.44
336.597	395.44
336.825	408.44
337.053	371.44
337.281	382.44
337.51	400.44
337.738	372.44
337.966	370.44
338.194	388.44
338.422	388.44
338.65	385.44
338.878	358.44
339.106	374.44
339.334	374.44
339.562	357.44
339.79	379.44
340.018	377.44
340.246	376.44
340.474	395.44
340.702	376.44
340.93	376.44
341.158	358.44
341.386	371.44
341.614	402.44
341.842	393.44
342.07	377.44
342.298	378.44
342.526	341.44
342.754	368.44
342.981	342.44
343.209	355.44
343.437	360.44
343.665	351.44
343.893	362.44
344.12	353.44
344.348	356.44
344.576	347.44
344.804	380.44
345.031	381.44
345.259	403.44
345.487	398.44
345.714	400.44
345.942	370.44
346.17	363.44
346.397	361.44
346.625	379.44
346.853	390.44
347.08	361.44
347.308	385.44
347.535	392.44
347.763	420.44
347.99	388.44
348.218	394.44
348.445	385.44
348.673	402.44
348.9	376.44
349.128	381.44
349.355	357.44
349.583	360.44
349.81	342.44
350.037	347.44
350.265	360.44
350.492	349.44
350.72	348.44
350.947	378.44
351.174	385.44
351.402	417.44
351.629	383.44
351.856	414.44
352.083	398.44
352.311	398.44
352.538	422.44
352.765	419.44
352.992	414.44
353.22	397.44
353.447	394.44
353.674	374.44
353.901	337.44
354.128	348.44
354.355	339.44
354.583	340.44
354.81	358.44
355.037	327.44
355.264	307.44
355.491	319.44
355.718	333.44
355.945	332.44
356.172	319.44
356.399	318.44
356.626	321.44
356.853	325.44
357.08	329.44
357.307	329.44
357.534	343.44
357.761	322.44
357.988	336.44
358.215	312.44
358.441	325.44
358.668	337.44
358.895	343.44
359.122	361.44
359.349	368.44
359.576	392.44
359.802	430.44
360.029	457.44
360.256	464.44
360.483	441.44
360.709	389.44
360.936	399.44
361.163	386.44
361.39	386.44
361.616	387.44
361.843	379.44
362.07	385.44
362.296	382.44
362.523	394.44
362.749	376.44
362.976	368.44
363.203	380.44
363.429	354.44
363.656	351.44
363.882	342.44
364.109	353.44
364.335	334.44
364.562	353.44
364.788	337.44
365.015	343.44
365.241	352.44
365.468	359.44
365.694	354.44
365.92	373.44
366.147	364.44
366.373	358.44
366.599	346.44
366.826	352.44
367.052	361.44
367.278	345.44
367.505	342.44
367.731	356.44
367.957	350.44
368.184	359.44
368.41	369.44
368.636	365.44
368.862	371.44
369.089	361.44
369.315	324.44
369.541	326.44
369.767	341.44
369.993	354.44
370.219	358.44
370.445	342.44
370.672	330.44
370.898	340.44
371.124	328.44
371.35	333.44
371.576	324.44
371.802	324.44
372.028	317.44
372.254	309.44
372.48	318.44
372.706	317.44
372.932	316.44
373.158	335.44
373.384	339.44
373.61	333.44
373.835	316.44
374.061	322.44
374.287	325.44
374.513	353.44
374.739	341.44
374.965	333.44
375.191	327.44
375.416	321.44
375.642	317.44
375.868	327.44
376.094	341.44
376.319	336.44
376.545	337.44
376.771	315.44
376.997	338.44
377.222	346.44
377.448	331.44
377.674	319.44
377.899	316.44
378.125	330.44
378.35	302.44
378.576	321.44
378.802	329.44
379.027	333.44
379.253	332.44
379.478	328.44
379.704	329.44
379.929	337.44
380.155	323.44
380.38	326.44
380.606	321.44
380.831	327.44
381.057	329.44
381.282	333.44
381.507	329.44
381.733	329.44
381.958	335.44
382.184	343.44
382.409	333.44
382.634	348.44
382.86	341.44
383.085	339.44
383.31	337.44
383.535	343.44
383.761	335.44
383.986	351.44
384.211	349.44
384.436	332.44
384.662	341.44
384.887	337.44
385.112	351.44
385.337	336.44
385.562	344.44
385.787	352.44
386.013	361.44
386.238	360.44
386.463	357.44
386.688	360.44
386.913	346.44
387.138	347.44
387.363	349.44
387.588	350.44
387.813	343.44
388.038	339.44
388.263	351.44
388.488	346.44
388.713	352.44
388.938	346.44
389.163	354.44
389.387	348.44
389.612	328.44
389.837	350.44
390.062	335.44
390.287	350.44
390.512	347.44
390.736	352.44
390.961	351.44
391.186	323.44
391.411	323.44
391.636	338.44
391.86	333.44
392.085	338.44
392.31	349.44
392.534	361.44
392.759	353.44
392.984	349.44
393.208	346.44
393.433	339.44
393.658	348.44
393.882	338.44
394.107	338.44
394.331	365.44
394.556	340.44
394.78	358.44
395.005	341.44
395.229	339.44
395.454	361.44
395.678	345.44
395.903	388.44
396.127	390.44
396.352	400.44
396.576	366.44
396.801	360.44
397.025	366.44
397.249	368.44
397.474	365.44
397.698	374.44
397.922	386.44
398.147	394.44
398.371	415.44
398.595	376.44
398.82	390.44
399.044	396.44
399.268	398.44
399.492	403.44
399.717	398.44
399.941	449.44
400.165	467.44
400.389	503.44
400.613	457.44
400.837	415.44
401.062	412.44
401.286	414.44
401.51	413.44
401.734	395.44
401.958	386.44
402.182	423.44
402.406	432.44
402.63	416.44
402.854	417.44
403.078	415.44
403.302	428.44
403.526	413.44
403.75	432.44
403.974	422.44
404.198	397.44
404.422	417.44
404.645	422.44
404.869	415.44
405.093	440.44
405.317	455.44
405.541	486.44
405.765	465.44
405.988	448.44
406.212	471.44
406.436	519.44
406.66	523.44
406.883	478.44
407.107	516.44
407.331	544.44
407.555	595.44
407.778	581.44
408.002	549.44
408.226	510.44
408.449	473.44
408.673	475.44
408.896	489.44
409.12	534.44
409.344	503.44
409.567	459.44
409.791	436.44
410.014	442.44
410.238	412.44
410.461	420.44
410.685	434.44
410.908	457.44
411.132	489.44
411.355	502.44
411.578	488.44
411.802	448.44
412.025	432.44
412.249	405.44
412.472	451.44
412.695	443.44
412.919	414.44
413.142	400.44
413.365	412.44
413.589	398.44
413.812	398.44
414.035	393.44
414.258	402.44
414.482	378.44
414.705	399.44
414.928	389.44
415.151	395.44
415.374	386.44
415.597	392.44
415.821	388.44
416.044	413.44
416.267	420.44
416.49	386.44
416.713	405.44
416.936	400.44
417.159	398.44
417.382	387.44
417.605	413.44
417.828	445.44
418.051	436.44
418.274	417.44
418.497	420.44
418.72	407.44
418.943	404.44
419.166	420.44
419.389	453.44
419.611	431.44
419.834	433.44
420.057	434.44
420.28	418.44
420.503	408.44
420.726	418.44
420.948	458.44
421.171	506.44
421.394	545.44
421.617	477.44
421.839	443.44
422.062	449.44
422.285	428.44
422.507	520.44
422.73	572.44
422.953	582.44
423.175	493.44
423.398	463.44
423.621	468.44
423.843	461.44
424.066	499.44
424.288	475.44
424.511	508.44
424.733	577.44
424.956	638.44
425.178	643.44
425.401	617.44
425.623	659.44
425.846	538.44
426.068	508.44
426.291	527.44
426.513	530.44
426.735	535.44
426.958	567.44
427.18	647.44
427.402	776.44
427.625	859.44
427.847	821.44
428.069	687.44
428.292	598.44
428.514	521.44
428.736	522.44
428.958	520.44
429.181	492.44
429.403	464.44
429.625	507.44
429.847	530.44
430.069	586.44
430.292	602.44
430.514	496.44
430.736	477.44
430.958	453.44
431.18	454.44
431.402	440.44
431.624	425.44
431.846	425.44
432.068	452.44
432.29	429.44
432.512	430.44
432.734	428.44
432.956	424.44
433.178	434.44
433.4	471.44
433.622	434.44
433.844	422.44
434.066	423.44
434.287	409.44
434.509	431.44
434.731	452.44
434.953	433.44
435.175	459.44
435.397	483.44
435.618	495.44
435.84	581.44
436.062	654.44
436.284	706.44
436.505	599.44
436.727	522.44
436.949	488.44
437.17	505.44
437.392	489.44
437.614	514.44
437.835	560.44
438.057	646.44
438.278	757.44
438.5	775.44
438.721	782.44
438.943	754.44
439.165	640.44
439.386	568.44
439.608	552.44
439.829	542.44
440.05	594.44
440.272	632.44
440.493	617.44
440.715	560.44
440.936	520.44
441.158	486.44
441.379	470.44
441.6	490.44
441.822	524.44
442.043	572.44
442.264	671.44
442.486	666.44
442.707	581.44
442.928	548.44
443.149	536.44
443.371	576.44
443.592	611.44
443.813	731.44
444.034	761.44
444.255	629.44
444.476	552.44
444.698	534.44
444.919	523.44
445.14	584.44
445.361	552.44
445.582	584.44
445.803	633.44
446.024	753.44
446.245	753.44
446.466	684.44
446.687	615.44
446.908	526.44
447.129	526.44
447.35	492.44
447.571	494.44
447.792	487.44
448.013	515.44
448.234	530.44
448.455	596.44
448.675	698.44
448.896	745.44
449.117	664.44
449.338	651.44
449.559	730.44
449.779	834.44
450	682.44
450.221	561.44
450.442	534.44
450.662	515.44
450.883	521.44
451.104	544.44
451.324	539.44
451.545	480.44
451.766	487.44
451.986	459.44
452.207	434.44
452.428	454.44
452.648	431.44
452.869	442.44
453.089	450.44
453.31	459.44
453.53	482.44
453.751	441.44
453.971	466.44
454.192	481.44
454.412	462.44
454.633	466.44
454.853	445.44
455.073	434.44
455.294	474.44
455.514	536.44
455.734	526.44
455.955	457.44
456.175	422.44
456.395	416.44
456.616	406.44
456.836	380.44
457.056	385.44
457.276	398.44
457.497	397.44
457.717	398.44
457.937	417.44
458.157	425.44
458.377	405.44
458.598	452.44
458.818	519.44
459.038	659.44
459.258	658.44
459.478	524.44
459.698	467.44
459.918	450.44
460.138	432.44
460.358	405.44
460.578	423.44
460.798	435.44
461.018	443.44
461.238	415.44
461.458	412.44
461.678	408.44
461.898	413.44
462.118	406.44
462.338	413.44
462.558	438.44
462.777	414.44
462.997	432.44
463.217	420.44
463.437	417.44
463.657	434.44
463.876	444.44
464.096	446.44
464.316	442.44
464.536	465.44
464.755	455.44
464.975	460.44
465.195	560.44
465.414	724.44
465.634	592.44
465.854	535.44
466.073	455.44
466.293	439.44
466.512	432.44
466.732	408.44
466.951	417.44
467.171	422.44
467.391	445.44
467.61	444.44
467.829	468.44
468.049	452.44
468.268	450.44
468.488	415.44
468.707	405.44
468.927	393.44
469.146	421.44
469.365	425.44
469.585	421.44
469.804	445.44
470.023	456.44
470.243	443.44
470.462	440.44
470.681	487.44
470.901	465.44
471.12	432.44
471.339	422.44
471.558	468.44
471.777	433.44
471.997	440.44
472.216	412.44
472.435	418.44
472.654	419.44
472.873	412.44
473.092	436.44
473.311	436.44
473.53	437.44
473.749	452.44
473.968	502.44
474.187	593.44
474.406	620.44
474.625	492.44
474.844	457.44
475.063	436.44
475.282	414.44
475.501	456.44
475.72	456.44
475.939	450.44
476.158	439.44
476.377	432.44
476.596	445.44
476.814	450.44
477.033	472.44
477.252	460.44
477.471	469.44
477.69	466.44
477.908	438.44
478.127	467.44
478.346	481.44
478.564	466.44
478.783	474.44
479.002	494.44
479.22	502.44
479.439	521.44
479.658	556.44
479.876	535.44
480.095	544.44
480.313	569.44
480.532	548.44
480.751	536.44
480.969	531.44
481.188	555.44
481.406	536.44
481.624	514.44
481.843	515.44
482.061	512.44
482.28	504.44
482.498	510.44
482.717	542.44
482.935	502.44
483.153	502.44
483.372	508.44
483.59	524.44
483.808	511.44
484.027	516.44
484.245	530.44
484.463	510.44
484.681	504.44
484.9	510.44
485.118	530.44
485.336	548.44
485.554	548.44
485.772	536.44
485.99	525.44
486.209	527.44
486.427	531.44
486.645	553.44
486.863	590.44
487.081	584.44
487.299	571.44
487.517	577.44
487.735	550.44
487.953	563.44
488.171	566.44
488.389	578.44
488.607	562.44
488.825	558.44
489.043	543.44
489.261	564.44
489.479	552.44
489.696	581.44
489.914	601.44
490.132	579.44
490.35	587.44
490.568	583.44
490.786	609.44
491.003	633.44
491.221	632.44
491.439	634.44
491.657	625.44
491.874	621.44
492.092	639.44
492.31	645.44
492.527	654.44
492.745	656.44
492.963	668.44
493.18	658.44
493.398	666.44
493.615	674.44
493.833	662.44
494.05	682.44
494.268	678.44
494.485	672.44
494.703	662.44
494.92	662.44
495.138	686.44
495.355	693.44
495.573	711.44
495.79	690.44
496.008	693.44
496.225	694.44
496.442	705.44
496.66	665.44
496.877	670.44
497.094	670.44
497.312	678.44
497.529	697.44
497.746	720.44
497.963	696.44
498.181	699.44
498.398	713.44
498.615	701.44
498.832	729.44
499.049	751.44
499.267	723.44
499.484	728.44
499.701	750.44
499.918	782.44
500.135	775.44
500.352	788.44
500.569	776.44
500.786	803.44
501.003	785.44
501.22	778.44
501.437	798.44
501.654	809.44
501.871	834.44
