Data from 1987.PennyLincolnUp.Lamp.En5.5.200Scan.071819.P2_HRD10591_17-15-43-971.txt Node
Date: Thu Jul 18 17:15:43 EDT 2019
User: cochatt
Spectrometer: HR+D1059
Trigger mode: 1
Integration Time (sec): 1.000000E-1
Scans to average: 1
Electric dark correction enabled: true
Nonlinearity correction enabled: false
Boxcar width: 0
XAxis mode: Wavelengths
Number of Pixels in Spectrum: 2048
>>>>>Begin Spectral Data<<<<<
223.165	-6.62
223.4	-6.62
223.635	-6.62
223.869	-13.62
224.104	-28.62
224.338	-21.62
224.573	-25.62
224.808	-13.62
225.042	-0.62
225.277	-6.62
225.511	5.38
225.746	-4.62
225.98	11.38
226.215	15.38
226.449	4.38
226.683	22.38
226.918	33.38
227.152	29.38
227.387	43.38
227.621	35.38
227.856	37.38
228.09	53.38
228.324	51.38
228.559	52.38
228.793	73.38
229.027	98.38
229.262	116.38
229.496	127.38
229.73	138.38
229.964	159.38
230.199	143.38
230.433	122.38
230.667	119.38
230.901	103.38
231.136	113.38
231.37	115.38
231.604	115.38
231.838	122.38
232.072	118.38
232.306	122.38
232.541	117.38
232.775	120.38
233.009	113.38
233.243	123.38
233.477	132.38
233.711	113.38
233.945	101.38
234.179	126.38
234.413	114.38
234.647	119.38
234.881	121.38
235.115	113.38
235.349	106.38
235.583	115.38
235.817	125.38
236.051	142.38
236.285	129.38
236.519	126.38
236.753	133.38
236.987	158.38
237.221	203.38
237.455	257.38
237.689	191.38
237.922	167.38
238.156	152.38
238.39	131.38
238.624	127.38
238.858	129.38
239.091	108.38
239.325	124.38
239.559	133.38
239.793	123.38
240.027	135.38
240.26	142.38
240.494	166.38
240.728	161.38
240.961	166.38
241.195	151.38
241.429	163.38
241.662	129.38
241.896	143.38
242.13	144.38
242.363	130.38
242.597	137.38
242.83	126.38
243.064	129.38
243.298	142.38
243.531	126.38
243.765	121.38
243.998	132.38
244.232	129.38
244.465	151.38
244.699	139.38
244.932	144.38
245.166	131.38
245.399	127.38
245.633	140.38
245.866	141.38
246.099	133.38
246.333	146.38
246.566	153.38
246.8	143.38
247.033	149.38
247.266	155.38
247.5	158.38
247.733	161.38
247.966	174.38
248.2	169.38
248.433	187.38
248.666	186.38
248.899	181.38
249.133	190.38
249.366	207.38
249.599	198.38
249.832	189.38
250.066	163.38
250.299	172.38
250.532	194.38
250.765	197.38
250.998	215.38
251.231	209.38
251.465	204.38
251.698	199.38
251.931	192.38
252.164	211.38
252.397	193.38
252.63	196.38
252.863	199.38
253.096	210.38
253.329	236.38
253.562	231.38
253.795	231.38
254.028	211.38
254.261	214.38
254.494	227.38
254.727	278.38
254.96	261.38
255.193	271.38
255.426	254.38
255.659	220.38
255.892	226.38
256.124	198.38
256.357	225.38
256.59	223.38
256.823	208.38
257.056	221.38
257.289	204.38
257.521	187.38
257.754	193.38
257.987	196.38
258.22	206.38
258.452	202.38
258.685	195.38
258.918	217.38
259.151	202.38
259.383	206.38
259.616	210.38
259.849	221.38
260.081	206.38
260.314	243.38
260.547	243.38
260.779	230.38
261.012	230.38
261.244	214.38
261.477	223.38
261.71	217.38
261.942	232.38
262.175	227.38
262.407	217.38
262.64	203.38
262.872	202.38
263.105	186.38
263.337	212.38
263.57	205.38
263.802	197.38
264.035	210.38
264.267	185.38
264.499	183.38
264.732	201.38
264.964	185.38
265.197	198.38
265.429	195.38
265.661	193.38
265.894	187.38
266.126	190.38
266.358	183.38
266.591	203.38
266.823	205.38
267.055	190.38
267.287	209.38
267.52	211.38
267.752	191.38
267.984	209.38
268.216	217.38
268.448	219.38
268.681	210.38
268.913	229.38
269.145	222.38
269.377	268.38
269.609	249.38
269.841	272.38
270.073	265.38
270.306	279.38
270.538	284.38
270.77	316.38
271.002	301.38
271.234	284.38
271.466	302.38
271.698	308.38
271.93	302.38
272.162	318.38
272.394	303.38
272.626	293.38
272.858	283.38
273.09	273.38
273.322	266.38
273.553	262.38
273.785	237.38
274.017	233.38
274.249	247.38
274.481	234.38
274.713	235.38
274.945	263.38
275.176	231.38
275.408	261.38
275.64	238.38
275.872	233.38
276.104	233.38
276.335	226.38
276.567	242.38
276.799	265.38
277.031	284.38
277.262	294.38
277.494	294.38
277.726	292.38
277.957	275.38
278.189	272.38
278.421	262.38
278.652	236.38
278.884	221.38
279.115	222.38
279.347	235.38
279.579	259.38
279.81	251.38
280.042	226.38
280.273	225.38
280.505	226.38
280.736	240.38
280.968	213.38
281.199	230.38
281.431	238.38
281.662	220.38
281.894	242.38
282.125	222.38
282.356	260.38
282.588	268.38
282.819	289.38
283.051	259.38
283.282	245.38
283.513	242.38
283.745	227.38
283.976	238.38
284.207	236.38
284.439	230.38
284.67	254.38
284.901	242.38
285.132	243.38
285.364	227.38
285.595	239.38
285.826	223.38
286.057	233.38
286.288	229.38
286.52	233.38
286.751	230.38
286.982	231.38
287.213	243.38
287.444	245.38
287.675	249.38
287.906	253.38
288.138	257.38
288.369	246.38
288.6	271.38
288.831	255.38
289.062	249.38
289.293	263.38
289.524	249.38
289.755	238.38
289.986	234.38
290.217	250.38
290.448	230.38
290.679	234.38
290.91	238.38
291.141	230.38
291.371	231.38
291.602	242.38
291.833	243.38
292.064	240.38
292.295	242.38
292.526	241.38
292.757	232.38
292.987	232.38
293.218	237.38
293.449	249.38
293.68	242.38
293.91	230.38
294.141	245.38
294.372	246.38
294.603	257.38
294.833	248.38
295.064	231.38
295.295	243.38
295.525	231.38
295.756	252.38
295.987	265.38
296.217	284.38
296.448	297.38
296.679	243.38
296.909	239.38
297.14	222.38
297.37	265.38
297.601	249.38
297.831	232.38
298.062	258.38
298.292	257.38
298.523	247.38
298.753	225.38
298.984	249.38
299.214	247.38
299.445	244.38
299.675	250.38
299.905	243.38
300.136	256.38
300.366	263.38
300.597	260.38
300.827	261.38
301.057	260.38
301.288	284.38
301.518	248.38
301.748	261.38
301.979	277.38
302.209	266.38
302.439	277.38
302.669	289.38
302.9	267.38
303.13	257.38
303.36	287.38
303.59	272.38
303.82	277.38
304.051	292.38
304.281	275.38
304.511	270.38
304.741	264.38
304.971	268.38
305.201	273.38
305.431	277.38
305.661	266.38
305.891	269.38
306.121	274.38
306.352	283.38
306.582	292.38
306.812	289.38
307.042	260.38
307.272	269.38
307.502	276.38
307.731	287.38
307.961	264.38
308.191	289.38
308.421	267.38
308.651	294.38
308.881	293.38
309.111	290.38
309.341	289.38
309.571	315.38
309.8	331.38
310.03	325.38
310.26	329.38
310.49	352.38
310.72	349.38
310.949	371.38
311.179	372.38
311.409	353.38
311.639	338.38
311.868	342.38
312.098	349.38
312.328	348.38
312.557	376.38
312.787	417.38
313.017	374.38
313.246	364.38
313.476	313.38
313.706	338.38
313.935	326.38
314.165	374.38
314.394	376.38
314.624	374.38
314.853	361.38
315.083	329.38
315.312	324.38
315.542	321.38
315.771	318.38
316.001	317.38
316.23	327.38
316.46	332.38
316.689	335.38
316.919	338.38
317.148	344.38
317.377	356.38
317.607	324.38
317.836	346.38
318.065	318.38
318.295	351.38
318.524	325.38
318.753	329.38
318.983	324.38
319.212	335.38
319.441	350.38
319.67	344.38
319.9	340.38
320.129	329.38
320.358	348.38
320.587	322.38
320.816	370.38
321.046	348.38
321.275	353.38
321.504	357.38
321.733	366.38
321.962	362.38
322.191	389.38
322.42	425.38
322.649	454.38
322.878	455.38
323.108	475.38
323.337	500.38
323.566	569.38
323.795	598.38
324.024	667.38
324.253	841.38
324.482	1225.38
324.71	1879.38
324.939	2573.38
325.168	2292.38
325.397	1254.38
325.626	810.38
325.855	654.38
326.084	545.38
326.313	564.38
326.542	539.38
326.77	609.38
326.999	734.38
327.228	1037.38
327.457	1612.38
327.686	1975.38
327.914	1381.38
328.143	868.38
328.372	706.38
328.6	636.38
328.829	625.38
329.058	643.38
329.287	649.38
329.515	597.38
329.744	542.38
329.972	492.38
330.201	483.38
330.43	552.38
330.658	594.38
330.887	654.38
331.115	655.38
331.344	539.38
331.572	501.38
331.801	478.38
332.03	485.38
332.258	433.38
332.486	429.38
332.715	406.38
332.943	400.38
333.172	387.38
333.4	379.38
333.629	382.38
333.857	400.38
334.085	417.38
334.314	389.38
334.542	383.38
334.771	395.38
334.999	401.38
335.227	403.38
335.455	402.38
335.684	381.38
335.912	379.38
336.14	356.38
336.369	385.38
336.597	398.38
336.825	399.38
337.053	375.38
337.281	367.38
337.51	381.38
337.738	373.38
337.966	374.38
338.194	389.38
338.422	382.38
338.65	384.38
338.878	389.38
339.106	386.38
339.334	363.38
339.562	369.38
339.79	358.38
340.018	362.38
340.246	373.38
340.474	395.38
340.702	372.38
340.93	375.38
341.158	351.38
341.386	374.38
341.614	387.38
341.842	371.38
342.07	358.38
342.298	373.38
342.526	358.38
342.754	363.38
342.981	341.38
343.209	345.38
343.437	354.38
343.665	365.38
343.893	349.38
344.12	385.38
344.348	355.38
344.576	358.38
344.804	377.38
345.031	387.38
345.259	422.38
345.487	419.38
345.714	385.38
345.942	379.38
346.17	363.38
346.397	364.38
346.625	352.38
346.853	368.38
347.08	357.38
347.308	369.38
347.535	393.38
347.763	413.38
347.99	387.38
348.218	383.38
348.445	416.38
348.673	403.38
348.9	370.38
349.128	362.38
349.355	351.38
349.583	345.38
349.81	364.38
350.037	371.38
350.265	359.38
350.492	341.38
350.72	351.38
350.947	378.38
351.174	363.38
351.402	395.38
351.629	381.38
351.856	378.38
352.083	383.38
352.311	412.38
352.538	412.38
352.765	415.38
352.992	403.38
353.22	411.38
353.447	407.38
353.674	365.38
353.901	350.38
354.128	334.38
354.355	334.38
354.583	329.38
354.81	334.38
355.037	328.38
355.264	330.38
355.491	317.38
355.718	320.38
355.945	316.38
356.172	320.38
356.399	325.38
356.626	321.38
356.853	317.38
357.08	327.38
357.307	307.38
357.534	321.38
357.761	327.38
357.988	334.38
358.215	334.38
358.441	332.38
358.668	331.38
358.895	329.38
359.122	348.38
359.349	371.38
359.576	379.38
359.802	407.38
360.029	466.38
360.256	488.38
360.483	449.38
360.709	390.38
360.936	399.38
361.163	375.38
361.39	375.38
361.616	381.38
361.843	374.38
362.07	378.38
362.296	395.38
362.523	378.38
362.749	376.38
362.976	363.38
363.203	374.38
363.429	355.38
363.656	350.38
363.882	359.38
364.109	350.38
364.335	349.38
364.562	342.38
364.788	326.38
365.015	355.38
365.241	353.38
365.468	350.38
365.694	359.38
365.92	366.38
366.147	353.38
366.373	339.38
366.599	365.38
366.826	350.38
367.052	342.38
367.278	349.38
367.505	336.38
367.731	342.38
367.957	347.38
368.184	334.38
368.41	347.38
368.636	356.38
368.862	379.38
369.089	363.38
369.315	332.38
369.541	334.38
369.767	329.38
369.993	348.38
370.219	351.38
370.445	341.38
370.672	329.38
370.898	332.38
371.124	338.38
371.35	321.38
371.576	337.38
371.802	341.38
372.028	323.38
372.254	321.38
372.48	325.38
372.706	340.38
372.932	345.38
373.158	335.38
373.384	335.38
373.61	316.38
373.835	359.38
374.061	327.38
374.287	339.38
374.513	347.38
374.739	345.38
374.965	354.38
375.191	324.38
375.416	309.38
375.642	318.38
375.868	311.38
376.094	352.38
376.319	331.38
376.545	334.38
376.771	326.38
376.997	324.38
377.222	347.38
377.448	357.38
377.674	335.38
377.899	346.38
378.125	327.38
378.35	330.38
378.576	325.38
378.802	321.38
379.027	338.38
379.253	327.38
379.478	322.38
379.704	327.38
379.929	315.38
380.155	342.38
380.38	329.38
380.606	337.38
380.831	334.38
381.057	329.38
381.282	309.38
381.507	336.38
381.733	323.38
381.958	348.38
382.184	314.38
382.409	318.38
382.634	343.38
382.86	340.38
383.085	342.38
383.31	342.38
383.535	349.38
383.761	345.38
383.986	342.38
384.211	338.38
384.436	345.38
384.662	335.38
384.887	348.38
385.112	332.38
385.337	342.38
385.562	349.38
385.787	324.38
386.013	362.38
386.238	369.38
386.463	346.38
386.688	361.38
386.913	342.38
387.138	353.38
387.363	348.38
387.588	353.38
387.813	338.38
388.038	345.38
388.263	347.38
388.488	349.38
388.713	352.38
388.938	334.38
389.163	377.38
389.387	349.38
389.612	344.38
389.837	351.38
390.062	361.38
390.287	360.38
390.512	336.38
390.736	346.38
390.961	353.38
391.186	345.38
391.411	333.38
391.636	346.38
391.86	338.38
392.085	358.38
392.31	355.38
392.534	334.38
392.759	350.38
392.984	352.38
393.208	343.38
393.433	353.38
393.658	345.38
393.882	351.38
394.107	335.38
394.331	340.38
394.556	329.38
394.78	357.38
395.005	351.38
395.229	356.38
395.454	375.38
395.678	371.38
395.903	361.38
396.127	387.38
396.352	386.38
396.576	380.38
396.801	354.38
397.025	372.38
397.249	361.38
397.474	369.38
397.698	389.38
397.922	408.38
398.147	411.38
398.371	377.38
398.595	399.38
398.82	400.38
399.044	399.38
399.268	403.38
399.492	425.38
399.717	408.38
399.941	447.38
400.165	467.38
400.389	490.38
400.613	454.38
400.837	421.38
401.062	414.38
401.286	417.38
401.51	396.38
401.734	406.38
401.958	407.38
402.182	405.38
402.406	416.38
402.63	427.38
402.854	417.38
403.078	443.38
403.302	422.38
403.526	411.38
403.75	425.38
403.974	417.38
404.198	440.38
404.422	413.38
404.645	412.38
404.869	418.38
405.093	440.38
405.317	488.38
405.541	523.38
405.765	461.38
405.988	436.38
406.212	465.38
406.436	506.38
406.66	513.38
406.883	480.38
407.107	491.38
407.331	539.38
407.555	579.38
407.778	593.38
408.002	545.38
408.226	490.38
408.449	490.38
408.673	477.38
408.896	525.38
409.12	540.38
409.344	533.38
409.567	451.38
409.791	453.38
410.014	429.38
410.238	436.38
410.461	443.38
410.685	455.38
410.908	473.38
411.132	480.38
411.355	533.38
411.578	498.38
411.802	451.38
412.025	426.38
412.249	429.38
412.472	437.38
412.695	435.38
412.919	416.38
413.142	406.38
413.365	415.38
413.589	405.38
413.812	409.38
414.035	393.38
414.258	396.38
414.482	393.38
414.705	417.38
414.928	413.38
415.151	391.38
415.374	384.38
415.597	381.38
415.821	392.38
416.044	406.38
416.267	403.38
416.49	417.38
416.713	416.38
416.936	406.38
417.159	419.38
417.382	407.38
417.605	413.38
417.828	428.38
418.051	440.38
418.274	435.38
418.497	430.38
418.72	409.38
418.943	408.38
419.166	425.38
419.389	438.38
419.611	427.38
419.834	426.38
420.057	454.38
420.28	416.38
420.503	435.38
420.726	441.38
420.948	465.38
421.171	488.38
421.394	524.38
421.617	448.38
421.839	447.38
422.062	427.38
422.285	461.38
422.507	527.38
422.73	587.38
422.953	563.38
423.175	492.38
423.398	475.38
423.621	467.38
423.843	487.38
424.066	500.38
424.288	487.38
424.511	537.38
424.733	594.38
424.956	636.38
425.178	620.38
425.401	620.38
425.623	641.38
425.846	568.38
426.068	502.38
426.291	502.38
426.513	522.38
426.735	526.38
426.958	580.38
427.18	620.38
427.402	759.38
427.625	870.38
427.847	782.38
428.069	662.38
428.292	581.38
428.514	546.38
428.736	512.38
428.958	507.38
429.181	464.38
429.403	464.38
429.625	479.38
429.847	507.38
430.069	592.38
430.292	598.38
430.514	494.38
430.736	456.38
430.958	457.38
431.18	416.38
431.402	450.38
431.624	435.38
431.846	421.38
432.068	428.38
432.29	426.38
432.512	435.38
432.734	445.38
432.956	449.38
433.178	429.38
433.4	440.38
433.622	462.38
433.844	441.38
434.066	408.38
434.287	417.38
434.509	436.38
434.731	441.38
434.953	452.38
435.175	449.38
435.397	504.38
435.618	505.38
435.84	556.38
436.062	655.38
436.284	699.38
436.505	602.38
436.727	553.38
436.949	511.38
437.17	466.38
437.392	504.38
437.614	513.38
437.835	557.38
438.057	681.38
438.278	727.38
438.5	731.38
438.721	797.38
438.943	727.38
439.165	627.38
439.386	572.38
439.608	526.38
439.829	563.38
440.05	580.38
440.272	602.38
440.493	594.38
440.715	542.38
440.936	493.38
441.158	492.38
441.379	459.38
441.6	473.38
441.822	536.38
442.043	557.38
442.264	647.38
442.486	679.38
442.707	583.38
442.928	546.38
443.149	523.38
443.371	555.38
443.592	621.38
443.813	697.38
444.034	733.38
444.255	612.38
444.476	533.38
444.698	531.38
444.919	496.38
445.14	619.38
445.361	575.38
445.582	550.38
445.803	614.38
446.024	716.38
446.245	722.38
446.466	681.38
446.687	591.38
446.908	535.38
447.129	493.38
447.35	486.38
447.571	484.38
447.792	490.38
448.013	491.38
448.234	503.38
448.455	577.38
448.675	680.38
448.896	758.38
449.117	657.38
449.338	639.38
449.559	719.38
449.779	803.38
450	689.38
450.221	571.38
450.442	529.38
450.662	511.38
450.883	495.38
451.104	523.38
451.324	531.38
451.545	481.38
451.766	470.38
451.986	436.38
452.207	435.38
452.428	430.38
452.648	422.38
452.869	433.38
453.089	458.38
453.31	467.38
453.53	459.38
453.751	448.38
453.971	451.38
454.192	463.38
454.412	453.38
454.633	467.38
454.853	445.38
455.073	418.38
455.294	468.38
455.514	557.38
455.734	522.38
455.955	441.38
456.175	408.38
456.395	395.38
456.616	398.38
456.836	406.38
457.056	379.38
457.276	392.38
457.497	391.38
457.717	393.38
457.937	437.38
458.157	414.38
458.377	401.38
458.598	443.38
458.818	527.38
459.038	669.38
459.258	656.38
459.478	527.38
459.698	478.38
459.918	445.38
460.138	439.38
460.358	425.38
460.578	417.38
460.798	428.38
461.018	430.38
461.238	407.38
461.458	405.38
461.678	415.38
461.898	411.38
462.118	411.38
462.338	400.38
462.558	421.38
462.777	419.38
462.997	438.38
463.217	412.38
463.437	438.38
463.657	418.38
463.876	439.38
464.096	417.38
464.316	449.38
464.536	444.38
464.755	463.38
464.975	488.38
465.195	544.38
465.414	675.38
465.634	593.38
465.854	503.38
466.073	479.38
466.293	435.38
466.512	423.38
466.732	434.38
466.951	433.38
467.171	415.38
467.391	424.38
467.61	431.38
467.829	449.38
468.049	449.38
468.268	423.38
468.488	440.38
468.707	417.38
468.927	421.38
469.146	387.38
469.365	415.38
469.585	421.38
469.804	437.38
470.023	455.38
470.243	442.38
470.462	463.38
470.681	490.38
470.901	480.38
471.12	442.38
471.339	442.38
471.558	434.38
471.777	425.38
471.997	428.38
472.216	418.38
472.435	425.38
472.654	443.38
472.873	424.38
473.092	421.38
473.311	423.38
473.53	433.38
473.749	462.38
473.968	484.38
474.187	599.38
474.406	621.38
474.625	498.38
474.844	471.38
475.063	441.38
475.282	437.38
475.501	449.38
475.72	417.38
475.939	443.38
476.158	444.38
476.377	435.38
476.596	433.38
476.814	465.38
477.033	464.38
477.252	482.38
477.471	465.38
477.69	476.38
477.908	457.38
478.127	450.38
478.346	438.38
478.564	458.38
478.783	458.38
479.002	479.38
479.22	491.38
479.439	506.38
479.658	541.38
479.876	545.38
480.095	522.38
480.313	571.38
480.532	534.38
480.751	513.38
480.969	516.38
481.188	526.38
481.406	564.38
481.624	542.38
481.843	494.38
482.061	514.38
482.28	519.38
482.498	508.38
482.717	527.38
482.935	523.38
483.153	513.38
483.372	522.38
483.59	511.38
483.808	510.38
484.027	509.38
484.245	506.38
484.463	509.38
484.681	511.38
484.9	522.38
485.118	550.38
485.336	536.38
485.554	537.38
485.772	524.38
485.99	515.38
486.209	556.38
486.427	537.38
486.645	575.38
486.863	593.38
487.081	569.38
487.299	570.38
487.517	569.38
487.735	531.38
487.953	543.38
488.171	556.38
488.389	562.38
488.607	571.38
488.825	587.38
489.043	570.38
489.261	565.38
489.479	574.38
489.696	592.38
489.914	547.38
490.132	574.38
490.35	607.38
490.568	595.38
490.786	613.38
491.003	592.38
491.221	595.38
491.439	630.38
491.657	630.38
491.874	623.38
492.092	644.38
492.31	645.38
492.527	645.38
492.745	647.38
492.963	665.38
493.18	651.38
493.398	645.38
493.615	673.38
493.833	706.38
494.05	665.38
494.268	697.38
494.485	659.38
494.703	675.38
494.92	662.38
495.138	646.38
495.355	660.38
495.573	678.38
495.79	694.38
496.008	686.38
496.225	662.38
496.442	661.38
496.66	677.38
496.877	656.38
497.094	684.38
497.312	669.38
497.529	706.38
497.746	711.38
497.963	706.38
498.181	710.38
498.398	711.38
498.615	716.38
498.832	701.38
499.049	723.38
499.267	735.38
499.484	713.38
499.701	728.38
499.918	766.38
500.135	751.38
500.352	805.38
500.569	777.38
500.786	779.38
501.003	775.38
501.22	790.38
501.437	791.38
501.654	793.38
501.871	793.38
