Data from 1987.PennyLincolnUp.Lamp.En5.5.200Scan.071819.P2_HRD10591_17-14-31-973.txt Node
Date: Thu Jul 18 17:14:31 EDT 2019
User: cochatt
Spectrometer: HR+D1059
Trigger mode: 1
Integration Time (sec): 1.000000E-1
Scans to average: 1
Electric dark correction enabled: true
Nonlinearity correction enabled: false
Boxcar width: 0
XAxis mode: Wavelengths
Number of Pixels in Spectrum: 2048
>>>>>Begin Spectral Data<<<<<
223.165	2.31
223.4	2.31
223.635	2.31
223.869	-10.69
224.104	-19.69
224.338	-12.69
224.573	-23.69
224.808	-9.69
225.042	-8.69
225.277	-17.69
225.511	1.31
225.746	-2.69
225.98	3.31
226.215	15.31
226.449	24.31
226.683	15.31
226.918	14.31
227.152	29.31
227.387	39.31
227.621	43.31
227.856	30.31
228.09	35.31
228.324	39.31
228.559	52.31
228.793	69.31
229.027	106.31
229.262	112.31
229.496	126.31
229.73	140.31
229.964	170.31
230.199	131.31
230.433	124.31
230.667	122.31
230.901	132.31
231.136	101.31
231.37	114.31
231.604	117.31
231.838	114.31
232.072	106.31
232.306	131.31
232.541	111.31
232.775	114.31
233.009	121.31
233.243	118.31
233.477	100.31
233.711	104.31
233.945	117.31
234.179	109.31
234.413	122.31
234.647	119.31
234.881	117.31
235.115	106.31
235.349	110.31
235.583	118.31
235.817	115.31
236.051	107.31
236.285	131.31
236.519	130.31
236.753	130.31
236.987	139.31
237.221	182.31
237.455	257.31
237.689	195.31
237.922	146.31
238.156	151.31
238.39	124.31
238.624	136.31
238.858	126.31
239.091	117.31
239.325	118.31
239.559	119.31
239.793	123.31
240.027	140.31
240.26	147.31
240.494	155.31
240.728	150.31
240.961	150.31
241.195	155.31
241.429	139.31
241.662	126.31
241.896	135.31
242.13	127.31
242.363	132.31
242.597	137.31
242.83	137.31
243.064	131.31
243.298	142.31
243.531	131.31
243.765	143.31
243.998	139.31
244.232	126.31
244.465	135.31
244.699	144.31
244.932	137.31
245.166	141.31
245.399	122.31
245.633	123.31
245.866	144.31
246.099	154.31
246.333	145.31
246.566	141.31
246.8	129.31
247.033	144.31
247.266	168.31
247.5	160.31
247.733	155.31
247.966	171.31
248.2	157.31
248.433	167.31
248.666	163.31
248.899	181.31
249.133	205.31
249.366	215.31
249.599	197.31
249.832	170.31
250.066	176.31
250.299	190.31
250.532	177.31
250.765	191.31
250.998	198.31
251.231	214.31
251.465	214.31
251.698	193.31
251.931	189.31
252.164	169.31
252.397	199.31
252.63	188.31
252.863	211.31
253.096	189.31
253.329	215.31
253.562	211.31
253.795	205.31
254.028	216.31
254.261	205.31
254.494	220.31
254.727	245.31
254.96	279.31
255.193	266.31
255.426	223.31
255.659	220.31
255.892	211.31
256.124	221.31
256.357	224.31
256.59	189.31
256.823	190.31
257.056	178.31
257.289	176.31
257.521	183.31
257.754	202.31
257.987	193.31
258.22	189.31
258.452	201.31
258.685	194.31
258.918	176.31
259.151	204.31
259.383	206.31
259.616	212.31
259.849	197.31
260.081	229.31
260.314	245.31
260.547	237.31
260.779	219.31
261.012	205.31
261.244	219.31
261.477	194.31
261.71	203.31
261.942	220.31
262.175	235.31
262.407	224.31
262.64	212.31
262.872	201.31
263.105	189.31
263.337	199.31
263.57	191.31
263.802	193.31
264.035	188.31
264.267	175.31
264.499	199.31
264.732	195.31
264.964	185.31
265.197	186.31
265.429	195.31
265.661	191.31
265.894	177.31
266.126	185.31
266.358	197.31
266.591	177.31
266.823	195.31
267.055	192.31
267.287	198.31
267.52	193.31
267.752	208.31
267.984	181.31
268.216	186.31
268.448	206.31
268.681	226.31
268.913	215.31
269.145	225.31
269.377	235.31
269.609	228.31
269.841	244.31
270.073	240.31
270.306	267.31
270.538	289.31
270.77	271.31
271.002	289.31
271.234	265.31
271.466	269.31
271.698	292.31
271.93	290.31
272.162	310.31
272.394	294.31
272.626	290.31
272.858	251.31
273.09	259.31
273.322	251.31
273.553	237.31
273.785	239.31
274.017	232.31
274.249	243.31
274.481	250.31
274.713	234.31
274.945	231.31
275.176	224.31
275.408	235.31
275.64	231.31
275.872	223.31
276.104	242.31
276.335	223.31
276.567	237.31
276.799	249.31
277.031	279.31
277.262	282.31
277.494	277.31
277.726	274.31
277.957	259.31
278.189	248.31
278.421	243.31
278.652	231.31
278.884	215.31
279.115	207.31
279.347	229.31
279.579	220.31
279.81	220.31
280.042	224.31
280.273	204.31
280.505	216.31
280.736	232.31
280.968	219.31
281.199	213.31
281.431	218.31
281.662	223.31
281.894	219.31
282.125	215.31
282.356	241.31
282.588	263.31
282.819	269.31
283.051	217.31
283.282	226.31
283.513	220.31
283.745	233.31
283.976	212.31
284.207	216.31
284.439	236.31
284.67	219.31
284.901	218.31
285.132	210.31
285.364	233.31
285.595	219.31
285.826	216.31
286.057	235.31
286.288	219.31
286.52	232.31
286.751	228.31
286.982	225.31
287.213	228.31
287.444	226.31
287.675	223.31
287.906	238.31
288.138	240.31
288.369	255.31
288.6	243.31
288.831	245.31
289.062	243.31
289.293	224.31
289.524	216.31
289.755	233.31
289.986	228.31
290.217	220.31
290.448	233.31
290.679	214.31
290.91	218.31
291.141	221.31
291.371	236.31
291.602	221.31
291.833	215.31
292.064	215.31
292.295	212.31
292.526	206.31
292.757	222.31
292.987	228.31
293.218	213.31
293.449	220.31
293.68	223.31
293.91	222.31
294.141	226.31
294.372	240.31
294.603	227.31
294.833	226.31
295.064	215.31
295.295	235.31
295.525	235.31
295.756	239.31
295.987	249.31
296.217	275.31
296.448	293.31
296.679	271.31
296.909	239.31
297.14	231.31
297.37	222.31
297.601	236.31
297.831	218.31
298.062	235.31
298.292	225.31
298.523	234.31
298.753	238.31
298.984	247.31
299.214	238.31
299.445	236.31
299.675	232.31
299.905	239.31
300.136	250.31
300.366	241.31
300.597	235.31
300.827	243.31
301.057	265.31
301.288	261.31
301.518	243.31
301.748	257.31
301.979	253.31
302.209	283.31
302.439	275.31
302.669	247.31
302.9	243.31
303.13	257.31
303.36	270.31
303.59	265.31
303.82	273.31
304.051	278.31
304.281	262.31
304.511	256.31
304.741	247.31
304.971	241.31
305.201	249.31
305.431	237.31
305.661	250.31
305.891	245.31
306.121	252.31
306.352	285.31
306.582	286.31
306.812	278.31
307.042	265.31
307.272	264.31
307.502	264.31
307.731	259.31
307.961	271.31
308.191	266.31
308.421	262.31
308.651	253.31
308.881	288.31
309.111	280.31
309.341	277.31
309.571	292.31
309.8	301.31
310.03	309.31
310.26	329.31
310.49	320.31
310.72	333.31
310.949	361.31
311.179	367.31
311.409	341.31
311.639	310.31
311.868	330.31
312.098	335.31
312.328	338.31
312.557	347.31
312.787	383.31
313.017	362.31
313.246	324.31
313.476	327.31
313.706	309.31
313.935	327.31
314.165	337.31
314.394	358.31
314.624	318.31
314.853	333.31
315.083	332.31
315.312	321.31
315.542	298.31
315.771	305.31
316.001	297.31
316.23	297.31
316.46	294.31
316.689	315.31
316.919	334.31
317.148	358.31
317.377	333.31
317.607	318.31
317.836	315.31
318.065	301.31
318.295	302.31
318.524	286.31
318.753	303.31
318.983	303.31
319.212	294.31
319.441	311.31
319.67	347.31
319.9	322.31
320.129	313.31
320.358	321.31
320.587	326.31
320.816	322.31
321.046	334.31
321.275	350.31
321.504	341.31
321.733	355.31
321.962	343.31
322.191	382.31
322.42	381.31
322.649	399.31
322.878	435.31
323.108	438.31
323.337	457.31
323.566	484.31
323.795	522.31
324.024	612.31
324.253	740.31
324.482	1127.31
324.71	1677.31
324.939	2350.31
325.168	2085.31
325.397	1138.31
325.626	723.31
325.855	609.31
326.084	504.31
326.313	515.31
326.542	513.31
326.77	567.31
326.999	659.31
327.228	967.31
327.457	1445.31
327.686	1743.31
327.914	1253.31
328.143	807.31
328.372	674.31
328.6	612.31
328.829	571.31
329.058	596.31
329.287	597.31
329.515	517.31
329.744	499.31
329.972	490.31
330.201	469.31
330.43	521.31
330.658	553.31
330.887	620.31
331.115	613.31
331.344	509.31
331.572	450.31
331.801	450.31
332.03	452.31
332.258	413.31
332.486	389.31
332.715	382.31
332.943	376.31
333.172	382.31
333.4	377.31
333.629	379.31
333.857	386.31
334.085	392.31
334.314	363.31
334.542	374.31
334.771	372.31
334.999	375.31
335.227	386.31
335.455	353.31
335.684	350.31
335.912	349.31
336.14	366.31
336.369	366.31
336.597	363.31
336.825	371.31
337.053	343.31
337.281	347.31
337.51	344.31
337.738	362.31
337.966	357.31
338.194	371.31
338.422	357.31
338.65	339.31
338.878	348.31
339.106	360.31
339.334	360.31
339.562	328.31
339.79	342.31
340.018	357.31
340.246	344.31
340.474	334.31
340.702	340.31
340.93	345.31
341.158	359.31
341.386	345.31
341.614	360.31
341.842	342.31
342.07	339.31
342.298	341.31
342.526	325.31
342.754	343.31
342.981	333.31
343.209	331.31
343.437	316.31
343.665	327.31
343.893	324.31
344.12	337.31
344.348	333.31
344.576	350.31
344.804	349.31
345.031	373.31
345.259	375.31
345.487	373.31
345.714	365.31
345.942	336.31
346.17	348.31
346.397	348.31
346.625	347.31
346.853	363.31
347.08	347.31
347.308	359.31
347.535	377.31
347.763	381.31
347.99	386.31
348.218	375.31
348.445	386.31
348.673	383.31
348.9	380.31
349.128	332.31
349.355	325.31
349.583	332.31
349.81	330.31
350.037	321.31
350.265	316.31
350.492	355.31
350.72	347.31
350.947	335.31
351.174	348.31
351.402	355.31
351.629	385.31
351.856	362.31
352.083	369.31
352.311	385.31
352.538	382.31
352.765	383.31
352.992	358.31
353.22	342.31
353.447	370.31
353.674	352.31
353.901	326.31
354.128	317.31
354.355	319.31
354.583	329.31
354.81	315.31
355.037	332.31
355.264	307.31
355.491	305.31
355.718	306.31
355.945	308.31
356.172	309.31
356.399	287.31
356.626	313.31
356.853	287.31
357.08	314.31
357.307	309.31
357.534	313.31
357.761	301.31
357.988	310.31
358.215	304.31
358.441	307.31
358.668	321.31
358.895	312.31
359.122	313.31
359.349	334.31
359.576	354.31
359.802	394.31
360.029	441.31
360.256	440.31
360.483	411.31
360.709	372.31
360.936	354.31
361.163	361.31
361.39	356.31
361.616	363.31
361.843	353.31
362.07	355.31
362.296	349.31
362.523	371.31
362.749	371.31
362.976	362.31
363.203	349.31
363.429	334.31
363.656	330.31
363.882	330.31
364.109	325.31
364.335	335.31
364.562	342.31
364.788	329.31
365.015	317.31
365.241	330.31
365.468	343.31
365.694	351.31
365.92	349.31
366.147	339.31
366.373	334.31
366.599	330.31
366.826	327.31
367.052	311.31
367.278	307.31
367.505	322.31
367.731	319.31
367.957	326.31
368.184	325.31
368.41	339.31
368.636	353.31
368.862	362.31
369.089	334.31
369.315	328.31
369.541	334.31
369.767	329.31
369.993	328.31
370.219	327.31
370.445	323.31
370.672	321.31
370.898	317.31
371.124	318.31
371.35	322.31
371.576	312.31
371.802	326.31
372.028	305.31
372.254	313.31
372.48	323.31
372.706	318.31
372.932	305.31
373.158	314.31
373.384	302.31
373.61	321.31
373.835	313.31
374.061	299.31
374.287	329.31
374.513	321.31
374.739	329.31
374.965	325.31
375.191	303.31
375.416	331.31
375.642	339.31
375.868	328.31
376.094	311.31
376.319	326.31
376.545	315.31
376.771	311.31
376.997	295.31
377.222	313.31
377.448	301.31
377.674	288.31
377.899	311.31
378.125	319.31
378.35	312.31
378.576	319.31
378.802	305.31
379.027	307.31
379.253	323.31
379.478	310.31
379.704	314.31
379.929	311.31
380.155	315.31
380.38	320.31
380.606	313.31
380.831	320.31
381.057	325.31
381.282	327.31
381.507	326.31
381.733	315.31
381.958	330.31
382.184	324.31
382.409	313.31
382.634	339.31
382.86	335.31
383.085	321.31
383.31	290.31
383.535	339.31
383.761	316.31
383.986	323.31
384.211	305.31
384.436	316.31
384.662	337.31
384.887	315.31
385.112	325.31
385.337	340.31
385.562	337.31
385.787	316.31
386.013	347.31
386.238	342.31
386.463	348.31
386.688	330.31
386.913	311.31
387.138	338.31
387.363	322.31
387.588	333.31
387.813	323.31
388.038	335.31
388.263	307.31
388.488	327.31
388.713	329.31
388.938	340.31
389.163	328.31
389.387	333.31
389.612	318.31
389.837	332.31
390.062	318.31
390.287	323.31
390.512	320.31
390.736	340.31
390.961	316.31
391.186	343.31
391.411	335.31
391.636	305.31
391.86	333.31
392.085	322.31
392.31	339.31
392.534	330.31
392.759	330.31
392.984	338.31
393.208	328.31
393.433	346.31
393.658	350.31
393.882	338.31
394.107	325.31
394.331	315.31
394.556	323.31
394.78	328.31
395.005	323.31
395.229	320.31
395.454	333.31
395.678	333.31
395.903	343.31
396.127	380.31
396.352	383.31
396.576	352.31
396.801	339.31
397.025	365.31
397.249	360.31
397.474	337.31
397.698	364.31
397.922	344.31
398.147	381.31
398.371	366.31
398.595	365.31
398.82	355.31
399.044	371.31
399.268	377.31
399.492	396.31
399.717	403.31
399.941	418.31
400.165	461.31
400.389	452.31
400.613	425.31
400.837	415.31
401.062	387.31
401.286	397.31
401.51	387.31
401.734	374.31
401.958	377.31
402.182	379.31
402.406	424.31
402.63	416.31
402.854	404.31
403.078	381.31
403.302	399.31
403.526	399.31
403.75	389.31
403.974	397.31
404.198	385.31
404.422	391.31
404.645	400.31
404.869	385.31
405.093	426.31
405.317	430.31
405.541	478.31
405.765	437.31
405.988	415.31
406.212	441.31
406.436	461.31
406.66	480.31
406.883	458.31
407.107	484.31
407.331	494.31
407.555	546.31
407.778	542.31
408.002	516.31
408.226	457.31
408.449	430.31
408.673	446.31
408.896	471.31
409.12	527.31
409.344	474.31
409.567	437.31
409.791	435.31
410.014	424.31
410.238	404.31
410.461	417.31
410.685	417.31
410.908	427.31
411.132	464.31
411.355	475.31
411.578	452.31
411.802	433.31
412.025	394.31
412.249	400.31
412.472	398.31
412.695	420.31
412.919	400.31
413.142	403.31
413.365	390.31
413.589	377.31
413.812	384.31
414.035	368.31
414.258	380.31
414.482	383.31
414.705	405.31
414.928	382.31
415.151	365.31
415.374	373.31
415.597	381.31
415.821	375.31
416.044	385.31
416.267	387.31
416.49	399.31
416.713	385.31
416.936	381.31
417.159	392.31
417.382	391.31
417.605	401.31
417.828	386.31
418.051	430.31
418.274	428.31
418.497	410.31
418.72	387.31
418.943	382.31
419.166	396.31
419.389	419.31
419.611	412.31
419.834	379.31
420.057	394.31
420.28	419.31
420.503	404.31
420.726	399.31
420.948	427.31
421.171	460.31
421.394	484.31
421.617	446.31
421.839	418.31
422.062	413.31
422.285	420.31
422.507	474.31
422.73	573.31
422.953	549.31
423.175	458.31
423.398	453.31
423.621	428.31
423.843	448.31
424.066	469.31
424.288	469.31
424.511	483.31
424.733	541.31
424.956	584.31
425.178	597.31
425.401	576.31
425.623	627.31
425.846	521.31
426.068	478.31
426.291	490.31
426.513	482.31
426.735	512.31
426.958	546.31
427.18	605.31
427.402	711.31
427.625	836.31
427.847	750.31
428.069	593.31
428.292	565.31
428.514	520.31
428.736	469.31
428.958	472.31
429.181	453.31
429.403	462.31
429.625	457.31
429.847	499.31
430.069	541.31
430.292	565.31
430.514	455.31
430.736	449.31
430.958	454.31
431.18	426.31
431.402	408.31
431.624	414.31
431.846	390.31
432.068	414.31
432.29	417.31
432.512	387.31
432.734	426.31
432.956	406.31
433.178	439.31
433.4	430.31
433.622	415.31
433.844	403.31
434.066	404.31
434.287	398.31
434.509	406.31
434.731	433.31
434.953	429.31
435.175	427.31
435.397	485.31
435.618	479.31
435.84	517.31
436.062	622.31
436.284	667.31
436.505	602.31
436.727	520.31
436.949	481.31
437.17	460.31
437.392	459.31
437.614	501.31
437.835	514.31
438.057	635.31
438.278	707.31
438.5	717.31
438.721	738.31
438.943	681.31
439.165	585.31
439.386	535.31
439.608	526.31
439.829	494.31
440.05	529.31
440.272	575.31
440.493	570.31
440.715	486.31
440.936	441.31
441.158	447.31
441.379	437.31
441.6	466.31
441.822	499.31
442.043	541.31
442.264	611.31
442.486	634.31
442.707	561.31
442.928	526.31
443.149	517.31
443.371	537.31
443.592	592.31
443.813	661.31
444.034	692.31
444.255	602.31
444.476	507.31
444.698	467.31
444.919	473.31
445.14	556.31
445.361	530.31
445.582	548.31
445.803	605.31
446.024	678.31
446.245	692.31
446.466	649.31
446.687	587.31
446.908	503.31
447.129	485.31
447.35	461.31
447.571	450.31
447.792	433.31
448.013	480.31
448.234	513.31
448.455	529.31
448.675	635.31
448.896	724.31
449.117	653.31
449.338	615.31
449.559	668.31
449.779	755.31
450	633.31
450.221	537.31
450.442	491.31
450.662	470.31
450.883	465.31
451.104	485.31
451.324	475.31
451.545	467.31
451.766	444.31
451.986	414.31
452.207	403.31
452.428	403.31
452.648	432.31
452.869	404.31
453.089	429.31
453.31	446.31
453.53	426.31
453.751	409.31
453.971	414.31
454.192	446.31
454.412	461.31
454.633	405.31
454.853	410.31
455.073	413.31
455.294	418.31
455.514	499.31
455.734	470.31
455.955	430.31
456.175	379.31
456.395	369.31
456.616	360.31
456.836	373.31
457.056	367.31
457.276	369.31
457.497	387.31
457.717	385.31
457.937	375.31
458.157	386.31
458.377	389.31
458.598	426.31
458.818	521.31
459.038	584.31
459.258	598.31
459.478	476.31
459.698	405.31
459.918	409.31
460.138	412.31
460.358	379.31
460.578	393.31
460.798	397.31
461.018	441.31
461.238	387.31
461.458	421.31
461.678	405.31
461.898	394.31
462.118	398.31
462.338	392.31
462.558	399.31
462.777	391.31
462.997	403.31
463.217	418.31
463.437	404.31
463.657	408.31
463.876	415.31
464.096	405.31
464.316	414.31
464.536	432.31
464.755	451.31
464.975	441.31
465.195	540.31
465.414	636.31
465.634	540.31
465.854	478.31
466.073	427.31
466.293	412.31
466.512	397.31
466.732	389.31
466.951	386.31
467.171	392.31
467.391	425.31
467.61	413.31
467.829	443.31
468.049	426.31
468.268	393.31
468.488	406.31
468.707	405.31
468.927	403.31
469.146	387.31
469.365	386.31
469.585	410.31
469.804	406.31
470.023	411.31
470.243	390.31
470.462	417.31
470.681	445.31
470.901	436.31
471.12	420.31
471.339	411.31
471.558	421.31
471.777	415.31
471.997	404.31
472.216	401.31
472.435	395.31
472.654	383.31
472.873	406.31
473.092	413.31
473.311	410.31
473.53	405.31
473.749	437.31
473.968	476.31
474.187	566.31
474.406	604.31
474.625	488.31
474.844	441.31
475.063	415.31
475.282	409.31
475.501	399.31
475.72	435.31
475.939	435.31
476.158	422.31
476.377	433.31
476.596	427.31
476.814	435.31
477.033	419.31
477.252	437.31
477.471	435.31
477.69	445.31
477.908	436.31
478.127	440.31
478.346	455.31
478.564	457.31
478.783	462.31
479.002	465.31
479.22	484.31
479.439	521.31
479.658	512.31
479.876	501.31
480.095	527.31
480.313	551.31
480.532	517.31
480.751	493.31
480.969	517.31
481.188	494.31
481.406	524.31
481.624	511.31
481.843	485.31
482.061	498.31
482.28	499.31
482.498	479.31
482.717	469.31
482.935	512.31
483.153	483.31
483.372	480.31
483.59	477.31
483.808	500.31
484.027	491.31
484.245	474.31
484.463	470.31
484.681	478.31
484.9	489.31
485.118	494.31
485.336	511.31
485.554	508.31
485.772	515.31
485.99	526.31
486.209	491.31
486.427	521.31
486.645	551.31
486.863	543.31
487.081	539.31
487.299	541.31
487.517	540.31
487.735	541.31
487.953	535.31
488.171	526.31
488.389	524.31
488.607	519.31
488.825	538.31
489.043	545.31
489.261	530.31
489.479	566.31
489.696	546.31
489.914	537.31
490.132	537.31
490.35	565.31
490.568	565.31
490.786	574.31
491.003	561.31
491.221	571.31
491.439	622.31
491.657	584.31
491.874	610.31
492.092	615.31
492.31	609.31
492.527	613.31
492.745	629.31
492.963	617.31
493.18	632.31
493.398	604.31
493.615	630.31
493.833	645.31
494.05	635.31
494.268	623.31
494.485	618.31
494.703	655.31
494.92	636.31
495.138	643.31
495.355	663.31
495.573	641.31
495.79	630.31
496.008	639.31
496.225	622.31
496.442	643.31
496.66	652.31
496.877	665.31
497.094	647.31
497.312	634.31
497.529	649.31
497.746	649.31
497.963	664.31
498.181	684.31
498.398	689.31
498.615	715.31
498.832	691.31
499.049	678.31
499.267	688.31
499.484	693.31
499.701	691.31
499.918	732.31
500.135	751.31
500.352	753.31
500.569	763.31
500.786	750.31
501.003	748.31
501.22	773.31
501.437	741.31
501.654	745.31
501.871	739.31
