Data from 1987.PennyLincolnUp.Lamp.En5.5.200Scan.071819.P2_HRD10591_17-15-30-971.txt Node
Date: Thu Jul 18 17:15:30 EDT 2019
User: cochatt
Spectrometer: HR+D1059
Trigger mode: 1
Integration Time (sec): 1.000000E-1
Scans to average: 1
Electric dark correction enabled: true
Nonlinearity correction enabled: false
Boxcar width: 0
XAxis mode: Wavelengths
Number of Pixels in Spectrum: 2048
>>>>>Begin Spectral Data<<<<<
223.165	-12.56
223.4	-12.56
223.635	-12.56
223.869	-15.56
224.104	-22.56
224.338	-11.56
224.573	-26.56
224.808	-3.56
225.042	-7.56
225.277	1.44
225.511	-8.56
225.746	4.44
225.98	14.44
226.215	10.44
226.449	4.44
226.683	14.44
226.918	22.44
227.152	36.44
227.387	32.44
227.621	44.44
227.856	46.44
228.09	41.44
228.324	63.44
228.559	37.44
228.793	82.44
229.027	104.44
229.262	128.44
229.496	130.44
229.73	140.44
229.964	187.44
230.199	161.44
230.433	145.44
230.667	125.44
230.901	126.44
231.136	113.44
231.37	112.44
231.604	116.44
231.838	120.44
232.072	117.44
232.306	130.44
232.541	118.44
232.775	117.44
233.009	118.44
233.243	125.44
233.477	104.44
233.711	127.44
233.945	114.44
234.179	116.44
234.413	124.44
234.647	119.44
234.881	119.44
235.115	110.44
235.349	108.44
235.583	113.44
235.817	132.44
236.051	126.44
236.285	126.44
236.519	117.44
236.753	130.44
236.987	162.44
237.221	202.44
237.455	256.44
237.689	195.44
237.922	150.44
238.156	144.44
238.39	134.44
238.624	136.44
238.858	126.44
239.091	125.44
239.325	119.44
239.559	122.44
239.793	135.44
240.027	138.44
240.26	144.44
240.494	170.44
240.728	164.44
240.961	163.44
241.195	144.44
241.429	136.44
241.662	147.44
241.896	130.44
242.13	132.44
242.363	135.44
242.597	144.44
242.83	136.44
243.064	123.44
243.298	122.44
243.531	140.44
243.765	138.44
243.998	136.44
244.232	142.44
244.465	145.44
244.699	147.44
244.932	134.44
245.166	147.44
245.399	154.44
245.633	138.44
245.866	140.44
246.099	141.44
246.333	141.44
246.566	151.44
246.8	145.44
247.033	146.44
247.266	158.44
247.5	158.44
247.733	161.44
247.966	162.44
248.2	159.44
248.433	162.44
248.666	170.44
248.899	204.44
249.133	196.44
249.366	218.44
249.599	196.44
249.832	210.44
250.066	176.44
250.299	172.44
250.532	178.44
250.765	192.44
250.998	209.44
251.231	237.44
251.465	233.44
251.698	224.44
251.931	208.44
252.164	204.44
252.397	207.44
252.63	186.44
252.863	189.44
253.096	218.44
253.329	228.44
253.562	226.44
253.795	226.44
254.028	228.44
254.261	228.44
254.494	238.44
254.727	249.44
254.96	277.44
255.193	283.44
255.426	265.44
255.659	250.44
255.892	224.44
256.124	225.44
256.357	217.44
256.59	205.44
256.823	214.44
257.056	214.44
257.289	216.44
257.521	197.44
257.754	202.44
257.987	198.44
258.22	219.44
258.452	202.44
258.685	201.44
258.918	202.44
259.151	181.44
259.383	196.44
259.616	222.44
259.849	215.44
260.081	237.44
260.314	235.44
260.547	254.44
260.779	244.44
261.012	229.44
261.244	229.44
261.477	224.44
261.71	215.44
261.942	216.44
262.175	240.44
262.407	240.44
262.64	235.44
262.872	224.44
263.105	196.44
263.337	205.44
263.57	205.44
263.802	185.44
264.035	177.44
264.267	184.44
264.499	184.44
264.732	192.44
264.964	205.44
265.197	184.44
265.429	206.44
265.661	180.44
265.894	213.44
266.126	205.44
266.358	200.44
266.591	214.44
266.823	211.44
267.055	213.44
267.287	232.44
267.52	205.44
267.752	185.44
267.984	211.44
268.216	215.44
268.448	189.44
268.681	225.44
268.913	221.44
269.145	244.44
269.377	250.44
269.609	262.44
269.841	261.44
270.073	257.44
270.306	273.44
270.538	303.44
270.77	317.44
271.002	300.44
271.234	284.44
271.466	291.44
271.698	310.44
271.93	338.44
272.162	318.44
272.394	332.44
272.626	315.44
272.858	279.44
273.09	272.44
273.322	270.44
273.553	245.44
273.785	250.44
274.017	242.44
274.249	255.44
274.481	255.44
274.713	258.44
274.945	246.44
275.176	249.44
275.408	263.44
275.64	254.44
275.872	227.44
276.104	254.44
276.335	245.44
276.567	237.44
276.799	260.44
277.031	293.44
277.262	305.44
277.494	285.44
277.726	288.44
277.957	270.44
278.189	269.44
278.421	265.44
278.652	258.44
278.884	248.44
279.115	237.44
279.347	217.44
279.579	232.44
279.81	237.44
280.042	264.44
280.273	224.44
280.505	228.44
280.736	226.44
280.968	230.44
281.199	233.44
281.431	245.44
281.662	225.44
281.894	229.44
282.125	245.44
282.356	267.44
282.588	298.44
282.819	292.44
283.051	249.44
283.282	224.44
283.513	232.44
283.745	234.44
283.976	248.44
284.207	240.44
284.439	226.44
284.67	228.44
284.901	241.44
285.132	236.44
285.364	233.44
285.595	230.44
285.826	234.44
286.057	246.44
286.288	228.44
286.52	237.44
286.751	237.44
286.982	227.44
287.213	237.44
287.444	223.44
287.675	232.44
287.906	261.44
288.138	260.44
288.369	270.44
288.6	261.44
288.831	258.44
289.062	249.44
289.293	246.44
289.524	236.44
289.755	242.44
289.986	238.44
290.217	257.44
290.448	251.44
290.679	250.44
290.91	229.44
291.141	223.44
291.371	246.44
291.602	226.44
291.833	244.44
292.064	248.44
292.295	237.44
292.526	265.44
292.757	247.44
292.987	253.44
293.218	226.44
293.449	249.44
293.68	236.44
293.91	236.44
294.141	237.44
294.372	238.44
294.603	237.44
294.833	249.44
295.064	249.44
295.295	243.44
295.525	246.44
295.756	252.44
295.987	267.44
296.217	269.44
296.448	301.44
296.679	274.44
296.909	259.44
297.14	257.44
297.37	238.44
297.601	248.44
297.831	264.44
298.062	249.44
298.292	245.44
298.523	238.44
298.753	253.44
298.984	233.44
299.214	265.44
299.445	269.44
299.675	260.44
299.905	274.44
300.136	257.44
300.366	240.44
300.597	238.44
300.827	260.44
301.057	284.44
301.288	291.44
301.518	288.44
301.748	256.44
301.979	275.44
302.209	267.44
302.439	277.44
302.669	262.44
302.9	280.44
303.13	265.44
303.36	282.44
303.59	278.44
303.82	318.44
304.051	292.44
304.281	264.44
304.511	273.44
304.741	254.44
304.971	256.44
305.201	256.44
305.431	273.44
305.661	277.44
305.891	262.44
306.121	286.44
306.352	291.44
306.582	303.44
306.812	284.44
307.042	278.44
307.272	281.44
307.502	281.44
307.731	275.44
307.961	274.44
308.191	280.44
308.421	296.44
308.651	310.44
308.881	309.44
309.111	295.44
309.341	321.44
309.571	313.44
309.8	321.44
310.03	334.44
310.26	363.44
310.49	342.44
310.72	352.44
310.949	380.44
311.179	394.44
311.409	360.44
311.639	347.44
311.868	347.44
312.098	362.44
312.328	366.44
312.557	381.44
312.787	393.44
313.017	422.44
313.246	382.44
313.476	333.44
313.706	361.44
313.935	350.44
314.165	355.44
314.394	385.44
314.624	374.44
314.853	352.44
315.083	372.44
315.312	334.44
315.542	336.44
315.771	330.44
316.001	323.44
316.23	320.44
316.46	311.44
316.689	334.44
316.919	333.44
317.148	360.44
317.377	349.44
317.607	357.44
317.836	360.44
318.065	337.44
318.295	344.44
318.524	313.44
318.753	338.44
318.983	341.44
319.212	343.44
319.441	343.44
319.67	362.44
319.9	349.44
320.129	336.44
320.358	343.44
320.587	323.44
320.816	355.44
321.046	367.44
321.275	381.44
321.504	360.44
321.733	350.44
321.962	392.44
322.191	404.44
322.42	424.44
322.649	458.44
322.878	444.44
323.108	499.44
323.337	534.44
323.566	566.44
323.795	600.44
324.024	662.44
324.253	854.44
324.482	1235.44
324.71	1916.44
324.939	2662.44
325.168	2350.44
325.397	1319.44
325.626	854.44
325.855	659.44
326.084	568.44
326.313	576.44
326.542	555.44
326.77	629.44
326.999	761.44
327.228	1065.44
327.457	1662.44
327.686	2065.44
327.914	1396.44
328.143	918.44
328.372	746.44
328.6	690.44
328.829	631.44
329.058	655.44
329.287	660.44
329.515	609.44
329.744	550.44
329.972	519.44
330.201	497.44
330.43	531.44
330.658	632.44
330.887	689.44
331.115	675.44
331.344	548.44
331.572	499.44
331.801	482.44
332.03	491.44
332.258	456.44
332.486	414.44
332.715	412.44
332.943	394.44
333.172	382.44
333.4	384.44
333.629	389.44
333.857	420.44
334.085	412.44
334.314	391.44
334.542	392.44
334.771	390.44
334.999	394.44
335.227	396.44
335.455	380.44
335.684	384.44
335.912	368.44
336.14	382.44
336.369	380.44
336.597	413.44
336.825	410.44
337.053	357.44
337.281	380.44
337.51	364.44
337.738	397.44
337.966	380.44
338.194	390.44
338.422	388.44
338.65	380.44
338.878	373.44
339.106	352.44
339.334	369.44
339.562	369.44
339.79	378.44
340.018	377.44
340.246	378.44
340.474	381.44
340.702	395.44
340.93	390.44
341.158	378.44
341.386	378.44
341.614	385.44
341.842	392.44
342.07	371.44
342.298	370.44
342.526	364.44
342.754	336.44
342.981	351.44
343.209	342.44
343.437	355.44
343.665	347.44
343.893	346.44
344.12	374.44
344.348	375.44
344.576	357.44
344.804	386.44
345.031	420.44
345.259	421.44
345.487	393.44
345.714	399.44
345.942	379.44
346.17	377.44
346.397	333.44
346.625	380.44
346.853	370.44
347.08	368.44
347.308	374.44
347.535	400.44
347.763	400.44
347.99	388.44
348.218	397.44
348.445	398.44
348.673	400.44
348.9	387.44
349.128	369.44
349.355	342.44
349.583	353.44
349.81	374.44
350.037	366.44
350.265	365.44
350.492	375.44
350.72	351.44
350.947	363.44
351.174	394.44
351.402	406.44
351.629	403.44
351.856	415.44
352.083	414.44
352.311	415.44
352.538	424.44
352.765	429.44
352.992	409.44
353.22	399.44
353.447	395.44
353.674	380.44
353.901	366.44
354.128	363.44
354.355	337.44
354.583	349.44
354.81	335.44
355.037	343.44
355.264	336.44
355.491	346.44
355.718	306.44
355.945	325.44
356.172	342.44
356.399	320.44
356.626	334.44
356.853	330.44
357.08	337.44
357.307	344.44
357.534	337.44
357.761	338.44
357.988	351.44
358.215	361.44
358.441	345.44
358.668	344.44
358.895	348.44
359.122	346.44
359.349	359.44
359.576	392.44
359.802	406.44
360.029	464.44
360.256	510.44
360.483	473.44
360.709	403.44
360.936	382.44
361.163	400.44
361.39	385.44
361.616	396.44
361.843	382.44
362.07	377.44
362.296	380.44
362.523	392.44
362.749	373.44
362.976	361.44
363.203	386.44
363.429	352.44
363.656	362.44
363.882	336.44
364.109	359.44
364.335	353.44
364.562	366.44
364.788	347.44
365.015	351.44
365.241	328.44
365.468	353.44
365.694	349.44
365.92	352.44
366.147	360.44
366.373	323.44
366.599	337.44
366.826	350.44
367.052	330.44
367.278	333.44
367.505	356.44
367.731	348.44
367.957	338.44
368.184	348.44
368.41	341.44
368.636	360.44
368.862	359.44
369.089	353.44
369.315	347.44
369.541	345.44
369.767	346.44
369.993	346.44
370.219	323.44
370.445	352.44
370.672	343.44
370.898	332.44
371.124	331.44
371.35	329.44
371.576	338.44
371.802	351.44
372.028	335.44
372.254	327.44
372.48	316.44
372.706	334.44
372.932	336.44
373.158	333.44
373.384	353.44
373.61	329.44
373.835	340.44
374.061	341.44
374.287	330.44
374.513	333.44
374.739	346.44
374.965	341.44
375.191	319.44
375.416	322.44
375.642	334.44
375.868	338.44
376.094	352.44
376.319	346.44
376.545	352.44
376.771	319.44
376.997	338.44
377.222	341.44
377.448	324.44
377.674	328.44
377.899	336.44
378.125	328.44
378.35	351.44
378.576	330.44
378.802	314.44
379.027	315.44
379.253	327.44
379.478	322.44
379.704	323.44
379.929	312.44
380.155	328.44
380.38	336.44
380.606	340.44
380.831	349.44
381.057	346.44
381.282	337.44
381.507	341.44
381.733	345.44
381.958	345.44
382.184	340.44
382.409	352.44
382.634	337.44
382.86	333.44
383.085	333.44
383.31	327.44
383.535	353.44
383.761	340.44
383.986	340.44
384.211	338.44
384.436	324.44
384.662	350.44
384.887	331.44
385.112	347.44
385.337	336.44
385.562	348.44
385.787	337.44
386.013	372.44
386.238	362.44
386.463	356.44
386.688	347.44
386.913	326.44
387.138	340.44
387.363	368.44
387.588	353.44
387.813	344.44
388.038	326.44
388.263	345.44
388.488	340.44
388.713	350.44
388.938	366.44
389.163	360.44
389.387	362.44
389.612	356.44
389.837	359.44
390.062	334.44
390.287	343.44
390.512	342.44
390.736	329.44
390.961	356.44
391.186	330.44
391.411	328.44
391.636	356.44
391.86	352.44
392.085	361.44
392.31	345.44
392.534	353.44
392.759	346.44
392.984	357.44
393.208	373.44
393.433	363.44
393.658	366.44
393.882	338.44
394.107	367.44
394.331	336.44
394.556	333.44
394.78	343.44
395.005	344.44
395.229	342.44
395.454	346.44
395.678	358.44
395.903	386.44
396.127	408.44
396.352	408.44
396.576	366.44
396.801	378.44
397.025	352.44
397.249	370.44
397.474	359.44
397.698	372.44
397.922	379.44
398.147	404.44
398.371	388.44
398.595	392.44
398.82	373.44
399.044	394.44
399.268	392.44
399.492	403.44
399.717	432.44
399.941	456.44
400.165	481.44
400.389	505.44
400.613	446.44
400.837	424.44
401.062	402.44
401.286	412.44
401.51	411.44
401.734	390.44
401.958	416.44
402.182	416.44
402.406	441.44
402.63	422.44
402.854	428.44
403.078	423.44
403.302	411.44
403.526	431.44
403.75	427.44
403.974	435.44
404.198	391.44
404.422	416.44
404.645	422.44
404.869	440.44
405.093	444.44
405.317	471.44
405.541	494.44
405.765	467.44
405.988	438.44
406.212	464.44
406.436	472.44
406.66	492.44
406.883	487.44
407.107	492.44
407.331	522.44
407.555	585.44
407.778	604.44
408.002	566.44
408.226	476.44
408.449	494.44
408.673	477.44
408.896	519.44
409.12	538.44
409.344	525.44
409.567	461.44
409.791	444.44
410.014	451.44
410.238	427.44
410.461	443.44
410.685	442.44
410.908	442.44
411.132	477.44
411.355	539.44
411.578	494.44
411.802	433.44
412.025	423.44
412.249	421.44
412.472	423.44
412.695	427.44
412.919	431.44
413.142	405.44
413.365	405.44
413.589	406.44
413.812	413.44
414.035	392.44
414.258	388.44
414.482	390.44
414.705	388.44
414.928	396.44
415.151	407.44
415.374	396.44
415.597	386.44
415.821	391.44
416.044	407.44
416.267	406.44
416.49	404.44
416.713	411.44
416.936	403.44
417.159	411.44
417.382	397.44
417.605	412.44
417.828	416.44
418.051	452.44
418.274	410.44
418.497	414.44
418.72	421.44
418.943	421.44
419.166	437.44
419.389	442.44
419.611	442.44
419.834	428.44
420.057	437.44
420.28	444.44
420.503	440.44
420.726	429.44
420.948	448.44
421.171	504.44
421.394	525.44
421.617	458.44
421.839	444.44
422.062	452.44
422.285	454.44
422.507	506.44
422.73	590.44
422.953	588.44
423.175	534.44
423.398	481.44
423.621	470.44
423.843	490.44
424.066	479.44
424.288	472.44
424.511	506.44
424.733	571.44
424.956	655.44
425.178	653.44
425.401	641.44
425.623	648.44
425.846	545.44
426.068	519.44
426.291	507.44
426.513	504.44
426.735	518.44
426.958	555.44
427.18	652.44
427.402	761.44
427.625	850.44
427.847	821.44
428.069	673.44
428.292	570.44
428.514	538.44
428.736	502.44
428.958	480.44
429.181	480.44
429.403	478.44
429.625	478.44
429.847	515.44
430.069	590.44
430.292	573.44
430.514	512.44
430.736	462.44
430.958	451.44
431.18	435.44
431.402	431.44
431.624	420.44
431.846	416.44
432.068	432.44
432.29	414.44
432.512	460.44
432.734	429.44
432.956	442.44
433.178	451.44
433.4	440.44
433.622	447.44
433.844	428.44
434.066	424.44
434.287	408.44
434.509	450.44
434.731	449.44
434.953	449.44
435.175	477.44
435.397	498.44
435.618	536.44
435.84	533.44
436.062	629.44
436.284	720.44
436.505	597.44
436.727	544.44
436.949	489.44
437.17	489.44
437.392	484.44
437.614	516.44
437.835	555.44
438.057	664.44
438.278	760.44
438.5	733.44
438.721	786.44
438.943	740.44
439.165	621.44
439.386	560.44
439.608	547.44
439.829	551.44
440.05	612.44
440.272	624.44
440.493	581.44
440.715	534.44
440.936	495.44
441.158	486.44
441.379	470.44
441.6	483.44
441.822	521.44
442.043	548.44
442.264	648.44
442.486	681.44
442.707	595.44
442.928	538.44
443.149	563.44
443.371	594.44
443.592	630.44
443.813	688.44
444.034	738.44
444.255	604.44
444.476	550.44
444.698	510.44
444.919	497.44
445.14	610.44
445.361	565.44
445.582	571.44
445.803	617.44
446.024	732.44
446.245	728.44
446.466	688.44
446.687	592.44
446.908	529.44
447.129	522.44
447.35	505.44
447.571	462.44
447.792	488.44
448.013	481.44
448.234	509.44
448.455	587.44
448.675	664.44
448.896	776.44
449.117	650.44
449.338	646.44
449.559	761.44
449.779	785.44
450	659.44
450.221	572.44
450.442	552.44
450.662	515.44
450.883	501.44
451.104	536.44
451.324	529.44
451.545	488.44
451.766	456.44
451.986	447.44
452.207	425.44
452.428	434.44
452.648	433.44
452.869	442.44
453.089	440.44
453.31	466.44
453.53	459.44
453.751	443.44
453.971	426.44
454.192	484.44
454.412	458.44
454.633	443.44
454.853	428.44
455.073	422.44
455.294	475.44
455.514	557.44
455.734	506.44
455.955	438.44
456.175	414.44
456.395	396.44
456.616	403.44
456.836	390.44
457.056	409.44
457.276	391.44
457.497	376.44
457.717	392.44
457.937	392.44
458.157	414.44
458.377	418.44
458.598	448.44
458.818	548.44
459.038	654.44
459.258	648.44
459.478	538.44
459.698	473.44
459.918	422.44
460.138	416.44
460.358	438.44
460.578	421.44
460.798	447.44
461.018	411.44
461.238	407.44
461.458	420.44
461.678	411.44
461.898	424.44
462.118	405.44
462.338	424.44
462.558	421.44
462.777	425.44
462.997	440.44
463.217	422.44
463.437	412.44
463.657	406.44
463.876	418.44
464.096	446.44
464.316	448.44
464.536	445.44
464.755	457.44
464.975	480.44
465.195	570.44
465.414	704.44
465.634	614.44
465.854	525.44
466.073	489.44
466.293	447.44
466.512	469.44
466.732	431.44
466.951	431.44
467.171	430.44
467.391	445.44
467.61	458.44
467.829	461.44
468.049	445.44
468.268	437.44
468.488	426.44
468.707	417.44
468.927	422.44
469.146	396.44
469.365	408.44
469.585	398.44
469.804	420.44
470.023	439.44
470.243	420.44
470.462	470.44
470.681	482.44
470.901	461.44
471.12	441.44
471.339	432.44
471.558	440.44
471.777	414.44
471.997	426.44
472.216	414.44
472.435	414.44
472.654	412.44
472.873	410.44
473.092	412.44
473.311	431.44
473.53	422.44
473.749	457.44
473.968	473.44
474.187	628.44
474.406	636.44
474.625	504.44
474.844	482.44
475.063	449.44
475.282	447.44
475.501	447.44
475.72	453.44
475.939	440.44
476.158	454.44
476.377	437.44
476.596	442.44
476.814	467.44
477.033	465.44
477.252	469.44
477.471	465.44
477.69	470.44
477.908	473.44
478.127	449.44
478.346	458.44
478.564	442.44
478.783	476.44
479.002	485.44
479.22	470.44
479.439	501.44
479.658	545.44
479.876	536.44
480.095	549.44
480.313	582.44
480.532	543.44
480.751	506.44
480.969	548.44
481.188	530.44
481.406	545.44
481.624	521.44
481.843	517.44
482.061	495.44
482.28	513.44
482.498	502.44
482.717	500.44
482.935	522.44
483.153	507.44
483.372	506.44
483.59	505.44
483.808	524.44
484.027	538.44
484.245	512.44
484.463	503.44
484.681	531.44
484.9	535.44
485.118	526.44
485.336	529.44
485.554	541.44
485.772	541.44
485.99	538.44
486.209	537.44
486.427	549.44
486.645	533.44
486.863	577.44
487.081	578.44
487.299	556.44
487.517	583.44
487.735	548.44
487.953	564.44
488.171	570.44
488.389	556.44
488.607	561.44
488.825	556.44
489.043	546.44
489.261	583.44
489.479	583.44
489.696	570.44
489.914	568.44
490.132	562.44
490.35	574.44
490.568	575.44
490.786	593.44
491.003	617.44
491.221	630.44
491.439	592.44
491.657	597.44
491.874	630.44
492.092	634.44
492.31	620.44
492.527	684.44
492.745	655.44
492.963	625.44
493.18	663.44
493.398	666.44
493.615	680.44
493.833	676.44
494.05	665.44
494.268	676.44
494.485	646.44
494.703	658.44
494.92	644.44
495.138	671.44
495.355	683.44
495.573	694.44
495.79	655.44
496.008	701.44
496.225	652.44
496.442	668.44
496.66	675.44
496.877	664.44
497.094	652.44
497.312	678.44
497.529	680.44
497.746	715.44
497.963	695.44
498.181	708.44
498.398	744.44
498.615	733.44
498.832	739.44
499.049	743.44
499.267	736.44
499.484	733.44
499.701	740.44
499.918	757.44
500.135	773.44
500.352	795.44
500.569	786.44
500.786	774.44
501.003	803.44
501.22	776.44
501.437	780.44
501.654	810.44
501.871	833.44
