Data from 1987.PennyLincolnUp.Lamp.En5.5.200Scan.071819.P2_HRD10591_17-14-44-971.txt Node
Date: Thu Jul 18 17:14:44 EDT 2019
User: cochatt
Spectrometer: HR+D1059
Trigger mode: 1
Integration Time (sec): 1.000000E-1
Scans to average: 1
Electric dark correction enabled: true
Nonlinearity correction enabled: false
Boxcar width: 0
XAxis mode: Wavelengths
Number of Pixels in Spectrum: 2048
>>>>>Begin Spectral Data<<<<<
223.165	-32.88
223.4	-32.88
223.635	-32.88
223.869	-12.88
224.104	-12.88
224.338	-13.88
224.573	-16.88
224.808	-15.88
225.042	-4.88
225.277	-8.88
225.511	10.12
225.746	4.12
225.98	18.12
226.215	7.12
226.449	13.12
226.683	16.12
226.918	11.12
227.152	39.12
227.387	36.12
227.621	27.12
227.856	47.12
228.09	53.12
228.324	40.12
228.559	44.12
228.793	70.12
229.027	93.12
229.262	117.12
229.496	127.12
229.73	149.12
229.964	171.12
230.199	147.12
230.433	119.12
230.667	131.12
230.901	116.12
231.136	112.12
231.37	107.12
231.604	108.12
231.838	123.12
232.072	121.12
232.306	105.12
232.541	116.12
232.775	115.12
233.009	102.12
233.243	103.12
233.477	123.12
233.711	101.12
233.945	112.12
234.179	114.12
234.413	112.12
234.647	109.12
234.881	114.12
235.115	119.12
235.349	127.12
235.583	120.12
235.817	134.12
236.051	136.12
236.285	117.12
236.519	127.12
236.753	130.12
236.987	149.12
237.221	177.12
237.455	247.12
237.689	185.12
237.922	146.12
238.156	128.12
238.39	128.12
238.624	120.12
238.858	130.12
239.091	123.12
239.325	128.12
239.559	123.12
239.793	139.12
240.027	122.12
240.26	143.12
240.494	144.12
240.728	154.12
240.961	138.12
241.195	140.12
241.429	125.12
241.662	138.12
241.896	125.12
242.13	127.12
242.363	131.12
242.597	127.12
242.83	124.12
243.064	147.12
243.298	134.12
243.531	127.12
243.765	120.12
243.998	124.12
244.232	139.12
244.465	136.12
244.699	133.12
244.932	145.12
245.166	127.12
245.399	113.12
245.633	136.12
245.866	143.12
246.099	126.12
246.333	141.12
246.566	147.12
246.8	143.12
247.033	143.12
247.266	153.12
247.5	144.12
247.733	150.12
247.966	159.12
248.2	160.12
248.433	158.12
248.666	163.12
248.899	164.12
249.133	167.12
249.366	191.12
249.599	191.12
249.832	168.12
250.066	170.12
250.299	169.12
250.532	186.12
250.765	188.12
250.998	216.12
251.231	219.12
251.465	213.12
251.698	179.12
251.931	190.12
252.164	190.12
252.397	183.12
252.63	190.12
252.863	197.12
253.096	205.12
253.329	207.12
253.562	216.12
253.795	209.12
254.028	209.12
254.261	217.12
254.494	218.12
254.727	243.12
254.96	269.12
255.193	271.12
255.426	239.12
255.659	232.12
255.892	222.12
256.124	205.12
256.357	206.12
256.59	201.12
256.823	196.12
257.056	198.12
257.289	188.12
257.521	200.12
257.754	195.12
257.987	181.12
258.22	193.12
258.452	189.12
258.685	201.12
258.918	200.12
259.151	193.12
259.383	191.12
259.616	209.12
259.849	212.12
260.081	207.12
260.314	217.12
260.547	233.12
260.779	234.12
261.012	214.12
261.244	223.12
261.477	218.12
261.71	189.12
261.942	214.12
262.175	217.12
262.407	214.12
262.64	187.12
262.872	197.12
263.105	196.12
263.337	192.12
263.57	175.12
263.802	194.12
264.035	183.12
264.267	193.12
264.499	197.12
264.732	190.12
264.964	183.12
265.197	190.12
265.429	183.12
265.661	184.12
265.894	190.12
266.126	196.12
266.358	180.12
266.591	178.12
266.823	194.12
267.055	215.12
267.287	196.12
267.52	183.12
267.752	189.12
267.984	192.12
268.216	188.12
268.448	208.12
268.681	209.12
268.913	229.12
269.145	224.12
269.377	256.12
269.609	229.12
269.841	237.12
270.073	256.12
270.306	267.12
270.538	285.12
270.77	280.12
271.002	298.12
271.234	292.12
271.466	264.12
271.698	290.12
271.93	299.12
272.162	285.12
272.394	306.12
272.626	307.12
272.858	250.12
273.09	252.12
273.322	262.12
273.553	259.12
273.785	231.12
274.017	244.12
274.249	228.12
274.481	245.12
274.713	225.12
274.945	236.12
275.176	239.12
275.408	230.12
275.64	230.12
275.872	212.12
276.104	241.12
276.335	236.12
276.567	232.12
276.799	264.12
277.031	279.12
277.262	285.12
277.494	284.12
277.726	284.12
277.957	255.12
278.189	248.12
278.421	245.12
278.652	223.12
278.884	243.12
279.115	226.12
279.347	220.12
279.579	216.12
279.81	208.12
280.042	209.12
280.273	218.12
280.505	220.12
280.736	202.12
280.968	218.12
281.199	225.12
281.431	212.12
281.662	222.12
281.894	220.12
282.125	227.12
282.356	246.12
282.588	263.12
282.819	296.12
283.051	234.12
283.282	215.12
283.513	226.12
283.745	220.12
283.976	229.12
284.207	248.12
284.439	236.12
284.67	226.12
284.901	233.12
285.132	228.12
285.364	211.12
285.595	228.12
285.826	248.12
286.057	219.12
286.288	229.12
286.52	213.12
286.751	229.12
286.982	219.12
287.213	214.12
287.444	230.12
287.675	228.12
287.906	234.12
288.138	255.12
288.369	248.12
288.6	258.12
288.831	247.12
289.062	224.12
289.293	219.12
289.524	224.12
289.755	246.12
289.986	211.12
290.217	246.12
290.448	230.12
290.679	220.12
290.91	251.12
291.141	217.12
291.371	241.12
291.602	228.12
291.833	220.12
292.064	230.12
292.295	228.12
292.526	224.12
292.757	228.12
292.987	257.12
293.218	245.12
293.449	218.12
293.68	237.12
293.91	233.12
294.141	220.12
294.372	205.12
294.603	240.12
294.833	220.12
295.064	236.12
295.295	240.12
295.525	247.12
295.756	228.12
295.987	243.12
296.217	283.12
296.448	287.12
296.679	260.12
296.909	246.12
297.14	243.12
297.37	239.12
297.601	226.12
297.831	229.12
298.062	225.12
298.292	243.12
298.523	240.12
298.753	228.12
298.984	232.12
299.214	244.12
299.445	259.12
299.675	242.12
299.905	245.12
300.136	243.12
300.366	272.12
300.597	245.12
300.827	242.12
301.057	240.12
301.288	260.12
301.518	246.12
301.748	251.12
301.979	237.12
302.209	244.12
302.439	276.12
302.669	266.12
302.9	268.12
303.13	260.12
303.36	261.12
303.59	269.12
303.82	287.12
304.051	270.12
304.281	249.12
304.511	257.12
304.741	275.12
304.971	273.12
305.201	256.12
305.431	273.12
305.661	245.12
305.891	260.12
306.121	265.12
306.352	272.12
306.582	260.12
306.812	293.12
307.042	275.12
307.272	277.12
307.502	270.12
307.731	264.12
307.961	253.12
308.191	269.12
308.421	257.12
308.651	277.12
308.881	274.12
309.111	283.12
309.341	274.12
309.571	309.12
309.8	316.12
310.03	317.12
310.26	331.12
310.49	317.12
310.72	333.12
310.949	339.12
311.179	349.12
311.409	337.12
311.639	343.12
311.868	336.12
312.098	327.12
312.328	332.12
312.557	349.12
312.787	370.12
313.017	369.12
313.246	333.12
313.476	317.12
313.706	317.12
313.935	333.12
314.165	344.12
314.394	361.12
314.624	353.12
314.853	336.12
315.083	323.12
315.312	339.12
315.542	315.12
315.771	293.12
316.001	314.12
316.23	304.12
316.46	314.12
316.689	309.12
316.919	322.12
317.148	330.12
317.377	348.12
317.607	338.12
317.836	351.12
318.065	316.12
318.295	325.12
318.524	309.12
318.753	308.12
318.983	315.12
319.212	319.12
319.441	334.12
319.67	331.12
319.9	331.12
320.129	324.12
320.358	305.12
320.587	333.12
320.816	335.12
321.046	355.12
321.275	350.12
321.504	353.12
321.733	356.12
321.962	376.12
322.191	383.12
322.42	407.12
322.649	421.12
322.878	444.12
323.108	457.12
323.337	452.12
323.566	516.12
323.795	563.12
324.024	662.12
324.253	797.12
324.482	1146.12
324.71	1753.12
324.939	2431.12
325.168	2148.12
325.397	1197.12
325.626	763.12
325.855	610.12
326.084	535.12
326.313	502.12
326.542	513.12
326.77	563.12
326.999	724.12
327.228	1000.12
327.457	1516.12
327.686	1842.12
327.914	1314.12
328.143	819.12
328.372	671.12
328.6	623.12
328.829	578.12
329.058	611.12
329.287	644.12
329.515	567.12
329.744	470.12
329.972	480.12
330.201	492.12
330.43	511.12
330.658	561.12
330.887	661.12
331.115	618.12
331.344	521.12
331.572	465.12
331.801	472.12
332.03	435.12
332.258	426.12
332.486	389.12
332.715	381.12
332.943	381.12
333.172	370.12
333.4	374.12
333.629	385.12
333.857	395.12
334.085	395.12
334.314	363.12
334.542	389.12
334.771	371.12
334.999	405.12
335.227	393.12
335.455	367.12
335.684	363.12
335.912	347.12
336.14	349.12
336.369	370.12
336.597	361.12
336.825	391.12
337.053	368.12
337.281	367.12
337.51	340.12
337.738	355.12
337.966	358.12
338.194	368.12
338.422	381.12
338.65	360.12
338.878	357.12
339.106	344.12
339.334	347.12
339.562	355.12
339.79	331.12
340.018	340.12
340.246	363.12
340.474	357.12
340.702	369.12
340.93	367.12
341.158	361.12
341.386	375.12
341.614	363.12
341.842	367.12
342.07	355.12
342.298	356.12
342.526	343.12
342.754	333.12
342.981	322.12
343.209	324.12
343.437	334.12
343.665	329.12
343.893	332.12
344.12	336.12
344.348	328.12
344.576	345.12
344.804	357.12
345.031	371.12
345.259	395.12
345.487	370.12
345.714	379.12
345.942	380.12
346.17	339.12
346.397	371.12
346.625	345.12
346.853	349.12
347.08	352.12
347.308	360.12
347.535	372.12
347.763	379.12
347.99	385.12
348.218	362.12
348.445	382.12
348.673	398.12
348.9	357.12
349.128	347.12
349.355	347.12
349.583	357.12
349.81	342.12
350.037	339.12
350.265	343.12
350.492	349.12
350.72	341.12
350.947	368.12
351.174	376.12
351.402	382.12
351.629	382.12
351.856	363.12
352.083	373.12
352.311	391.12
352.538	385.12
352.765	393.12
352.992	379.12
353.22	372.12
353.447	368.12
353.674	362.12
353.901	332.12
354.128	335.12
354.355	333.12
354.583	328.12
354.81	328.12
355.037	333.12
355.264	318.12
355.491	321.12
355.718	320.12
355.945	311.12
356.172	325.12
356.399	314.12
356.626	314.12
356.853	315.12
357.08	306.12
357.307	315.12
357.534	318.12
357.761	334.12
357.988	321.12
358.215	316.12
358.441	320.12
358.668	341.12
358.895	325.12
359.122	333.12
359.349	334.12
359.576	364.12
359.802	401.12
360.029	439.12
360.256	464.12
360.483	423.12
360.709	381.12
360.936	356.12
361.163	378.12
361.39	387.12
361.616	378.12
361.843	381.12
362.07	345.12
362.296	367.12
362.523	360.12
362.749	378.12
362.976	351.12
363.203	352.12
363.429	350.12
363.656	350.12
363.882	328.12
364.109	327.12
364.335	350.12
364.562	325.12
364.788	336.12
365.015	343.12
365.241	343.12
365.468	360.12
365.694	339.12
365.92	333.12
366.147	340.12
366.373	331.12
366.599	320.12
366.826	310.12
367.052	345.12
367.278	339.12
367.505	325.12
367.731	329.12
367.957	338.12
368.184	343.12
368.41	365.12
368.636	357.12
368.862	357.12
369.089	356.12
369.315	332.12
369.541	336.12
369.767	329.12
369.993	331.12
370.219	341.12
370.445	320.12
370.672	332.12
370.898	321.12
371.124	324.12
371.35	313.12
371.576	307.12
371.802	308.12
372.028	306.12
372.254	330.12
372.48	301.12
372.706	310.12
372.932	309.12
373.158	311.12
373.384	327.12
373.61	333.12
373.835	325.12
374.061	337.12
374.287	335.12
374.513	321.12
374.739	347.12
374.965	319.12
375.191	338.12
375.416	334.12
375.642	326.12
375.868	316.12
376.094	337.12
376.319	315.12
376.545	337.12
376.771	328.12
376.997	312.12
377.222	311.12
377.448	299.12
377.674	318.12
377.899	322.12
378.125	309.12
378.35	310.12
378.576	309.12
378.802	308.12
379.027	324.12
379.253	311.12
379.478	311.12
379.704	332.12
379.929	326.12
380.155	305.12
380.38	325.12
380.606	339.12
380.831	333.12
381.057	314.12
381.282	339.12
381.507	320.12
381.733	312.12
381.958	333.12
382.184	313.12
382.409	312.12
382.634	318.12
382.86	315.12
383.085	319.12
383.31	330.12
383.535	343.12
383.761	316.12
383.986	311.12
384.211	314.12
384.436	332.12
384.662	341.12
384.887	329.12
385.112	327.12
385.337	321.12
385.562	309.12
385.787	343.12
386.013	359.12
386.238	342.12
386.463	359.12
386.688	331.12
386.913	333.12
387.138	340.12
387.363	339.12
387.588	328.12
387.813	339.12
388.038	341.12
388.263	337.12
388.488	326.12
388.713	326.12
388.938	328.12
389.163	345.12
389.387	331.12
389.612	340.12
389.837	351.12
390.062	326.12
390.287	332.12
390.512	326.12
390.736	337.12
390.961	345.12
391.186	322.12
391.411	355.12
391.636	327.12
391.86	343.12
392.085	351.12
392.31	326.12
392.534	340.12
392.759	348.12
392.984	335.12
393.208	335.12
393.433	357.12
393.658	369.12
393.882	341.12
394.107	321.12
394.331	352.12
394.556	336.12
394.78	355.12
395.005	337.12
395.229	351.12
395.454	341.12
395.678	377.12
395.903	368.12
396.127	387.12
396.352	390.12
396.576	372.12
396.801	341.12
397.025	363.12
397.249	372.12
397.474	360.12
397.698	351.12
397.922	369.12
398.147	379.12
398.371	393.12
398.595	380.12
398.82	378.12
399.044	369.12
399.268	405.12
399.492	388.12
399.717	406.12
399.941	431.12
400.165	465.12
400.389	470.12
400.613	444.12
400.837	424.12
401.062	390.12
401.286	395.12
401.51	374.12
401.734	401.12
401.958	405.12
402.182	411.12
402.406	417.12
402.63	425.12
402.854	402.12
403.078	403.12
403.302	435.12
403.526	401.12
403.75	397.12
403.974	407.12
404.198	387.12
404.422	386.12
404.645	431.12
404.869	419.12
405.093	420.12
405.317	468.12
405.541	465.12
405.765	429.12
405.988	428.12
406.212	432.12
406.436	475.12
406.66	486.12
406.883	456.12
407.107	481.12
407.331	519.12
407.555	565.12
407.778	569.12
408.002	518.12
408.226	468.12
408.449	453.12
408.673	448.12
408.896	500.12
409.12	521.12
409.344	487.12
409.567	445.12
409.791	408.12
410.014	419.12
410.238	393.12
410.461	432.12
410.685	419.12
410.908	428.12
411.132	486.12
411.355	515.12
411.578	457.12
411.802	441.12
412.025	416.12
412.249	404.12
412.472	420.12
412.695	429.12
412.919	424.12
413.142	392.12
413.365	403.12
413.589	386.12
413.812	395.12
414.035	373.12
414.258	391.12
414.482	381.12
414.705	378.12
414.928	388.12
415.151	394.12
415.374	383.12
415.597	369.12
415.821	388.12
416.044	380.12
416.267	389.12
416.49	389.12
416.713	376.12
416.936	394.12
417.159	376.12
417.382	394.12
417.605	395.12
417.828	412.12
418.051	433.12
418.274	414.12
418.497	390.12
418.72	405.12
418.943	387.12
419.166	382.12
419.389	418.12
419.611	418.12
419.834	413.12
420.057	410.12
420.28	423.12
420.503	394.12
420.726	432.12
420.948	435.12
421.171	475.12
421.394	502.12
421.617	467.12
421.839	436.12
422.062	430.12
422.285	440.12
422.507	516.12
422.73	563.12
422.953	565.12
423.175	494.12
423.398	444.12
423.621	455.12
423.843	474.12
424.066	460.12
424.288	466.12
424.511	514.12
424.733	529.12
424.956	631.12
425.178	617.12
425.401	611.12
425.623	633.12
425.846	529.12
426.068	493.12
426.291	482.12
426.513	488.12
426.735	502.12
426.958	553.12
427.18	616.12
427.402	736.12
427.625	840.12
427.847	779.12
428.069	637.12
428.292	568.12
428.514	501.12
428.736	489.12
428.958	477.12
429.181	482.12
429.403	464.12
429.625	481.12
429.847	488.12
430.069	568.12
430.292	547.12
430.514	485.12
430.736	454.12
430.958	441.12
431.18	420.12
431.402	431.12
431.624	412.12
431.846	417.12
432.068	417.12
432.29	412.12
432.512	421.12
432.734	428.12
432.956	430.12
433.178	425.12
433.4	457.12
433.622	441.12
433.844	416.12
434.066	409.12
434.287	421.12
434.509	434.12
434.731	430.12
434.953	438.12
435.175	432.12
435.397	473.12
435.618	509.12
435.84	530.12
436.062	604.12
436.284	663.12
436.505	584.12
436.727	539.12
436.949	467.12
437.17	479.12
437.392	458.12
437.614	466.12
437.835	533.12
438.057	632.12
438.278	732.12
438.5	704.12
438.721	748.12
438.943	713.12
439.165	602.12
439.386	543.12
439.608	527.12
439.829	532.12
440.05	552.12
440.272	577.12
440.493	549.12
440.715	515.12
440.936	480.12
441.158	476.12
441.379	460.12
441.6	479.12
441.822	520.12
442.043	536.12
442.264	616.12
442.486	661.12
442.707	586.12
442.928	529.12
443.149	520.12
443.371	564.12
443.592	604.12
443.813	682.12
444.034	693.12
444.255	615.12
444.476	529.12
444.698	476.12
444.919	483.12
445.14	579.12
445.361	560.12
445.582	544.12
445.803	619.12
446.024	709.12
446.245	700.12
446.466	651.12
446.687	570.12
446.908	521.12
447.129	492.12
447.35	474.12
447.571	484.12
447.792	459.12
448.013	469.12
448.234	498.12
448.455	554.12
448.675	656.12
448.896	767.12
449.117	664.12
449.338	611.12
449.559	688.12
449.779	759.12
450	648.12
450.221	530.12
450.442	499.12
450.662	474.12
450.883	511.12
451.104	519.12
451.324	496.12
451.545	447.12
451.766	441.12
451.986	416.12
452.207	433.12
452.428	435.12
452.648	416.12
452.869	425.12
453.089	434.12
453.31	431.12
453.53	419.12
453.751	416.12
453.971	430.12
454.192	462.12
454.412	440.12
454.633	434.12
454.853	431.12
455.073	435.12
455.294	454.12
455.514	489.12
455.734	512.12
455.955	445.12
456.175	397.12
456.395	385.12
456.616	392.12
456.836	372.12
457.056	367.12
457.276	383.12
457.497	372.12
457.717	364.12
457.937	397.12
458.157	388.12
458.377	396.12
458.598	430.12
458.818	519.12
459.038	618.12
459.258	595.12
459.478	498.12
459.698	441.12
459.918	429.12
460.138	440.12
460.358	418.12
460.578	407.12
460.798	416.12
461.018	407.12
461.238	409.12
461.458	372.12
461.678	399.12
461.898	387.12
462.118	391.12
462.338	401.12
462.558	419.12
462.777	412.12
462.997	396.12
463.217	417.12
463.437	399.12
463.657	404.12
463.876	420.12
464.096	413.12
464.316	433.12
464.536	432.12
464.755	430.12
464.975	456.12
465.195	546.12
465.414	639.12
465.634	553.12
465.854	493.12
466.073	462.12
466.293	446.12
466.512	428.12
466.732	406.12
466.951	397.12
467.171	423.12
467.391	415.12
467.61	429.12
467.829	449.12
468.049	418.12
468.268	401.12
468.488	397.12
468.707	388.12
468.927	401.12
469.146	369.12
469.365	394.12
469.585	410.12
469.804	404.12
470.023	422.12
470.243	438.12
470.462	443.12
470.681	473.12
470.901	453.12
471.12	405.12
471.339	418.12
471.558	437.12
471.777	444.12
471.997	414.12
472.216	394.12
472.435	405.12
472.654	407.12
472.873	401.12
473.092	425.12
473.311	424.12
473.53	411.12
473.749	426.12
473.968	488.12
474.187	604.12
474.406	616.12
474.625	513.12
474.844	463.12
475.063	438.12
475.282	420.12
475.501	420.12
475.72	437.12
475.939	424.12
476.158	428.12
476.377	428.12
476.596	423.12
476.814	444.12
477.033	458.12
477.252	453.12
477.471	469.12
477.69	460.12
477.908	454.12
478.127	461.12
478.346	445.12
478.564	427.12
478.783	438.12
479.002	468.12
479.22	455.12
479.439	501.12
479.658	541.12
479.876	501.12
480.095	499.12
480.313	544.12
480.532	504.12
480.751	519.12
480.969	553.12
481.188	516.12
481.406	510.12
481.624	514.12
481.843	496.12
482.061	526.12
482.28	489.12
482.498	489.12
482.717	491.12
482.935	473.12
483.153	489.12
483.372	493.12
483.59	484.12
483.808	495.12
484.027	475.12
484.245	480.12
484.463	507.12
484.681	517.12
484.9	507.12
485.118	511.12
485.336	521.12
485.554	516.12
485.772	532.12
485.99	524.12
486.209	518.12
486.427	521.12
486.645	529.12
486.863	560.12
487.081	583.12
487.299	560.12
487.517	556.12
487.735	539.12
487.953	516.12
488.171	538.12
488.389	545.12
488.607	539.12
488.825	572.12
489.043	558.12
489.261	546.12
489.479	561.12
489.696	568.12
489.914	546.12
490.132	568.12
490.35	556.12
490.568	566.12
490.786	590.12
491.003	586.12
491.221	587.12
491.439	602.12
491.657	612.12
491.874	580.12
492.092	642.12
492.31	626.12
492.527	646.12
492.745	616.12
492.963	653.12
493.18	636.12
493.398	628.12
493.615	663.12
493.833	650.12
494.05	670.12
494.268	648.12
494.485	658.12
494.703	657.12
494.92	652.12
495.138	641.12
495.355	655.12
495.573	659.12
495.79	673.12
496.008	652.12
496.225	640.12
496.442	660.12
496.66	679.12
496.877	671.12
497.094	666.12
497.312	659.12
497.529	663.12
497.746	698.12
497.963	698.12
498.181	717.12
498.398	714.12
498.615	685.12
498.832	712.12
499.049	715.12
499.267	700.12
499.484	730.12
499.701	730.12
499.918	711.12
500.135	752.12
500.352	777.12
500.569	744.12
500.786	767.12
501.003	771.12
501.22	758.12
501.437	771.12
501.654	765.12
501.871	783.12
