Data from 1987.PennyLincolnUp.Lamp.En5.5.200Scan.071819.P2_HRD10591_17-14-21-972.txt Node
Date: Thu Jul 18 17:14:21 EDT 2019
User: cochatt
Spectrometer: HR+D1059
Trigger mode: 1
Integration Time (sec): 1.000000E-1
Scans to average: 1
Electric dark correction enabled: true
Nonlinearity correction enabled: false
Boxcar width: 0
XAxis mode: Wavelengths
Number of Pixels in Spectrum: 2048
>>>>>Begin Spectral Data<<<<<
223.165	-11.31
223.4	-11.31
223.635	-11.31
223.869	-23.31
224.104	-13.31
224.338	-25.31
224.573	-14.31
224.808	-22.31
225.042	1.69
225.277	-7.31
225.511	0.69
225.746	16.69
225.98	3.69
226.215	-1.31
226.449	21.69
226.683	20.69
226.918	24.69
227.152	28.69
227.387	21.69
227.621	34.69
227.856	38.69
228.09	49.69
228.324	39.69
228.559	55.69
228.793	59.69
229.027	92.69
229.262	113.69
229.496	118.69
229.73	142.69
229.964	149.69
230.199	123.69
230.433	111.69
230.667	95.69
230.901	112.69
231.136	100.69
231.37	112.69
231.604	112.69
231.838	97.69
232.072	116.69
232.306	112.69
232.541	98.69
232.775	98.69
233.009	107.69
233.243	102.69
233.477	107.69
233.711	97.69
233.945	102.69
234.179	114.69
234.413	110.69
234.647	118.69
234.881	105.69
235.115	108.69
235.349	115.69
235.583	108.69
235.817	112.69
236.051	114.69
236.285	138.69
236.519	114.69
236.753	114.69
236.987	143.69
237.221	172.69
237.455	208.69
237.689	192.69
237.922	131.69
238.156	113.69
238.39	121.69
238.624	124.69
238.858	130.69
239.091	120.69
239.325	121.69
239.559	107.69
239.793	118.69
240.027	118.69
240.26	127.69
240.494	158.69
240.728	140.69
240.961	138.69
241.195	142.69
241.429	134.69
241.662	108.69
241.896	126.69
242.13	124.69
242.363	114.69
242.597	124.69
242.83	119.69
243.064	134.69
243.298	123.69
243.531	128.69
243.765	123.69
243.998	132.69
244.232	129.69
244.465	129.69
244.699	133.69
244.932	136.69
245.166	140.69
245.399	135.69
245.633	132.69
245.866	138.69
246.099	130.69
246.333	124.69
246.566	129.69
246.8	133.69
247.033	137.69
247.266	137.69
247.5	144.69
247.733	150.69
247.966	134.69
248.2	164.69
248.433	164.69
248.666	151.69
248.899	154.69
249.133	170.69
249.366	181.69
249.599	180.69
249.832	170.69
250.066	165.69
250.299	150.69
250.532	178.69
250.765	178.69
250.998	200.69
251.231	198.69
251.465	186.69
251.698	195.69
251.931	189.69
252.164	183.69
252.397	183.69
252.63	199.69
252.863	192.69
253.096	196.69
253.329	211.69
253.562	195.69
253.795	192.69
254.028	205.69
254.261	192.69
254.494	200.69
254.727	228.69
254.96	250.69
255.193	250.69
255.426	231.69
255.659	210.69
255.892	198.69
256.124	185.69
256.357	202.69
256.59	181.69
256.823	175.69
257.056	175.69
257.289	190.69
257.521	176.69
257.754	191.69
257.987	176.69
258.22	175.69
258.452	193.69
258.685	171.69
258.918	168.69
259.151	171.69
259.383	195.69
259.616	202.69
259.849	203.69
260.081	194.69
260.314	204.69
260.547	227.69
260.779	223.69
261.012	211.69
261.244	211.69
261.477	196.69
261.71	183.69
261.942	199.69
262.175	222.69
262.407	202.69
262.64	185.69
262.872	188.69
263.105	168.69
263.337	168.69
263.57	184.69
263.802	185.69
264.035	188.69
264.267	169.69
264.499	169.69
264.732	166.69
264.964	154.69
265.197	182.69
265.429	192.69
265.661	181.69
265.894	186.69
266.126	159.69
266.358	168.69
266.591	170.69
266.823	177.69
267.055	193.69
267.287	179.69
267.52	182.69
267.752	156.69
267.984	190.69
268.216	186.69
268.448	192.69
268.681	190.69
268.913	203.69
269.145	198.69
269.377	220.69
269.609	231.69
269.841	215.69
270.073	218.69
270.306	239.69
270.538	268.69
270.77	263.69
271.002	253.69
271.234	251.69
271.466	242.69
271.698	243.69
271.93	271.69
272.162	291.69
272.394	279.69
272.626	268.69
272.858	241.69
273.09	253.69
273.322	235.69
273.553	230.69
273.785	212.69
274.017	212.69
274.249	218.69
274.481	218.69
274.713	231.69
274.945	226.69
275.176	206.69
275.408	214.69
275.64	209.69
275.872	208.69
276.104	208.69
276.335	211.69
276.567	225.69
276.799	240.69
277.031	250.69
277.262	247.69
277.494	260.69
277.726	251.69
277.957	228.69
278.189	222.69
278.421	225.69
278.652	194.69
278.884	204.69
279.115	207.69
279.347	210.69
279.579	207.69
279.81	209.69
280.042	197.69
280.273	200.69
280.505	208.69
280.736	220.69
280.968	186.69
281.199	209.69
281.431	214.69
281.662	191.69
281.894	217.69
282.125	207.69
282.356	227.69
282.588	258.69
282.819	234.69
283.051	213.69
283.282	195.69
283.513	186.69
283.745	196.69
283.976	186.69
284.207	210.69
284.439	212.69
284.67	223.69
284.901	216.69
285.132	227.69
285.364	207.69
285.595	204.69
285.826	211.69
286.057	194.69
286.288	189.69
286.52	228.69
286.751	205.69
286.982	220.69
287.213	204.69
287.444	221.69
287.675	202.69
287.906	217.69
288.138	226.69
288.369	230.69
288.6	251.69
288.831	230.69
289.062	218.69
289.293	219.69
289.524	221.69
289.755	206.69
289.986	204.69
290.217	198.69
290.448	217.69
290.679	204.69
290.91	223.69
291.141	216.69
291.371	205.69
291.602	200.69
291.833	210.69
292.064	223.69
292.295	231.69
292.526	196.69
292.757	221.69
292.987	224.69
293.218	218.69
293.449	231.69
293.68	214.69
293.91	208.69
294.141	232.69
294.372	193.69
294.603	224.69
294.833	223.69
295.064	213.69
295.295	223.69
295.525	210.69
295.756	214.69
295.987	219.69
296.217	260.69
296.448	270.69
296.679	208.69
296.909	217.69
297.14	227.69
297.37	206.69
297.601	211.69
297.831	209.69
298.062	218.69
298.292	222.69
298.523	212.69
298.753	235.69
298.984	225.69
299.214	227.69
299.445	229.69
299.675	209.69
299.905	250.69
300.136	222.69
300.366	230.69
300.597	243.69
300.827	219.69
301.057	236.69
301.288	235.69
301.518	227.69
301.748	240.69
301.979	250.69
302.209	246.69
302.439	238.69
302.669	230.69
302.9	243.69
303.13	226.69
303.36	243.69
303.59	233.69
303.82	258.69
304.051	243.69
304.281	230.69
304.511	233.69
304.741	228.69
304.971	250.69
305.201	239.69
305.431	230.69
305.661	236.69
305.891	242.69
306.121	231.69
306.352	236.69
306.582	245.69
306.812	250.69
307.042	243.69
307.272	234.69
307.502	230.69
307.731	248.69
307.961	247.69
308.191	236.69
308.421	256.69
308.651	242.69
308.881	250.69
309.111	262.69
309.341	267.69
309.571	276.69
309.8	259.69
310.03	290.69
310.26	297.69
310.49	295.69
310.72	304.69
310.949	312.69
311.179	314.69
311.409	296.69
311.639	309.69
311.868	310.69
312.098	304.69
312.328	306.69
312.557	313.69
312.787	323.69
313.017	324.69
313.246	315.69
313.476	300.69
313.706	294.69
313.935	312.69
314.165	293.69
314.394	320.69
314.624	323.69
314.853	293.69
315.083	294.69
315.312	305.69
315.542	272.69
315.771	280.69
316.001	260.69
316.23	287.69
316.46	276.69
316.689	281.69
316.919	300.69
317.148	284.69
317.377	321.69
317.607	300.69
317.836	302.69
318.065	294.69
318.295	291.69
318.524	274.69
318.753	290.69
318.983	304.69
319.212	297.69
319.441	300.69
319.67	311.69
319.9	290.69
320.129	294.69
320.358	279.69
320.587	311.69
320.816	306.69
321.046	306.69
321.275	311.69
321.504	323.69
321.733	321.69
321.962	341.69
322.191	328.69
322.42	338.69
322.649	359.69
322.878	372.69
323.108	376.69
323.337	421.69
323.566	448.69
323.795	463.69
324.024	519.69
324.253	678.69
324.482	963.69
324.71	1406.69
324.939	1950.69
325.168	1732.69
325.397	982.69
325.626	648.69
325.855	523.69
326.084	474.69
326.313	442.69
326.542	463.69
326.77	504.69
326.999	594.69
327.228	812.69
327.457	1237.69
327.686	1490.69
327.914	1083.69
328.143	683.69
328.372	586.69
328.6	535.69
328.829	510.69
329.058	530.69
329.287	532.69
329.515	479.69
329.744	445.69
329.972	412.69
330.201	416.69
330.43	438.69
330.658	494.69
330.887	554.69
331.115	536.69
331.344	454.69
331.572	374.69
331.801	403.69
332.03	388.69
332.258	359.69
332.486	364.69
332.715	341.69
332.943	327.69
333.172	349.69
333.4	330.69
333.629	353.69
333.857	349.69
334.085	358.69
334.314	331.69
334.542	345.69
334.771	345.69
334.999	347.69
335.227	346.69
335.455	332.69
335.684	327.69
335.912	326.69
336.14	325.69
336.369	327.69
336.597	340.69
336.825	347.69
337.053	306.69
337.281	331.69
337.51	322.69
337.738	307.69
337.966	336.69
338.194	351.69
338.422	336.69
338.65	318.69
338.878	327.69
339.106	340.69
339.334	309.69
339.562	329.69
339.79	340.69
340.018	346.69
340.246	325.69
340.474	328.69
340.702	344.69
340.93	321.69
341.158	326.69
341.386	312.69
341.614	342.69
341.842	339.69
342.07	306.69
342.298	304.69
342.526	322.69
342.754	295.69
342.981	316.69
343.209	304.69
343.437	316.69
343.665	316.69
343.893	321.69
344.12	313.69
344.348	306.69
344.576	324.69
344.804	331.69
345.031	330.69
345.259	346.69
345.487	343.69
345.714	329.69
345.942	313.69
346.17	320.69
346.397	336.69
346.625	326.69
346.853	330.69
347.08	313.69
347.308	338.69
347.535	339.69
347.763	357.69
347.99	332.69
348.218	327.69
348.445	341.69
348.673	349.69
348.9	339.69
349.128	311.69
349.355	309.69
349.583	323.69
349.81	323.69
350.037	332.69
350.265	308.69
350.492	319.69
350.72	316.69
350.947	310.69
351.174	324.69
351.402	334.69
351.629	343.69
351.856	337.69
352.083	332.69
352.311	358.69
352.538	359.69
352.765	345.69
352.992	334.69
353.22	339.69
353.447	316.69
353.674	314.69
353.901	322.69
354.128	295.69
354.355	304.69
354.583	311.69
354.81	299.69
355.037	287.69
355.264	295.69
355.491	295.69
355.718	298.69
355.945	273.69
356.172	279.69
356.399	299.69
356.626	283.69
356.853	298.69
357.08	298.69
357.307	293.69
357.534	296.69
357.761	279.69
357.988	292.69
358.215	293.69
358.441	311.69
358.668	300.69
358.895	320.69
359.122	312.69
359.349	306.69
359.576	316.69
359.802	348.69
360.029	399.69
360.256	413.69
360.483	380.69
360.709	352.69
360.936	336.69
361.163	337.69
361.39	328.69
361.616	334.69
361.843	342.69
362.07	328.69
362.296	338.69
362.523	333.69
362.749	304.69
362.976	308.69
363.203	311.69
363.429	311.69
363.656	304.69
363.882	304.69
364.109	305.69
364.335	324.69
364.562	308.69
364.788	318.69
365.015	324.69
365.241	315.69
365.468	319.69
365.694	324.69
365.92	315.69
366.147	316.69
366.373	303.69
366.599	305.69
366.826	318.69
367.052	306.69
367.278	292.69
367.505	322.69
367.731	315.69
367.957	302.69
368.184	315.69
368.41	316.69
368.636	318.69
368.862	332.69
369.089	319.69
369.315	304.69
369.541	303.69
369.767	297.69
369.993	310.69
370.219	325.69
370.445	303.69
370.672	310.69
370.898	285.69
371.124	290.69
371.35	304.69
371.576	295.69
371.802	294.69
372.028	294.69
372.254	304.69
372.48	314.69
372.706	311.69
372.932	311.69
373.158	328.69
373.384	318.69
373.61	302.69
373.835	297.69
374.061	314.69
374.287	285.69
374.513	329.69
374.739	315.69
374.965	310.69
375.191	299.69
375.416	314.69
375.642	299.69
375.868	300.69
376.094	316.69
376.319	291.69
376.545	300.69
376.771	288.69
376.997	295.69
377.222	307.69
377.448	290.69
377.674	293.69
377.899	295.69
378.125	280.69
378.35	305.69
378.576	312.69
378.802	297.69
379.027	288.69
379.253	294.69
379.478	306.69
379.704	324.69
379.929	310.69
380.155	282.69
380.38	300.69
380.606	312.69
380.831	305.69
381.057	315.69
381.282	307.69
381.507	302.69
381.733	299.69
381.958	289.69
382.184	307.69
382.409	310.69
382.634	306.69
382.86	300.69
383.085	304.69
383.31	314.69
383.535	305.69
383.761	311.69
383.986	317.69
384.211	316.69
384.436	303.69
384.662	318.69
384.887	333.69
385.112	312.69
385.337	315.69
385.562	314.69
385.787	321.69
386.013	332.69
386.238	339.69
386.463	325.69
386.688	311.69
386.913	319.69
387.138	309.69
387.363	286.69
387.588	336.69
387.813	314.69
388.038	317.69
388.263	315.69
388.488	313.69
388.713	310.69
388.938	313.69
389.163	332.69
389.387	319.69
389.612	319.69
389.837	310.69
390.062	340.69
390.287	322.69
390.512	325.69
390.736	309.69
390.961	311.69
391.186	294.69
391.411	313.69
391.636	320.69
391.86	312.69
392.085	296.69
392.31	315.69
392.534	313.69
392.759	317.69
392.984	320.69
393.208	344.69
393.433	319.69
393.658	321.69
393.882	321.69
394.107	322.69
394.331	308.69
394.556	325.69
394.78	322.69
395.005	328.69
395.229	319.69
395.454	337.69
395.678	339.69
395.903	322.69
396.127	343.69
396.352	352.69
396.576	357.69
396.801	343.69
397.025	345.69
397.249	347.69
397.474	335.69
397.698	351.69
397.922	347.69
398.147	350.69
398.371	355.69
398.595	338.69
398.82	350.69
399.044	359.69
399.268	350.69
399.492	382.69
399.717	390.69
399.941	410.69
400.165	443.69
400.389	434.69
400.613	408.69
400.837	371.69
401.062	378.69
401.286	367.69
401.51	367.69
401.734	356.69
401.958	354.69
402.182	361.69
402.406	394.69
402.63	368.69
402.854	359.69
403.078	380.69
403.302	378.69
403.526	359.69
403.75	379.69
403.974	380.69
404.198	384.69
404.422	384.69
404.645	378.69
404.869	376.69
405.093	406.69
405.317	418.69
405.541	436.69
405.765	418.69
405.988	406.69
406.212	417.69
406.436	460.69
406.66	467.69
406.883	424.69
407.107	424.69
407.331	471.69
407.555	506.69
407.778	542.69
408.002	470.69
408.226	463.69
408.449	419.69
408.673	420.69
408.896	446.69
409.12	467.69
409.344	452.69
409.567	394.69
409.791	387.69
410.014	377.69
410.238	387.69
410.461	386.69
410.685	392.69
410.908	398.69
411.132	442.69
411.355	460.69
411.578	439.69
411.802	424.69
412.025	372.69
412.249	392.69
412.472	389.69
412.695	402.69
412.919	384.69
413.142	375.69
413.365	356.69
413.589	372.69
413.812	354.69
414.035	357.69
414.258	344.69
414.482	362.69
414.705	356.69
414.928	360.69
415.151	361.69
415.374	358.69
415.597	346.69
415.821	350.69
416.044	370.69
416.267	351.69
416.49	366.69
416.713	350.69
416.936	376.69
417.159	383.69
417.382	370.69
417.605	382.69
417.828	374.69
418.051	369.69
418.274	370.69
418.497	376.69
418.72	377.69
418.943	377.69
419.166	386.69
419.389	408.69
419.611	391.69
419.834	362.69
420.057	369.69
420.28	406.69
420.503	380.69
420.726	385.69
420.948	421.69
421.171	427.69
421.394	478.69
421.617	441.69
421.839	396.69
422.062	417.69
422.285	380.69
422.507	471.69
422.73	536.69
422.953	500.69
423.175	440.69
423.398	418.69
423.621	427.69
423.843	447.69
424.066	430.69
424.288	433.69
424.511	466.69
424.733	521.69
424.956	568.69
425.178	550.69
425.401	569.69
425.623	574.69
425.846	486.69
426.068	457.69
426.291	457.69
426.513	454.69
426.735	460.69
426.958	492.69
427.18	594.69
427.402	646.69
427.625	752.69
427.847	694.69
428.069	567.69
428.292	530.69
428.514	483.69
428.736	448.69
428.958	434.69
429.181	451.69
429.403	404.69
429.625	435.69
429.847	477.69
430.069	538.69
430.292	507.69
430.514	435.69
430.736	425.69
430.958	419.69
431.18	406.69
431.402	406.69
431.624	375.69
431.846	378.69
432.068	382.69
432.29	372.69
432.512	378.69
432.734	414.69
432.956	400.69
433.178	421.69
433.4	407.69
433.622	391.69
433.844	377.69
434.066	379.69
434.287	399.69
434.509	399.69
434.731	399.69
434.953	403.69
435.175	411.69
435.397	435.69
435.618	452.69
435.84	495.69
436.062	566.69
436.284	626.69
436.505	548.69
436.727	467.69
436.949	430.69
437.17	454.69
437.392	432.69
437.614	443.69
437.835	497.69
438.057	583.69
438.278	672.69
438.5	649.69
438.721	688.69
438.943	647.69
439.165	547.69
439.386	495.69
439.608	491.69
439.829	489.69
440.05	496.69
440.272	554.69
440.493	500.69
440.715	458.69
440.936	464.69
441.158	441.69
441.379	418.69
441.6	441.69
441.822	453.69
442.043	501.69
442.264	558.69
442.486	604.69
442.707	515.69
442.928	463.69
443.149	470.69
443.371	492.69
443.592	528.69
443.813	607.69
444.034	633.69
444.255	531.69
444.476	488.69
444.698	466.69
444.919	444.69
445.14	521.69
445.361	518.69
445.582	481.69
445.803	554.69
446.024	629.69
446.245	635.69
446.466	609.69
446.687	523.69
446.908	481.69
447.129	436.69
447.35	438.69
447.571	428.69
447.792	434.69
448.013	430.69
448.234	454.69
448.455	525.69
448.675	595.69
448.896	656.69
449.117	614.69
449.338	575.69
449.559	635.69
449.779	714.69
450	585.69
450.221	510.69
450.442	456.69
450.662	470.69
450.883	449.69
451.104	456.69
451.324	460.69
451.545	409.69
451.766	414.69
451.986	402.69
452.207	396.69
452.428	392.69
452.648	386.69
452.869	379.69
453.089	400.69
453.31	412.69
453.53	411.69
453.751	399.69
453.971	402.69
454.192	436.69
454.412	421.69
454.633	394.69
454.853	383.69
455.073	395.69
455.294	428.69
455.514	487.69
455.734	447.69
455.955	390.69
456.175	370.69
456.395	377.69
456.616	371.69
456.836	360.69
457.056	350.69
457.276	340.69
457.497	357.69
457.717	363.69
457.937	358.69
458.157	361.69
458.377	373.69
458.598	394.69
458.818	467.69
459.038	554.69
459.258	568.69
459.478	461.69
459.698	436.69
459.918	390.69
460.138	397.69
460.358	378.69
460.578	384.69
460.798	383.69
461.018	374.69
461.238	370.69
461.458	375.69
461.678	361.69
461.898	380.69
462.118	375.69
462.338	378.69
462.558	367.69
462.777	373.69
462.997	401.69
463.217	383.69
463.437	388.69
463.657	383.69
463.876	382.69
464.096	398.69
464.316	391.69
464.536	405.69
464.755	390.69
464.975	420.69
465.195	455.69
465.414	586.69
465.634	479.69
465.854	459.69
466.073	418.69
466.293	402.69
466.512	393.69
466.732	378.69
466.951	367.69
467.171	389.69
467.391	388.69
467.61	398.69
467.829	406.69
468.049	387.69
468.268	386.69
468.488	382.69
468.707	373.69
468.927	369.69
469.146	351.69
469.365	360.69
469.585	384.69
469.804	374.69
470.023	386.69
470.243	373.69
470.462	409.69
470.681	424.69
470.901	419.69
471.12	422.69
471.339	400.69
471.558	392.69
471.777	399.69
471.997	408.69
472.216	384.69
472.435	391.69
472.654	359.69
472.873	350.69
473.092	378.69
473.311	372.69
473.53	387.69
473.749	412.69
473.968	449.69
474.187	538.69
474.406	567.69
474.625	457.69
474.844	436.69
475.063	395.69
475.282	413.69
475.501	396.69
475.72	402.69
475.939	380.69
476.158	392.69
476.377	396.69
476.596	386.69
476.814	409.69
477.033	420.69
477.252	421.69
477.471	397.69
477.69	418.69
477.908	416.69
478.127	418.69
478.346	449.69
478.564	426.69
478.783	418.69
479.002	435.69
479.22	436.69
479.439	456.69
479.658	464.69
479.876	507.69
480.095	474.69
480.313	466.69
480.532	474.69
480.751	478.69
480.969	463.69
481.188	479.69
481.406	467.69
481.624	469.69
481.843	459.69
482.061	470.69
482.28	466.69
482.498	469.69
482.717	452.69
482.935	455.69
483.153	456.69
483.372	452.69
483.59	475.69
483.808	459.69
484.027	453.69
484.245	456.69
484.463	470.69
484.681	472.69
484.9	499.69
485.118	482.69
485.336	476.69
485.554	483.69
485.772	482.69
485.99	451.69
486.209	481.69
486.427	489.69
486.645	510.69
486.863	504.69
487.081	539.69
487.299	517.69
487.517	503.69
487.735	496.69
487.953	502.69
488.171	497.69
488.389	522.69
488.607	521.69
488.825	508.69
489.043	525.69
489.261	539.69
489.479	527.69
489.696	515.69
489.914	511.69
490.132	517.69
490.35	527.69
490.568	525.69
490.786	529.69
491.003	548.69
491.221	562.69
491.439	551.69
491.657	562.69
491.874	562.69
492.092	567.69
492.31	578.69
492.527	568.69
492.745	571.69
492.963	587.69
493.18	585.69
493.398	606.69
493.615	601.69
493.833	587.69
494.05	622.69
494.268	611.69
494.485	590.69
494.703	597.69
494.92	608.69
495.138	597.69
495.355	613.69
495.573	604.69
495.79	601.69
496.008	596.69
496.225	622.69
496.442	595.69
496.66	609.69
496.877	613.69
497.094	599.69
497.312	616.69
497.529	612.69
497.746	627.69
497.963	615.69
498.181	642.69
498.398	640.69
498.615	639.69
498.832	659.69
499.049	650.69
499.267	665.69
499.484	661.69
499.701	676.69
499.918	710.69
500.135	692.69
500.352	714.69
500.569	737.69
500.786	733.69
501.003	729.69
501.22	711.69
501.437	710.69
501.654	730.69
501.871	721.69
502.088	715.69
