Data from 1987.PennyLincolnUp.Lamp.En5.5.200Scan.071819.P2_HRD10591_17-14-05-971.txt Node
Date: Thu Jul 18 17:14:05 EDT 2019
User: cochatt
Spectrometer: HR+D1059
Trigger mode: 1
Integration Time (sec): 1.000000E-1
Scans to average: 1
Electric dark correction enabled: true
Nonlinearity correction enabled: false
Boxcar width: 0
XAxis mode: Wavelengths
Number of Pixels in Spectrum: 2048
>>>>>Begin Spectral Data<<<<<
223.165	-12.31
223.4	-12.31
223.635	-12.31
223.869	-9.31
224.104	-17.31
224.338	-11.31
224.573	-13.31
224.808	-13.31
225.042	-18.31
225.277	-8.31
225.511	-1.31
225.746	-6.31
225.98	14.69
226.215	5.69
226.449	25.69
226.683	20.69
226.918	17.69
227.152	26.69
227.387	27.69
227.621	23.69
227.856	31.69
228.09	46.69
228.324	40.69
228.559	40.69
228.793	77.69
229.027	91.69
229.262	108.69
229.496	100.69
229.73	132.69
229.964	137.69
230.199	111.69
230.433	114.69
230.667	93.69
230.901	107.69
231.136	104.69
231.37	121.69
231.604	102.69
231.838	121.69
232.072	115.69
232.306	96.69
232.541	109.69
232.775	107.69
233.009	115.69
233.243	113.69
233.477	121.69
233.711	118.69
233.945	118.69
234.179	114.69
234.413	107.69
234.647	119.69
234.881	98.69
235.115	107.69
235.349	116.69
235.583	115.69
235.817	115.69
236.051	123.69
236.285	114.69
236.519	110.69
236.753	118.69
236.987	145.69
237.221	175.69
237.455	229.69
237.689	181.69
237.922	129.69
238.156	134.69
238.39	119.69
238.624	129.69
238.858	122.69
239.091	103.69
239.325	105.69
239.559	104.69
239.793	125.69
240.027	130.69
240.26	153.69
240.494	133.69
240.728	129.69
240.961	144.69
241.195	134.69
241.429	131.69
241.662	127.69
241.896	113.69
242.13	121.69
242.363	115.69
242.597	122.69
242.83	127.69
243.064	125.69
243.298	118.69
243.531	130.69
243.765	111.69
243.998	115.69
244.232	131.69
244.465	134.69
244.699	129.69
244.932	133.69
245.166	122.69
245.399	129.69
245.633	125.69
245.866	124.69
246.099	132.69
246.333	124.69
246.566	123.69
246.8	132.69
247.033	131.69
247.266	137.69
247.5	146.69
247.733	143.69
247.966	149.69
248.2	149.69
248.433	155.69
248.666	155.69
248.899	145.69
249.133	177.69
249.366	187.69
249.599	183.69
249.832	159.69
250.066	135.69
250.299	167.69
250.532	145.69
250.765	164.69
250.998	188.69
251.231	205.69
251.465	198.69
251.698	185.69
251.931	172.69
252.164	170.69
252.397	164.69
252.63	173.69
252.863	174.69
253.096	196.69
253.329	197.69
253.562	215.69
253.795	215.69
254.028	203.69
254.261	177.69
254.494	209.69
254.727	238.69
254.96	259.69
255.193	244.69
255.426	209.69
255.659	205.69
255.892	199.69
256.124	194.69
256.357	189.69
256.59	185.69
256.823	178.69
257.056	175.69
257.289	173.69
257.521	175.69
257.754	173.69
257.987	177.69
258.22	174.69
258.452	175.69
258.685	185.69
258.918	177.69
259.151	195.69
259.383	181.69
259.616	195.69
259.849	203.69
260.081	209.69
260.314	206.69
260.547	217.69
260.779	203.69
261.012	200.69
261.244	187.69
261.477	188.69
261.71	194.69
261.942	179.69
262.175	213.69
262.407	202.69
262.64	194.69
262.872	195.69
263.105	181.69
263.337	194.69
263.57	173.69
263.802	183.69
264.035	185.69
264.267	161.69
264.499	170.69
264.732	178.69
264.964	176.69
265.197	178.69
265.429	171.69
265.661	168.69
265.894	173.69
266.126	166.69
266.358	175.69
266.591	167.69
266.823	184.69
267.055	184.69
267.287	190.69
267.52	169.69
267.752	182.69
267.984	186.69
268.216	177.69
268.448	185.69
268.681	185.69
268.913	193.69
269.145	209.69
269.377	213.69
269.609	211.69
269.841	211.69
270.073	220.69
270.306	257.69
270.538	275.69
270.77	261.69
271.002	237.69
271.234	243.69
271.466	239.69
271.698	249.69
271.93	275.69
272.162	253.69
272.394	272.69
272.626	257.69
272.858	229.69
273.09	228.69
273.322	218.69
273.553	213.69
273.785	207.69
274.017	212.69
274.249	214.69
274.481	211.69
274.713	201.69
274.945	225.69
275.176	214.69
275.408	203.69
275.64	205.69
275.872	223.69
276.104	194.69
276.335	220.69
276.567	209.69
276.799	221.69
277.031	222.69
277.262	226.69
277.494	259.69
277.726	219.69
277.957	215.69
278.189	220.69
278.421	211.69
278.652	211.69
278.884	221.69
279.115	211.69
279.347	194.69
279.579	203.69
279.81	203.69
280.042	203.69
280.273	200.69
280.505	198.69
280.736	192.69
280.968	212.69
281.199	199.69
281.431	200.69
281.662	207.69
281.894	195.69
282.125	197.69
282.356	208.69
282.588	235.69
282.819	239.69
283.051	195.69
283.282	192.69
283.513	200.69
283.745	197.69
283.976	207.69
284.207	193.69
284.439	200.69
284.67	218.69
284.901	216.69
285.132	193.69
285.364	195.69
285.595	211.69
285.826	213.69
286.057	200.69
286.288	216.69
286.52	225.69
286.751	206.69
286.982	210.69
287.213	202.69
287.444	199.69
287.675	208.69
287.906	203.69
288.138	215.69
288.369	208.69
288.6	211.69
288.831	210.69
289.062	211.69
289.293	215.69
289.524	207.69
289.755	212.69
289.986	191.69
290.217	203.69
290.448	196.69
290.679	201.69
290.91	209.69
291.141	191.69
291.371	203.69
291.602	203.69
291.833	199.69
292.064	206.69
292.295	196.69
292.526	207.69
292.757	214.69
292.987	210.69
293.218	213.69
293.449	211.69
293.68	223.69
293.91	203.69
294.141	198.69
294.372	213.69
294.603	204.69
294.833	212.69
295.064	214.69
295.295	225.69
295.525	198.69
295.756	210.69
295.987	220.69
296.217	252.69
296.448	265.69
296.679	220.69
296.909	217.69
297.14	214.69
297.37	213.69
297.601	226.69
297.831	210.69
298.062	199.69
298.292	215.69
298.523	216.69
298.753	238.69
298.984	239.69
299.214	229.69
299.445	212.69
299.675	230.69
299.905	235.69
300.136	243.69
300.366	231.69
300.597	226.69
300.827	223.69
301.057	229.69
301.288	209.69
301.518	251.69
301.748	231.69
301.979	221.69
302.209	233.69
302.439	221.69
302.669	234.69
302.9	244.69
303.13	225.69
303.36	243.69
303.59	236.69
303.82	257.69
304.051	245.69
304.281	234.69
304.511	233.69
304.741	233.69
304.971	248.69
305.201	243.69
305.431	225.69
305.661	219.69
305.891	227.69
306.121	239.69
306.352	235.69
306.582	249.69
306.812	239.69
307.042	241.69
307.272	231.69
307.502	223.69
307.731	236.69
307.961	241.69
308.191	233.69
308.421	235.69
308.651	227.69
308.881	243.69
309.111	251.69
309.341	255.69
309.571	275.69
309.8	267.69
310.03	289.69
310.26	272.69
310.49	299.69
310.72	288.69
310.949	302.69
311.179	312.69
311.409	293.69
311.639	297.69
311.868	280.69
312.098	290.69
312.328	302.69
312.557	308.69
312.787	328.69
313.017	320.69
313.246	298.69
313.476	305.69
313.706	305.69
313.935	293.69
314.165	304.69
314.394	339.69
314.624	319.69
314.853	305.69
315.083	280.69
315.312	273.69
315.542	270.69
315.771	285.69
316.001	272.69
316.23	274.69
316.46	270.69
316.689	274.69
316.919	273.69
317.148	293.69
317.377	284.69
317.607	285.69
317.836	278.69
318.065	298.69
318.295	274.69
318.524	272.69
318.753	294.69
318.983	272.69
319.212	277.69
319.441	280.69
319.67	310.69
319.9	303.69
320.129	278.69
320.358	275.69
320.587	293.69
320.816	291.69
321.046	293.69
321.275	287.69
321.504	308.69
321.733	313.69
321.962	308.69
322.191	327.69
322.42	354.69
322.649	348.69
322.878	379.69
323.108	383.69
323.337	392.69
323.566	414.69
323.795	446.69
324.024	507.69
324.253	582.69
324.482	869.69
324.71	1339.69
324.939	1931.69
325.168	1696.69
325.397	913.69
325.626	595.69
325.855	486.69
326.084	452.69
326.313	433.69
326.542	427.69
326.77	464.69
326.999	573.69
327.228	771.69
327.457	1205.69
327.686	1407.69
327.914	997.69
328.143	664.69
328.372	538.69
328.6	514.69
328.829	486.69
329.058	513.69
329.287	521.69
329.515	455.69
329.744	430.69
329.972	418.69
330.201	406.69
330.43	417.69
330.658	469.69
330.887	522.69
331.115	507.69
331.344	412.69
331.572	376.69
331.801	375.69
332.03	386.69
332.258	361.69
332.486	346.69
332.715	328.69
332.943	337.69
333.172	336.69
333.4	322.69
333.629	320.69
333.857	324.69
334.085	322.69
334.314	324.69
334.542	318.69
334.771	329.69
334.999	344.69
335.227	339.69
335.455	330.69
335.684	327.69
335.912	318.69
336.14	320.69
336.369	327.69
336.597	338.69
336.825	324.69
337.053	307.69
337.281	321.69
337.51	311.69
337.738	306.69
337.966	323.69
338.194	315.69
338.422	313.69
338.65	305.69
338.878	307.69
339.106	329.69
339.334	331.69
339.562	314.69
339.79	304.69
340.018	301.69
340.246	317.69
340.474	324.69
340.702	314.69
340.93	321.69
341.158	324.69
341.386	306.69
341.614	309.69
341.842	306.69
342.07	313.69
342.298	323.69
342.526	309.69
342.754	289.69
342.981	312.69
343.209	310.69
343.437	304.69
343.665	322.69
343.893	316.69
344.12	290.69
344.348	301.69
344.576	315.69
344.804	329.69
345.031	329.69
345.259	341.69
345.487	315.69
345.714	307.69
345.942	317.69
346.17	317.69
346.397	323.69
346.625	302.69
346.853	321.69
347.08	322.69
347.308	329.69
347.535	334.69
347.763	335.69
347.99	310.69
348.218	326.69
348.445	331.69
348.673	303.69
348.9	334.69
349.128	319.69
349.355	298.69
349.583	303.69
349.81	306.69
350.037	305.69
350.265	303.69
350.492	311.69
350.72	291.69
350.947	313.69
351.174	306.69
351.402	337.69
351.629	325.69
351.856	326.69
352.083	334.69
352.311	345.69
352.538	331.69
352.765	337.69
352.992	327.69
353.22	335.69
353.447	303.69
353.674	341.69
353.901	302.69
354.128	313.69
354.355	319.69
354.583	263.69
354.81	298.69
355.037	288.69
355.264	297.69
355.491	304.69
355.718	289.69
355.945	287.69
356.172	285.69
356.399	290.69
356.626	273.69
356.853	294.69
357.08	287.69
357.307	306.69
357.534	281.69
357.761	293.69
357.988	290.69
358.215	308.69
358.441	282.69
358.668	284.69
358.895	283.69
359.122	274.69
359.349	298.69
359.576	338.69
359.802	338.69
360.029	384.69
360.256	381.69
360.483	368.69
360.709	341.69
360.936	316.69
361.163	337.69
361.39	347.69
361.616	314.69
361.843	320.69
362.07	319.69
362.296	337.69
362.523	309.69
362.749	299.69
362.976	305.69
363.203	324.69
363.429	303.69
363.656	294.69
363.882	322.69
364.109	308.69
364.335	309.69
364.562	312.69
364.788	320.69
365.015	309.69
365.241	317.69
365.468	310.69
365.694	322.69
365.92	330.69
366.147	313.69
366.373	300.69
366.599	297.69
366.826	282.69
367.052	302.69
367.278	305.69
367.505	300.69
367.731	311.69
367.957	301.69
368.184	295.69
368.41	303.69
368.636	325.69
368.862	323.69
369.089	302.69
369.315	295.69
369.541	295.69
369.767	319.69
369.993	313.69
370.219	321.69
370.445	282.69
370.672	293.69
370.898	283.69
371.124	317.69
371.35	286.69
371.576	288.69
371.802	279.69
372.028	291.69
372.254	283.69
372.48	310.69
372.706	286.69
372.932	295.69
373.158	290.69
373.384	290.69
373.61	304.69
373.835	297.69
374.061	298.69
374.287	304.69
374.513	298.69
374.739	294.69
374.965	294.69
375.191	292.69
375.416	295.69
375.642	280.69
375.868	322.69
376.094	295.69
376.319	305.69
376.545	281.69
376.771	288.69
376.997	289.69
377.222	291.69
377.448	298.69
377.674	287.69
377.899	277.69
378.125	293.69
378.35	301.69
378.576	295.69
378.802	294.69
379.027	289.69
379.253	287.69
379.478	290.69
379.704	286.69
379.929	294.69
380.155	298.69
380.38	312.69
380.606	314.69
380.831	308.69
381.057	313.69
381.282	305.69
381.507	320.69
381.733	299.69
381.958	299.69
382.184	305.69
382.409	292.69
382.634	298.69
382.86	305.69
383.085	299.69
383.31	319.69
383.535	313.69
383.761	310.69
383.986	299.69
384.211	311.69
384.436	304.69
384.662	324.69
384.887	311.69
385.112	304.69
385.337	310.69
385.562	318.69
385.787	326.69
386.013	326.69
386.238	325.69
386.463	322.69
386.688	342.69
386.913	291.69
387.138	334.69
387.363	322.69
387.588	321.69
387.813	310.69
388.038	330.69
388.263	322.69
388.488	333.69
388.713	318.69
388.938	317.69
389.163	321.69
389.387	313.69
389.612	314.69
389.837	317.69
390.062	316.69
390.287	323.69
390.512	306.69
390.736	274.69
390.961	320.69
391.186	322.69
391.411	316.69
391.636	312.69
391.86	326.69
392.085	311.69
392.31	323.69
392.534	330.69
392.759	315.69
392.984	331.69
393.208	323.69
393.433	333.69
393.658	357.69
393.882	326.69
394.107	347.69
394.331	318.69
394.556	309.69
394.78	310.69
395.005	332.69
395.229	321.69
395.454	322.69
395.678	338.69
395.903	341.69
396.127	366.69
396.352	366.69
396.576	338.69
396.801	339.69
397.025	353.69
397.249	342.69
397.474	342.69
397.698	343.69
397.922	359.69
398.147	357.69
398.371	368.69
398.595	367.69
398.82	354.69
399.044	365.69
399.268	357.69
399.492	384.69
399.717	393.69
399.941	405.69
400.165	438.69
400.389	461.69
400.613	415.69
400.837	386.69
401.062	394.69
401.286	367.69
401.51	367.69
401.734	368.69
401.958	373.69
402.182	366.69
402.406	379.69
402.63	381.69
402.854	368.69
403.078	365.69
403.302	373.69
403.526	352.69
403.75	407.69
403.974	378.69
404.198	373.69
404.422	369.69
404.645	367.69
404.869	393.69
405.093	391.69
405.317	422.69
405.541	430.69
405.765	408.69
405.988	392.69
406.212	413.69
406.436	425.69
406.66	453.69
406.883	433.69
407.107	445.69
407.331	479.69
407.555	520.69
407.778	534.69
408.002	479.69
408.226	435.69
408.449	433.69
408.673	425.69
408.896	435.69
409.12	499.69
409.344	466.69
409.567	411.69
409.791	393.69
410.014	385.69
410.238	377.69
410.461	366.69
410.685	391.69
410.908	421.69
411.132	423.69
411.355	468.69
411.578	433.69
411.802	391.69
412.025	366.69
412.249	398.69
412.472	394.69
412.695	410.69
412.919	393.69
413.142	377.69
413.365	355.69
413.589	375.69
413.812	367.69
414.035	355.69
414.258	377.69
414.482	369.69
414.705	368.69
414.928	365.69
415.151	376.69
415.374	349.69
415.597	363.69
415.821	359.69
416.044	377.69
416.267	374.69
416.49	369.69
416.713	361.69
416.936	372.69
417.159	373.69
417.382	355.69
417.605	371.69
417.828	376.69
418.051	405.69
418.274	375.69
418.497	394.69
418.72	381.69
418.943	353.69
419.166	371.69
419.389	407.69
419.611	394.69
419.834	383.69
420.057	381.69
420.28	370.69
420.503	393.69
420.726	406.69
420.948	393.69
421.171	443.69
421.394	459.69
421.617	437.69
421.839	399.69
422.062	406.69
422.285	408.69
422.507	458.69
422.73	511.69
422.953	521.69
423.175	454.69
423.398	445.69
423.621	419.69
423.843	431.69
424.066	442.69
424.288	450.69
424.511	452.69
424.733	519.69
424.956	567.69
425.178	594.69
425.401	556.69
425.623	561.69
425.846	494.69
426.068	447.69
426.291	448.69
426.513	455.69
426.735	463.69
426.958	502.69
427.18	544.69
427.402	683.69
427.625	727.69
427.847	665.69
428.069	580.69
428.292	489.69
428.514	458.69
428.736	456.69
428.958	432.69
429.181	416.69
429.403	416.69
429.625	457.69
429.847	466.69
430.069	511.69
430.292	510.69
430.514	427.69
430.736	413.69
430.958	393.69
431.18	398.69
431.402	408.69
431.624	375.69
431.846	399.69
432.068	374.69
432.29	391.69
432.512	398.69
432.734	414.69
432.956	392.69
433.178	388.69
433.4	406.69
433.622	379.69
433.844	407.69
434.066	381.69
434.287	392.69
434.509	392.69
434.731	377.69
434.953	404.69
435.175	438.69
435.397	454.69
435.618	449.69
435.84	515.69
436.062	595.69
436.284	630.69
436.505	554.69
436.727	484.69
436.949	449.69
437.17	418.69
437.392	431.69
437.614	434.69
437.835	480.69
438.057	576.69
438.278	671.69
438.5	645.69
438.721	691.69
438.943	691.69
439.165	568.69
439.386	511.69
439.608	473.69
439.829	474.69
440.05	513.69
440.272	521.69
440.493	497.69
440.715	468.69
440.936	447.69
441.158	446.69
441.379	409.69
441.6	433.69
441.822	473.69
442.043	488.69
442.264	554.69
442.486	600.69
442.707	504.69
442.928	472.69
443.149	491.69
443.371	478.69
443.592	534.69
443.813	610.69
444.034	665.69
444.255	550.69
444.476	482.69
444.698	449.69
444.919	458.69
445.14	551.69
445.361	526.69
445.582	483.69
445.803	529.69
446.024	641.69
446.245	634.69
446.466	595.69
446.687	506.69
446.908	485.69
447.129	433.69
447.35	431.69
447.571	437.69
447.792	417.69
448.013	429.69
448.234	459.69
448.455	504.69
448.675	601.69
448.896	678.69
449.117	605.69
449.338	579.69
449.559	649.69
449.779	701.69
450	574.69
450.221	485.69
450.442	441.69
450.662	427.69
450.883	441.69
451.104	451.69
451.324	440.69
451.545	417.69
451.766	417.69
451.986	384.69
452.207	402.69
452.428	387.69
452.648	378.69
452.869	361.69
453.089	387.69
453.31	405.69
453.53	369.69
453.751	389.69
453.971	391.69
454.192	412.69
454.412	425.69
454.633	383.69
454.853	396.69
455.073	382.69
455.294	401.69
455.514	465.69
455.734	459.69
455.955	390.69
456.175	369.69
456.395	363.69
456.616	349.69
456.836	333.69
457.056	325.69
457.276	329.69
457.497	349.69
457.717	336.69
457.937	354.69
458.157	354.69
458.377	367.69
458.598	371.69
458.818	436.69
459.038	535.69
459.258	521.69
459.478	470.69
459.698	429.69
459.918	381.69
460.138	387.69
460.358	376.69
460.578	377.69
460.798	380.69
461.018	385.69
461.238	376.69
461.458	396.69
461.678	373.69
461.898	372.69
462.118	368.69
462.338	387.69
462.558	370.69
462.777	379.69
462.997	389.69
463.217	374.69
463.437	403.69
463.657	395.69
463.876	391.69
464.096	402.69
464.316	390.69
464.536	413.69
464.755	418.69
464.975	411.69
465.195	466.69
465.414	550.69
465.634	474.69
465.854	421.69
466.073	408.69
466.293	393.69
466.512	356.69
466.732	365.69
466.951	370.69
467.171	363.69
467.391	373.69
467.61	357.69
467.829	396.69
468.049	385.69
468.268	395.69
468.488	372.69
468.707	373.69
468.927	369.69
469.146	375.69
469.365	374.69
469.585	371.69
469.804	394.69
470.023	387.69
470.243	363.69
470.462	395.69
470.681	406.69
470.901	414.69
471.12	375.69
471.339	373.69
471.558	394.69
471.777	381.69
471.997	360.69
472.216	377.69
472.435	371.69
472.654	390.69
472.873	375.69
473.092	377.69
473.311	376.69
473.53	387.69
473.749	405.69
473.968	457.69
474.187	525.69
474.406	524.69
474.625	482.69
474.844	406.69
475.063	400.69
475.282	401.69
475.501	395.69
475.72	408.69
475.939	397.69
476.158	389.69
476.377	419.69
476.596	403.69
476.814	383.69
477.033	422.69
477.252	416.69
477.471	409.69
477.69	405.69
477.908	420.69
478.127	433.69
478.346	420.69
478.564	414.69
478.783	421.69
479.002	401.69
479.22	443.69
479.439	421.69
479.658	457.69
479.876	450.69
480.095	448.69
480.313	492.69
480.532	498.69
480.751	459.69
480.969	455.69
481.188	498.69
481.406	502.69
481.624	481.69
481.843	454.69
482.061	457.69
482.28	458.69
482.498	454.69
482.717	447.69
482.935	459.69
483.153	461.69
483.372	465.69
483.59	468.69
483.808	457.69
484.027	467.69
484.245	459.69
484.463	452.69
484.681	474.69
484.9	474.69
485.118	476.69
485.336	493.69
485.554	484.69
485.772	480.69
485.99	483.69
486.209	468.69
486.427	507.69
486.645	514.69
486.863	505.69
487.081	513.69
487.299	509.69
487.517	496.69
487.735	513.69
487.953	485.69
488.171	503.69
488.389	498.69
488.607	501.69
488.825	498.69
489.043	523.69
489.261	495.69
489.479	494.69
489.696	486.69
489.914	495.69
490.132	501.69
490.35	531.69
490.568	515.69
490.786	546.69
491.003	558.69
491.221	544.69
491.439	561.69
491.657	585.69
491.874	558.69
492.092	578.69
492.31	578.69
492.527	583.69
492.745	562.69
492.963	589.69
493.18	569.69
493.398	591.69
493.615	590.69
493.833	594.69
494.05	598.69
494.268	600.69
494.485	577.69
494.703	575.69
494.92	602.69
495.138	603.69
495.355	619.69
495.573	591.69
495.79	585.69
496.008	607.69
496.225	613.69
496.442	599.69
496.66	619.69
496.877	607.69
497.094	619.69
497.312	622.69
497.529	625.69
497.746	618.69
497.963	635.69
498.181	655.69
498.398	642.69
498.615	641.69
498.832	664.69
499.049	667.69
499.267	697.69
499.484	661.69
499.701	690.69
499.918	690.69
500.135	696.69
500.352	730.69
500.569	737.69
500.786	742.69
501.003	736.69
501.22	705.69
501.437	709.69
501.654	720.69
501.871	738.69
