Data from 1987.PennyLincolnUp.Lamp.En5.5.200Scan.071819.P2_HRD10591_17-15-15-971.txt Node
Date: Thu Jul 18 17:15:15 EDT 2019
User: cochatt
Spectrometer: HR+D1059
Trigger mode: 1
Integration Time (sec): 1.000000E-1
Scans to average: 1
Electric dark correction enabled: true
Nonlinearity correction enabled: false
Boxcar width: 0
XAxis mode: Wavelengths
Number of Pixels in Spectrum: 2048
>>>>>Begin Spectral Data<<<<<
223.165	-14.38
223.4	-14.38
223.635	-14.38
223.869	-19.38
224.104	-18.38
224.338	-24.38
224.573	-24.38
224.808	-12.38
225.042	-3.38
225.277	-5.38
225.511	7.62
225.746	-5.38
225.98	5.62
226.215	22.62
226.449	24.62
226.683	17.62
226.918	21.62
227.152	27.62
227.387	32.62
227.621	42.62
227.856	48.62
228.09	44.62
228.324	53.62
228.559	58.62
228.793	68.62
229.027	105.62
229.262	124.62
229.496	121.62
229.73	152.62
229.964	172.62
230.199	144.62
230.433	120.62
230.667	111.62
230.901	122.62
231.136	119.62
231.37	110.62
231.604	119.62
231.838	118.62
232.072	115.62
232.306	107.62
232.541	103.62
232.775	118.62
233.009	110.62
233.243	113.62
233.477	125.62
233.711	98.62
233.945	110.62
234.179	130.62
234.413	118.62
234.647	118.62
234.881	125.62
235.115	111.62
235.349	106.62
235.583	123.62
235.817	135.62
236.051	111.62
236.285	142.62
236.519	137.62
236.753	133.62
236.987	148.62
237.221	198.62
237.455	269.62
237.689	205.62
237.922	138.62
238.156	120.62
238.39	122.62
238.624	133.62
238.858	121.62
239.091	137.62
239.325	129.62
239.559	124.62
239.793	130.62
240.027	128.62
240.26	144.62
240.494	162.62
240.728	156.62
240.961	142.62
241.195	152.62
241.429	135.62
241.662	145.62
241.896	144.62
242.13	136.62
242.363	149.62
242.597	141.62
242.83	140.62
243.064	131.62
243.298	134.62
243.531	151.62
243.765	130.62
243.998	126.62
244.232	117.62
244.465	144.62
244.699	141.62
244.932	135.62
245.166	133.62
245.399	153.62
245.633	137.62
245.866	141.62
246.099	134.62
246.333	141.62
246.566	145.62
246.8	138.62
247.033	149.62
247.266	155.62
247.5	159.62
247.733	170.62
247.966	161.62
248.2	164.62
248.433	158.62
248.666	152.62
248.899	183.62
249.133	191.62
249.366	218.62
249.599	206.62
249.832	193.62
250.066	172.62
250.299	179.62
250.532	183.62
250.765	204.62
250.998	221.62
251.231	231.62
251.465	203.62
251.698	215.62
251.931	191.62
252.164	196.62
252.397	211.62
252.63	205.62
252.863	209.62
253.096	206.62
253.329	225.62
253.562	210.62
253.795	230.62
254.028	225.62
254.261	237.62
254.494	226.62
254.727	252.62
254.96	279.62
255.193	269.62
255.426	257.62
255.659	230.62
255.892	217.62
256.124	220.62
256.357	211.62
256.59	201.62
256.823	213.62
257.056	214.62
257.289	203.62
257.521	201.62
257.754	192.62
257.987	189.62
258.22	206.62
258.452	213.62
258.685	203.62
258.918	207.62
259.151	204.62
259.383	218.62
259.616	204.62
259.849	228.62
260.081	235.62
260.314	242.62
260.547	233.62
260.779	231.62
261.012	212.62
261.244	229.62
261.477	221.62
261.71	209.62
261.942	251.62
262.175	245.62
262.407	245.62
262.64	215.62
262.872	211.62
263.105	206.62
263.337	191.62
263.57	192.62
263.802	195.62
264.035	179.62
264.267	193.62
264.499	192.62
264.732	199.62
264.964	193.62
265.197	186.62
265.429	204.62
265.661	183.62
265.894	198.62
266.126	179.62
266.358	181.62
266.591	213.62
266.823	199.62
267.055	217.62
267.287	182.62
267.52	197.62
267.752	209.62
267.984	204.62
268.216	206.62
268.448	216.62
268.681	215.62
268.913	228.62
269.145	237.62
269.377	264.62
269.609	267.62
269.841	259.62
270.073	243.62
270.306	294.62
270.538	277.62
270.77	291.62
271.002	286.62
271.234	299.62
271.466	291.62
271.698	299.62
271.93	311.62
272.162	311.62
272.394	309.62
272.626	314.62
272.858	273.62
273.09	264.62
273.322	248.62
273.553	257.62
273.785	228.62
274.017	229.62
274.249	250.62
274.481	249.62
274.713	235.62
274.945	248.62
275.176	239.62
275.408	237.62
275.64	246.62
275.872	223.62
276.104	231.62
276.335	232.62
276.567	251.62
276.799	272.62
277.031	307.62
277.262	301.62
277.494	281.62
277.726	259.62
277.957	251.62
278.189	267.62
278.421	245.62
278.652	259.62
278.884	244.62
279.115	230.62
279.347	250.62
279.579	229.62
279.81	228.62
280.042	225.62
280.273	227.62
280.505	221.62
280.736	238.62
280.968	227.62
281.199	221.62
281.431	231.62
281.662	252.62
281.894	231.62
282.125	245.62
282.356	235.62
282.588	282.62
282.819	295.62
283.051	238.62
283.282	232.62
283.513	231.62
283.745	237.62
283.976	217.62
284.207	247.62
284.439	223.62
284.67	234.62
284.901	233.62
285.132	236.62
285.364	232.62
285.595	223.62
285.826	233.62
286.057	228.62
286.288	227.62
286.52	233.62
286.751	229.62
286.982	238.62
287.213	234.62
287.444	232.62
287.675	245.62
287.906	246.62
288.138	250.62
288.369	261.62
288.6	253.62
288.831	261.62
289.062	250.62
289.293	236.62
289.524	251.62
289.755	249.62
289.986	238.62
290.217	225.62
290.448	243.62
290.679	243.62
290.91	229.62
291.141	236.62
291.371	234.62
291.602	270.62
291.833	256.62
292.064	250.62
292.295	234.62
292.526	239.62
292.757	223.62
292.987	242.62
293.218	212.62
293.449	239.62
293.68	232.62
293.91	233.62
294.141	224.62
294.372	241.62
294.603	237.62
294.833	238.62
295.064	249.62
295.295	231.62
295.525	243.62
295.756	237.62
295.987	255.62
296.217	296.62
296.448	307.62
296.679	254.62
296.909	244.62
297.14	233.62
297.37	251.62
297.601	248.62
297.831	243.62
298.062	253.62
298.292	248.62
298.523	256.62
298.753	232.62
298.984	255.62
299.214	240.62
299.445	255.62
299.675	261.62
299.905	259.62
300.136	263.62
300.366	266.62
300.597	241.62
300.827	276.62
301.057	273.62
301.288	289.62
301.518	272.62
301.748	263.62
301.979	269.62
302.209	265.62
302.439	272.62
302.669	264.62
302.9	278.62
303.13	260.62
303.36	283.62
303.59	291.62
303.82	301.62
304.051	266.62
304.281	265.62
304.511	280.62
304.741	277.62
304.971	265.62
305.201	263.62
305.431	244.62
305.661	250.62
305.891	269.62
306.121	282.62
306.352	286.62
306.582	283.62
306.812	288.62
307.042	292.62
307.272	275.62
307.502	296.62
307.731	273.62
307.961	289.62
308.191	274.62
308.421	267.62
308.651	279.62
308.881	286.62
309.111	293.62
309.341	279.62
309.571	318.62
309.8	323.62
310.03	334.62
310.26	343.62
310.49	353.62
310.72	357.62
310.949	362.62
311.179	360.62
311.409	344.62
311.639	347.62
311.868	348.62
312.098	337.62
312.328	354.62
312.557	373.62
312.787	398.62
313.017	387.62
313.246	353.62
313.476	331.62
313.706	342.62
313.935	336.62
314.165	356.62
314.394	394.62
314.624	374.62
314.853	376.62
315.083	330.62
315.312	348.62
315.542	327.62
315.771	332.62
316.001	315.62
316.23	327.62
316.46	307.62
316.689	313.62
316.919	344.62
317.148	342.62
317.377	356.62
317.607	340.62
317.836	351.62
318.065	347.62
318.295	315.62
318.524	347.62
318.753	309.62
318.983	328.62
319.212	337.62
319.441	350.62
319.67	356.62
319.9	355.62
320.129	334.62
320.358	330.62
320.587	330.62
320.816	354.62
321.046	371.62
321.275	391.62
321.504	366.62
321.733	387.62
321.962	374.62
322.191	402.62
322.42	409.62
322.649	456.62
322.878	464.62
323.108	434.62
323.337	514.62
323.566	536.62
323.795	586.62
324.024	649.62
324.253	833.62
324.482	1228.62
324.71	1852.62
324.939	2574.62
325.168	2297.62
325.397	1224.62
325.626	829.62
325.855	628.62
326.084	558.62
326.313	537.62
326.542	526.62
326.77	617.62
326.999	728.62
327.228	1013.62
327.457	1603.62
327.686	1935.62
327.914	1380.62
328.143	870.62
328.372	727.62
328.6	647.62
328.829	636.62
329.058	620.62
329.287	640.62
329.515	583.62
329.744	521.62
329.972	485.62
330.201	519.62
330.43	535.62
330.658	608.62
330.887	668.62
331.115	641.62
331.344	532.62
331.572	499.62
331.801	479.62
332.03	477.62
332.258	454.62
332.486	422.62
332.715	407.62
332.943	391.62
333.172	393.62
333.4	392.62
333.629	408.62
333.857	424.62
334.085	395.62
334.314	378.62
334.542	382.62
334.771	388.62
334.999	400.62
335.227	392.62
335.455	388.62
335.684	373.62
335.912	372.62
336.14	357.62
336.369	382.62
336.597	395.62
336.825	385.62
337.053	380.62
337.281	344.62
337.51	362.62
337.738	380.62
337.966	373.62
338.194	394.62
338.422	386.62
338.65	382.62
338.878	365.62
339.106	371.62
339.334	365.62
339.562	362.62
339.79	365.62
340.018	358.62
340.246	380.62
340.474	371.62
340.702	378.62
340.93	367.62
341.158	373.62
341.386	349.62
341.614	377.62
341.842	373.62
342.07	381.62
342.298	387.62
342.526	348.62
342.754	331.62
342.981	342.62
343.209	329.62
343.437	341.62
343.665	331.62
343.893	336.62
344.12	358.62
344.348	366.62
344.576	364.62
344.804	375.62
345.031	395.62
345.259	385.62
345.487	412.62
345.714	380.62
345.942	356.62
346.17	371.62
346.397	363.62
346.625	361.62
346.853	381.62
347.08	367.62
347.308	379.62
347.535	385.62
347.763	397.62
347.99	389.62
348.218	389.62
348.445	414.62
348.673	380.62
348.9	376.62
349.128	359.62
349.355	352.62
349.583	365.62
349.81	361.62
350.037	346.62
350.265	352.62
350.492	352.62
350.72	352.62
350.947	369.62
351.174	397.62
351.402	395.62
351.629	395.62
351.856	381.62
352.083	382.62
352.311	401.62
352.538	393.62
352.765	399.62
352.992	380.62
353.22	376.62
353.447	370.62
353.674	356.62
353.901	371.62
354.128	336.62
354.355	364.62
354.583	342.62
354.81	338.62
355.037	349.62
355.264	331.62
355.491	324.62
355.718	323.62
355.945	330.62
356.172	324.62
356.399	329.62
356.626	329.62
356.853	323.62
357.08	343.62
357.307	300.62
357.534	319.62
357.761	329.62
357.988	339.62
358.215	325.62
358.441	323.62
358.668	335.62
358.895	347.62
359.122	357.62
359.349	362.62
359.576	389.62
359.802	422.62
360.029	461.62
360.256	490.62
360.483	455.62
360.709	404.62
360.936	379.62
361.163	376.62
361.39	376.62
361.616	400.62
361.843	380.62
362.07	380.62
362.296	388.62
362.523	370.62
362.749	366.62
362.976	372.62
363.203	365.62
363.429	342.62
363.656	343.62
363.882	357.62
364.109	361.62
364.335	324.62
364.562	331.62
364.788	355.62
365.015	363.62
365.241	352.62
365.468	353.62
365.694	382.62
365.92	368.62
366.147	337.62
366.373	323.62
366.599	331.62
366.826	358.62
367.052	335.62
367.278	339.62
367.505	329.62
367.731	343.62
367.957	349.62
368.184	341.62
368.41	368.62
368.636	359.62
368.862	369.62
369.089	359.62
369.315	355.62
369.541	346.62
369.767	341.62
369.993	338.62
370.219	329.62
370.445	337.62
370.672	330.62
370.898	333.62
371.124	323.62
371.35	334.62
371.576	320.62
371.802	315.62
372.028	320.62
372.254	329.62
372.48	309.62
372.706	324.62
372.932	324.62
373.158	331.62
373.384	330.62
373.61	336.62
373.835	315.62
374.061	330.62
374.287	320.62
374.513	335.62
374.739	337.62
374.965	319.62
375.191	340.62
375.416	324.62
375.642	342.62
375.868	321.62
376.094	328.62
376.319	341.62
376.545	322.62
376.771	343.62
376.997	332.62
377.222	339.62
377.448	313.62
377.674	342.62
377.899	315.62
378.125	300.62
378.35	314.62
378.576	317.62
378.802	316.62
379.027	329.62
379.253	336.62
379.478	324.62
379.704	312.62
379.929	328.62
380.155	349.62
380.38	336.62
380.606	342.62
380.831	323.62
381.057	355.62
381.282	327.62
381.507	344.62
381.733	324.62
381.958	335.62
382.184	343.62
382.409	321.62
382.634	339.62
382.86	340.62
383.085	327.62
383.31	343.62
383.535	318.62
383.761	333.62
383.986	352.62
384.211	331.62
384.436	343.62
384.662	344.62
384.887	348.62
385.112	375.62
385.337	338.62
385.562	323.62
385.787	357.62
386.013	377.62
386.238	358.62
386.463	366.62
386.688	360.62
386.913	347.62
387.138	349.62
387.363	350.62
387.588	347.62
387.813	361.62
388.038	332.62
388.263	338.62
388.488	351.62
388.713	352.62
388.938	368.62
389.163	362.62
389.387	350.62
389.612	326.62
389.837	328.62
390.062	343.62
390.287	347.62
390.512	349.62
390.736	337.62
390.961	332.62
391.186	332.62
391.411	346.62
391.636	328.62
391.86	350.62
392.085	352.62
392.31	347.62
392.534	357.62
392.759	374.62
392.984	358.62
393.208	353.62
393.433	336.62
393.658	373.62
393.882	339.62
394.107	319.62
394.331	359.62
394.556	345.62
394.78	347.62
395.005	366.62
395.229	357.62
395.454	344.62
395.678	361.62
395.903	376.62
396.127	376.62
396.352	378.62
396.576	378.62
396.801	364.62
397.025	377.62
397.249	345.62
397.474	368.62
397.698	384.62
397.922	395.62
398.147	399.62
398.371	414.62
398.595	400.62
398.82	383.62
399.044	398.62
399.268	394.62
399.492	411.62
399.717	405.62
399.941	459.62
400.165	480.62
400.389	490.62
400.613	457.62
400.837	427.62
401.062	411.62
401.286	406.62
401.51	398.62
401.734	390.62
401.958	406.62
402.182	412.62
402.406	401.62
402.63	421.62
402.854	394.62
403.078	419.62
403.302	427.62
403.526	431.62
403.75	409.62
403.974	408.62
404.198	425.62
404.422	408.62
404.645	438.62
404.869	425.62
405.093	444.62
405.317	464.62
405.541	475.62
405.765	443.62
405.988	463.62
406.212	462.62
406.436	476.62
406.66	499.62
406.883	477.62
407.107	496.62
407.331	557.62
407.555	577.62
407.778	603.62
408.002	533.62
408.226	495.62
408.449	480.62
408.673	480.62
408.896	509.62
409.12	526.62
409.344	540.62
409.567	458.62
409.791	425.62
410.014	431.62
410.238	437.62
410.461	461.62
410.685	440.62
410.908	455.62
411.132	483.62
411.355	505.62
411.578	503.62
411.802	440.62
412.025	422.62
412.249	428.62
412.472	413.62
412.695	454.62
412.919	416.62
413.142	404.62
413.365	412.62
413.589	392.62
413.812	413.62
414.035	400.62
414.258	395.62
414.482	391.62
414.705	384.62
414.928	411.62
415.151	403.62
415.374	409.62
415.597	386.62
415.821	402.62
416.044	391.62
416.267	408.62
416.49	389.62
416.713	406.62
416.936	395.62
417.159	391.62
417.382	408.62
417.605	391.62
417.828	435.62
418.051	430.62
418.274	437.62
418.497	422.62
418.72	419.62
418.943	398.62
419.166	427.62
419.389	426.62
419.611	444.62
419.834	432.62
420.057	424.62
420.28	435.62
420.503	420.62
420.726	427.62
420.948	443.62
421.171	488.62
421.394	523.62
421.617	453.62
421.839	452.62
422.062	452.62
422.285	477.62
422.507	530.62
422.73	581.62
422.953	556.62
423.175	521.62
423.398	465.62
423.621	475.62
423.843	471.62
424.066	471.62
424.288	472.62
424.511	499.62
424.733	569.62
424.956	616.62
425.178	622.62
425.401	622.62
425.623	630.62
425.846	544.62
426.068	517.62
426.291	532.62
426.513	536.62
426.735	543.62
426.958	558.62
427.18	645.62
427.402	755.62
427.625	862.62
427.847	814.62
428.069	664.62
428.292	598.62
428.514	529.62
428.736	502.62
428.958	493.62
429.181	482.62
429.403	475.62
429.625	495.62
429.847	491.62
430.069	585.62
430.292	586.62
430.514	489.62
430.736	483.62
430.958	455.62
431.18	425.62
431.402	430.62
431.624	431.62
431.846	422.62
432.068	416.62
432.29	428.62
432.512	433.62
432.734	462.62
432.956	447.62
433.178	442.62
433.4	453.62
433.622	438.62
433.844	418.62
434.066	399.62
434.287	421.62
434.509	422.62
434.731	451.62
434.953	464.62
435.175	471.62
435.397	486.62
435.618	485.62
435.84	549.62
436.062	644.62
436.284	693.62
436.505	601.62
436.727	533.62
436.949	507.62
437.17	463.62
437.392	479.62
437.614	502.62
437.835	544.62
438.057	671.62
438.278	739.62
438.5	727.62
438.721	763.62
438.943	762.62
439.165	606.62
439.386	548.62
439.608	537.62
439.829	531.62
440.05	584.62
440.272	611.62
440.493	567.62
440.715	505.62
440.936	492.62
441.158	480.62
441.379	487.62
441.6	471.62
441.822	523.62
442.043	541.62
442.264	643.62
442.486	712.62
442.707	603.62
442.928	540.62
443.149	549.62
443.371	561.62
443.592	610.62
443.813	665.62
444.034	718.62
444.255	627.62
444.476	525.62
444.698	519.62
444.919	517.62
445.14	588.62
445.361	548.62
445.582	560.62
445.803	630.62
446.024	736.62
446.245	752.62
446.466	681.62
446.687	571.62
446.908	545.62
447.129	517.62
447.35	481.62
447.571	480.62
447.792	473.62
448.013	503.62
448.234	528.62
448.455	565.62
448.675	693.62
448.896	789.62
449.117	689.62
449.338	633.62
449.559	720.62
449.779	785.62
450	679.62
450.221	553.62
450.442	534.62
450.662	494.62
450.883	522.62
451.104	534.62
451.324	518.62
451.545	503.62
451.766	475.62
451.986	456.62
452.207	418.62
452.428	436.62
452.648	445.62
452.869	431.62
453.089	444.62
453.31	447.62
453.53	443.62
453.751	437.62
453.971	426.62
454.192	489.62
454.412	477.62
454.633	441.62
454.853	422.62
455.073	439.62
455.294	441.62
455.514	545.62
455.734	541.62
455.955	465.62
456.175	404.62
456.395	414.62
456.616	395.62
456.836	382.62
457.056	391.62
457.276	396.62
457.497	378.62
457.717	398.62
457.937	404.62
458.157	420.62
458.377	434.62
458.598	444.62
458.818	525.62
459.038	625.62
459.258	632.62
459.478	523.62
459.698	470.62
459.918	428.62
460.138	435.62
460.358	420.62
460.578	421.62
460.798	440.62
461.018	430.62
461.238	397.62
461.458	407.62
461.678	414.62
461.898	397.62
462.118	415.62
462.338	426.62
462.558	422.62
462.777	419.62
462.997	411.62
463.217	426.62
463.437	440.62
463.657	435.62
463.876	421.62
464.096	430.62
464.316	457.62
464.536	478.62
464.755	447.62
464.975	444.62
465.195	551.62
465.414	666.62
465.634	579.62
465.854	511.62
466.073	479.62
466.293	468.62
466.512	430.62
466.732	432.62
466.951	443.62
467.171	422.62
467.391	431.62
467.61	437.62
467.829	464.62
468.049	442.62
468.268	427.62
468.488	401.62
468.707	390.62
468.927	399.62
469.146	413.62
469.365	410.62
469.585	402.62
469.804	423.62
470.023	440.62
470.243	455.62
470.462	464.62
470.681	461.62
470.901	469.62
471.12	420.62
471.339	419.62
471.558	432.62
471.777	426.62
471.997	416.62
472.216	413.62
472.435	418.62
472.654	415.62
472.873	433.62
473.092	409.62
473.311	428.62
473.53	422.62
473.749	455.62
473.968	501.62
474.187	613.62
474.406	641.62
474.625	511.62
474.844	451.62
475.063	442.62
475.282	429.62
475.501	426.62
475.72	460.62
475.939	459.62
476.158	442.62
476.377	450.62
476.596	452.62
476.814	443.62
477.033	455.62
477.252	478.62
477.471	471.62
477.69	455.62
477.908	457.62
478.127	466.62
478.346	465.62
478.564	466.62
478.783	481.62
479.002	461.62
479.22	473.62
479.439	494.62
479.658	547.62
479.876	544.62
480.095	533.62
480.313	555.62
480.532	563.62
480.751	518.62
480.969	535.62
481.188	539.62
481.406	536.62
481.624	519.62
481.843	506.62
482.061	512.62
482.28	530.62
482.498	499.62
482.717	529.62
482.935	501.62
483.153	496.62
483.372	491.62
483.59	509.62
483.808	477.62
484.027	490.62
484.245	536.62
484.463	501.62
484.681	520.62
484.9	508.62
485.118	507.62
485.336	506.62
485.554	534.62
485.772	530.62
485.99	550.62
486.209	554.62
486.427	536.62
486.645	571.62
486.863	571.62
487.081	557.62
487.299	574.62
487.517	542.62
487.735	537.62
487.953	539.62
488.171	561.62
488.389	567.62
488.607	554.62
488.825	553.62
489.043	560.62
489.261	557.62
489.479	573.62
489.696	584.62
489.914	572.62
490.132	588.62
490.35	603.62
490.568	557.62
490.786	607.62
491.003	588.62
491.221	599.62
491.439	605.62
491.657	628.62
491.874	643.62
492.092	629.62
492.31	640.62
492.527	643.62
492.745	631.62
492.963	653.62
493.18	667.62
493.398	655.62
493.615	678.62
493.833	651.62
494.05	667.62
494.268	679.62
494.485	655.62
494.703	664.62
494.92	672.62
495.138	669.62
495.355	676.62
495.573	681.62
495.79	667.62
496.008	691.62
496.225	662.62
496.442	640.62
496.66	686.62
496.877	648.62
497.094	673.62
497.312	695.62
497.529	718.62
497.746	693.62
497.963	684.62
498.181	733.62
498.398	718.62
498.615	715.62
498.832	718.62
499.049	720.62
499.267	720.62
499.484	730.62
499.701	746.62
499.918	759.62
500.135	768.62
500.352	783.62
500.569	781.62
500.786	807.62
501.003	789.62
501.22	792.62
501.437	771.62
501.654	795.62
501.871	786.62
