Data from 1987.PennyLincolnUp.Lamp.En5.5.200Scan.071819.P2_HRD10591_17-16-07-970.txt Node
Date: Thu Jul 18 17:16:07 EDT 2019
User: cochatt
Spectrometer: HR+D1059
Trigger mode: 1
Integration Time (sec): 1.000000E-1
Scans to average: 1
Electric dark correction enabled: true
Nonlinearity correction enabled: false
Boxcar width: 0
XAxis mode: Wavelengths
Number of Pixels in Spectrum: 2048
>>>>>Begin Spectral Data<<<<<
223.165	-24.81
223.4	-24.81
223.635	-24.81
223.869	-20.81
224.104	-16.81
224.338	-9.81
224.573	-11.81
224.808	-21.81
225.042	-15.81
225.277	5.19
225.511	-4.81
225.746	-9.81
225.98	-0.81
226.215	22.19
226.449	28.19
226.683	21.19
226.918	20.19
227.152	40.19
227.387	38.19
227.621	31.19
227.856	50.19
228.09	47.19
228.324	34.19
228.559	60.19
228.793	66.19
229.027	100.19
229.262	121.19
229.496	119.19
229.73	144.19
229.964	171.19
230.199	147.19
230.433	125.19
230.667	104.19
230.901	117.19
231.136	120.19
231.37	134.19
231.604	124.19
231.838	120.19
232.072	115.19
232.306	119.19
232.541	123.19
232.775	120.19
233.009	119.19
233.243	117.19
233.477	131.19
233.711	126.19
233.945	103.19
234.179	122.19
234.413	112.19
234.647	101.19
234.881	110.19
235.115	126.19
235.349	121.19
235.583	117.19
235.817	119.19
236.051	134.19
236.285	141.19
236.519	118.19
236.753	138.19
236.987	152.19
237.221	192.19
237.455	262.19
237.689	192.19
237.922	148.19
238.156	135.19
238.39	146.19
238.624	130.19
238.858	126.19
239.091	126.19
239.325	135.19
239.559	127.19
239.793	127.19
240.027	139.19
240.26	151.19
240.494	182.19
240.728	156.19
240.961	143.19
241.195	162.19
241.429	157.19
241.662	132.19
241.896	139.19
242.13	148.19
242.363	136.19
242.597	132.19
242.83	127.19
243.064	139.19
243.298	144.19
243.531	138.19
243.765	131.19
243.998	134.19
244.232	132.19
244.465	150.19
244.699	122.19
244.932	140.19
245.166	140.19
245.399	144.19
245.633	135.19
245.866	145.19
246.099	146.19
246.333	144.19
246.566	154.19
246.8	150.19
247.033	150.19
247.266	159.19
247.5	143.19
247.733	155.19
247.966	167.19
248.2	178.19
248.433	159.19
248.666	165.19
248.899	175.19
249.133	199.19
249.366	217.19
249.599	200.19
249.832	190.19
250.066	186.19
250.299	184.19
250.532	187.19
250.765	197.19
250.998	211.19
251.231	227.19
251.465	213.19
251.698	213.19
251.931	192.19
252.164	191.19
252.397	198.19
252.63	205.19
252.863	215.19
253.096	227.19
253.329	229.19
253.562	231.19
253.795	215.19
254.028	229.19
254.261	230.19
254.494	227.19
254.727	254.19
254.96	271.19
255.193	281.19
255.426	264.19
255.659	218.19
255.892	234.19
256.124	224.19
256.357	209.19
256.59	200.19
256.823	204.19
257.056	206.19
257.289	204.19
257.521	205.19
257.754	208.19
257.987	219.19
258.22	204.19
258.452	180.19
258.685	210.19
258.918	203.19
259.151	202.19
259.383	229.19
259.616	212.19
259.849	218.19
260.081	224.19
260.314	246.19
260.547	251.19
260.779	249.19
261.012	242.19
261.244	245.19
261.477	235.19
261.71	221.19
261.942	223.19
262.175	244.19
262.407	223.19
262.64	205.19
262.872	203.19
263.105	198.19
263.337	208.19
263.57	189.19
263.802	209.19
264.035	196.19
264.267	196.19
264.499	206.19
264.732	199.19
264.964	197.19
265.197	201.19
265.429	206.19
265.661	194.19
265.894	184.19
266.126	191.19
266.358	212.19
266.591	198.19
266.823	211.19
267.055	198.19
267.287	201.19
267.52	217.19
267.752	215.19
267.984	186.19
268.216	204.19
268.448	201.19
268.681	213.19
268.913	242.19
269.145	245.19
269.377	276.19
269.609	254.19
269.841	243.19
270.073	255.19
270.306	280.19
270.538	298.19
270.77	299.19
271.002	303.19
271.234	287.19
271.466	295.19
271.698	311.19
271.93	301.19
272.162	325.19
272.394	317.19
272.626	301.19
272.858	287.19
273.09	264.19
273.322	260.19
273.553	262.19
273.785	262.19
274.017	236.19
274.249	237.19
274.481	241.19
274.713	244.19
274.945	236.19
275.176	247.19
275.408	253.19
275.64	250.19
275.872	243.19
276.104	258.19
276.335	250.19
276.567	258.19
276.799	275.19
277.031	282.19
277.262	291.19
277.494	314.19
277.726	291.19
277.957	277.19
278.189	251.19
278.421	258.19
278.652	274.19
278.884	237.19
279.115	214.19
279.347	230.19
279.579	225.19
279.81	243.19
280.042	231.19
280.273	220.19
280.505	228.19
280.736	230.19
280.968	211.19
281.199	217.19
281.431	216.19
281.662	239.19
281.894	230.19
282.125	248.19
282.356	244.19
282.588	284.19
282.819	300.19
283.051	245.19
283.282	231.19
283.513	237.19
283.745	225.19
283.976	237.19
284.207	246.19
284.439	227.19
284.67	238.19
284.901	225.19
285.132	225.19
285.364	216.19
285.595	234.19
285.826	236.19
286.057	221.19
286.288	251.19
286.52	227.19
286.751	231.19
286.982	238.19
287.213	232.19
287.444	239.19
287.675	248.19
287.906	258.19
288.138	234.19
288.369	259.19
288.6	270.19
288.831	259.19
289.062	274.19
289.293	250.19
289.524	249.19
289.755	220.19
289.986	256.19
290.217	251.19
290.448	235.19
290.679	238.19
290.91	231.19
291.141	237.19
291.371	241.19
291.602	239.19
291.833	247.19
292.064	252.19
292.295	235.19
292.526	247.19
292.757	242.19
292.987	242.19
293.218	241.19
293.449	239.19
293.68	246.19
293.91	233.19
294.141	242.19
294.372	238.19
294.603	237.19
294.833	232.19
295.064	246.19
295.295	245.19
295.525	239.19
295.756	233.19
295.987	262.19
296.217	292.19
296.448	309.19
296.679	282.19
296.909	251.19
297.14	244.19
297.37	250.19
297.601	247.19
297.831	235.19
298.062	228.19
298.292	238.19
298.523	238.19
298.753	248.19
298.984	246.19
299.214	239.19
299.445	252.19
299.675	258.19
299.905	278.19
300.136	258.19
300.366	263.19
300.597	244.19
300.827	253.19
301.057	272.19
301.288	272.19
301.518	277.19
301.748	250.19
301.979	253.19
302.209	272.19
302.439	264.19
302.669	263.19
302.9	268.19
303.13	262.19
303.36	268.19
303.59	275.19
303.82	292.19
304.051	272.19
304.281	256.19
304.511	276.19
304.741	248.19
304.971	248.19
305.201	274.19
305.431	266.19
305.661	271.19
305.891	283.19
306.121	278.19
306.352	279.19
306.582	292.19
306.812	292.19
307.042	286.19
307.272	271.19
307.502	281.19
307.731	295.19
307.961	298.19
308.191	274.19
308.421	293.19
308.651	291.19
308.881	298.19
309.111	302.19
309.341	290.19
309.571	317.19
309.8	352.19
310.03	363.19
310.26	358.19
310.49	354.19
310.72	363.19
310.949	392.19
311.179	394.19
311.409	349.19
311.639	354.19
311.868	331.19
312.098	347.19
312.328	362.19
312.557	367.19
312.787	393.19
313.017	396.19
313.246	372.19
313.476	325.19
313.706	332.19
313.935	341.19
314.165	342.19
314.394	371.19
314.624	376.19
314.853	360.19
315.083	357.19
315.312	350.19
315.542	329.19
315.771	328.19
316.001	323.19
316.23	314.19
316.46	324.19
316.689	330.19
316.919	350.19
317.148	363.19
317.377	335.19
317.607	335.19
317.836	352.19
318.065	353.19
318.295	326.19
318.524	336.19
318.753	325.19
318.983	342.19
319.212	350.19
319.441	351.19
319.67	376.19
319.9	364.19
320.129	340.19
320.358	338.19
320.587	361.19
320.816	353.19
321.046	380.19
321.275	379.19
321.504	354.19
321.733	356.19
321.962	378.19
322.191	408.19
322.42	427.19
322.649	455.19
322.878	470.19
323.108	481.19
323.337	514.19
323.566	551.19
323.795	600.19
324.024	656.19
324.253	856.19
324.482	1251.19
324.71	1924.19
324.939	2714.19
325.168	2394.19
325.397	1265.19
325.626	812.19
325.855	673.19
326.084	584.19
326.313	556.19
326.542	564.19
326.77	621.19
326.999	760.19
327.228	1107.19
327.457	1677.19
327.686	2048.19
327.914	1382.19
328.143	895.19
328.372	742.19
328.6	683.19
328.829	628.19
329.058	652.19
329.287	643.19
329.515	612.19
329.744	555.19
329.972	521.19
330.201	516.19
330.43	556.19
330.658	607.19
330.887	707.19
331.115	660.19
331.344	555.19
331.572	502.19
331.801	510.19
332.03	481.19
332.258	449.19
332.486	428.19
332.715	402.19
332.943	388.19
333.172	397.19
333.4	387.19
333.629	414.19
333.857	405.19
334.085	400.19
334.314	389.19
334.542	382.19
334.771	419.19
334.999	406.19
335.227	396.19
335.455	386.19
335.684	378.19
335.912	358.19
336.14	382.19
336.369	375.19
336.597	396.19
336.825	406.19
337.053	398.19
337.281	361.19
337.51	384.19
337.738	399.19
337.966	381.19
338.194	380.19
338.422	373.19
338.65	364.19
338.878	377.19
339.106	357.19
339.334	378.19
339.562	370.19
339.79	375.19
340.018	388.19
340.246	389.19
340.474	393.19
340.702	383.19
340.93	375.19
341.158	376.19
341.386	378.19
341.614	378.19
341.842	373.19
342.07	377.19
342.298	373.19
342.526	361.19
342.754	370.19
342.981	337.19
343.209	338.19
343.437	359.19
343.665	363.19
343.893	340.19
344.12	353.19
344.348	355.19
344.576	367.19
344.804	379.19
345.031	388.19
345.259	405.19
345.487	404.19
345.714	409.19
345.942	388.19
346.17	374.19
346.397	376.19
346.625	368.19
346.853	372.19
347.08	362.19
347.308	381.19
347.535	397.19
347.763	416.19
347.99	396.19
348.218	400.19
348.445	398.19
348.673	405.19
348.9	380.19
349.128	381.19
349.355	373.19
349.583	363.19
349.81	360.19
350.037	338.19
350.265	358.19
350.492	359.19
350.72	378.19
350.947	365.19
351.174	394.19
351.402	412.19
351.629	398.19
351.856	395.19
352.083	405.19
352.311	430.19
352.538	435.19
352.765	418.19
352.992	387.19
353.22	387.19
353.447	383.19
353.674	388.19
353.901	354.19
354.128	366.19
354.355	341.19
354.583	359.19
354.81	341.19
355.037	334.19
355.264	333.19
355.491	312.19
355.718	315.19
355.945	338.19
356.172	324.19
356.399	331.19
356.626	333.19
356.853	330.19
357.08	338.19
357.307	328.19
357.534	336.19
357.761	322.19
357.988	347.19
358.215	336.19
358.441	332.19
358.668	338.19
358.895	324.19
359.122	386.19
359.349	362.19
359.576	406.19
359.802	416.19
360.029	464.19
360.256	500.19
360.483	445.19
360.709	388.19
360.936	390.19
361.163	396.19
361.39	403.19
361.616	386.19
361.843	400.19
362.07	397.19
362.296	385.19
362.523	383.19
362.749	385.19
362.976	362.19
363.203	361.19
363.429	370.19
363.656	370.19
363.882	342.19
364.109	357.19
364.335	345.19
364.562	367.19
364.788	335.19
365.015	354.19
365.241	361.19
365.468	370.19
365.694	377.19
365.92	367.19
366.147	359.19
366.373	347.19
366.599	346.19
366.826	344.19
367.052	331.19
367.278	332.19
367.505	348.19
367.731	341.19
367.957	346.19
368.184	358.19
368.41	366.19
368.636	363.19
368.862	357.19
369.089	360.19
369.315	359.19
369.541	362.19
369.767	354.19
369.993	359.19
370.219	361.19
370.445	365.19
370.672	334.19
370.898	335.19
371.124	355.19
371.35	330.19
371.576	333.19
371.802	341.19
372.028	326.19
372.254	343.19
372.48	316.19
372.706	322.19
372.932	341.19
373.158	332.19
373.384	344.19
373.61	315.19
373.835	347.19
374.061	340.19
374.287	339.19
374.513	347.19
374.739	348.19
374.965	336.19
375.191	347.19
375.416	317.19
375.642	334.19
375.868	343.19
376.094	334.19
376.319	331.19
376.545	343.19
376.771	340.19
376.997	344.19
377.222	314.19
377.448	322.19
377.674	326.19
377.899	319.19
378.125	316.19
378.35	331.19
378.576	320.19
378.802	314.19
379.027	330.19
379.253	342.19
379.478	329.19
379.704	318.19
379.929	345.19
380.155	339.19
380.38	338.19
380.606	324.19
380.831	347.19
381.057	328.19
381.282	344.19
381.507	344.19
381.733	336.19
381.958	349.19
382.184	342.19
382.409	336.19
382.634	327.19
382.86	349.19
383.085	338.19
383.31	319.19
383.535	342.19
383.761	353.19
383.986	354.19
384.211	348.19
384.436	357.19
384.662	332.19
384.887	319.19
385.112	348.19
385.337	348.19
385.562	346.19
385.787	360.19
386.013	344.19
386.238	360.19
386.463	356.19
386.688	358.19
386.913	347.19
387.138	345.19
387.363	358.19
387.588	360.19
387.813	341.19
388.038	340.19
388.263	354.19
388.488	346.19
388.713	338.19
388.938	364.19
389.163	349.19
389.387	358.19
389.612	351.19
389.837	354.19
390.062	344.19
390.287	355.19
390.512	355.19
390.736	352.19
390.961	347.19
391.186	335.19
391.411	342.19
391.636	340.19
391.86	363.19
392.085	356.19
392.31	359.19
392.534	355.19
392.759	344.19
392.984	344.19
393.208	340.19
393.433	356.19
393.658	355.19
393.882	372.19
394.107	345.19
394.331	358.19
394.556	370.19
394.78	350.19
395.005	364.19
395.229	344.19
395.454	360.19
395.678	357.19
395.903	370.19
396.127	410.19
396.352	382.19
396.576	376.19
396.801	359.19
397.025	382.19
397.249	379.19
397.474	386.19
397.698	366.19
397.922	398.19
398.147	398.19
398.371	405.19
398.595	383.19
398.82	391.19
399.044	403.19
399.268	406.19
399.492	436.19
399.717	451.19
399.941	464.19
400.165	486.19
400.389	500.19
400.613	474.19
400.837	430.19
401.062	404.19
401.286	411.19
401.51	419.19
401.734	413.19
401.958	416.19
402.182	418.19
402.406	431.19
402.63	451.19
402.854	423.19
403.078	424.19
403.302	415.19
403.526	427.19
403.75	431.19
403.974	436.19
404.198	424.19
404.422	435.19
404.645	437.19
404.869	447.19
405.093	463.19
405.317	463.19
405.541	512.19
405.765	474.19
405.988	463.19
406.212	460.19
406.436	501.19
406.66	531.19
406.883	494.19
407.107	494.19
407.331	539.19
407.555	607.19
407.778	599.19
408.002	552.19
408.226	509.19
408.449	467.19
408.673	498.19
408.896	529.19
409.12	533.19
409.344	536.19
409.567	486.19
409.791	439.19
410.014	452.19
410.238	421.19
410.461	444.19
410.685	456.19
410.908	446.19
411.132	500.19
411.355	512.19
411.578	504.19
411.802	441.19
412.025	454.19
412.249	438.19
412.472	448.19
412.695	435.19
412.919	438.19
413.142	414.19
413.365	415.19
413.589	397.19
413.812	414.19
414.035	394.19
414.258	395.19
414.482	397.19
414.705	394.19
414.928	408.19
415.151	414.19
415.374	421.19
415.597	396.19
415.821	418.19
416.044	397.19
416.267	412.19
416.49	416.19
416.713	399.19
416.936	391.19
417.159	406.19
417.382	421.19
417.605	441.19
417.828	428.19
418.051	459.19
418.274	427.19
418.497	417.19
418.72	417.19
418.943	423.19
419.166	427.19
419.389	440.19
419.611	435.19
419.834	432.19
420.057	437.19
420.28	430.19
420.503	430.19
420.726	427.19
420.948	465.19
421.171	507.19
421.394	537.19
421.617	508.19
421.839	461.19
422.062	470.19
422.285	481.19
422.507	511.19
422.73	615.19
422.953	606.19
423.175	502.19
423.398	488.19
423.621	480.19
423.843	490.19
424.066	515.19
424.288	500.19
424.511	536.19
424.733	598.19
424.956	676.19
425.178	638.19
425.401	603.19
425.623	646.19
425.846	577.19
426.068	540.19
426.291	514.19
426.513	543.19
426.735	528.19
426.958	566.19
427.18	664.19
427.402	766.19
427.625	859.19
427.847	785.19
428.069	670.19
428.292	572.19
428.514	536.19
428.736	506.19
428.958	496.19
429.181	496.19
429.403	469.19
429.625	500.19
429.847	531.19
430.069	596.19
430.292	605.19
430.514	500.19
430.736	486.19
430.958	459.19
431.18	466.19
431.402	443.19
431.624	410.19
431.846	420.19
432.068	437.19
432.29	448.19
432.512	423.19
432.734	469.19
432.956	453.19
433.178	455.19
433.4	457.19
433.622	467.19
433.844	448.19
434.066	436.19
434.287	426.19
434.509	438.19
434.731	461.19
434.953	437.19
435.175	454.19
435.397	501.19
435.618	525.19
435.84	566.19
436.062	640.19
436.284	721.19
436.505	622.19
436.727	538.19
436.949	488.19
437.17	503.19
437.392	471.19
437.614	499.19
437.835	550.19
438.057	657.19
438.278	768.19
438.5	761.19
438.721	799.19
438.943	758.19
439.165	614.19
439.386	571.19
439.608	551.19
439.829	560.19
440.05	602.19
440.272	649.19
440.493	576.19
440.715	536.19
440.936	527.19
441.158	485.19
441.379	502.19
441.6	515.19
441.822	543.19
442.043	596.19
442.264	657.19
442.486	693.19
442.707	616.19
442.928	536.19
443.149	583.19
443.371	574.19
443.592	635.19
443.813	697.19
444.034	742.19
444.255	622.19
444.476	551.19
444.698	532.19
444.919	519.19
445.14	596.19
445.361	568.19
445.582	572.19
445.803	649.19
446.024	753.19
446.245	789.19
446.466	682.19
446.687	606.19
446.908	560.19
447.129	512.19
447.35	492.19
447.571	507.19
447.792	498.19
448.013	495.19
448.234	538.19
448.455	602.19
448.675	715.19
448.896	794.19
449.117	673.19
449.338	655.19
449.559	741.19
449.779	799.19
450	677.19
450.221	589.19
450.442	511.19
450.662	482.19
450.883	510.19
451.104	553.19
451.324	535.19
451.545	501.19
451.766	466.19
451.986	455.19
452.207	440.19
452.428	450.19
452.648	456.19
452.869	428.19
453.089	456.19
453.31	470.19
453.53	459.19
453.751	457.19
453.971	445.19
454.192	494.19
454.412	489.19
454.633	454.19
454.853	435.19
455.073	433.19
455.294	492.19
455.514	558.19
455.734	529.19
455.955	437.19
456.175	416.19
456.395	408.19
456.616	388.19
456.836	378.19
457.056	408.19
457.276	393.19
457.497	396.19
457.717	380.19
457.937	422.19
458.157	414.19
458.377	444.19
458.598	465.19
458.818	523.19
459.038	639.19
459.258	660.19
459.478	536.19
459.698	456.19
459.918	447.19
460.138	423.19
460.358	450.19
460.578	447.19
460.798	423.19
461.018	444.19
461.238	429.19
461.458	421.19
461.678	421.19
461.898	428.19
462.118	415.19
462.338	441.19
462.558	437.19
462.777	436.19
462.997	433.19
463.217	440.19
463.437	466.19
463.657	417.19
463.876	444.19
464.096	425.19
464.316	417.19
464.536	453.19
464.755	456.19
464.975	501.19
465.195	573.19
465.414	685.19
465.634	583.19
465.854	504.19
466.073	493.19
466.293	458.19
466.512	461.19
466.732	436.19
466.951	435.19
467.171	460.19
467.391	431.19
467.61	463.19
467.829	469.19
468.049	430.19
468.268	440.19
468.488	452.19
468.707	436.19
468.927	409.19
469.146	420.19
469.365	438.19
469.585	424.19
469.804	441.19
470.023	450.19
470.243	447.19
470.462	458.19
470.681	501.19
470.901	472.19
471.12	438.19
471.339	445.19
471.558	451.19
471.777	464.19
471.997	441.19
472.216	450.19
472.435	426.19
472.654	424.19
472.873	427.19
473.092	408.19
473.311	429.19
473.53	422.19
473.749	458.19
473.968	503.19
474.187	633.19
474.406	664.19
474.625	534.19
474.844	449.19
475.063	472.19
475.282	437.19
475.501	446.19
475.72	436.19
475.939	437.19
476.158	442.19
476.377	437.19
476.596	450.19
476.814	463.19
477.033	464.19
477.252	469.19
477.471	454.19
477.69	460.19
477.908	462.19
478.127	455.19
478.346	474.19
478.564	467.19
478.783	482.19
479.002	477.19
479.22	496.19
479.439	487.19
479.658	537.19
479.876	546.19
480.095	547.19
480.313	570.19
480.532	566.19
480.751	520.19
480.969	519.19
481.188	541.19
481.406	574.19
481.624	515.19
481.843	516.19
482.061	507.19
482.28	526.19
482.498	500.19
482.717	516.19
482.935	513.19
483.153	511.19
483.372	501.19
483.59	513.19
483.808	495.19
484.027	496.19
484.245	500.19
484.463	514.19
484.681	530.19
484.9	538.19
485.118	524.19
485.336	528.19
485.554	541.19
485.772	547.19
485.99	548.19
486.209	552.19
486.427	542.19
486.645	566.19
486.863	618.19
487.081	612.19
487.299	607.19
487.517	597.19
487.735	579.19
487.953	576.19
488.171	569.19
488.389	569.19
488.607	572.19
488.825	575.19
489.043	587.19
489.261	565.19
489.479	589.19
489.696	584.19
489.914	566.19
490.132	597.19
490.35	600.19
490.568	601.19
490.786	599.19
491.003	614.19
491.221	636.19
491.439	635.19
491.657	636.19
491.874	653.19
492.092	650.19
492.31	650.19
492.527	655.19
492.745	689.19
492.963	662.19
493.18	636.19
493.398	657.19
493.615	690.19
493.833	656.19
494.05	656.19
494.268	667.19
494.485	688.19
494.703	670.19
494.92	686.19
495.138	675.19
495.355	687.19
495.573	701.19
495.79	683.19
496.008	668.19
496.225	682.19
496.442	671.19
496.66	695.19
496.877	674.19
497.094	692.19
497.312	691.19
497.529	709.19
497.746	692.19
497.963	698.19
498.181	721.19
498.398	718.19
498.615	724.19
498.832	737.19
499.049	727.19
499.267	734.19
499.484	772.19
499.701	756.19
499.918	771.19
500.135	789.19
500.352	814.19
500.569	816.19
500.786	818.19
501.003	821.19
501.22	782.19
501.437	813.19
501.654	795.19
501.871	835.19
