Data from 1987.PennyLincolnUp.Lamp.En5.5.200Scan.071819.P2_HRD10591_17-17-02-971.txt Node
Date: Thu Jul 18 17:17:02 EDT 2019
User: cochatt
Spectrometer: HR+D1059
Trigger mode: 1
Integration Time (sec): 1.000000E-1
Scans to average: 1
Electric dark correction enabled: true
Nonlinearity correction enabled: false
Boxcar width: 0
XAxis mode: Wavelengths
Number of Pixels in Spectrum: 2048
>>>>>Begin Spectral Data<<<<<
223.165	-16.88
223.4	-16.88
223.635	-16.88
223.869	-21.88
224.104	-28.88
224.338	-5.88
224.573	-19.88
224.808	0.12
225.042	-6.88
225.277	-13.88
225.511	9.12
225.746	3.12
225.98	-4.88
226.215	12.12
226.449	16.12
226.683	18.12
226.918	23.12
227.152	37.12
227.387	30.12
227.621	37.12
227.856	49.12
228.09	43.12
228.324	51.12
228.559	48.12
228.793	75.12
229.027	100.12
229.262	116.12
229.496	128.12
229.73	153.12
229.964	181.12
230.199	158.12
230.433	129.12
230.667	108.12
230.901	118.12
231.136	118.12
231.37	115.12
231.604	106.12
231.838	108.12
232.072	118.12
232.306	100.12
232.541	112.12
232.775	121.12
233.009	104.12
233.243	122.12
233.477	110.12
233.711	128.12
233.945	113.12
234.179	114.12
234.413	131.12
234.647	118.12
234.881	103.12
235.115	113.12
235.349	121.12
235.583	131.12
235.817	128.12
236.051	123.12
236.285	142.12
236.519	127.12
236.753	132.12
236.987	153.12
237.221	191.12
237.455	268.12
237.689	209.12
237.922	157.12
238.156	152.12
238.39	137.12
238.624	129.12
238.858	129.12
239.091	126.12
239.325	125.12
239.559	125.12
239.793	133.12
240.027	145.12
240.26	152.12
240.494	182.12
240.728	170.12
240.961	163.12
241.195	159.12
241.429	141.12
241.662	134.12
241.896	136.12
242.13	140.12
242.363	132.12
242.597	137.12
242.83	137.12
243.064	136.12
243.298	127.12
243.531	139.12
243.765	137.12
243.998	132.12
244.232	129.12
244.465	142.12
244.699	153.12
244.932	141.12
245.166	147.12
245.399	142.12
245.633	131.12
245.866	137.12
246.099	133.12
246.333	136.12
246.566	153.12
246.8	143.12
247.033	145.12
247.266	167.12
247.5	157.12
247.733	182.12
247.966	175.12
248.2	174.12
248.433	185.12
248.666	169.12
248.899	188.12
249.133	209.12
249.366	215.12
249.599	203.12
249.832	193.12
250.066	182.12
250.299	189.12
250.532	176.12
250.765	205.12
250.998	198.12
251.231	218.12
251.465	207.12
251.698	205.12
251.931	207.12
252.164	206.12
252.397	203.12
252.63	181.12
252.863	206.12
253.096	216.12
253.329	220.12
253.562	236.12
253.795	229.12
254.028	217.12
254.261	200.12
254.494	222.12
254.727	247.12
254.96	293.12
255.193	291.12
255.426	267.12
255.659	230.12
255.892	255.12
256.124	223.12
256.357	221.12
256.59	217.12
256.823	196.12
257.056	212.12
257.289	189.12
257.521	212.12
257.754	208.12
257.987	217.12
258.22	202.12
258.452	213.12
258.685	201.12
258.918	213.12
259.151	214.12
259.383	200.12
259.616	219.12
259.849	231.12
260.081	222.12
260.314	264.12
260.547	239.12
260.779	251.12
261.012	230.12
261.244	224.12
261.477	218.12
261.71	230.12
261.942	236.12
262.175	238.12
262.407	215.12
262.64	215.12
262.872	205.12
263.105	207.12
263.337	215.12
263.57	206.12
263.802	197.12
264.035	186.12
264.267	202.12
264.499	184.12
264.732	184.12
264.964	187.12
265.197	193.12
265.429	209.12
265.661	203.12
265.894	207.12
266.126	185.12
266.358	197.12
266.591	211.12
266.823	226.12
267.055	215.12
267.287	205.12
267.52	201.12
267.752	205.12
267.984	223.12
268.216	218.12
268.448	195.12
268.681	207.12
268.913	215.12
269.145	263.12
269.377	271.12
269.609	285.12
269.841	270.12
270.073	275.12
270.306	267.12
270.538	296.12
270.77	292.12
271.002	290.12
271.234	299.12
271.466	301.12
271.698	329.12
271.93	304.12
272.162	330.12
272.394	317.12
272.626	311.12
272.858	291.12
273.09	268.12
273.322	268.12
273.553	266.12
273.785	245.12
274.017	247.12
274.249	251.12
274.481	230.12
274.713	251.12
274.945	232.12
275.176	244.12
275.408	250.12
275.64	247.12
275.872	240.12
276.104	257.12
276.335	251.12
276.567	248.12
276.799	277.12
277.031	307.12
277.262	290.12
277.494	314.12
277.726	299.12
277.957	270.12
278.189	267.12
278.421	254.12
278.652	258.12
278.884	239.12
279.115	254.12
279.347	228.12
279.579	231.12
279.81	227.12
280.042	228.12
280.273	235.12
280.505	239.12
280.736	231.12
280.968	240.12
281.199	223.12
281.431	238.12
281.662	222.12
281.894	230.12
282.125	241.12
282.356	241.12
282.588	291.12
282.819	289.12
283.051	257.12
283.282	240.12
283.513	230.12
283.745	240.12
283.976	249.12
284.207	239.12
284.439	261.12
284.67	240.12
284.901	249.12
285.132	225.12
285.364	245.12
285.595	245.12
285.826	239.12
286.057	225.12
286.288	230.12
286.52	239.12
286.751	233.12
286.982	235.12
287.213	232.12
287.444	240.12
287.675	248.12
287.906	241.12
288.138	251.12
288.369	269.12
288.6	285.12
288.831	270.12
289.062	232.12
289.293	239.12
289.524	241.12
289.755	245.12
289.986	246.12
290.217	248.12
290.448	229.12
290.679	233.12
290.91	232.12
291.141	244.12
291.371	243.12
291.602	250.12
291.833	247.12
292.064	253.12
292.295	231.12
292.526	252.12
292.757	238.12
292.987	237.12
293.218	219.12
293.449	238.12
293.68	240.12
293.91	240.12
294.141	245.12
294.372	231.12
294.603	247.12
294.833	241.12
295.064	232.12
295.295	233.12
295.525	240.12
295.756	267.12
295.987	253.12
296.217	280.12
296.448	304.12
296.679	263.12
296.909	238.12
297.14	243.12
297.37	258.12
297.601	260.12
297.831	248.12
298.062	244.12
298.292	251.12
298.523	240.12
298.753	252.12
298.984	242.12
299.214	271.12
299.445	272.12
299.675	262.12
299.905	251.12
300.136	245.12
300.366	261.12
300.597	255.12
300.827	275.12
301.057	267.12
301.288	295.12
301.518	263.12
301.748	272.12
301.979	272.12
302.209	272.12
302.439	286.12
302.669	291.12
302.9	278.12
303.13	275.12
303.36	264.12
303.59	295.12
303.82	300.12
304.051	298.12
304.281	260.12
304.511	267.12
304.741	268.12
304.971	261.12
305.201	256.12
305.431	291.12
305.661	267.12
305.891	275.12
306.121	288.12
306.352	286.12
306.582	274.12
306.812	292.12
307.042	276.12
307.272	271.12
307.502	287.12
307.731	277.12
307.961	263.12
308.191	265.12
308.421	281.12
308.651	287.12
308.881	285.12
309.111	279.12
309.341	295.12
309.571	323.12
309.8	315.12
310.03	341.12
310.26	339.12
310.49	360.12
310.72	375.12
310.949	371.12
311.179	398.12
311.409	375.12
311.639	368.12
311.868	339.12
312.098	336.12
312.328	359.12
312.557	387.12
312.787	415.12
313.017	397.12
313.246	373.12
313.476	353.12
313.706	354.12
313.935	361.12
314.165	380.12
314.394	391.12
314.624	402.12
314.853	376.12
315.083	345.12
315.312	334.12
315.542	321.12
315.771	341.12
316.001	326.12
316.23	328.12
316.46	336.12
316.689	337.12
316.919	333.12
317.148	363.12
317.377	347.12
317.607	362.12
317.836	351.12
318.065	339.12
318.295	321.12
318.524	343.12
318.753	334.12
318.983	327.12
319.212	346.12
319.441	360.12
319.67	356.12
319.9	361.12
320.129	362.12
320.358	336.12
320.587	331.12
320.816	352.12
321.046	359.12
321.275	381.12
321.504	366.12
321.733	385.12
321.962	389.12
322.191	407.12
322.42	427.12
322.649	463.12
322.878	464.12
323.108	494.12
323.337	513.12
323.566	566.12
323.795	609.12
324.024	671.12
324.253	855.12
324.482	1265.12
324.71	1977.12
324.939	2777.12
325.168	2432.12
325.397	1335.12
325.626	834.12
325.855	643.12
326.084	591.12
326.313	565.12
326.542	560.12
326.77	633.12
326.999	775.12
327.228	1113.12
327.457	1735.12
327.686	2120.12
327.914	1436.12
328.143	941.12
328.372	769.12
328.6	681.12
328.829	663.12
329.058	683.12
329.287	685.12
329.515	616.12
329.744	537.12
329.972	514.12
330.201	523.12
330.43	571.12
330.658	629.12
330.887	717.12
331.115	686.12
331.344	538.12
331.572	529.12
331.801	500.12
332.03	474.12
332.258	471.12
332.486	435.12
332.715	399.12
332.943	398.12
333.172	401.12
333.4	386.12
333.629	411.12
333.857	398.12
334.085	405.12
334.314	389.12
334.542	393.12
334.771	413.12
334.999	404.12
335.227	387.12
335.455	387.12
335.684	409.12
335.912	372.12
336.14	367.12
336.369	376.12
336.597	397.12
336.825	401.12
337.053	382.12
337.281	389.12
337.51	378.12
337.738	389.12
337.966	396.12
338.194	402.12
338.422	401.12
338.65	382.12
338.878	375.12
339.106	377.12
339.334	375.12
339.562	376.12
339.79	379.12
340.018	377.12
340.246	372.12
340.474	391.12
340.702	369.12
340.93	379.12
341.158	376.12
341.386	380.12
341.614	377.12
341.842	367.12
342.07	378.12
342.298	377.12
342.526	363.12
342.754	375.12
342.981	360.12
343.209	367.12
343.437	352.12
343.665	356.12
343.893	349.12
344.12	360.12
344.348	352.12
344.576	360.12
344.804	396.12
345.031	391.12
345.259	417.12
345.487	432.12
345.714	390.12
345.942	376.12
346.17	379.12
346.397	369.12
346.625	380.12
346.853	367.12
347.08	376.12
347.308	387.12
347.535	371.12
347.763	398.12
347.99	391.12
348.218	390.12
348.445	413.12
348.673	424.12
348.9	387.12
349.128	378.12
349.355	373.12
349.583	366.12
349.81	363.12
350.037	362.12
350.265	375.12
350.492	354.12
350.72	354.12
350.947	372.12
351.174	391.12
351.402	400.12
351.629	415.12
351.856	401.12
352.083	400.12
352.311	405.12
352.538	429.12
352.765	413.12
352.992	402.12
353.22	395.12
353.447	377.12
353.674	364.12
353.901	356.12
354.128	376.12
354.355	341.12
354.583	363.12
354.81	353.12
355.037	316.12
355.264	325.12
355.491	311.12
355.718	344.12
355.945	348.12
356.172	327.12
356.399	325.12
356.626	328.12
356.853	338.12
357.08	348.12
357.307	321.12
357.534	347.12
357.761	320.12
357.988	333.12
358.215	343.12
358.441	338.12
358.668	344.12
358.895	360.12
359.122	346.12
359.349	383.12
359.576	395.12
359.802	427.12
360.029	469.12
360.256	489.12
360.483	471.12
360.709	405.12
360.936	387.12
361.163	384.12
361.39	411.12
361.616	391.12
361.843	372.12
362.07	391.12
362.296	385.12
362.523	379.12
362.749	395.12
362.976	378.12
363.203	381.12
363.429	352.12
363.656	360.12
363.882	362.12
364.109	359.12
364.335	354.12
364.562	349.12
364.788	372.12
365.015	361.12
365.241	355.12
365.468	387.12
365.694	361.12
365.92	350.12
366.147	339.12
366.373	349.12
366.599	344.12
366.826	330.12
367.052	327.12
367.278	328.12
367.505	353.12
367.731	349.12
367.957	339.12
368.184	353.12
368.41	355.12
368.636	362.12
368.862	368.12
369.089	351.12
369.315	333.12
369.541	351.12
369.767	347.12
369.993	348.12
370.219	349.12
370.445	337.12
370.672	357.12
370.898	338.12
371.124	343.12
371.35	309.12
371.576	331.12
371.802	320.12
372.028	341.12
372.254	329.12
372.48	325.12
372.706	333.12
372.932	340.12
373.158	331.12
373.384	315.12
373.61	324.12
373.835	326.12
374.061	345.12
374.287	327.12
374.513	356.12
374.739	339.12
374.965	339.12
375.191	335.12
375.416	350.12
375.642	316.12
375.868	328.12
376.094	317.12
376.319	333.12
376.545	330.12
376.771	344.12
376.997	325.12
377.222	316.12
377.448	319.12
377.674	307.12
377.899	329.12
378.125	329.12
378.35	333.12
378.576	321.12
378.802	328.12
379.027	323.12
379.253	322.12
379.478	323.12
379.704	329.12
379.929	328.12
380.155	335.12
380.38	350.12
380.606	342.12
380.831	331.12
381.057	361.12
381.282	333.12
381.507	323.12
381.733	332.12
381.958	337.12
382.184	312.12
382.409	328.12
382.634	345.12
382.86	343.12
383.085	329.12
383.31	337.12
383.535	326.12
383.761	356.12
383.986	343.12
384.211	337.12
384.436	335.12
384.662	346.12
384.887	332.12
385.112	350.12
385.337	346.12
385.562	345.12
385.787	353.12
386.013	351.12
386.238	366.12
386.463	352.12
386.688	350.12
386.913	349.12
387.138	349.12
387.363	349.12
387.588	358.12
387.813	330.12
388.038	366.12
388.263	359.12
388.488	331.12
388.713	351.12
388.938	344.12
389.163	363.12
389.387	350.12
389.612	334.12
389.837	347.12
390.062	359.12
390.287	374.12
390.512	349.12
390.736	339.12
390.961	338.12
391.186	334.12
391.411	360.12
391.636	350.12
391.86	353.12
392.085	351.12
392.31	360.12
392.534	359.12
392.759	379.12
392.984	345.12
393.208	349.12
393.433	346.12
393.658	343.12
393.882	375.12
394.107	359.12
394.331	358.12
394.556	372.12
394.78	359.12
395.005	337.12
395.229	348.12
395.454	365.12
395.678	349.12
395.903	368.12
396.127	402.12
396.352	397.12
396.576	391.12
396.801	347.12
397.025	359.12
397.249	365.12
397.474	376.12
397.698	366.12
397.922	389.12
398.147	412.12
398.371	391.12
398.595	381.12
398.82	375.12
399.044	393.12
399.268	392.12
399.492	409.12
399.717	411.12
399.941	443.12
400.165	495.12
400.389	480.12
400.613	436.12
400.837	412.12
401.062	423.12
401.286	401.12
401.51	383.12
401.734	397.12
401.958	384.12
402.182	397.12
402.406	441.12
402.63	436.12
402.854	414.12
403.078	406.12
403.302	432.12
403.526	412.12
403.75	414.12
403.974	423.12
404.198	401.12
404.422	423.12
404.645	425.12
404.869	423.12
405.093	439.12
405.317	466.12
405.541	470.12
405.765	452.12
405.988	453.12
406.212	459.12
406.436	510.12
406.66	523.12
406.883	478.12
407.107	519.12
407.331	535.12
407.555	614.12
407.778	589.12
408.002	516.12
408.226	501.12
408.449	465.12
408.673	478.12
408.896	504.12
409.12	551.12
409.344	528.12
409.567	457.12
409.791	446.12
410.014	426.12
410.238	428.12
410.461	417.12
410.685	432.12
410.908	461.12
411.132	495.12
411.355	529.12
411.578	491.12
411.802	443.12
412.025	458.12
412.249	431.12
412.472	442.12
412.695	471.12
412.919	458.12
413.142	445.12
413.365	405.12
413.589	401.12
413.812	402.12
414.035	383.12
414.258	393.12
414.482	383.12
414.705	399.12
414.928	405.12
415.151	373.12
415.374	372.12
415.597	377.12
415.821	410.12
416.044	400.12
416.267	398.12
416.49	400.12
416.713	394.12
416.936	385.12
417.159	392.12
417.382	408.12
417.605	415.12
417.828	433.12
418.051	459.12
418.274	432.12
418.497	436.12
418.72	408.12
418.943	416.12
419.166	415.12
419.389	444.12
419.611	431.12
419.834	435.12
420.057	437.12
420.28	421.12
420.503	414.12
420.726	429.12
420.948	447.12
421.171	521.12
421.394	535.12
421.617	462.12
421.839	462.12
422.062	436.12
422.285	472.12
422.507	547.12
422.73	603.12
422.953	580.12
423.175	503.12
423.398	455.12
423.621	477.12
423.843	479.12
424.066	500.12
424.288	488.12
424.511	529.12
424.733	557.12
424.956	639.12
425.178	635.12
425.401	624.12
425.623	643.12
425.846	556.12
426.068	535.12
426.291	507.12
426.513	518.12
426.735	528.12
426.958	566.12
427.18	633.12
427.402	748.12
427.625	862.12
427.847	827.12
428.069	697.12
428.292	604.12
428.514	524.12
428.736	502.12
428.958	495.12
429.181	476.12
429.403	484.12
429.625	481.12
429.847	529.12
430.069	592.12
430.292	570.12
430.514	508.12
430.736	472.12
430.958	471.12
431.18	440.12
431.402	459.12
431.624	425.12
431.846	427.12
432.068	420.12
432.29	423.12
432.512	427.12
432.734	457.12
432.956	443.12
433.178	481.12
433.4	461.12
433.622	437.12
433.844	425.12
434.066	432.12
434.287	418.12
434.509	437.12
434.731	429.12
434.953	429.12
435.175	481.12
435.397	489.12
435.618	505.12
435.84	567.12
436.062	660.12
436.284	692.12
436.505	606.12
436.727	552.12
436.949	499.12
437.17	471.12
437.392	484.12
437.614	484.12
437.835	560.12
438.057	680.12
438.278	773.12
438.5	762.12
438.721	777.12
438.943	757.12
439.165	628.12
439.386	553.12
439.608	549.12
439.829	567.12
440.05	592.12
440.272	645.12
440.493	579.12
440.715	550.12
440.936	519.12
441.158	497.12
441.379	494.12
441.6	501.12
441.822	526.12
442.043	570.12
442.264	651.12
442.486	693.12
442.707	600.12
442.928	547.12
443.149	580.12
443.371	563.12
443.592	620.12
443.813	708.12
444.034	737.12
444.255	616.12
444.476	522.12
444.698	509.12
444.919	496.12
445.14	591.12
445.361	572.12
445.582	575.12
445.803	648.12
446.024	742.12
446.245	764.12
446.466	691.12
446.687	616.12
446.908	533.12
447.129	534.12
447.35	503.12
447.571	496.12
447.792	492.12
448.013	515.12
448.234	518.12
448.455	603.12
448.675	709.12
448.896	781.12
449.117	683.12
449.338	646.12
449.559	748.12
449.779	786.12
450	673.12
450.221	564.12
450.442	521.12
450.662	485.12
450.883	503.12
451.104	547.12
451.324	533.12
451.545	494.12
451.766	478.12
451.986	441.12
452.207	426.12
452.428	442.12
452.648	444.12
452.869	465.12
453.089	463.12
453.31	472.12
453.53	455.12
453.751	463.12
453.971	470.12
454.192	476.12
454.412	471.12
454.633	454.12
454.853	435.12
455.073	441.12
455.294	494.12
455.514	560.12
455.734	550.12
455.955	442.12
456.175	419.12
456.395	397.12
456.616	401.12
456.836	392.12
457.056	411.12
457.276	395.12
457.497	389.12
457.717	382.12
457.937	402.12
458.157	405.12
458.377	422.12
458.598	452.12
458.818	558.12
459.038	668.12
459.258	655.12
459.478	539.12
459.698	463.12
459.918	441.12
460.138	429.12
460.358	437.12
460.578	428.12
460.798	417.12
461.018	427.12
461.238	403.12
461.458	403.12
461.678	416.12
461.898	415.12
462.118	430.12
462.338	433.12
462.558	421.12
462.777	438.12
462.997	416.12
463.217	405.12
463.437	428.12
463.657	438.12
463.876	427.12
464.096	442.12
464.316	456.12
464.536	442.12
464.755	459.12
464.975	499.12
465.195	543.12
465.414	691.12
465.634	575.12
465.854	510.12
466.073	495.12
466.293	463.12
466.512	442.12
466.732	405.12
466.951	429.12
467.171	409.12
467.391	428.12
467.61	454.12
467.829	457.12
468.049	450.12
468.268	436.12
468.488	422.12
468.707	415.12
468.927	431.12
469.146	437.12
469.365	415.12
469.585	405.12
469.804	414.12
470.023	431.12
470.243	449.12
470.462	439.12
470.681	476.12
470.901	467.12
471.12	464.12
471.339	456.12
471.558	419.12
471.777	452.12
471.997	435.12
472.216	400.12
472.435	428.12
472.654	420.12
472.873	446.12
473.092	424.12
473.311	435.12
473.53	429.12
473.749	457.12
473.968	491.12
474.187	609.12
474.406	650.12
474.625	519.12
474.844	488.12
475.063	442.12
475.282	415.12
475.501	422.12
475.72	455.12
475.939	457.12
476.158	431.12
476.377	445.12
476.596	455.12
476.814	466.12
477.033	451.12
477.252	466.12
477.471	461.12
477.69	463.12
477.908	439.12
478.127	462.12
478.346	490.12
478.564	479.12
478.783	468.12
479.002	471.12
479.22	483.12
479.439	517.12
479.658	559.12
479.876	548.12
480.095	556.12
480.313	574.12
480.532	535.12
480.751	525.12
480.969	528.12
481.188	542.12
481.406	550.12
481.624	544.12
481.843	506.12
482.061	515.12
482.28	539.12
482.498	488.12
482.717	508.12
482.935	491.12
483.153	501.12
483.372	499.12
483.59	526.12
483.808	504.12
484.027	489.12
484.245	527.12
484.463	528.12
484.681	526.12
484.9	520.12
485.118	536.12
485.336	518.12
485.554	520.12
485.772	520.12
485.99	531.12
486.209	539.12
486.427	543.12
486.645	548.12
486.863	581.12
487.081	604.12
487.299	574.12
487.517	578.12
487.735	559.12
487.953	563.12
488.171	561.12
488.389	558.12
488.607	556.12
488.825	576.12
489.043	580.12
489.261	582.12
489.479	574.12
489.696	585.12
489.914	556.12
490.132	586.12
490.35	596.12
490.568	602.12
490.786	599.12
491.003	617.12
491.221	609.12
491.439	627.12
491.657	630.12
491.874	656.12
492.092	650.12
492.31	639.12
492.527	645.12
492.745	655.12
492.963	655.12
493.18	666.12
493.398	641.12
493.615	667.12
493.833	682.12
494.05	656.12
494.268	677.12
494.485	684.12
494.703	664.12
494.92	714.12
495.138	675.12
495.355	679.12
495.573	676.12
495.79	707.12
496.008	647.12
496.225	691.12
496.442	686.12
496.66	707.12
496.877	667.12
497.094	684.12
497.312	719.12
497.529	711.12
497.746	687.12
497.963	687.12
498.181	735.12
498.398	726.12
498.615	745.12
498.832	735.12
499.049	715.12
499.267	731.12
499.484	742.12
499.701	755.12
499.918	727.12
500.135	751.12
500.352	753.12
500.569	776.12
500.786	805.12
501.003	797.12
501.22	805.12
501.437	790.12
501.654	786.12
501.871	785.12
