Data from 1987.PennyLincolnUp.Lamp.En5.5.200Scan.071819.P2_HRD10591_17-16-10-971.txt Node
Date: Thu Jul 18 17:16:10 EDT 2019
User: cochatt
Spectrometer: HR+D1059
Trigger mode: 1
Integration Time (sec): 1.000000E-1
Scans to average: 1
Electric dark correction enabled: true
Nonlinearity correction enabled: false
Boxcar width: 0
XAxis mode: Wavelengths
Number of Pixels in Spectrum: 2048
>>>>>Begin Spectral Data<<<<<
223.165	-5.81
223.4	-5.81
223.635	-5.81
223.869	-23.81
224.104	-34.81
224.338	-6.81
224.573	-11.81
224.808	-3.81
225.042	-0.81
225.277	-18.81
225.511	-1.81
225.746	4.19
225.98	13.19
226.215	17.19
226.449	16.19
226.683	16.19
226.918	19.19
227.152	22.19
227.387	45.19
227.621	42.19
227.856	43.19
228.09	52.19
228.324	61.19
228.559	61.19
228.793	57.19
229.027	101.19
229.262	125.19
229.496	124.19
229.73	155.19
229.964	185.19
230.199	150.19
230.433	139.19
230.667	130.19
230.901	127.19
231.136	127.19
231.37	130.19
231.604	127.19
231.838	124.19
232.072	109.19
232.306	122.19
232.541	128.19
232.775	132.19
233.009	113.19
233.243	118.19
233.477	112.19
233.711	118.19
233.945	114.19
234.179	116.19
234.413	120.19
234.647	118.19
234.881	123.19
235.115	130.19
235.349	135.19
235.583	120.19
235.817	127.19
236.051	134.19
236.285	136.19
236.519	124.19
236.753	128.19
236.987	163.19
237.221	213.19
237.455	283.19
237.689	210.19
237.922	149.19
238.156	142.19
238.39	142.19
238.624	119.19
238.858	119.19
239.091	123.19
239.325	132.19
239.559	129.19
239.793	136.19
240.027	147.19
240.26	167.19
240.494	188.19
240.728	158.19
240.961	164.19
241.195	160.19
241.429	154.19
241.662	136.19
241.896	139.19
242.13	138.19
242.363	136.19
242.597	141.19
242.83	131.19
243.064	143.19
243.298	128.19
243.531	152.19
243.765	140.19
243.998	152.19
244.232	130.19
244.465	140.19
244.699	133.19
244.932	129.19
245.166	146.19
245.399	141.19
245.633	135.19
245.866	150.19
246.099	145.19
246.333	156.19
246.566	162.19
246.8	137.19
247.033	156.19
247.266	150.19
247.5	151.19
247.733	168.19
247.966	171.19
248.2	182.19
248.433	167.19
248.666	154.19
248.899	186.19
249.133	202.19
249.366	212.19
249.599	194.19
249.832	190.19
250.066	184.19
250.299	193.19
250.532	204.19
250.765	188.19
250.998	225.19
251.231	229.19
251.465	210.19
251.698	225.19
251.931	207.19
252.164	200.19
252.397	212.19
252.63	192.19
252.863	192.19
253.096	211.19
253.329	241.19
253.562	235.19
253.795	220.19
254.028	215.19
254.261	231.19
254.494	226.19
254.727	265.19
254.96	283.19
255.193	291.19
255.426	262.19
255.659	243.19
255.892	228.19
256.124	236.19
256.357	220.19
256.59	217.19
256.823	204.19
257.056	195.19
257.289	209.19
257.521	198.19
257.754	221.19
257.987	193.19
258.22	198.19
258.452	205.19
258.685	191.19
258.918	196.19
259.151	209.19
259.383	221.19
259.616	198.19
259.849	213.19
260.081	229.19
260.314	260.19
260.547	261.19
260.779	254.19
261.012	242.19
261.244	214.19
261.477	220.19
261.71	210.19
261.942	237.19
262.175	244.19
262.407	246.19
262.64	208.19
262.872	204.19
263.105	206.19
263.337	197.19
263.57	193.19
263.802	189.19
264.035	193.19
264.267	199.19
264.499	200.19
264.732	200.19
264.964	196.19
265.197	199.19
265.429	178.19
265.661	191.19
265.894	199.19
266.126	217.19
266.358	216.19
266.591	212.19
266.823	213.19
267.055	209.19
267.287	213.19
267.52	207.19
267.752	214.19
267.984	204.19
268.216	216.19
268.448	223.19
268.681	220.19
268.913	230.19
269.145	252.19
269.377	264.19
269.609	257.19
269.841	264.19
270.073	249.19
270.306	284.19
270.538	301.19
270.77	309.19
271.002	312.19
271.234	292.19
271.466	284.19
271.698	311.19
271.93	310.19
272.162	327.19
272.394	332.19
272.626	288.19
272.858	288.19
273.09	280.19
273.322	268.19
273.553	253.19
273.785	263.19
274.017	254.19
274.249	268.19
274.481	245.19
274.713	236.19
274.945	268.19
275.176	247.19
275.408	248.19
275.64	249.19
275.872	256.19
276.104	244.19
276.335	262.19
276.567	266.19
276.799	268.19
277.031	295.19
277.262	305.19
277.494	313.19
277.726	288.19
277.957	253.19
278.189	268.19
278.421	254.19
278.652	246.19
278.884	236.19
279.115	261.19
279.347	248.19
279.579	231.19
279.81	233.19
280.042	220.19
280.273	233.19
280.505	229.19
280.736	233.19
280.968	226.19
281.199	233.19
281.431	232.19
281.662	249.19
281.894	229.19
282.125	244.19
282.356	270.19
282.588	299.19
282.819	296.19
283.051	260.19
283.282	242.19
283.513	237.19
283.745	245.19
283.976	245.19
284.207	228.19
284.439	249.19
284.67	226.19
284.901	244.19
285.132	244.19
285.364	247.19
285.595	249.19
285.826	253.19
286.057	244.19
286.288	256.19
286.52	226.19
286.751	236.19
286.982	226.19
287.213	234.19
287.444	233.19
287.675	252.19
287.906	271.19
288.138	274.19
288.369	263.19
288.6	277.19
288.831	252.19
289.062	256.19
289.293	272.19
289.524	244.19
289.755	260.19
289.986	244.19
290.217	252.19
290.448	245.19
290.679	253.19
290.91	247.19
291.141	240.19
291.371	238.19
291.602	229.19
291.833	233.19
292.064	236.19
292.295	227.19
292.526	245.19
292.757	249.19
292.987	242.19
293.218	250.19
293.449	253.19
293.68	247.19
293.91	247.19
294.141	241.19
294.372	257.19
294.603	248.19
294.833	235.19
295.064	252.19
295.295	250.19
295.525	248.19
295.756	254.19
295.987	268.19
296.217	299.19
296.448	311.19
296.679	273.19
296.909	255.19
297.14	262.19
297.37	258.19
297.601	249.19
297.831	250.19
298.062	250.19
298.292	280.19
298.523	251.19
298.753	267.19
298.984	251.19
299.214	269.19
299.445	265.19
299.675	270.19
299.905	270.19
300.136	278.19
300.366	269.19
300.597	269.19
300.827	279.19
301.057	278.19
301.288	300.19
301.518	288.19
301.748	263.19
301.979	280.19
302.209	275.19
302.439	284.19
302.669	281.19
302.9	286.19
303.13	268.19
303.36	284.19
303.59	289.19
303.82	280.19
304.051	287.19
304.281	285.19
304.511	273.19
304.741	266.19
304.971	278.19
305.201	281.19
305.431	280.19
305.661	268.19
305.891	276.19
306.121	265.19
306.352	302.19
306.582	283.19
306.812	294.19
307.042	287.19
307.272	290.19
307.502	280.19
307.731	285.19
307.961	277.19
308.191	280.19
308.421	281.19
308.651	292.19
308.881	325.19
309.111	308.19
309.341	305.19
309.571	337.19
309.8	311.19
310.03	354.19
310.26	367.19
310.49	362.19
310.72	357.19
310.949	390.19
311.179	376.19
311.409	384.19
311.639	358.19
311.868	360.19
312.098	372.19
312.328	368.19
312.557	399.19
312.787	414.19
313.017	408.19
313.246	357.19
313.476	349.19
313.706	361.19
313.935	349.19
314.165	387.19
314.394	380.19
314.624	391.19
314.853	354.19
315.083	359.19
315.312	333.19
315.542	330.19
315.771	333.19
316.001	325.19
316.23	316.19
316.46	316.19
316.689	353.19
316.919	350.19
317.148	350.19
317.377	363.19
317.607	347.19
317.836	356.19
318.065	346.19
318.295	331.19
318.524	337.19
318.753	344.19
318.983	333.19
319.212	325.19
319.441	345.19
319.67	350.19
319.9	352.19
320.129	351.19
320.358	333.19
320.587	356.19
320.816	369.19
321.046	375.19
321.275	376.19
321.504	361.19
321.733	384.19
321.962	376.19
322.191	412.19
322.42	432.19
322.649	464.19
322.878	464.19
323.108	485.19
323.337	530.19
323.566	562.19
323.795	624.19
324.024	701.19
324.253	844.19
324.482	1258.19
324.71	1944.19
324.939	2746.19
325.168	2444.19
325.397	1359.19
325.626	836.19
325.855	648.19
326.084	570.19
326.313	537.19
326.542	566.19
326.77	641.19
326.999	780.19
327.228	1116.19
327.457	1706.19
327.686	2054.19
327.914	1460.19
328.143	902.19
328.372	794.19
328.6	680.19
328.829	660.19
329.058	665.19
329.287	650.19
329.515	617.19
329.744	524.19
329.972	493.19
330.201	520.19
330.43	568.19
330.658	615.19
330.887	702.19
331.115	694.19
331.344	565.19
331.572	517.19
331.801	488.19
332.03	497.19
332.258	452.19
332.486	438.19
332.715	422.19
332.943	407.19
333.172	406.19
333.4	392.19
333.629	400.19
333.857	412.19
334.085	393.19
334.314	408.19
334.542	412.19
334.771	422.19
334.999	404.19
335.227	406.19
335.455	401.19
335.684	392.19
335.912	394.19
336.14	365.19
336.369	377.19
336.597	407.19
336.825	421.19
337.053	410.19
337.281	385.19
337.51	378.19
337.738	384.19
337.966	394.19
338.194	411.19
338.422	399.19
338.65	382.19
338.878	372.19
339.106	352.19
339.334	376.19
339.562	379.19
339.79	366.19
340.018	379.19
340.246	388.19
340.474	392.19
340.702	380.19
340.93	386.19
341.158	386.19
341.386	402.19
341.614	395.19
341.842	403.19
342.07	397.19
342.298	378.19
342.526	391.19
342.754	380.19
342.981	359.19
343.209	341.19
343.437	368.19
343.665	358.19
343.893	339.19
344.12	361.19
344.348	360.19
344.576	383.19
344.804	412.19
345.031	384.19
345.259	435.19
345.487	396.19
345.714	394.19
345.942	388.19
346.17	386.19
346.397	374.19
346.625	382.19
346.853	382.19
347.08	365.19
347.308	396.19
347.535	412.19
347.763	420.19
347.99	403.19
348.218	406.19
348.445	406.19
348.673	427.19
348.9	404.19
349.128	393.19
349.355	370.19
349.583	382.19
349.81	351.19
350.037	376.19
350.265	370.19
350.492	369.19
350.72	389.19
350.947	392.19
351.174	394.19
351.402	417.19
351.629	416.19
351.856	398.19
352.083	409.19
352.311	446.19
352.538	436.19
352.765	419.19
352.992	410.19
353.22	396.19
353.447	387.19
353.674	387.19
353.901	362.19
354.128	366.19
354.355	332.19
354.583	335.19
354.81	353.19
355.037	329.19
355.264	333.19
355.491	322.19
355.718	335.19
355.945	312.19
356.172	336.19
356.399	331.19
356.626	338.19
356.853	356.19
357.08	345.19
357.307	323.19
357.534	332.19
357.761	325.19
357.988	343.19
358.215	364.19
358.441	323.19
358.668	327.19
358.895	356.19
359.122	356.19
359.349	361.19
359.576	388.19
359.802	411.19
360.029	460.19
360.256	498.19
360.483	474.19
360.709	421.19
360.936	395.19
361.163	374.19
361.39	397.19
361.616	400.19
361.843	393.19
362.07	382.19
362.296	406.19
362.523	374.19
362.749	393.19
362.976	388.19
363.203	373.19
363.429	361.19
363.656	359.19
363.882	343.19
364.109	350.19
364.335	355.19
364.562	362.19
364.788	365.19
365.015	361.19
365.241	363.19
365.468	347.19
365.694	356.19
365.92	377.19
366.147	361.19
366.373	340.19
366.599	368.19
366.826	380.19
367.052	347.19
367.278	358.19
367.505	355.19
367.731	336.19
367.957	347.19
368.184	359.19
368.41	368.19
368.636	382.19
368.862	376.19
369.089	377.19
369.315	358.19
369.541	342.19
369.767	362.19
369.993	357.19
370.219	354.19
370.445	350.19
370.672	349.19
370.898	340.19
371.124	343.19
371.35	358.19
371.576	335.19
371.802	344.19
372.028	333.19
372.254	327.19
372.48	348.19
372.706	333.19
372.932	335.19
373.158	344.19
373.384	335.19
373.61	350.19
373.835	343.19
374.061	353.19
374.287	349.19
374.513	371.19
374.739	337.19
374.965	335.19
375.191	337.19
375.416	324.19
375.642	337.19
375.868	330.19
376.094	357.19
376.319	342.19
376.545	330.19
376.771	338.19
376.997	345.19
377.222	342.19
377.448	328.19
377.674	330.19
377.899	339.19
378.125	340.19
378.35	329.19
378.576	315.19
378.802	327.19
379.027	334.19
379.253	340.19
379.478	326.19
379.704	337.19
379.929	337.19
380.155	336.19
380.38	330.19
380.606	344.19
380.831	365.19
381.057	346.19
381.282	361.19
381.507	343.19
381.733	337.19
381.958	332.19
382.184	354.19
382.409	341.19
382.634	344.19
382.86	358.19
383.085	321.19
383.31	332.19
383.535	338.19
383.761	347.19
383.986	338.19
384.211	329.19
384.436	349.19
384.662	357.19
384.887	358.19
385.112	355.19
385.337	352.19
385.562	352.19
385.787	349.19
386.013	365.19
386.238	359.19
386.463	357.19
386.688	370.19
386.913	358.19
387.138	375.19
387.363	357.19
387.588	350.19
387.813	357.19
388.038	346.19
388.263	369.19
388.488	363.19
388.713	365.19
388.938	351.19
389.163	365.19
389.387	357.19
389.612	342.19
389.837	348.19
390.062	361.19
390.287	354.19
390.512	370.19
390.736	366.19
390.961	369.19
391.186	335.19
391.411	350.19
391.636	347.19
391.86	365.19
392.085	368.19
392.31	355.19
392.534	346.19
392.759	359.19
392.984	356.19
393.208	363.19
393.433	360.19
393.658	357.19
393.882	368.19
394.107	361.19
394.331	374.19
394.556	352.19
394.78	360.19
395.005	369.19
395.229	365.19
395.454	366.19
395.678	379.19
395.903	376.19
396.127	433.19
396.352	418.19
396.576	392.19
396.801	372.19
397.025	394.19
397.249	377.19
397.474	369.19
397.698	377.19
397.922	392.19
398.147	408.19
398.371	402.19
398.595	390.19
398.82	369.19
399.044	398.19
399.268	410.19
399.492	420.19
399.717	428.19
399.941	458.19
400.165	487.19
400.389	530.19
400.613	470.19
400.837	438.19
401.062	416.19
401.286	424.19
401.51	428.19
401.734	422.19
401.958	405.19
402.182	419.19
402.406	422.19
402.63	437.19
402.854	414.19
403.078	404.19
403.302	429.19
403.526	454.19
403.75	438.19
403.974	442.19
404.198	434.19
404.422	417.19
404.645	423.19
404.869	435.19
405.093	438.19
405.317	480.19
405.541	472.19
405.765	489.19
405.988	440.19
406.212	466.19
406.436	536.19
406.66	528.19
406.883	509.19
407.107	521.19
407.331	547.19
407.555	612.19
407.778	609.19
408.002	528.19
408.226	499.19
408.449	484.19
408.673	497.19
408.896	518.19
409.12	560.19
409.344	527.19
409.567	470.19
409.791	440.19
410.014	449.19
410.238	448.19
410.461	444.19
410.685	449.19
410.908	470.19
411.132	493.19
411.355	542.19
411.578	494.19
411.802	450.19
412.025	448.19
412.249	430.19
412.472	457.19
412.695	466.19
412.919	439.19
413.142	429.19
413.365	421.19
413.589	410.19
413.812	420.19
414.035	409.19
414.258	408.19
414.482	412.19
414.705	410.19
414.928	437.19
415.151	413.19
415.374	413.19
415.597	412.19
415.821	405.19
416.044	407.19
416.267	441.19
416.49	417.19
416.713	408.19
416.936	415.19
417.159	401.19
417.382	428.19
417.605	432.19
417.828	455.19
418.051	461.19
418.274	446.19
418.497	416.19
418.72	417.19
418.943	424.19
419.166	412.19
419.389	452.19
419.611	448.19
419.834	439.19
420.057	458.19
420.28	446.19
420.503	425.19
420.726	442.19
420.948	447.19
421.171	531.19
421.394	553.19
421.617	471.19
421.839	473.19
422.062	466.19
422.285	490.19
422.507	550.19
422.73	604.19
422.953	591.19
423.175	517.19
423.398	489.19
423.621	471.19
423.843	494.19
424.066	506.19
424.288	493.19
424.511	516.19
424.733	586.19
424.956	648.19
425.178	644.19
425.401	654.19
425.623	656.19
425.846	582.19
426.068	523.19
426.291	531.19
426.513	556.19
426.735	560.19
426.958	591.19
427.18	671.19
427.402	794.19
427.625	877.19
427.847	834.19
428.069	715.19
428.292	605.19
428.514	567.19
428.736	521.19
428.958	519.19
429.181	502.19
429.403	488.19
429.625	479.19
429.847	534.19
430.069	596.19
430.292	602.19
430.514	520.19
430.736	485.19
430.958	477.19
431.18	446.19
431.402	449.19
431.624	445.19
431.846	443.19
432.068	432.19
432.29	443.19
432.512	446.19
432.734	482.19
432.956	435.19
433.178	466.19
433.4	472.19
433.622	456.19
433.844	448.19
434.066	425.19
434.287	422.19
434.509	446.19
434.731	455.19
434.953	449.19
435.175	487.19
435.397	509.19
435.618	527.19
435.84	574.19
436.062	666.19
436.284	732.19
436.505	636.19
436.727	567.19
436.949	527.19
437.17	494.19
437.392	488.19
437.614	511.19
437.835	593.19
438.057	706.19
438.278	785.19
438.5	784.19
438.721	813.19
438.943	740.19
439.165	626.19
439.386	587.19
439.608	569.19
439.829	578.19
440.05	600.19
440.272	666.19
440.493	597.19
440.715	564.19
440.936	538.19
441.158	492.19
441.379	514.19
441.6	531.19
441.822	529.19
442.043	600.19
442.264	635.19
442.486	711.19
442.707	605.19
442.928	568.19
443.149	576.19
443.371	568.19
443.592	610.19
443.813	714.19
444.034	758.19
444.255	617.19
444.476	567.19
444.698	529.19
444.919	516.19
445.14	616.19
445.361	585.19
445.582	585.19
445.803	653.19
446.024	791.19
446.245	759.19
446.466	680.19
446.687	595.19
446.908	561.19
447.129	531.19
447.35	504.19
447.571	502.19
447.792	477.19
448.013	516.19
448.234	571.19
448.455	583.19
448.675	669.19
448.896	798.19
449.117	710.19
449.338	657.19
449.559	748.19
449.779	810.19
450	703.19
450.221	588.19
450.442	531.19
450.662	500.19
450.883	520.19
451.104	564.19
451.324	530.19
451.545	504.19
451.766	466.19
451.986	461.19
452.207	451.19
452.428	463.19
452.648	448.19
452.869	440.19
453.089	473.19
453.31	469.19
453.53	457.19
453.751	451.19
453.971	442.19
454.192	485.19
454.412	481.19
454.633	462.19
454.853	469.19
455.073	456.19
455.294	496.19
455.514	553.19
455.734	548.19
455.955	465.19
456.175	437.19
456.395	429.19
456.616	426.19
456.836	381.19
457.056	406.19
457.276	389.19
457.497	406.19
457.717	407.19
457.937	411.19
458.157	418.19
458.377	424.19
458.598	456.19
458.818	567.19
459.038	673.19
459.258	672.19
459.478	545.19
459.698	491.19
459.918	438.19
460.138	434.19
460.358	422.19
460.578	430.19
460.798	436.19
461.018	431.19
461.238	426.19
461.458	452.19
461.678	424.19
461.898	419.19
462.118	430.19
462.338	459.19
462.558	428.19
462.777	444.19
462.997	437.19
463.217	437.19
463.437	449.19
463.657	441.19
463.876	441.19
464.096	466.19
464.316	472.19
464.536	476.19
464.755	463.19
464.975	480.19
465.195	574.19
465.414	720.19
465.634	599.19
465.854	526.19
466.073	511.19
466.293	459.19
466.512	444.19
466.732	441.19
466.951	448.19
467.171	433.19
467.391	448.19
467.61	471.19
467.829	473.19
468.049	452.19
468.268	439.19
468.488	433.19
468.707	428.19
468.927	417.19
469.146	402.19
469.365	420.19
469.585	407.19
469.804	440.19
470.023	440.19
470.243	472.19
470.462	462.19
470.681	489.19
470.901	485.19
471.12	450.19
471.339	429.19
471.558	440.19
471.777	458.19
471.997	436.19
472.216	423.19
472.435	443.19
472.654	428.19
472.873	441.19
473.092	441.19
473.311	431.19
473.53	435.19
473.749	448.19
473.968	494.19
474.187	616.19
474.406	642.19
474.625	527.19
474.844	486.19
475.063	455.19
475.282	452.19
475.501	457.19
475.72	463.19
475.939	465.19
476.158	465.19
476.377	465.19
476.596	470.19
476.814	471.19
477.033	465.19
477.252	481.19
477.471	477.19
477.69	475.19
477.908	467.19
478.127	476.19
478.346	466.19
478.564	464.19
478.783	466.19
479.002	498.19
479.22	494.19
479.439	516.19
479.658	544.19
479.876	543.19
480.095	544.19
480.313	570.19
480.532	565.19
480.751	522.19
480.969	528.19
481.188	540.19
481.406	581.19
481.624	521.19
481.843	522.19
482.061	530.19
482.28	509.19
482.498	517.19
482.717	553.19
482.935	523.19
483.153	550.19
483.372	545.19
483.59	536.19
483.808	511.19
484.027	513.19
484.245	529.19
484.463	512.19
484.681	534.19
484.9	540.19
485.118	543.19
485.336	569.19
485.554	544.19
485.772	561.19
485.99	543.19
486.209	593.19
486.427	553.19
486.645	590.19
486.863	607.19
487.081	596.19
487.299	592.19
487.517	584.19
487.735	552.19
487.953	570.19
488.171	566.19
488.389	564.19
488.607	567.19
488.825	559.19
489.043	568.19
489.261	578.19
489.479	593.19
489.696	570.19
489.914	606.19
490.132	615.19
490.35	593.19
490.568	602.19
490.786	629.19
491.003	645.19
491.221	626.19
491.439	626.19
491.657	632.19
491.874	664.19
492.092	666.19
492.31	659.19
492.527	651.19
492.745	661.19
492.963	670.19
493.18	669.19
493.398	674.19
493.615	669.19
493.833	664.19
494.05	679.19
494.268	689.19
494.485	686.19
494.703	677.19
494.92	685.19
495.138	668.19
495.355	694.19
495.573	692.19
495.79	670.19
496.008	706.19
496.225	701.19
496.442	684.19
496.66	702.19
496.877	689.19
497.094	710.19
497.312	680.19
497.529	661.19
497.746	713.19
497.963	702.19
498.181	712.19
498.398	729.19
498.615	771.19
498.832	758.19
499.049	733.19
499.267	778.19
499.484	757.19
499.701	764.19
499.918	770.19
500.135	798.19
500.352	802.19
500.569	798.19
500.786	808.19
501.003	833.19
501.22	808.19
501.437	824.19
501.654	786.19
501.871	833.19
