Data from 1987.PennyLincolnUp.Lamp.En5.5.200Scan.071819.P2_HRD10591_17-15-34-970.txt Node
Date: Thu Jul 18 17:15:34 EDT 2019
User: cochatt
Spectrometer: HR+D1059
Trigger mode: 1
Integration Time (sec): 1.000000E-1
Scans to average: 1
Electric dark correction enabled: true
Nonlinearity correction enabled: false
Boxcar width: 0
XAxis mode: Wavelengths
Number of Pixels in Spectrum: 2048
>>>>>Begin Spectral Data<<<<<
223.165	-23.19
223.4	-23.19
223.635	-23.19
223.869	-7.19
224.104	-21.19
224.338	-18.19
224.573	-4.19
224.808	-4.19
225.042	-12.19
225.277	-9.19
225.511	-5.19
225.746	9.81
225.98	0.81
226.215	8.81
226.449	12.81
226.683	13.81
226.918	31.81
227.152	26.81
227.387	35.81
227.621	38.81
227.856	32.81
228.09	32.81
228.324	48.81
228.559	44.81
228.793	70.81
229.027	86.81
229.262	119.81
229.496	123.81
229.73	154.81
229.964	176.81
230.199	148.81
230.433	120.81
230.667	119.81
230.901	123.81
231.136	116.81
231.37	104.81
231.604	111.81
231.838	108.81
232.072	100.81
232.306	114.81
232.541	122.81
232.775	108.81
233.009	115.81
233.243	114.81
233.477	115.81
233.711	125.81
233.945	119.81
234.179	110.81
234.413	104.81
234.647	107.81
234.881	102.81
235.115	103.81
235.349	124.81
235.583	120.81
235.817	102.81
236.051	126.81
236.285	132.81
236.519	124.81
236.753	134.81
236.987	144.81
237.221	186.81
237.455	265.81
237.689	194.81
237.922	159.81
238.156	128.81
238.39	115.81
238.624	122.81
238.858	118.81
239.091	110.81
239.325	124.81
239.559	122.81
239.793	120.81
240.027	128.81
240.26	152.81
240.494	159.81
240.728	143.81
240.961	153.81
241.195	146.81
241.429	130.81
241.662	127.81
241.896	128.81
242.13	123.81
242.363	136.81
242.597	115.81
242.83	140.81
243.064	138.81
243.298	138.81
243.531	138.81
243.765	133.81
243.998	139.81
244.232	140.81
244.465	134.81
244.699	117.81
244.932	128.81
245.166	127.81
245.399	116.81
245.633	125.81
245.866	128.81
246.099	138.81
246.333	143.81
246.566	139.81
246.8	128.81
247.033	137.81
247.266	153.81
247.5	165.81
247.733	163.81
247.966	161.81
248.2	177.81
248.433	167.81
248.666	174.81
248.899	178.81
249.133	198.81
249.366	198.81
249.599	203.81
249.832	182.81
250.066	175.81
250.299	175.81
250.532	183.81
250.765	175.81
250.998	200.81
251.231	229.81
251.465	225.81
251.698	201.81
251.931	180.81
252.164	192.81
252.397	193.81
252.63	199.81
252.863	203.81
253.096	206.81
253.329	227.81
253.562	222.81
253.795	212.81
254.028	223.81
254.261	225.81
254.494	223.81
254.727	246.81
254.96	279.81
255.193	272.81
255.426	275.81
255.659	222.81
255.892	224.81
256.124	204.81
256.357	213.81
256.59	193.81
256.823	196.81
257.056	200.81
257.289	206.81
257.521	192.81
257.754	193.81
257.987	207.81
258.22	195.81
258.452	192.81
258.685	182.81
258.918	197.81
259.151	199.81
259.383	187.81
259.616	213.81
259.849	220.81
260.081	225.81
260.314	234.81
260.547	260.81
260.779	238.81
261.012	236.81
261.244	234.81
261.477	219.81
261.71	204.81
261.942	223.81
262.175	244.81
262.407	208.81
262.64	205.81
262.872	201.81
263.105	203.81
263.337	194.81
263.57	204.81
263.802	191.81
264.035	201.81
264.267	188.81
264.499	174.81
264.732	191.81
264.964	184.81
265.197	196.81
265.429	172.81
265.661	176.81
265.894	178.81
266.126	198.81
266.358	194.81
266.591	195.81
266.823	179.81
267.055	190.81
267.287	201.81
267.52	203.81
267.752	208.81
267.984	224.81
268.216	212.81
268.448	219.81
268.681	209.81
268.913	219.81
269.145	232.81
269.377	266.81
269.609	259.81
269.841	242.81
270.073	250.81
270.306	287.81
270.538	297.81
270.77	292.81
271.002	283.81
271.234	279.81
271.466	285.81
271.698	296.81
271.93	304.81
272.162	291.81
272.394	313.81
272.626	288.81
272.858	269.81
273.09	260.81
273.322	255.81
273.553	228.81
273.785	227.81
274.017	220.81
274.249	233.81
274.481	244.81
274.713	240.81
274.945	237.81
275.176	235.81
275.408	244.81
275.64	221.81
275.872	243.81
276.104	225.81
276.335	247.81
276.567	249.81
276.799	267.81
277.031	290.81
277.262	289.81
277.494	308.81
277.726	295.81
277.957	267.81
278.189	235.81
278.421	252.81
278.652	255.81
278.884	231.81
279.115	229.81
279.347	241.81
279.579	238.81
279.81	235.81
280.042	222.81
280.273	207.81
280.505	234.81
280.736	222.81
280.968	224.81
281.199	210.81
281.431	224.81
281.662	225.81
281.894	219.81
282.125	236.81
282.356	254.81
282.588	296.81
282.819	291.81
283.051	250.81
283.282	217.81
283.513	227.81
283.745	225.81
283.976	241.81
284.207	229.81
284.439	236.81
284.67	241.81
284.901	224.81
285.132	215.81
285.364	225.81
285.595	222.81
285.826	213.81
286.057	235.81
286.288	231.81
286.52	225.81
286.751	227.81
286.982	245.81
287.213	221.81
287.444	229.81
287.675	228.81
287.906	247.81
288.138	254.81
288.369	256.81
288.6	256.81
288.831	243.81
289.062	244.81
289.293	239.81
289.524	242.81
289.755	230.81
289.986	247.81
290.217	216.81
290.448	227.81
290.679	221.81
290.91	227.81
291.141	233.81
291.371	233.81
291.602	239.81
291.833	237.81
292.064	234.81
292.295	222.81
292.526	242.81
292.757	231.81
292.987	231.81
293.218	239.81
293.449	226.81
293.68	246.81
293.91	243.81
294.141	245.81
294.372	236.81
294.603	226.81
294.833	231.81
295.064	233.81
295.295	242.81
295.525	226.81
295.756	232.81
295.987	252.81
296.217	285.81
296.448	300.81
296.679	270.81
296.909	246.81
297.14	229.81
297.37	217.81
297.601	236.81
297.831	235.81
298.062	250.81
298.292	233.81
298.523	242.81
298.753	230.81
298.984	266.81
299.214	251.81
299.445	251.81
299.675	254.81
299.905	260.81
300.136	271.81
300.366	230.81
300.597	253.81
300.827	260.81
301.057	263.81
301.288	287.81
301.518	263.81
301.748	255.81
301.979	254.81
302.209	242.81
302.439	268.81
302.669	266.81
302.9	259.81
303.13	271.81
303.36	285.81
303.59	288.81
303.82	290.81
304.051	273.81
304.281	264.81
304.511	250.81
304.741	256.81
304.971	265.81
305.201	272.81
305.431	245.81
305.661	256.81
305.891	254.81
306.121	264.81
306.352	274.81
306.582	258.81
306.812	283.81
307.042	270.81
307.272	262.81
307.502	293.81
307.731	289.81
307.961	273.81
308.191	275.81
308.421	275.81
308.651	288.81
308.881	283.81
309.111	296.81
309.341	288.81
309.571	291.81
309.8	303.81
310.03	335.81
310.26	336.81
310.49	349.81
310.72	349.81
310.949	389.81
311.179	378.81
311.409	351.81
311.639	339.81
311.868	356.81
312.098	335.81
312.328	345.81
312.557	358.81
312.787	377.81
313.017	374.81
313.246	354.81
313.476	330.81
313.706	345.81
313.935	359.81
314.165	360.81
314.394	372.81
314.624	374.81
314.853	354.81
315.083	348.81
315.312	326.81
315.542	322.81
315.771	328.81
316.001	327.81
316.23	299.81
316.46	340.81
316.689	331.81
316.919	368.81
317.148	341.81
317.377	348.81
317.607	348.81
317.836	343.81
318.065	350.81
318.295	346.81
318.524	334.81
318.753	325.81
318.983	323.81
319.212	330.81
319.441	341.81
319.67	355.81
319.9	329.81
320.129	331.81
320.358	327.81
320.587	354.81
320.816	346.81
321.046	358.81
321.275	378.81
321.504	354.81
321.733	389.81
321.962	395.81
322.191	397.81
322.42	401.81
322.649	436.81
322.878	464.81
323.108	465.81
323.337	491.81
323.566	549.81
323.795	606.81
324.024	647.81
324.253	824.81
324.482	1241.81
324.71	1894.81
324.939	2689.81
325.168	2335.81
325.397	1296.81
325.626	795.81
325.855	636.81
326.084	564.81
326.313	531.81
326.542	561.81
326.77	604.81
326.999	730.81
327.228	1072.81
327.457	1639.81
327.686	2004.81
327.914	1363.81
328.143	881.81
328.372	732.81
328.6	670.81
328.829	636.81
329.058	638.81
329.287	651.81
329.515	588.81
329.744	512.81
329.972	499.81
330.201	487.81
330.43	538.81
330.658	609.81
330.887	683.81
331.115	643.81
331.344	537.81
331.572	490.81
331.801	480.81
332.03	489.81
332.258	455.81
332.486	426.81
332.715	400.81
332.943	386.81
333.172	369.81
333.4	409.81
333.629	380.81
333.857	391.81
334.085	397.81
334.314	395.81
334.542	392.81
334.771	396.81
334.999	395.81
335.227	395.81
335.455	386.81
335.684	368.81
335.912	366.81
336.14	371.81
336.369	385.81
336.597	385.81
336.825	387.81
337.053	401.81
337.281	368.81
337.51	373.81
337.738	392.81
337.966	386.81
338.194	371.81
338.422	400.81
338.65	362.81
338.878	374.81
339.106	361.81
339.334	368.81
339.562	361.81
339.79	346.81
340.018	346.81
340.246	390.81
340.474	380.81
340.702	383.81
340.93	388.81
341.158	368.81
341.386	369.81
341.614	382.81
341.842	378.81
342.07	354.81
342.298	375.81
342.526	364.81
342.754	349.81
342.981	343.81
343.209	337.81
343.437	337.81
343.665	333.81
343.893	353.81
344.12	375.81
344.348	348.81
344.576	378.81
344.804	375.81
345.031	375.81
345.259	422.81
345.487	411.81
345.714	402.81
345.942	401.81
346.17	378.81
346.397	381.81
346.625	376.81
346.853	382.81
347.08	381.81
347.308	372.81
347.535	384.81
347.763	400.81
347.99	400.81
348.218	404.81
348.445	421.81
348.673	398.81
348.9	382.81
349.128	360.81
349.355	364.81
349.583	355.81
349.81	342.81
350.037	366.81
350.265	366.81
350.492	359.81
350.72	379.81
350.947	376.81
351.174	385.81
351.402	397.81
351.629	384.81
351.856	395.81
352.083	392.81
352.311	407.81
352.538	402.81
352.765	419.81
352.992	406.81
353.22	385.81
353.447	370.81
353.674	366.81
353.901	339.81
354.128	334.81
354.355	327.81
354.583	350.81
354.81	328.81
355.037	317.81
355.264	318.81
355.491	326.81
355.718	319.81
355.945	314.81
356.172	321.81
356.399	323.81
356.626	328.81
356.853	331.81
357.08	329.81
357.307	314.81
357.534	332.81
357.761	312.81
357.988	332.81
358.215	320.81
358.441	330.81
358.668	350.81
358.895	330.81
359.122	345.81
359.349	370.81
359.576	372.81
359.802	424.81
360.029	475.81
360.256	492.81
360.483	439.81
360.709	406.81
360.936	375.81
361.163	381.81
361.39	388.81
361.616	389.81
361.843	370.81
362.07	386.81
362.296	387.81
362.523	380.81
362.749	368.81
362.976	354.81
363.203	376.81
363.429	361.81
363.656	368.81
363.882	360.81
364.109	326.81
364.335	339.81
364.562	360.81
364.788	347.81
365.015	339.81
365.241	373.81
365.468	374.81
365.694	345.81
365.92	344.81
366.147	346.81
366.373	359.81
366.599	335.81
366.826	319.81
367.052	348.81
367.278	342.81
367.505	324.81
367.731	355.81
367.957	328.81
368.184	346.81
368.41	318.81
368.636	367.81
368.862	369.81
369.089	350.81
369.315	340.81
369.541	341.81
369.767	332.81
369.993	328.81
370.219	338.81
370.445	348.81
370.672	336.81
370.898	336.81
371.124	323.81
371.35	333.81
371.576	318.81
371.802	318.81
372.028	308.81
372.254	345.81
372.48	334.81
372.706	337.81
372.932	321.81
373.158	328.81
373.384	329.81
373.61	334.81
373.835	335.81
374.061	338.81
374.287	343.81
374.513	312.81
374.739	323.81
374.965	341.81
375.191	315.81
375.416	326.81
375.642	319.81
375.868	344.81
376.094	326.81
376.319	320.81
376.545	340.81
376.771	339.81
376.997	321.81
377.222	345.81
377.448	337.81
377.674	348.81
377.899	321.81
378.125	311.81
378.35	337.81
378.576	309.81
378.802	321.81
379.027	314.81
379.253	318.81
379.478	334.81
379.704	303.81
379.929	320.81
380.155	342.81
380.38	337.81
380.606	335.81
380.831	339.81
381.057	341.81
381.282	335.81
381.507	340.81
381.733	339.81
381.958	343.81
382.184	353.81
382.409	331.81
382.634	345.81
382.86	327.81
383.085	334.81
383.31	334.81
383.535	336.81
383.761	336.81
383.986	314.81
384.211	337.81
384.436	327.81
384.662	341.81
384.887	327.81
385.112	328.81
385.337	348.81
385.562	340.81
385.787	341.81
386.013	360.81
386.238	373.81
386.463	366.81
386.688	371.81
386.913	338.81
387.138	352.81
387.363	357.81
387.588	348.81
387.813	347.81
388.038	349.81
388.263	343.81
388.488	355.81
388.713	345.81
388.938	338.81
389.163	346.81
389.387	343.81
389.612	347.81
389.837	363.81
390.062	343.81
390.287	340.81
390.512	363.81
390.736	348.81
390.961	346.81
391.186	326.81
391.411	348.81
391.636	349.81
391.86	342.81
392.085	355.81
392.31	354.81
392.534	361.81
392.759	330.81
392.984	344.81
393.208	342.81
393.433	362.81
393.658	347.81
393.882	348.81
394.107	341.81
394.331	350.81
394.556	358.81
394.78	359.81
395.005	357.81
395.229	343.81
395.454	363.81
395.678	368.81
395.903	360.81
396.127	392.81
396.352	394.81
396.576	362.81
396.801	365.81
397.025	374.81
397.249	359.81
397.474	365.81
397.698	380.81
397.922	390.81
398.147	404.81
398.371	385.81
398.595	389.81
398.82	385.81
399.044	386.81
399.268	393.81
399.492	415.81
399.717	414.81
399.941	459.81
400.165	481.81
400.389	515.81
400.613	468.81
400.837	426.81
401.062	406.81
401.286	423.81
401.51	401.81
401.734	390.81
401.958	404.81
402.182	390.81
402.406	433.81
402.63	418.81
402.854	418.81
403.078	435.81
403.302	411.81
403.526	423.81
403.75	422.81
403.974	398.81
404.198	411.81
404.422	439.81
404.645	435.81
404.869	417.81
405.093	451.81
405.317	478.81
405.541	497.81
405.765	466.81
405.988	443.81
406.212	462.81
406.436	470.81
406.66	521.81
406.883	466.81
407.107	496.81
407.331	521.81
407.555	583.81
407.778	599.81
408.002	536.81
408.226	484.81
408.449	478.81
408.673	481.81
408.896	524.81
409.12	544.81
409.344	525.81
409.567	471.81
409.791	463.81
410.014	426.81
410.238	426.81
410.461	443.81
410.685	441.81
410.908	457.81
411.132	496.81
411.355	526.81
411.578	501.81
411.802	457.81
412.025	428.81
412.249	428.81
412.472	427.81
412.695	417.81
412.919	433.81
413.142	407.81
413.365	406.81
413.589	406.81
413.812	399.81
414.035	407.81
414.258	402.81
414.482	388.81
414.705	383.81
414.928	386.81
415.151	390.81
415.374	394.81
415.597	384.81
415.821	378.81
416.044	401.81
416.267	402.81
416.49	411.81
416.713	401.81
416.936	399.81
417.159	394.81
417.382	419.81
417.605	418.81
417.828	432.81
418.051	426.81
418.274	416.81
418.497	391.81
418.72	424.81
418.943	405.81
419.166	429.81
419.389	417.81
419.611	410.81
419.834	425.81
420.057	407.81
420.28	425.81
420.503	430.81
420.726	422.81
420.948	437.81
421.171	484.81
421.394	536.81
421.617	478.81
421.839	430.81
422.062	465.81
422.285	463.81
422.507	512.81
422.73	582.81
422.953	559.81
423.175	516.81
423.398	475.81
423.621	464.81
423.843	463.81
424.066	498.81
424.288	489.81
424.511	522.81
424.733	581.81
424.956	624.81
425.178	626.81
425.401	610.81
425.623	647.81
425.846	560.81
426.068	518.81
426.291	510.81
426.513	504.81
426.735	517.81
426.958	559.81
427.18	634.81
427.402	777.81
427.625	891.81
427.847	816.81
428.069	651.81
428.292	568.81
428.514	537.81
428.736	533.81
428.958	491.81
429.181	467.81
429.403	475.81
429.625	463.81
429.847	511.81
430.069	576.81
430.292	575.81
430.514	494.81
430.736	469.81
430.958	462.81
431.18	433.81
431.402	446.81
431.624	440.81
431.846	414.81
432.068	417.81
432.29	443.81
432.512	427.81
432.734	422.81
432.956	456.81
433.178	445.81
433.4	472.81
433.622	450.81
433.844	419.81
434.066	439.81
434.287	435.81
434.509	434.81
434.731	435.81
434.953	450.81
435.175	457.81
435.397	507.81
435.618	527.81
435.84	552.81
436.062	632.81
436.284	707.81
436.505	594.81
436.727	532.81
436.949	514.81
437.17	490.81
437.392	463.81
437.614	501.81
437.835	535.81
438.057	662.81
438.278	751.81
438.5	768.81
438.721	780.81
438.943	751.81
439.165	644.81
439.386	538.81
439.608	550.81
439.829	561.81
440.05	574.81
440.272	627.81
440.493	607.81
440.715	538.81
440.936	524.81
441.158	481.81
441.379	482.81
441.6	491.81
441.822	524.81
442.043	572.81
442.264	636.81
442.486	675.81
442.707	575.81
442.928	551.81
443.149	539.81
443.371	585.81
443.592	598.81
443.813	683.81
444.034	734.81
444.255	597.81
444.476	542.81
444.698	503.81
444.919	500.81
445.14	635.81
445.361	598.81
445.582	583.81
445.803	638.81
446.024	736.81
446.245	756.81
446.466	682.81
446.687	580.81
446.908	540.81
447.129	484.81
447.35	478.81
447.571	476.81
447.792	467.81
448.013	501.81
448.234	532.81
448.455	595.81
448.675	657.81
448.896	752.81
449.117	670.81
449.338	644.81
449.559	710.81
449.779	798.81
450	666.81
450.221	562.81
450.442	530.81
450.662	487.81
450.883	509.81
451.104	528.81
451.324	526.81
451.545	485.81
451.766	468.81
451.986	441.81
452.207	417.81
452.428	427.81
452.648	433.81
452.869	430.81
453.089	436.81
453.31	465.81
453.53	457.81
453.751	457.81
453.971	455.81
454.192	488.81
454.412	486.81
454.633	435.81
454.853	420.81
455.073	417.81
455.294	463.81
455.514	533.81
455.734	511.81
455.955	437.81
456.175	407.81
456.395	382.81
456.616	390.81
456.836	397.81
457.056	391.81
457.276	402.81
457.497	406.81
457.717	388.81
457.937	402.81
458.157	399.81
458.377	415.81
458.598	465.81
458.818	537.81
459.038	646.81
459.258	652.81
459.478	522.81
459.698	475.81
459.918	436.81
460.138	424.81
460.358	433.81
460.578	422.81
460.798	424.81
461.018	426.81
461.238	433.81
461.458	432.81
461.678	386.81
461.898	404.81
462.118	419.81
462.338	408.81
462.558	432.81
462.777	428.81
462.997	417.81
463.217	434.81
463.437	433.81
463.657	407.81
463.876	439.81
464.096	435.81
464.316	436.81
464.536	443.81
464.755	457.81
464.975	483.81
465.195	547.81
465.414	691.81
465.634	588.81
465.854	500.81
466.073	459.81
466.293	440.81
466.512	430.81
466.732	412.81
466.951	419.81
467.171	440.81
467.391	430.81
467.61	457.81
467.829	455.81
468.049	454.81
468.268	426.81
468.488	396.81
468.707	433.81
468.927	406.81
469.146	395.81
469.365	399.81
469.585	432.81
469.804	439.81
470.023	452.81
470.243	443.81
470.462	449.81
470.681	454.81
470.901	459.81
471.12	442.81
471.339	439.81
471.558	418.81
471.777	426.81
471.997	425.81
472.216	411.81
472.435	418.81
472.654	417.81
472.873	422.81
473.092	392.81
473.311	427.81
473.53	443.81
473.749	430.81
473.968	488.81
474.187	615.81
474.406	632.81
474.625	496.81
474.844	452.81
475.063	425.81
475.282	420.81
475.501	436.81
475.72	438.81
475.939	424.81
476.158	449.81
476.377	445.81
476.596	441.81
476.814	469.81
477.033	462.81
477.252	448.81
477.471	482.81
477.69	450.81
477.908	477.81
478.127	454.81
478.346	459.81
478.564	464.81
478.783	446.81
479.002	488.81
479.22	469.81
479.439	505.81
479.658	515.81
479.876	539.81
480.095	528.81
480.313	554.81
480.532	553.81
480.751	550.81
480.969	504.81
481.188	543.81
481.406	531.81
481.624	520.81
481.843	487.81
482.061	512.81
482.28	497.81
482.498	495.81
482.717	519.81
482.935	524.81
483.153	522.81
483.372	507.81
483.59	508.81
483.808	534.81
484.027	511.81
484.245	524.81
484.463	511.81
484.681	534.81
484.9	525.81
485.118	509.81
485.336	502.81
485.554	514.81
485.772	517.81
485.99	524.81
486.209	547.81
486.427	529.81
486.645	556.81
486.863	587.81
487.081	590.81
487.299	579.81
487.517	566.81
487.735	564.81
487.953	552.81
488.171	551.81
488.389	559.81
488.607	555.81
488.825	566.81
489.043	582.81
489.261	559.81
489.479	534.81
489.696	570.81
489.914	575.81
490.132	568.81
490.35	567.81
490.568	572.81
490.786	586.81
491.003	599.81
491.221	596.81
491.439	632.81
491.657	643.81
491.874	611.81
492.092	623.81
492.31	646.81
492.527	642.81
492.745	671.81
492.963	658.81
493.18	672.81
493.398	657.81
493.615	675.81
493.833	658.81
494.05	682.81
494.268	662.81
494.485	652.81
494.703	638.81
494.92	658.81
495.138	676.81
495.355	673.81
495.573	682.81
495.79	648.81
496.008	688.81
496.225	653.81
496.442	662.81
496.66	665.81
496.877	675.81
497.094	666.81
497.312	688.81
497.529	692.81
497.746	699.81
497.963	697.81
498.181	715.81
498.398	702.81
498.615	702.81
498.832	746.81
499.049	724.81
499.267	746.81
499.484	735.81
499.701	742.81
499.918	732.81
500.135	770.81
500.352	808.81
500.569	817.81
500.786	810.81
501.003	773.81
501.22	758.81
501.437	794.81
501.654	778.81
501.871	818.81
