Data from 1987.PennyLincolnUp.Lamp.En5.5.200Scan.071819.P2_HRD10591_17-13-55-972.txt Node
Date: Thu Jul 18 17:13:55 EDT 2019
User: cochatt
Spectrometer: HR+D1059
Trigger mode: 1
Integration Time (sec): 1.000000E-1
Scans to average: 1
Electric dark correction enabled: true
Nonlinearity correction enabled: false
Boxcar width: 0
XAxis mode: Wavelengths
Number of Pixels in Spectrum: 2048
>>>>>Begin Spectral Data<<<<<
223.165	-11.38
223.4	-11.38
223.635	-11.38
223.869	-14.38
224.104	-20.38
224.338	-10.38
224.573	-28.38
224.808	-12.38
225.042	-12.38
225.277	-5.38
225.511	5.62
225.746	-0.38
225.98	5.62
226.215	24.62
226.449	21.62
226.683	23.62
226.918	11.62
227.152	22.62
227.387	32.62
227.621	50.62
227.856	58.62
228.09	47.62
228.324	49.62
228.559	45.62
228.793	53.62
229.027	89.62
229.262	88.62
229.496	101.62
229.73	110.62
229.964	140.62
230.199	116.62
230.433	104.62
230.667	112.62
230.901	104.62
231.136	101.62
231.37	89.62
231.604	97.62
231.838	101.62
232.072	91.62
232.306	110.62
232.541	102.62
232.775	101.62
233.009	101.62
233.243	102.62
233.477	96.62
233.711	94.62
233.945	94.62
234.179	109.62
234.413	99.62
234.647	106.62
234.881	102.62
235.115	93.62
235.349	105.62
235.583	118.62
235.817	93.62
236.051	100.62
236.285	110.62
236.519	94.62
236.753	115.62
236.987	121.62
237.221	155.62
237.455	199.62
237.689	166.62
237.922	116.62
238.156	118.62
238.39	115.62
238.624	103.62
238.858	121.62
239.091	121.62
239.325	118.62
239.559	109.62
239.793	96.62
240.027	111.62
240.26	120.62
240.494	144.62
240.728	143.62
240.961	120.62
241.195	127.62
241.429	121.62
241.662	117.62
241.896	107.62
242.13	119.62
242.363	113.62
242.597	107.62
242.83	117.62
243.064	118.62
243.298	117.62
243.531	109.62
243.765	116.62
243.998	125.62
244.232	113.62
244.465	115.62
244.699	114.62
244.932	126.62
245.166	123.62
245.399	127.62
245.633	115.62
245.866	136.62
246.099	118.62
246.333	125.62
246.566	133.62
246.8	128.62
247.033	129.62
247.266	137.62
247.5	133.62
247.733	141.62
247.966	142.62
248.2	151.62
248.433	141.62
248.666	135.62
248.899	149.62
249.133	152.62
249.366	165.62
249.599	171.62
249.832	140.62
250.066	148.62
250.299	146.62
250.532	167.62
250.765	146.62
250.998	187.62
251.231	165.62
251.465	190.62
251.698	169.62
251.931	162.62
252.164	161.62
252.397	178.62
252.63	149.62
252.863	189.62
253.096	176.62
253.329	182.62
253.562	195.62
253.795	181.62
254.028	163.62
254.261	184.62
254.494	184.62
254.727	218.62
254.96	211.62
255.193	207.62
255.426	207.62
255.659	190.62
255.892	192.62
256.124	181.62
256.357	180.62
256.59	170.62
256.823	185.62
257.056	157.62
257.289	166.62
257.521	155.62
257.754	162.62
257.987	162.62
258.22	163.62
258.452	178.62
258.685	180.62
258.918	161.62
259.151	169.62
259.383	164.62
259.616	167.62
259.849	171.62
260.081	174.62
260.314	187.62
260.547	192.62
260.779	188.62
261.012	180.62
261.244	179.62
261.477	173.62
261.71	172.62
261.942	178.62
262.175	178.62
262.407	185.62
262.64	169.62
262.872	165.62
263.105	166.62
263.337	155.62
263.57	145.62
263.802	165.62
264.035	159.62
264.267	173.62
264.499	161.62
264.732	155.62
264.964	161.62
265.197	151.62
265.429	154.62
265.661	165.62
265.894	162.62
266.126	150.62
266.358	158.62
266.591	165.62
266.823	152.62
267.055	171.62
267.287	169.62
267.52	167.62
267.752	167.62
267.984	174.62
268.216	170.62
268.448	181.62
268.681	173.62
268.913	186.62
269.145	183.62
269.377	204.62
269.609	195.62
269.841	203.62
270.073	193.62
270.306	210.62
270.538	223.62
270.77	215.62
271.002	212.62
271.234	211.62
271.466	226.62
271.698	216.62
271.93	233.62
272.162	240.62
272.394	237.62
272.626	217.62
272.858	200.62
273.09	202.62
273.322	218.62
273.553	196.62
273.785	192.62
274.017	198.62
274.249	194.62
274.481	183.62
274.713	192.62
274.945	204.62
275.176	182.62
275.408	181.62
275.64	188.62
275.872	192.62
276.104	188.62
276.335	181.62
276.567	189.62
276.799	222.62
277.031	231.62
277.262	223.62
277.494	222.62
277.726	216.62
277.957	195.62
278.189	203.62
278.421	187.62
278.652	208.62
278.884	195.62
279.115	173.62
279.347	179.62
279.579	198.62
279.81	184.62
280.042	195.62
280.273	193.62
280.505	185.62
280.736	178.62
280.968	175.62
281.199	159.62
281.431	178.62
281.662	201.62
281.894	175.62
282.125	173.62
282.356	194.62
282.588	209.62
282.819	202.62
283.051	183.62
283.282	177.62
283.513	189.62
283.745	191.62
283.976	186.62
284.207	207.62
284.439	191.62
284.67	198.62
284.901	199.62
285.132	193.62
285.364	188.62
285.595	196.62
285.826	202.62
286.057	185.62
286.288	183.62
286.52	183.62
286.751	178.62
286.982	186.62
287.213	188.62
287.444	171.62
287.675	197.62
287.906	189.62
288.138	198.62
288.369	203.62
288.6	200.62
288.831	204.62
289.062	199.62
289.293	210.62
289.524	185.62
289.755	175.62
289.986	188.62
290.217	191.62
290.448	187.62
290.679	193.62
290.91	195.62
291.141	178.62
291.371	188.62
291.602	175.62
291.833	191.62
292.064	207.62
292.295	199.62
292.526	207.62
292.757	193.62
292.987	191.62
293.218	181.62
293.449	185.62
293.68	209.62
293.91	178.62
294.141	194.62
294.372	191.62
294.603	195.62
294.833	187.62
295.064	173.62
295.295	192.62
295.525	196.62
295.756	201.62
295.987	203.62
296.217	233.62
296.448	229.62
296.679	197.62
296.909	194.62
297.14	199.62
297.37	199.62
297.601	193.62
297.831	185.62
298.062	206.62
298.292	205.62
298.523	193.62
298.753	196.62
298.984	193.62
299.214	194.62
299.445	217.62
299.675	212.62
299.905	203.62
300.136	230.62
300.366	186.62
300.597	200.62
300.827	207.62
301.057	204.62
301.288	203.62
301.518	219.62
301.748	202.62
301.979	211.62
302.209	217.62
302.439	203.62
302.669	213.62
302.9	194.62
303.13	206.62
303.36	233.62
303.59	219.62
303.82	223.62
304.051	234.62
304.281	206.62
304.511	214.62
304.741	220.62
304.971	216.62
305.201	205.62
305.431	211.62
305.661	190.62
305.891	208.62
306.121	226.62
306.352	223.62
306.582	212.62
306.812	226.62
307.042	213.62
307.272	212.62
307.502	204.62
307.731	208.62
307.961	225.62
308.191	222.62
308.421	219.62
308.651	209.62
308.881	221.62
309.111	217.62
309.341	229.62
309.571	219.62
309.8	232.62
310.03	239.62
310.26	253.62
310.49	250.62
310.72	251.62
310.949	264.62
311.179	265.62
311.409	264.62
311.639	249.62
311.868	249.62
312.098	264.62
312.328	266.62
312.557	257.62
312.787	266.62
313.017	291.62
313.246	272.62
313.476	263.62
313.706	270.62
313.935	246.62
314.165	271.62
314.394	271.62
314.624	266.62
314.853	266.62
315.083	265.62
315.312	242.62
315.542	249.62
315.771	257.62
316.001	265.62
316.23	251.62
316.46	221.62
316.689	254.62
316.919	259.62
317.148	273.62
317.377	274.62
317.607	249.62
317.836	243.62
318.065	243.62
318.295	261.62
318.524	249.62
318.753	252.62
318.983	235.62
319.212	261.62
319.441	247.62
319.67	262.62
319.9	255.62
320.129	248.62
320.358	257.62
320.587	271.62
320.816	264.62
321.046	267.62
321.275	277.62
321.504	279.62
321.733	280.62
321.962	286.62
322.191	269.62
322.42	290.62
322.649	295.62
322.878	313.62
323.108	309.62
323.337	353.62
323.566	344.62
323.795	369.62
324.024	419.62
324.253	474.62
324.482	710.62
324.71	1094.62
324.939	1550.62
325.168	1362.62
325.397	746.62
325.626	500.62
325.855	413.62
326.084	374.62
326.313	348.62
326.542	356.62
326.77	390.62
326.999	460.62
327.228	624.62
327.457	949.62
327.686	1190.62
327.914	804.62
328.143	539.62
328.372	445.62
328.6	423.62
328.829	396.62
329.058	410.62
329.287	422.62
329.515	404.62
329.744	356.62
329.972	338.62
330.201	351.62
330.43	385.62
330.658	392.62
330.887	419.62
331.115	449.62
331.344	363.62
331.572	345.62
331.801	339.62
332.03	335.62
332.258	323.62
332.486	311.62
332.715	294.62
332.943	291.62
333.172	297.62
333.4	283.62
333.629	287.62
333.857	321.62
334.085	308.62
334.314	304.62
334.542	296.62
334.771	282.62
334.999	297.62
335.227	290.62
335.455	298.62
335.684	295.62
335.912	279.62
336.14	272.62
336.369	286.62
336.597	288.62
336.825	292.62
337.053	303.62
337.281	273.62
337.51	294.62
337.738	276.62
337.966	292.62
338.194	298.62
338.422	287.62
338.65	284.62
338.878	282.62
339.106	287.62
339.334	294.62
339.562	272.62
339.79	271.62
340.018	271.62
340.246	285.62
340.474	287.62
340.702	292.62
340.93	281.62
341.158	275.62
341.386	283.62
341.614	301.62
341.842	290.62
342.07	288.62
342.298	283.62
342.526	275.62
342.754	254.62
342.981	271.62
343.209	264.62
343.437	277.62
343.665	261.62
343.893	267.62
344.12	264.62
344.348	291.62
344.576	275.62
344.804	296.62
345.031	283.62
345.259	310.62
345.487	308.62
345.714	283.62
345.942	268.62
346.17	280.62
346.397	275.62
346.625	283.62
346.853	281.62
347.08	283.62
347.308	285.62
347.535	296.62
347.763	267.62
347.99	286.62
348.218	301.62
348.445	306.62
348.673	295.62
348.9	298.62
349.128	286.62
349.355	285.62
349.583	270.62
349.81	243.62
350.037	265.62
350.265	277.62
350.492	242.62
350.72	274.62
350.947	279.62
351.174	302.62
351.402	276.62
351.629	277.62
351.856	274.62
352.083	299.62
352.311	290.62
352.538	291.62
352.765	322.62
352.992	289.62
353.22	285.62
353.447	290.62
353.674	271.62
353.901	266.62
354.128	285.62
354.355	267.62
354.583	270.62
354.81	265.62
355.037	261.62
355.264	266.62
355.491	259.62
355.718	255.62
355.945	258.62
356.172	267.62
356.399	248.62
356.626	273.62
356.853	257.62
357.08	273.62
357.307	273.62
357.534	266.62
357.761	267.62
357.988	270.62
358.215	265.62
358.441	271.62
358.668	265.62
358.895	257.62
359.122	262.62
359.349	281.62
359.576	277.62
359.802	303.62
360.029	320.62
360.256	320.62
360.483	314.62
360.709	302.62
360.936	278.62
361.163	294.62
361.39	273.62
361.616	287.62
361.843	279.62
362.07	275.62
362.296	290.62
362.523	301.62
362.749	285.62
362.976	277.62
363.203	283.62
363.429	272.62
363.656	273.62
363.882	277.62
364.109	271.62
364.335	289.62
364.562	277.62
364.788	264.62
365.015	296.62
365.241	274.62
365.468	297.62
365.694	289.62
365.92	294.62
366.147	267.62
366.373	275.62
366.599	271.62
366.826	269.62
367.052	271.62
367.278	268.62
367.505	270.62
367.731	264.62
367.957	274.62
368.184	259.62
368.41	284.62
368.636	285.62
368.862	296.62
369.089	280.62
369.315	267.62
369.541	257.62
369.767	266.62
369.993	271.62
370.219	278.62
370.445	282.62
370.672	285.62
370.898	258.62
371.124	275.62
371.35	280.62
371.576	265.62
371.802	258.62
372.028	273.62
372.254	279.62
372.48	261.62
372.706	260.62
372.932	273.62
373.158	277.62
373.384	284.62
373.61	282.62
373.835	271.62
374.061	268.62
374.287	283.62
374.513	286.62
374.739	280.62
374.965	277.62
375.191	262.62
375.416	274.62
375.642	271.62
375.868	284.62
376.094	288.62
376.319	290.62
376.545	280.62
376.771	285.62
376.997	279.62
377.222	282.62
377.448	265.62
377.674	273.62
377.899	266.62
378.125	261.62
378.35	276.62
378.576	278.62
378.802	274.62
379.027	282.62
379.253	258.62
379.478	266.62
379.704	267.62
379.929	271.62
380.155	257.62
380.38	273.62
380.606	274.62
380.831	269.62
381.057	281.62
381.282	284.62
381.507	273.62
381.733	266.62
381.958	283.62
382.184	277.62
382.409	267.62
382.634	279.62
382.86	279.62
383.085	268.62
383.31	290.62
383.535	287.62
383.761	282.62
383.986	290.62
384.211	285.62
384.436	297.62
384.662	277.62
384.887	291.62
385.112	282.62
385.337	293.62
385.562	294.62
385.787	290.62
386.013	305.62
386.238	307.62
386.463	283.62
386.688	296.62
386.913	287.62
387.138	288.62
387.363	293.62
387.588	295.62
387.813	282.62
388.038	273.62
388.263	292.62
388.488	289.62
388.713	288.62
388.938	290.62
389.163	286.62
389.387	297.62
389.612	301.62
389.837	302.62
390.062	291.62
390.287	294.62
390.512	277.62
390.736	275.62
390.961	297.62
391.186	260.62
391.411	283.62
391.636	288.62
391.86	288.62
392.085	296.62
392.31	298.62
392.534	286.62
392.759	290.62
392.984	288.62
393.208	293.62
393.433	350.62
393.658	350.62
393.882	319.62
394.107	297.62
394.331	296.62
394.556	310.62
394.78	302.62
395.005	309.62
395.229	303.62
395.454	304.62
395.678	320.62
395.903	312.62
396.127	313.62
396.352	330.62
396.576	319.62
396.801	327.62
397.025	335.62
397.249	324.62
397.474	305.62
397.698	312.62
397.922	325.62
398.147	336.62
398.371	350.62
398.595	338.62
398.82	327.62
399.044	345.62
399.268	338.62
399.492	331.62
399.717	354.62
399.941	367.62
400.165	395.62
400.389	423.62
400.613	398.62
400.837	349.62
401.062	354.62
401.286	329.62
401.51	324.62
401.734	327.62
401.958	341.62
402.182	333.62
402.406	326.62
402.63	338.62
402.854	321.62
403.078	334.62
403.302	359.62
403.526	349.62
403.75	344.62
403.974	343.62
404.198	341.62
404.422	333.62
404.645	364.62
404.869	358.62
405.093	339.62
405.317	378.62
405.541	375.62
405.765	374.62
405.988	365.62
406.212	368.62
406.436	379.62
406.66	394.62
406.883	401.62
407.107	389.62
407.331	438.62
407.555	454.62
407.778	487.62
408.002	431.62
408.226	379.62
408.449	396.62
408.673	393.62
408.896	397.62
409.12	453.62
409.344	425.62
409.567	399.62
409.791	360.62
410.014	342.62
410.238	355.62
410.461	366.62
410.685	361.62
410.908	375.62
411.132	393.62
411.355	431.62
411.578	401.62
411.802	384.62
412.025	362.62
412.249	344.62
412.472	362.62
412.695	375.62
412.919	368.62
413.142	340.62
413.365	349.62
413.589	360.62
413.812	350.62
414.035	335.62
414.258	335.62
414.482	314.62
414.705	335.62
414.928	347.62
415.151	331.62
415.374	338.62
415.597	312.62
415.821	334.62
416.044	347.62
416.267	330.62
416.49	324.62
416.713	344.62
416.936	325.62
417.159	331.62
417.382	344.62
417.605	344.62
417.828	357.62
418.051	371.62
418.274	359.62
418.497	343.62
418.72	343.62
418.943	347.62
419.166	333.62
419.389	371.62
419.611	367.62
419.834	353.62
420.057	357.62
420.28	369.62
420.503	358.62
420.726	348.62
420.948	366.62
421.171	387.62
421.394	424.62
421.617	375.62
421.839	373.62
422.062	354.62
422.285	371.62
422.507	421.62
422.73	493.62
422.953	480.62
423.175	403.62
423.398	389.62
423.621	374.62
423.843	402.62
424.066	368.62
424.288	404.62
424.511	390.62
424.733	463.62
424.956	467.62
425.178	499.62
425.401	485.62
425.623	497.62
425.846	445.62
426.068	424.62
426.291	422.62
426.513	419.62
426.735	442.62
426.958	463.62
427.18	505.62
427.402	593.62
427.625	686.62
427.847	586.62
428.069	502.62
428.292	445.62
428.514	409.62
428.736	405.62
428.958	382.62
429.181	381.62
429.403	371.62
429.625	373.62
429.847	398.62
430.069	447.62
430.292	452.62
430.514	382.62
430.736	387.62
430.958	365.62
431.18	360.62
431.402	367.62
431.624	346.62
431.846	343.62
432.068	339.62
432.29	363.62
432.512	346.62
432.734	354.62
432.956	346.62
433.178	369.62
433.4	381.62
433.622	359.62
433.844	369.62
434.066	349.62
434.287	362.62
434.509	349.62
434.731	371.62
434.953	363.62
435.175	380.62
435.397	405.62
435.618	415.62
435.84	436.62
436.062	512.62
436.284	571.62
436.505	487.62
436.727	419.62
436.949	388.62
437.17	389.62
437.392	388.62
437.614	409.62
437.835	435.62
438.057	511.62
438.278	571.62
438.5	593.62
438.721	609.62
438.943	620.62
439.165	485.62
439.386	435.62
439.608	429.62
439.829	421.62
440.05	442.62
440.272	496.62
440.493	457.62
440.715	413.62
440.936	403.62
441.158	419.62
441.379	379.62
441.6	403.62
441.822	415.62
442.043	431.62
442.264	515.62
442.486	532.62
442.707	452.62
442.928	417.62
443.149	413.62
443.371	443.62
443.592	465.62
443.813	549.62
444.034	574.62
444.255	477.62
444.476	422.62
444.698	409.62
444.919	404.62
445.14	483.62
445.361	479.62
445.582	456.62
445.803	492.62
446.024	571.62
446.245	559.62
446.466	519.62
446.687	452.62
446.908	421.62
447.129	386.62
447.35	382.62
447.571	397.62
447.792	403.62
448.013	390.62
448.234	421.62
448.455	439.62
448.675	534.62
448.896	623.62
449.117	533.62
449.338	517.62
449.559	580.62
449.779	638.62
450	521.62
450.221	441.62
450.442	417.62
450.662	386.62
450.883	412.62
451.104	411.62
451.324	389.62
451.545	374.62
451.766	358.62
451.986	345.62
452.207	332.62
452.428	326.62
452.648	327.62
452.869	360.62
453.089	358.62
453.31	370.62
453.53	358.62
453.751	340.62
453.971	336.62
454.192	377.62
454.412	351.62
454.633	342.62
454.853	353.62
455.073	341.62
455.294	366.62
455.514	429.62
455.734	403.62
455.955	353.62
456.175	346.62
456.395	308.62
456.616	331.62
456.836	322.62
457.056	316.62
457.276	317.62
457.497	325.62
457.717	321.62
457.937	331.62
458.157	340.62
458.377	339.62
458.598	351.62
458.818	405.62
459.038	457.62
459.258	483.62
459.478	396.62
459.698	369.62
459.918	351.62
460.138	351.62
460.358	368.62
460.578	350.62
460.798	351.62
461.018	342.62
461.238	337.62
461.458	351.62
461.678	331.62
461.898	346.62
462.118	344.62
462.338	375.62
462.558	353.62
462.777	353.62
462.997	357.62
463.217	356.62
463.437	381.62
463.657	369.62
463.876	368.62
464.096	361.62
464.316	371.62
464.536	383.62
464.755	378.62
464.975	391.62
465.195	413.62
465.414	476.62
465.634	441.62
465.854	401.62
466.073	371.62
466.293	362.62
466.512	359.62
466.732	357.62
466.951	344.62
467.171	340.62
467.391	345.62
467.61	365.62
467.829	345.62
468.049	350.62
468.268	328.62
468.488	337.62
468.707	347.62
468.927	323.62
469.146	319.62
469.365	329.62
469.585	337.62
469.804	331.62
470.023	338.62
470.243	357.62
470.462	338.62
470.681	355.62
470.901	359.62
471.12	358.62
471.339	345.62
471.558	350.62
471.777	338.62
471.997	339.62
472.216	345.62
472.435	357.62
472.654	350.62
472.873	353.62
473.092	341.62
473.311	362.62
473.53	365.62
473.749	367.62
473.968	383.62
474.187	474.62
474.406	486.62
474.625	411.62
474.844	377.62
475.063	351.62
475.282	354.62
475.501	358.62
475.72	359.62
475.939	372.62
476.158	349.62
476.377	362.62
476.596	367.62
476.814	373.62
477.033	382.62
477.252	386.62
477.471	407.62
477.69	403.62
477.908	376.62
478.127	390.62
478.346	387.62
478.564	387.62
478.783	378.62
479.002	387.62
479.22	378.62
479.439	392.62
479.658	429.62
479.876	432.62
480.095	433.62
480.313	433.62
480.532	424.62
480.751	416.62
480.969	419.62
481.188	435.62
481.406	463.62
481.624	418.62
481.843	408.62
482.061	429.62
482.28	435.62
482.498	394.62
482.717	425.62
482.935	420.62
483.153	413.62
483.372	419.62
483.59	421.62
483.808	407.62
484.027	430.62
484.245	398.62
484.463	407.62
484.681	409.62
484.9	415.62
485.118	416.62
485.336	426.62
485.554	448.62
485.772	438.62
485.99	439.62
486.209	419.62
486.427	439.62
486.645	448.62
486.863	456.62
487.081	459.62
487.299	456.62
487.517	453.62
487.735	443.62
487.953	464.62
488.171	459.62
488.389	461.62
488.607	453.62
488.825	457.62
489.043	473.62
489.261	464.62
489.479	464.62
489.696	460.62
489.914	476.62
490.132	477.62
490.35	482.62
490.568	483.62
490.786	478.62
491.003	475.62
491.221	478.62
491.439	491.62
491.657	485.62
491.874	522.62
492.092	513.62
492.31	518.62
492.527	524.62
492.745	530.62
492.963	546.62
493.18	537.62
493.398	518.62
493.615	519.62
493.833	528.62
494.05	540.62
494.268	524.62
494.485	508.62
494.703	558.62
494.92	537.62
495.138	550.62
495.355	526.62
495.573	536.62
495.79	536.62
496.008	560.62
496.225	555.62
496.442	532.62
496.66	537.62
496.877	546.62
497.094	567.62
497.312	546.62
497.529	576.62
497.746	557.62
497.963	554.62
498.181	582.62
498.398	584.62
498.615	589.62
498.832	603.62
499.049	616.62
499.267	628.62
499.484	632.62
499.701	588.62
499.918	642.62
500.135	646.62
500.352	663.62
500.569	665.62
500.786	677.62
501.003	660.62
501.22	648.62
501.437	639.62
501.654	649.62
501.871	675.62
502.088	654.62
