Data from 1987.PennyLincolnUp.Lamp.En5.5.200Scan.071819.P2_HRD10591_17-14-30-971.txt Node
Date: Thu Jul 18 17:14:30 EDT 2019
User: cochatt
Spectrometer: HR+D1059
Trigger mode: 1
Integration Time (sec): 1.000000E-1
Scans to average: 1
Electric dark correction enabled: true
Nonlinearity correction enabled: false
Boxcar width: 0
XAxis mode: Wavelengths
Number of Pixels in Spectrum: 2048
>>>>>Begin Spectral Data<<<<<
223.165	3.19
223.4	3.19
223.635	3.19
223.869	-19.81
224.104	-12.81
224.338	-9.81
224.573	-3.81
224.808	-12.81
225.042	-1.81
225.277	-4.81
225.511	3.19
225.746	6.19
225.98	-4.81
226.215	1.19
226.449	10.19
226.683	7.19
226.918	27.19
227.152	12.19
227.387	37.19
227.621	44.19
227.856	35.19
228.09	48.19
228.324	43.19
228.559	49.19
228.793	64.19
229.027	99.19
229.262	120.19
229.496	123.19
229.73	131.19
229.964	157.19
230.199	150.19
230.433	119.19
230.667	123.19
230.901	115.19
231.136	108.19
231.37	120.19
231.604	113.19
231.838	119.19
232.072	107.19
232.306	96.19
232.541	110.19
232.775	98.19
233.009	105.19
233.243	125.19
233.477	117.19
233.711	107.19
233.945	120.19
234.179	117.19
234.413	103.19
234.647	126.19
234.881	107.19
235.115	111.19
235.349	125.19
235.583	123.19
235.817	123.19
236.051	134.19
236.285	127.19
236.519	109.19
236.753	127.19
236.987	159.19
237.221	193.19
237.455	265.19
237.689	183.19
237.922	147.19
238.156	129.19
238.39	113.19
238.624	115.19
238.858	118.19
239.091	112.19
239.325	115.19
239.559	139.19
239.793	122.19
240.027	117.19
240.26	132.19
240.494	149.19
240.728	150.19
240.961	133.19
241.195	136.19
241.429	137.19
241.662	117.19
241.896	131.19
242.13	131.19
242.363	135.19
242.597	142.19
242.83	133.19
243.064	145.19
243.298	143.19
243.531	128.19
243.765	131.19
243.998	132.19
244.232	119.19
244.465	142.19
244.699	140.19
244.932	124.19
245.166	136.19
245.399	133.19
245.633	131.19
245.866	130.19
246.099	139.19
246.333	130.19
246.566	136.19
246.8	135.19
247.033	126.19
247.266	146.19
247.5	143.19
247.733	156.19
247.966	153.19
248.2	155.19
248.433	167.19
248.666	172.19
248.899	172.19
249.133	188.19
249.366	197.19
249.599	190.19
249.832	188.19
250.066	165.19
250.299	188.19
250.532	185.19
250.765	187.19
250.998	198.19
251.231	202.19
251.465	189.19
251.698	178.19
251.931	196.19
252.164	189.19
252.397	195.19
252.63	187.19
252.863	201.19
253.096	186.19
253.329	218.19
253.562	212.19
253.795	204.19
254.028	207.19
254.261	216.19
254.494	219.19
254.727	243.19
254.96	247.19
255.193	256.19
255.426	254.19
255.659	207.19
255.892	195.19
256.124	208.19
256.357	206.19
256.59	195.19
256.823	196.19
257.056	199.19
257.289	196.19
257.521	183.19
257.754	177.19
257.987	174.19
258.22	201.19
258.452	185.19
258.685	175.19
258.918	181.19
259.151	184.19
259.383	211.19
259.616	178.19
259.849	192.19
260.081	227.19
260.314	225.19
260.547	243.19
260.779	225.19
261.012	220.19
261.244	204.19
261.477	198.19
261.71	183.19
261.942	211.19
262.175	231.19
262.407	209.19
262.64	189.19
262.872	197.19
263.105	184.19
263.337	187.19
263.57	188.19
263.802	194.19
264.035	196.19
264.267	189.19
264.499	170.19
264.732	187.19
264.964	191.19
265.197	179.19
265.429	191.19
265.661	168.19
265.894	175.19
266.126	180.19
266.358	183.19
266.591	170.19
266.823	187.19
267.055	197.19
267.287	198.19
267.52	179.19
267.752	190.19
267.984	191.19
268.216	195.19
268.448	200.19
268.681	198.19
268.913	199.19
269.145	219.19
269.377	240.19
269.609	248.19
269.841	228.19
270.073	246.19
270.306	255.19
270.538	283.19
270.77	278.19
271.002	277.19
271.234	257.19
271.466	283.19
271.698	283.19
271.93	288.19
272.162	305.19
272.394	293.19
272.626	262.19
272.858	250.19
273.09	257.19
273.322	267.19
273.553	236.19
273.785	225.19
274.017	233.19
274.249	221.19
274.481	245.19
274.713	232.19
274.945	223.19
275.176	222.19
275.408	243.19
275.64	214.19
275.872	216.19
276.104	218.19
276.335	220.19
276.567	227.19
276.799	274.19
277.031	270.19
277.262	284.19
277.494	276.19
277.726	276.19
277.957	249.19
278.189	227.19
278.421	213.19
278.652	226.19
278.884	209.19
279.115	215.19
279.347	208.19
279.579	219.19
279.81	212.19
280.042	204.19
280.273	223.19
280.505	205.19
280.736	224.19
280.968	212.19
281.199	214.19
281.431	231.19
281.662	226.19
281.894	209.19
282.125	235.19
282.356	256.19
282.588	253.19
282.819	266.19
283.051	241.19
283.282	216.19
283.513	216.19
283.745	212.19
283.976	236.19
284.207	221.19
284.439	224.19
284.67	199.19
284.901	220.19
285.132	213.19
285.364	220.19
285.595	229.19
285.826	205.19
286.057	231.19
286.288	224.19
286.52	220.19
286.751	217.19
286.982	214.19
287.213	213.19
287.444	231.19
287.675	221.19
287.906	231.19
288.138	245.19
288.369	237.19
288.6	251.19
288.831	225.19
289.062	207.19
289.293	223.19
289.524	233.19
289.755	225.19
289.986	204.19
290.217	210.19
290.448	218.19
290.679	225.19
290.91	235.19
291.141	203.19
291.371	227.19
291.602	224.19
291.833	215.19
292.064	230.19
292.295	204.19
292.526	225.19
292.757	240.19
292.987	234.19
293.218	227.19
293.449	229.19
293.68	226.19
293.91	204.19
294.141	230.19
294.372	221.19
294.603	230.19
294.833	218.19
295.064	221.19
295.295	227.19
295.525	224.19
295.756	234.19
295.987	246.19
296.217	255.19
296.448	261.19
296.679	245.19
296.909	249.19
297.14	215.19
297.37	229.19
297.601	219.19
297.831	229.19
298.062	232.19
298.292	245.19
298.523	237.19
298.753	226.19
298.984	211.19
299.214	242.19
299.445	239.19
299.675	239.19
299.905	245.19
300.136	243.19
300.366	228.19
300.597	251.19
300.827	240.19
301.057	261.19
301.288	239.19
301.518	248.19
301.748	244.19
301.979	256.19
302.209	251.19
302.439	248.19
302.669	247.19
302.9	243.19
303.13	253.19
303.36	254.19
303.59	264.19
303.82	270.19
304.051	268.19
304.281	271.19
304.511	258.19
304.741	256.19
304.971	244.19
305.201	250.19
305.431	245.19
305.661	262.19
305.891	245.19
306.121	255.19
306.352	276.19
306.582	268.19
306.812	257.19
307.042	234.19
307.272	268.19
307.502	257.19
307.731	267.19
307.961	247.19
308.191	254.19
308.421	262.19
308.651	260.19
308.881	249.19
309.111	275.19
309.341	265.19
309.571	283.19
309.8	299.19
310.03	319.19
310.26	305.19
310.49	323.19
310.72	324.19
310.949	339.19
311.179	352.19
311.409	346.19
311.639	315.19
311.868	317.19
312.098	309.19
312.328	314.19
312.557	356.19
312.787	369.19
313.017	363.19
313.246	329.19
313.476	324.19
313.706	327.19
313.935	325.19
314.165	334.19
314.394	342.19
314.624	337.19
314.853	319.19
315.083	322.19
315.312	320.19
315.542	315.19
315.771	321.19
316.001	329.19
316.23	290.19
316.46	303.19
316.689	299.19
316.919	322.19
317.148	316.19
317.377	319.19
317.607	326.19
317.836	318.19
318.065	311.19
318.295	327.19
318.524	285.19
318.753	315.19
318.983	294.19
319.212	309.19
319.441	327.19
319.67	330.19
319.9	316.19
320.129	316.19
320.358	325.19
320.587	319.19
320.816	328.19
321.046	310.19
321.275	313.19
321.504	340.19
321.733	343.19
321.962	363.19
322.191	362.19
322.42	375.19
322.649	383.19
322.878	428.19
323.108	429.19
323.337	448.19
323.566	488.19
323.795	523.19
324.024	623.19
324.253	729.19
324.482	1098.19
324.71	1639.19
324.939	2300.19
325.168	1995.19
325.397	1120.19
325.626	714.19
325.855	571.19
326.084	513.19
326.313	495.19
326.542	499.19
326.77	556.19
326.999	660.19
327.228	917.19
327.457	1414.19
327.686	1749.19
327.914	1231.19
328.143	784.19
328.372	660.19
328.6	620.19
328.829	564.19
329.058	568.19
329.287	605.19
329.515	541.19
329.744	474.19
329.972	453.19
330.201	468.19
330.43	494.19
330.658	563.19
330.887	596.19
331.115	579.19
331.344	476.19
331.572	447.19
331.801	444.19
332.03	449.19
332.258	418.19
332.486	397.19
332.715	363.19
332.943	375.19
333.172	361.19
333.4	377.19
333.629	347.19
333.857	359.19
334.085	397.19
334.314	359.19
334.542	359.19
334.771	364.19
334.999	376.19
335.227	368.19
335.455	353.19
335.684	369.19
335.912	360.19
336.14	347.19
336.369	352.19
336.597	358.19
336.825	367.19
337.053	355.19
337.281	348.19
337.51	346.19
337.738	352.19
337.966	354.19
338.194	344.19
338.422	341.19
338.65	335.19
338.878	338.19
339.106	331.19
339.334	344.19
339.562	339.19
339.79	327.19
340.018	339.19
340.246	345.19
340.474	369.19
340.702	361.19
340.93	348.19
341.158	354.19
341.386	349.19
341.614	354.19
341.842	338.19
342.07	345.19
342.298	328.19
342.526	313.19
342.754	319.19
342.981	305.19
343.209	312.19
343.437	323.19
343.665	313.19
343.893	338.19
344.12	324.19
344.348	321.19
344.576	355.19
344.804	337.19
345.031	367.19
345.259	372.19
345.487	354.19
345.714	341.19
345.942	360.19
346.17	347.19
346.397	343.19
346.625	354.19
346.853	328.19
347.08	351.19
347.308	325.19
347.535	363.19
347.763	377.19
347.99	349.19
348.218	359.19
348.445	359.19
348.673	368.19
348.9	331.19
349.128	337.19
349.355	329.19
349.583	323.19
349.81	352.19
350.037	338.19
350.265	355.19
350.492	335.19
350.72	326.19
350.947	339.19
351.174	351.19
351.402	370.19
351.629	368.19
351.856	354.19
352.083	371.19
352.311	375.19
352.538	376.19
352.765	375.19
352.992	364.19
353.22	346.19
353.447	349.19
353.674	356.19
353.901	329.19
354.128	325.19
354.355	303.19
354.583	307.19
354.81	313.19
355.037	308.19
355.264	311.19
355.491	319.19
355.718	307.19
355.945	308.19
356.172	305.19
356.399	304.19
356.626	304.19
356.853	290.19
357.08	312.19
357.307	313.19
357.534	292.19
357.761	305.19
357.988	320.19
358.215	320.19
358.441	323.19
358.668	311.19
358.895	312.19
359.122	341.19
359.349	351.19
359.576	362.19
359.802	381.19
360.029	411.19
360.256	427.19
360.483	401.19
360.709	328.19
360.936	353.19
361.163	351.19
361.39	348.19
361.616	357.19
361.843	369.19
362.07	348.19
362.296	338.19
362.523	361.19
362.749	348.19
362.976	323.19
363.203	351.19
363.429	328.19
363.656	322.19
363.882	325.19
364.109	323.19
364.335	325.19
364.562	321.19
364.788	317.19
365.015	322.19
365.241	335.19
365.468	337.19
365.694	329.19
365.92	328.19
366.147	325.19
366.373	333.19
366.599	318.19
366.826	325.19
367.052	317.19
367.278	298.19
367.505	310.19
367.731	328.19
367.957	333.19
368.184	309.19
368.41	356.19
368.636	352.19
368.862	364.19
369.089	328.19
369.315	311.19
369.541	319.19
369.767	320.19
369.993	321.19
370.219	327.19
370.445	308.19
370.672	303.19
370.898	305.19
371.124	328.19
371.35	311.19
371.576	319.19
371.802	303.19
372.028	300.19
372.254	301.19
372.48	335.19
372.706	300.19
372.932	305.19
373.158	315.19
373.384	317.19
373.61	328.19
373.835	314.19
374.061	309.19
374.287	316.19
374.513	304.19
374.739	315.19
374.965	300.19
375.191	288.19
375.416	329.19
375.642	311.19
375.868	323.19
376.094	321.19
376.319	301.19
376.545	312.19
376.771	323.19
376.997	308.19
377.222	324.19
377.448	296.19
377.674	312.19
377.899	299.19
378.125	289.19
378.35	324.19
378.576	323.19
378.802	319.19
379.027	296.19
379.253	293.19
379.478	309.19
379.704	322.19
379.929	314.19
380.155	308.19
380.38	326.19
380.606	304.19
380.831	302.19
381.057	319.19
381.282	313.19
381.507	330.19
381.733	303.19
381.958	313.19
382.184	325.19
382.409	328.19
382.634	317.19
382.86	330.19
383.085	334.19
383.31	307.19
383.535	339.19
383.761	305.19
383.986	293.19
384.211	318.19
384.436	334.19
384.662	323.19
384.887	314.19
385.112	332.19
385.337	312.19
385.562	320.19
385.787	320.19
386.013	345.19
386.238	339.19
386.463	332.19
386.688	324.19
386.913	325.19
387.138	329.19
387.363	332.19
387.588	330.19
387.813	325.19
388.038	332.19
388.263	327.19
388.488	325.19
388.713	347.19
388.938	333.19
389.163	341.19
389.387	337.19
389.612	334.19
389.837	317.19
390.062	351.19
390.287	312.19
390.512	336.19
390.736	317.19
390.961	327.19
391.186	343.19
391.411	333.19
391.636	331.19
391.86	339.19
392.085	327.19
392.31	327.19
392.534	344.19
392.759	324.19
392.984	339.19
393.208	330.19
393.433	353.19
393.658	344.19
393.882	340.19
394.107	324.19
394.331	341.19
394.556	323.19
394.78	345.19
395.005	328.19
395.229	349.19
395.454	339.19
395.678	356.19
395.903	375.19
396.127	345.19
396.352	355.19
396.576	354.19
396.801	344.19
397.025	360.19
397.249	359.19
397.474	348.19
397.698	353.19
397.922	376.19
398.147	396.19
398.371	401.19
398.595	392.19
398.82	386.19
399.044	399.19
399.268	392.19
399.492	423.19
399.717	394.19
399.941	415.19
400.165	453.19
400.389	443.19
400.613	442.19
400.837	388.19
401.062	385.19
401.286	413.19
401.51	391.19
401.734	362.19
401.958	371.19
402.182	383.19
402.406	412.19
402.63	407.19
402.854	384.19
403.078	391.19
403.302	385.19
403.526	396.19
403.75	394.19
403.974	405.19
404.198	384.19
404.422	386.19
404.645	394.19
404.869	403.19
405.093	451.19
405.317	431.19
405.541	465.19
405.765	440.19
405.988	432.19
406.212	436.19
406.436	477.19
406.66	470.19
406.883	446.19
407.107	440.19
407.331	481.19
407.555	560.19
407.778	545.19
408.002	512.19
408.226	458.19
408.449	435.19
408.673	440.19
408.896	488.19
409.12	510.19
409.344	475.19
409.567	438.19
409.791	400.19
410.014	400.19
410.238	407.19
410.461	396.19
410.685	418.19
410.908	435.19
411.132	439.19
411.355	506.19
411.578	483.19
411.802	405.19
412.025	397.19
412.249	403.19
412.472	413.19
412.695	410.19
412.919	418.19
413.142	390.19
413.365	384.19
413.589	396.19
413.812	391.19
414.035	371.19
414.258	388.19
414.482	356.19
414.705	372.19
414.928	344.19
415.151	346.19
415.374	379.19
415.597	383.19
415.821	358.19
416.044	382.19
416.267	386.19
416.49	385.19
416.713	394.19
416.936	383.19
417.159	380.19
417.382	386.19
417.605	385.19
417.828	399.19
418.051	416.19
418.274	412.19
418.497	401.19
418.72	389.19
418.943	403.19
419.166	411.19
419.389	424.19
419.611	420.19
419.834	402.19
420.057	405.19
420.28	403.19
420.503	389.19
420.726	423.19
420.948	441.19
421.171	473.19
421.394	495.19
421.617	430.19
421.839	432.19
422.062	418.19
422.285	458.19
422.507	507.19
422.73	565.19
422.953	539.19
423.175	470.19
423.398	460.19
423.621	437.19
423.843	457.19
424.066	460.19
424.288	452.19
424.511	501.19
424.733	547.19
424.956	620.19
425.178	586.19
425.401	569.19
425.623	623.19
425.846	515.19
426.068	501.19
426.291	475.19
426.513	475.19
426.735	505.19
426.958	550.19
427.18	610.19
427.402	684.19
427.625	791.19
427.847	740.19
428.069	637.19
428.292	563.19
428.514	500.19
428.736	482.19
428.958	461.19
429.181	459.19
429.403	456.19
429.625	439.19
429.847	490.19
430.069	573.19
430.292	548.19
430.514	477.19
430.736	459.19
430.958	442.19
431.18	426.19
431.402	397.19
431.624	409.19
431.846	397.19
432.068	403.19
432.29	419.19
432.512	378.19
432.734	403.19
432.956	418.19
433.178	440.19
433.4	414.19
433.622	434.19
433.844	416.19
434.066	396.19
434.287	390.19
434.509	397.19
434.731	425.19
434.953	434.19
435.175	450.19
435.397	470.19
435.618	485.19
435.84	517.19
436.062	604.19
436.284	669.19
436.505	564.19
436.727	500.19
436.949	477.19
437.17	451.19
437.392	446.19
437.614	484.19
437.835	520.19
438.057	623.19
438.278	679.19
438.5	691.19
438.721	724.19
438.943	687.19
439.165	580.19
439.386	544.19
439.608	523.19
439.829	505.19
440.05	555.19
440.272	552.19
440.493	551.19
440.715	486.19
440.936	465.19
441.158	462.19
441.379	469.19
441.6	466.19
441.822	510.19
442.043	504.19
442.264	630.19
442.486	648.19
442.707	546.19
442.928	519.19
443.149	503.19
443.371	544.19
443.592	581.19
443.813	630.19
444.034	665.19
444.255	559.19
444.476	500.19
444.698	471.19
444.919	467.19
445.14	578.19
445.361	538.19
445.582	542.19
445.803	605.19
446.024	689.19
446.245	695.19
446.466	643.19
446.687	557.19
446.908	496.19
447.129	486.19
447.35	451.19
447.571	461.19
447.792	468.19
448.013	467.19
448.234	492.19
448.455	548.19
448.675	636.19
448.896	724.19
449.117	621.19
449.338	587.19
449.559	669.19
449.779	742.19
450	605.19
450.221	538.19
450.442	480.19
450.662	461.19
450.883	498.19
451.104	490.19
451.324	484.19
451.545	460.19
451.766	445.19
451.986	435.19
452.207	421.19
452.428	393.19
452.648	415.19
452.869	422.19
453.089	439.19
453.31	428.19
453.53	425.19
453.751	407.19
453.971	419.19
454.192	436.19
454.412	435.19
454.633	424.19
454.853	420.19
455.073	407.19
455.294	445.19
455.514	501.19
455.734	483.19
455.955	428.19
456.175	387.19
456.395	382.19
456.616	393.19
456.836	379.19
457.056	381.19
457.276	364.19
457.497	374.19
457.717	373.19
457.937	388.19
458.157	383.19
458.377	411.19
458.598	410.19
458.818	520.19
459.038	577.19
459.258	599.19
459.478	472.19
459.698	426.19
459.918	421.19
460.138	419.19
460.358	404.19
460.578	399.19
460.798	411.19
461.018	412.19
461.238	408.19
461.458	388.19
461.678	388.19
461.898	409.19
462.118	388.19
462.338	401.19
462.558	403.19
462.777	413.19
462.997	410.19
463.217	419.19
463.437	398.19
463.657	417.19
463.876	403.19
464.096	405.19
464.316	413.19
464.536	394.19
464.755	442.19
464.975	457.19
465.195	501.19
465.414	608.19
465.634	554.19
465.854	455.19
466.073	451.19
466.293	424.19
466.512	405.19
466.732	396.19
466.951	394.19
467.171	397.19
467.391	406.19
467.61	424.19
467.829	424.19
468.049	418.19
468.268	396.19
468.488	381.19
468.707	395.19
468.927	391.19
469.146	385.19
469.365	401.19
469.585	393.19
469.804	387.19
470.023	427.19
470.243	429.19
470.462	406.19
470.681	440.19
470.901	445.19
471.12	418.19
471.339	397.19
471.558	412.19
471.777	401.19
471.997	398.19
472.216	375.19
472.435	397.19
472.654	410.19
472.873	393.19
473.092	399.19
473.311	409.19
473.53	411.19
473.749	411.19
473.968	480.19
474.187	586.19
474.406	589.19
474.625	492.19
474.844	443.19
475.063	434.19
475.282	425.19
475.501	425.19
475.72	419.19
475.939	413.19
476.158	441.19
476.377	453.19
476.596	433.19
476.814	434.19
477.033	453.19
477.252	464.19
477.471	444.19
477.69	435.19
477.908	428.19
478.127	441.19
478.346	429.19
478.564	437.19
478.783	440.19
479.002	459.19
479.22	441.19
479.439	478.19
479.658	483.19
479.876	490.19
480.095	523.19
480.313	543.19
480.532	499.19
480.751	505.19
480.969	490.19
481.188	528.19
481.406	529.19
481.624	496.19
481.843	487.19
482.061	501.19
482.28	471.19
482.498	478.19
482.717	470.19
482.935	481.19
483.153	499.19
483.372	484.19
483.59	479.19
483.808	529.19
484.027	501.19
484.245	492.19
484.463	472.19
484.681	486.19
484.9	492.19
485.118	495.19
485.336	492.19
485.554	500.19
485.772	503.19
485.99	498.19
486.209	513.19
486.427	528.19
486.645	536.19
486.863	581.19
487.081	552.19
487.299	536.19
487.517	525.19
487.735	530.19
487.953	517.19
488.171	549.19
488.389	516.19
488.607	524.19
488.825	539.19
489.043	542.19
489.261	550.19
489.479	539.19
489.696	536.19
489.914	549.19
490.132	578.19
490.35	554.19
490.568	558.19
490.786	567.19
491.003	569.19
491.221	578.19
491.439	593.19
491.657	602.19
491.874	581.19
492.092	618.19
492.31	604.19
492.527	594.19
492.745	620.19
492.963	626.19
493.18	635.19
493.398	608.19
493.615	613.19
493.833	628.19
494.05	633.19
494.268	631.19
494.485	616.19
494.703	615.19
494.92	641.19
495.138	639.19
495.355	642.19
495.573	634.19
495.79	649.19
496.008	653.19
496.225	635.19
496.442	633.19
496.66	636.19
496.877	634.19
497.094	635.19
497.312	647.19
497.529	657.19
497.746	663.19
497.963	661.19
498.181	674.19
498.398	673.19
498.615	681.19
498.832	675.19
499.049	694.19
499.267	687.19
499.484	710.19
499.701	695.19
499.918	731.19
500.135	723.19
500.352	774.19
500.569	739.19
500.786	773.19
501.003	740.19
501.22	758.19
501.437	725.19
501.654	773.19
501.871	760.19
502.088	738.19
