Data from 1987.PennyLincolnUp.Lamp.En5.5.200Scan.071819.P2_HRD10591_17-15-14-973.txt Node
Date: Thu Jul 18 17:15:14 EDT 2019
User: cochatt
Spectrometer: HR+D1059
Trigger mode: 1
Integration Time (sec): 1.000000E-1
Scans to average: 1
Electric dark correction enabled: true
Nonlinearity correction enabled: false
Boxcar width: 0
XAxis mode: Wavelengths
Number of Pixels in Spectrum: 2048
>>>>>Begin Spectral Data<<<<<
223.165	-21.81
223.4	-21.81
223.635	-21.81
223.869	-20.81
224.104	-4.81
224.338	-27.81
224.573	-5.81
224.808	0.19
225.042	-15.81
225.277	-2.81
225.511	-11.81
225.746	22.19
225.98	6.19
226.215	11.19
226.449	9.19
226.683	16.19
226.918	19.19
227.152	27.19
227.387	49.19
227.621	37.19
227.856	43.19
228.09	41.19
228.324	47.19
228.559	41.19
228.793	77.19
229.027	94.19
229.262	126.19
229.496	133.19
229.73	148.19
229.964	164.19
230.199	129.19
230.433	117.19
230.667	102.19
230.901	113.19
231.136	106.19
231.37	115.19
231.604	104.19
231.838	113.19
232.072	110.19
232.306	116.19
232.541	127.19
232.775	103.19
233.009	119.19
233.243	93.19
233.477	102.19
233.711	105.19
233.945	116.19
234.179	110.19
234.413	122.19
234.647	107.19
234.881	116.19
235.115	120.19
235.349	123.19
235.583	114.19
235.817	107.19
236.051	132.19
236.285	119.19
236.519	113.19
236.753	122.19
236.987	139.19
237.221	187.19
237.455	258.19
237.689	214.19
237.922	141.19
238.156	130.19
238.39	109.19
238.624	126.19
238.858	129.19
239.091	138.19
239.325	122.19
239.559	126.19
239.793	130.19
240.027	122.19
240.26	137.19
240.494	156.19
240.728	158.19
240.961	149.19
241.195	135.19
241.429	123.19
241.662	134.19
241.896	113.19
242.13	115.19
242.363	125.19
242.597	126.19
242.83	126.19
243.064	133.19
243.298	147.19
243.531	115.19
243.765	132.19
243.998	131.19
244.232	140.19
244.465	134.19
244.699	133.19
244.932	141.19
245.166	126.19
245.399	120.19
245.633	125.19
245.866	140.19
246.099	139.19
246.333	127.19
246.566	149.19
246.8	145.19
247.033	143.19
247.266	154.19
247.5	153.19
247.733	154.19
247.966	153.19
248.2	158.19
248.433	165.19
248.666	182.19
248.899	192.19
249.133	187.19
249.366	208.19
249.599	200.19
249.832	185.19
250.066	187.19
250.299	168.19
250.532	188.19
250.765	190.19
250.998	213.19
251.231	233.19
251.465	205.19
251.698	194.19
251.931	196.19
252.164	202.19
252.397	200.19
252.63	187.19
252.863	198.19
253.096	185.19
253.329	221.19
253.562	225.19
253.795	223.19
254.028	202.19
254.261	210.19
254.494	220.19
254.727	255.19
254.96	272.19
255.193	267.19
255.426	238.19
255.659	235.19
255.892	228.19
256.124	210.19
256.357	204.19
256.59	217.19
256.823	190.19
257.056	200.19
257.289	185.19
257.521	193.19
257.754	195.19
257.987	195.19
258.22	198.19
258.452	186.19
258.685	194.19
258.918	197.19
259.151	190.19
259.383	200.19
259.616	222.19
259.849	225.19
260.081	208.19
260.314	231.19
260.547	256.19
260.779	238.19
261.012	231.19
261.244	214.19
261.477	222.19
261.71	213.19
261.942	222.19
262.175	235.19
262.407	223.19
262.64	198.19
262.872	215.19
263.105	193.19
263.337	195.19
263.57	201.19
263.802	197.19
264.035	186.19
264.267	178.19
264.499	193.19
264.732	187.19
264.964	196.19
265.197	184.19
265.429	202.19
265.661	195.19
265.894	195.19
266.126	197.19
266.358	190.19
266.591	186.19
266.823	203.19
267.055	187.19
267.287	207.19
267.52	192.19
267.752	193.19
267.984	210.19
268.216	222.19
268.448	202.19
268.681	204.19
268.913	204.19
269.145	226.19
269.377	225.19
269.609	255.19
269.841	243.19
270.073	261.19
270.306	260.19
270.538	314.19
270.77	285.19
271.002	288.19
271.234	296.19
271.466	285.19
271.698	299.19
271.93	310.19
272.162	311.19
272.394	300.19
272.626	274.19
272.858	288.19
273.09	257.19
273.322	242.19
273.553	245.19
273.785	256.19
274.017	244.19
274.249	235.19
274.481	226.19
274.713	243.19
274.945	256.19
275.176	231.19
275.408	246.19
275.64	246.19
275.872	226.19
276.104	231.19
276.335	231.19
276.567	235.19
276.799	271.19
277.031	284.19
277.262	295.19
277.494	272.19
277.726	266.19
277.957	251.19
278.189	250.19
278.421	229.19
278.652	231.19
278.884	249.19
279.115	219.19
279.347	236.19
279.579	239.19
279.81	224.19
280.042	216.19
280.273	215.19
280.505	209.19
280.736	231.19
280.968	224.19
281.199	217.19
281.431	219.19
281.662	220.19
281.894	218.19
282.125	252.19
282.356	260.19
282.588	273.19
282.819	294.19
283.051	246.19
283.282	244.19
283.513	232.19
283.745	224.19
283.976	231.19
284.207	220.19
284.439	232.19
284.67	225.19
284.901	217.19
285.132	215.19
285.364	219.19
285.595	218.19
285.826	231.19
286.057	241.19
286.288	232.19
286.52	234.19
286.751	234.19
286.982	219.19
287.213	242.19
287.444	226.19
287.675	238.19
287.906	238.19
288.138	263.19
288.369	271.19
288.6	242.19
288.831	244.19
289.062	243.19
289.293	250.19
289.524	239.19
289.755	222.19
289.986	235.19
290.217	220.19
290.448	218.19
290.679	222.19
290.91	225.19
291.141	237.19
291.371	235.19
291.602	235.19
291.833	210.19
292.064	223.19
292.295	224.19
292.526	227.19
292.757	238.19
292.987	221.19
293.218	214.19
293.449	232.19
293.68	242.19
293.91	237.19
294.141	246.19
294.372	233.19
294.603	232.19
294.833	231.19
295.064	242.19
295.295	235.19
295.525	228.19
295.756	244.19
295.987	264.19
296.217	277.19
296.448	285.19
296.679	245.19
296.909	243.19
297.14	232.19
297.37	238.19
297.601	228.19
297.831	250.19
298.062	244.19
298.292	242.19
298.523	247.19
298.753	255.19
298.984	238.19
299.214	232.19
299.445	235.19
299.675	245.19
299.905	256.19
300.136	259.19
300.366	229.19
300.597	256.19
300.827	259.19
301.057	234.19
301.288	260.19
301.518	279.19
301.748	272.19
301.979	264.19
302.209	278.19
302.439	260.19
302.669	261.19
302.9	264.19
303.13	257.19
303.36	276.19
303.59	274.19
303.82	298.19
304.051	280.19
304.281	271.19
304.511	265.19
304.741	256.19
304.971	243.19
305.201	262.19
305.431	260.19
305.661	250.19
305.891	256.19
306.121	267.19
306.352	278.19
306.582	278.19
306.812	266.19
307.042	270.19
307.272	274.19
307.502	272.19
307.731	267.19
307.961	273.19
308.191	252.19
308.421	276.19
308.651	282.19
308.881	287.19
309.111	304.19
309.341	288.19
309.571	301.19
309.8	316.19
310.03	326.19
310.26	336.19
310.49	332.19
310.72	358.19
310.949	372.19
311.179	391.19
311.409	350.19
311.639	338.19
311.868	328.19
312.098	340.19
312.328	327.19
312.557	354.19
312.787	370.19
313.017	386.19
313.246	352.19
313.476	345.19
313.706	324.19
313.935	352.19
314.165	341.19
314.394	385.19
314.624	353.19
314.853	331.19
315.083	343.19
315.312	335.19
315.542	320.19
315.771	326.19
316.001	313.19
316.23	325.19
316.46	320.19
316.689	327.19
316.919	326.19
317.148	333.19
317.377	350.19
317.607	331.19
317.836	335.19
318.065	319.19
318.295	315.19
318.524	297.19
318.753	321.19
318.983	317.19
319.212	342.19
319.441	314.19
319.67	346.19
319.9	328.19
320.129	330.19
320.358	334.19
320.587	356.19
320.816	337.19
321.046	328.19
321.275	368.19
321.504	367.19
321.733	340.19
321.962	374.19
322.191	379.19
322.42	432.19
322.649	434.19
322.878	453.19
323.108	452.19
323.337	503.19
323.566	539.19
323.795	576.19
324.024	634.19
324.253	819.19
324.482	1198.19
324.71	1843.19
324.939	2571.19
325.168	2262.19
325.397	1231.19
325.626	807.19
325.855	637.19
326.084	572.19
326.313	521.19
326.542	554.19
326.77	608.19
326.999	722.19
327.228	1030.19
327.457	1571.19
327.686	1918.19
327.914	1392.19
328.143	869.19
328.372	702.19
328.6	643.19
328.829	607.19
329.058	634.19
329.287	659.19
329.515	582.19
329.744	522.19
329.972	490.19
330.201	519.19
330.43	546.19
330.658	595.19
330.887	666.19
331.115	656.19
331.344	547.19
331.572	479.19
331.801	470.19
332.03	488.19
332.258	433.19
332.486	400.19
332.715	370.19
332.943	388.19
333.172	401.19
333.4	369.19
333.629	398.19
333.857	398.19
334.085	386.19
334.314	379.19
334.542	389.19
334.771	394.19
334.999	386.19
335.227	376.19
335.455	385.19
335.684	372.19
335.912	373.19
336.14	367.19
336.369	358.19
336.597	398.19
336.825	404.19
337.053	374.19
337.281	363.19
337.51	347.19
337.738	350.19
337.966	370.19
338.194	376.19
338.422	362.19
338.65	375.19
338.878	384.19
339.106	354.19
339.334	347.19
339.562	354.19
339.79	345.19
340.018	367.19
340.246	366.19
340.474	381.19
340.702	361.19
340.93	364.19
341.158	369.19
341.386	367.19
341.614	361.19
341.842	377.19
342.07	346.19
342.298	351.19
342.526	351.19
342.754	354.19
342.981	350.19
343.209	340.19
343.437	346.19
343.665	336.19
343.893	351.19
344.12	342.19
344.348	343.19
344.576	339.19
344.804	388.19
345.031	392.19
345.259	402.19
345.487	394.19
345.714	388.19
345.942	351.19
346.17	353.19
346.397	354.19
346.625	377.19
346.853	382.19
347.08	360.19
347.308	380.19
347.535	380.19
347.763	374.19
347.99	386.19
348.218	373.19
348.445	395.19
348.673	400.19
348.9	382.19
349.128	369.19
349.355	348.19
349.583	362.19
349.81	348.19
350.037	343.19
350.265	347.19
350.492	338.19
350.72	347.19
350.947	355.19
351.174	377.19
351.402	405.19
351.629	381.19
351.856	394.19
352.083	388.19
352.311	383.19
352.538	411.19
352.765	408.19
352.992	396.19
353.22	375.19
353.447	375.19
353.674	360.19
353.901	350.19
354.128	329.19
354.355	336.19
354.583	352.19
354.81	358.19
355.037	329.19
355.264	310.19
355.491	325.19
355.718	326.19
355.945	329.19
356.172	321.19
356.399	328.19
356.626	322.19
356.853	324.19
357.08	325.19
357.307	308.19
357.534	302.19
357.761	330.19
357.988	322.19
358.215	322.19
358.441	340.19
358.668	336.19
358.895	332.19
359.122	342.19
359.349	356.19
359.576	382.19
359.802	395.19
360.029	452.19
360.256	484.19
360.483	439.19
360.709	384.19
360.936	382.19
361.163	378.19
361.39	382.19
361.616	375.19
361.843	371.19
362.07	362.19
362.296	358.19
362.523	380.19
362.749	369.19
362.976	353.19
363.203	366.19
363.429	357.19
363.656	354.19
363.882	344.19
364.109	332.19
364.335	351.19
364.562	335.19
364.788	344.19
365.015	342.19
365.241	332.19
365.468	346.19
365.694	365.19
365.92	356.19
366.147	352.19
366.373	338.19
366.599	363.19
366.826	348.19
367.052	352.19
367.278	350.19
367.505	349.19
367.731	342.19
367.957	337.19
368.184	345.19
368.41	357.19
368.636	356.19
368.862	360.19
369.089	355.19
369.315	342.19
369.541	343.19
369.767	330.19
369.993	335.19
370.219	339.19
370.445	326.19
370.672	345.19
370.898	308.19
371.124	328.19
371.35	316.19
371.576	323.19
371.802	337.19
372.028	327.19
372.254	312.19
372.48	323.19
372.706	339.19
372.932	336.19
373.158	316.19
373.384	320.19
373.61	318.19
373.835	310.19
374.061	329.19
374.287	341.19
374.513	339.19
374.739	331.19
374.965	337.19
375.191	331.19
375.416	324.19
375.642	330.19
375.868	312.19
376.094	339.19
376.319	311.19
376.545	320.19
376.771	334.19
376.997	313.19
377.222	333.19
377.448	320.19
377.674	323.19
377.899	324.19
378.125	314.19
378.35	333.19
378.576	322.19
378.802	334.19
379.027	320.19
379.253	314.19
379.478	315.19
379.704	326.19
379.929	322.19
380.155	317.19
380.38	323.19
380.606	328.19
380.831	324.19
381.057	327.19
381.282	345.19
381.507	325.19
381.733	326.19
381.958	331.19
382.184	332.19
382.409	340.19
382.634	324.19
382.86	328.19
383.085	315.19
383.31	322.19
383.535	339.19
383.761	330.19
383.986	328.19
384.211	327.19
384.436	319.19
384.662	332.19
384.887	333.19
385.112	332.19
385.337	343.19
385.562	338.19
385.787	340.19
386.013	350.19
386.238	351.19
386.463	357.19
386.688	337.19
386.913	345.19
387.138	326.19
387.363	332.19
387.588	338.19
387.813	335.19
388.038	330.19
388.263	331.19
388.488	342.19
388.713	337.19
388.938	328.19
389.163	340.19
389.387	331.19
389.612	335.19
389.837	330.19
390.062	338.19
390.287	346.19
390.512	333.19
390.736	336.19
390.961	334.19
391.186	327.19
391.411	335.19
391.636	340.19
391.86	337.19
392.085	339.19
392.31	353.19
392.534	355.19
392.759	339.19
392.984	339.19
393.208	326.19
393.433	348.19
393.658	347.19
393.882	337.19
394.107	340.19
394.331	321.19
394.556	348.19
394.78	343.19
395.005	328.19
395.229	336.19
395.454	347.19
395.678	360.19
395.903	361.19
396.127	375.19
396.352	404.19
396.576	376.19
396.801	361.19
397.025	357.19
397.249	349.19
397.474	369.19
397.698	376.19
397.922	343.19
398.147	375.19
398.371	406.19
398.595	388.19
398.82	382.19
399.044	380.19
399.268	390.19
399.492	416.19
399.717	414.19
399.941	451.19
400.165	482.19
400.389	467.19
400.613	445.19
400.837	427.19
401.062	412.19
401.286	400.19
401.51	406.19
401.734	394.19
401.958	388.19
402.182	419.19
402.406	426.19
402.63	428.19
402.854	404.19
403.078	399.19
403.302	415.19
403.526	412.19
403.75	409.19
403.974	411.19
404.198	409.19
404.422	407.19
404.645	418.19
404.869	416.19
405.093	449.19
405.317	469.19
405.541	475.19
405.765	465.19
405.988	422.19
406.212	457.19
406.436	495.19
406.66	520.19
406.883	491.19
407.107	491.19
407.331	527.19
407.555	578.19
407.778	592.19
408.002	516.19
408.226	486.19
408.449	457.19
408.673	466.19
408.896	520.19
409.12	536.19
409.344	498.19
409.567	446.19
409.791	428.19
410.014	433.19
410.238	408.19
410.461	414.19
410.685	437.19
410.908	423.19
411.132	477.19
411.355	512.19
411.578	462.19
411.802	431.19
412.025	433.19
412.249	424.19
412.472	434.19
412.695	441.19
412.919	441.19
413.142	421.19
413.365	392.19
413.589	401.19
413.812	400.19
414.035	370.19
414.258	395.19
414.482	373.19
414.705	375.19
414.928	382.19
415.151	382.19
415.374	377.19
415.597	372.19
415.821	377.19
416.044	391.19
416.267	403.19
416.49	388.19
416.713	385.19
416.936	391.19
417.159	388.19
417.382	419.19
417.605	398.19
417.828	408.19
418.051	433.19
418.274	422.19
418.497	417.19
418.72	419.19
418.943	374.19
419.166	400.19
419.389	413.19
419.611	421.19
419.834	409.19
420.057	434.19
420.28	426.19
420.503	439.19
420.726	431.19
420.948	448.19
421.171	478.19
421.394	522.19
421.617	467.19
421.839	427.19
422.062	422.19
422.285	450.19
422.507	518.19
422.73	593.19
422.953	560.19
423.175	502.19
423.398	466.19
423.621	457.19
423.843	494.19
424.066	490.19
424.288	491.19
424.511	499.19
424.733	570.19
424.956	614.19
425.178	604.19
425.401	619.19
425.623	628.19
425.846	534.19
426.068	492.19
426.291	489.19
426.513	504.19
426.735	528.19
426.958	545.19
427.18	639.19
427.402	737.19
427.625	857.19
427.847	799.19
428.069	657.19
428.292	553.19
428.514	524.19
428.736	509.19
428.958	494.19
429.181	472.19
429.403	463.19
429.625	497.19
429.847	517.19
430.069	594.19
430.292	566.19
430.514	468.19
430.736	487.19
430.958	436.19
431.18	442.19
431.402	425.19
431.624	429.19
431.846	427.19
432.068	431.19
432.29	429.19
432.512	440.19
432.734	415.19
432.956	424.19
433.178	456.19
433.4	446.19
433.622	419.19
433.844	412.19
434.066	435.19
434.287	440.19
434.509	432.19
434.731	433.19
434.953	437.19
435.175	448.19
435.397	482.19
435.618	498.19
435.84	568.19
436.062	624.19
436.284	699.19
436.505	602.19
436.727	502.19
436.949	479.19
437.17	455.19
437.392	474.19
437.614	506.19
437.835	543.19
438.057	652.19
438.278	730.19
438.5	728.19
438.721	778.19
438.943	736.19
439.165	611.19
439.386	562.19
439.608	540.19
439.829	543.19
440.05	568.19
440.272	602.19
440.493	577.19
440.715	516.19
440.936	495.19
441.158	487.19
441.379	494.19
441.6	498.19
441.822	513.19
442.043	560.19
442.264	629.19
442.486	644.19
442.707	572.19
442.928	546.19
443.149	548.19
443.371	561.19
443.592	603.19
443.813	690.19
444.034	698.19
444.255	611.19
444.476	547.19
444.698	498.19
444.919	495.19
445.14	594.19
445.361	558.19
445.582	580.19
445.803	643.19
446.024	753.19
446.245	704.19
446.466	672.19
446.687	560.19
446.908	519.19
447.129	514.19
447.35	499.19
447.571	468.19
447.792	475.19
448.013	499.19
448.234	508.19
448.455	571.19
448.675	697.19
448.896	746.19
449.117	642.19
449.338	640.19
449.559	730.19
449.779	761.19
450	652.19
450.221	573.19
450.442	507.19
450.662	500.19
450.883	494.19
451.104	519.19
451.324	516.19
451.545	467.19
451.766	483.19
451.986	428.19
452.207	419.19
452.428	407.19
452.648	418.19
452.869	429.19
453.089	444.19
453.31	494.19
453.53	441.19
453.751	420.19
453.971	458.19
454.192	487.19
454.412	448.19
454.633	448.19
454.853	443.19
455.073	424.19
455.294	454.19
455.514	534.19
455.734	531.19
455.955	448.19
456.175	410.19
456.395	381.19
456.616	376.19
456.836	407.19
457.056	395.19
457.276	374.19
457.497	396.19
457.717	362.19
457.937	404.19
458.157	395.19
458.377	405.19
458.598	441.19
458.818	503.19
459.038	609.19
459.258	642.19
459.478	522.19
459.698	468.19
459.918	410.19
460.138	422.19
460.358	411.19
460.578	413.19
460.798	439.19
461.018	421.19
461.238	427.19
461.458	407.19
461.678	394.19
461.898	408.19
462.118	402.19
462.338	418.19
462.558	406.19
462.777	420.19
462.997	428.19
463.217	428.19
463.437	443.19
463.657	414.19
463.876	430.19
464.096	437.19
464.316	448.19
464.536	457.19
464.755	451.19
464.975	467.19
465.195	535.19
465.414	666.19
465.634	566.19
465.854	492.19
466.073	464.19
466.293	445.19
466.512	414.19
466.732	415.19
466.951	402.19
467.171	422.19
467.391	452.19
467.61	443.19
467.829	457.19
468.049	427.19
468.268	399.19
468.488	386.19
468.707	422.19
468.927	410.19
469.146	410.19
469.365	376.19
469.585	421.19
469.804	415.19
470.023	453.19
470.243	432.19
470.462	439.19
470.681	467.19
470.901	430.19
471.12	431.19
471.339	430.19
471.558	425.19
471.777	438.19
471.997	440.19
472.216	405.19
472.435	440.19
472.654	415.19
472.873	425.19
473.092	417.19
473.311	418.19
473.53	425.19
473.749	447.19
473.968	482.19
474.187	571.19
474.406	615.19
474.625	487.19
474.844	468.19
475.063	437.19
475.282	408.19
475.501	390.19
475.72	447.19
475.939	435.19
476.158	466.19
476.377	437.19
476.596	427.19
476.814	467.19
477.033	470.19
477.252	474.19
477.471	460.19
477.69	452.19
477.908	455.19
478.127	439.19
478.346	439.19
478.564	461.19
478.783	459.19
479.002	459.19
479.22	478.19
479.439	491.19
479.658	507.19
479.876	544.19
480.095	534.19
480.313	538.19
480.532	526.19
480.751	496.19
480.969	524.19
481.188	518.19
481.406	534.19
481.624	508.19
481.843	533.19
482.061	514.19
482.28	516.19
482.498	490.19
482.717	495.19
482.935	487.19
483.153	508.19
483.372	472.19
483.59	489.19
483.808	479.19
484.027	496.19
484.245	499.19
484.463	515.19
484.681	533.19
484.9	498.19
485.118	513.19
485.336	495.19
485.554	528.19
485.772	532.19
485.99	506.19
486.209	523.19
486.427	546.19
486.645	527.19
486.863	534.19
487.081	568.19
487.299	536.19
487.517	539.19
487.735	545.19
487.953	530.19
488.171	539.19
488.389	547.19
488.607	547.19
488.825	560.19
489.043	561.19
489.261	566.19
489.479	548.19
489.696	567.19
489.914	553.19
490.132	580.19
490.35	562.19
490.568	599.19
490.786	564.19
491.003	584.19
491.221	577.19
491.439	636.19
491.657	608.19
491.874	618.19
492.092	648.19
492.31	641.19
492.527	648.19
492.745	629.19
492.963	641.19
493.18	652.19
493.398	650.19
493.615	647.19
493.833	654.19
494.05	654.19
494.268	658.19
494.485	662.19
494.703	631.19
494.92	656.19
495.138	641.19
495.355	650.19
495.573	669.19
495.79	660.19
496.008	648.19
496.225	670.19
496.442	649.19
496.66	653.19
496.877	691.19
497.094	700.19
497.312	663.19
497.529	628.19
497.746	689.19
497.963	676.19
498.181	719.19
498.398	691.19
498.615	712.19
498.832	714.19
499.049	745.19
499.267	714.19
499.484	707.19
499.701	731.19
499.918	777.19
500.135	755.19
500.352	771.19
500.569	773.19
500.786	794.19
501.003	778.19
501.22	762.19
501.437	763.19
501.654	787.19
501.871	804.19
