Data from 1987.PennyLincolnUp.Lamp.En5.5.200Scan.071819.P2_HRD10591_17-16-42-971.txt Node
Date: Thu Jul 18 17:16:42 EDT 2019
User: cochatt
Spectrometer: HR+D1059
Trigger mode: 1
Integration Time (sec): 1.000000E-1
Scans to average: 1
Electric dark correction enabled: true
Nonlinearity correction enabled: false
Boxcar width: 0
XAxis mode: Wavelengths
Number of Pixels in Spectrum: 2048
>>>>>Begin Spectral Data<<<<<
223.165	-14.88
223.4	-14.88
223.635	-14.88
223.869	-19.88
224.104	-13.88
224.338	-11.88
224.573	-27.88
224.808	3.12
225.042	-4.88
225.277	-11.88
225.511	3.12
225.746	-9.88
225.98	12.12
226.215	20.12
226.449	19.12
226.683	23.12
226.918	13.12
227.152	21.12
227.387	22.12
227.621	28.12
227.856	25.12
228.09	54.12
228.324	47.12
228.559	61.12
228.793	71.12
229.027	112.12
229.262	105.12
229.496	134.12
229.73	154.12
229.964	183.12
230.199	139.12
230.433	124.12
230.667	124.12
230.901	132.12
231.136	104.12
231.37	101.12
231.604	100.12
231.838	112.12
232.072	99.12
232.306	101.12
232.541	113.12
232.775	106.12
233.009	108.12
233.243	109.12
233.477	107.12
233.711	110.12
233.945	110.12
234.179	114.12
234.413	118.12
234.647	115.12
234.881	118.12
235.115	124.12
235.349	113.12
235.583	132.12
235.817	119.12
236.051	122.12
236.285	129.12
236.519	129.12
236.753	138.12
236.987	165.12
237.221	201.12
237.455	264.12
237.689	201.12
237.922	170.12
238.156	151.12
238.39	140.12
238.624	126.12
238.858	96.12
239.091	122.12
239.325	112.12
239.559	128.12
239.793	139.12
240.027	133.12
240.26	134.12
240.494	168.12
240.728	156.12
240.961	140.12
241.195	135.12
241.429	130.12
241.662	131.12
241.896	138.12
242.13	132.12
242.363	121.12
242.597	122.12
242.83	125.12
243.064	122.12
243.298	142.12
243.531	138.12
243.765	133.12
243.998	129.12
244.232	142.12
244.465	147.12
244.699	136.12
244.932	146.12
245.166	144.12
245.399	137.12
245.633	120.12
245.866	136.12
246.099	145.12
246.333	140.12
246.566	132.12
246.8	139.12
247.033	154.12
247.266	139.12
247.5	152.12
247.733	155.12
247.966	177.12
248.2	168.12
248.433	158.12
248.666	166.12
248.899	180.12
249.133	199.12
249.366	220.12
249.599	192.12
249.832	185.12
250.066	179.12
250.299	168.12
250.532	166.12
250.765	200.12
250.998	210.12
251.231	221.12
251.465	213.12
251.698	215.12
251.931	213.12
252.164	193.12
252.397	198.12
252.63	195.12
252.863	209.12
253.096	215.12
253.329	204.12
253.562	233.12
253.795	230.12
254.028	218.12
254.261	212.12
254.494	227.12
254.727	258.12
254.96	294.12
255.193	268.12
255.426	242.12
255.659	257.12
255.892	223.12
256.124	230.12
256.357	222.12
256.59	222.12
256.823	213.12
257.056	203.12
257.289	185.12
257.521	201.12
257.754	193.12
257.987	194.12
258.22	201.12
258.452	192.12
258.685	191.12
258.918	191.12
259.151	190.12
259.383	203.12
259.616	196.12
259.849	205.12
260.081	214.12
260.314	236.12
260.547	248.12
260.779	225.12
261.012	231.12
261.244	218.12
261.477	209.12
261.71	226.12
261.942	226.12
262.175	229.12
262.407	221.12
262.64	211.12
262.872	193.12
263.105	209.12
263.337	181.12
263.57	203.12
263.802	209.12
264.035	195.12
264.267	194.12
264.499	192.12
264.732	194.12
264.964	194.12
265.197	186.12
265.429	177.12
265.661	205.12
265.894	203.12
266.126	201.12
266.358	199.12
266.591	193.12
266.823	197.12
267.055	210.12
267.287	196.12
267.52	181.12
267.752	190.12
267.984	211.12
268.216	192.12
268.448	204.12
268.681	226.12
268.913	228.12
269.145	224.12
269.377	243.12
269.609	243.12
269.841	262.12
270.073	269.12
270.306	279.12
270.538	325.12
270.77	317.12
271.002	294.12
271.234	276.12
271.466	280.12
271.698	297.12
271.93	315.12
272.162	318.12
272.394	321.12
272.626	295.12
272.858	267.12
273.09	270.12
273.322	244.12
273.553	249.12
273.785	248.12
274.017	239.12
274.249	239.12
274.481	236.12
274.713	233.12
274.945	262.12
275.176	253.12
275.408	240.12
275.64	244.12
275.872	226.12
276.104	246.12
276.335	217.12
276.567	245.12
276.799	261.12
277.031	293.12
277.262	302.12
277.494	292.12
277.726	278.12
277.957	256.12
278.189	251.12
278.421	235.12
278.652	238.12
278.884	244.12
279.115	224.12
279.347	234.12
279.579	234.12
279.81	225.12
280.042	226.12
280.273	240.12
280.505	216.12
280.736	224.12
280.968	210.12
281.199	238.12
281.431	243.12
281.662	236.12
281.894	215.12
282.125	246.12
282.356	248.12
282.588	295.12
282.819	291.12
283.051	243.12
283.282	232.12
283.513	230.12
283.745	235.12
283.976	235.12
284.207	240.12
284.439	256.12
284.67	250.12
284.901	240.12
285.132	219.12
285.364	217.12
285.595	236.12
285.826	223.12
286.057	240.12
286.288	235.12
286.52	234.12
286.751	238.12
286.982	232.12
287.213	240.12
287.444	229.12
287.675	252.12
287.906	252.12
288.138	243.12
288.369	255.12
288.6	275.12
288.831	251.12
289.062	252.12
289.293	251.12
289.524	257.12
289.755	233.12
289.986	231.12
290.217	241.12
290.448	231.12
290.679	220.12
290.91	222.12
291.141	229.12
291.371	232.12
291.602	238.12
291.833	233.12
292.064	225.12
292.295	225.12
292.526	229.12
292.757	236.12
292.987	230.12
293.218	240.12
293.449	231.12
293.68	231.12
293.91	232.12
294.141	229.12
294.372	238.12
294.603	238.12
294.833	230.12
295.064	231.12
295.295	234.12
295.525	232.12
295.756	249.12
295.987	256.12
296.217	275.12
296.448	312.12
296.679	265.12
296.909	231.12
297.14	239.12
297.37	240.12
297.601	240.12
297.831	238.12
298.062	236.12
298.292	260.12
298.523	241.12
298.753	231.12
298.984	236.12
299.214	252.12
299.445	253.12
299.675	242.12
299.905	259.12
300.136	269.12
300.366	259.12
300.597	263.12
300.827	261.12
301.057	276.12
301.288	288.12
301.518	282.12
301.748	254.12
301.979	252.12
302.209	257.12
302.439	286.12
302.669	272.12
302.9	269.12
303.13	257.12
303.36	258.12
303.59	281.12
303.82	290.12
304.051	271.12
304.281	262.12
304.511	250.12
304.741	262.12
304.971	279.12
305.201	280.12
305.431	282.12
305.661	265.12
305.891	260.12
306.121	277.12
306.352	290.12
306.582	301.12
306.812	271.12
307.042	267.12
307.272	260.12
307.502	278.12
307.731	268.12
307.961	270.12
308.191	279.12
308.421	266.12
308.651	286.12
308.881	283.12
309.111	304.12
309.341	288.12
309.571	330.12
309.8	320.12
310.03	327.12
310.26	342.12
310.49	339.12
310.72	347.12
310.949	391.12
311.179	408.12
311.409	365.12
311.639	355.12
311.868	366.12
312.098	339.12
312.328	336.12
312.557	375.12
312.787	396.12
313.017	393.12
313.246	355.12
313.476	332.12
313.706	340.12
313.935	342.12
314.165	381.12
314.394	376.12
314.624	366.12
314.853	352.12
315.083	354.12
315.312	354.12
315.542	342.12
315.771	326.12
316.001	320.12
316.23	315.12
316.46	309.12
316.689	315.12
316.919	334.12
317.148	356.12
317.377	331.12
317.607	350.12
317.836	338.12
318.065	351.12
318.295	320.12
318.524	316.12
318.753	313.12
318.983	326.12
319.212	312.12
319.441	337.12
319.67	348.12
319.9	331.12
320.129	347.12
320.358	329.12
320.587	345.12
320.816	364.12
321.046	355.12
321.275	361.12
321.504	366.12
321.733	357.12
321.962	392.12
322.191	412.12
322.42	425.12
322.649	459.12
322.878	456.12
323.108	476.12
323.337	530.12
323.566	565.12
323.795	603.12
324.024	672.12
324.253	840.12
324.482	1265.12
324.71	1978.12
324.939	2737.12
325.168	2403.12
325.397	1260.12
325.626	871.12
325.855	647.12
326.084	598.12
326.313	531.12
326.542	555.12
326.77	639.12
326.999	785.12
327.228	1076.12
327.457	1699.12
327.686	2089.12
327.914	1435.12
328.143	926.12
328.372	768.12
328.6	690.12
328.829	644.12
329.058	687.12
329.287	697.12
329.515	611.12
329.744	556.12
329.972	504.12
330.201	517.12
330.43	558.12
330.658	617.12
330.887	699.12
331.115	659.12
331.344	538.12
331.572	481.12
331.801	490.12
332.03	504.12
332.258	436.12
332.486	400.12
332.715	397.12
332.943	392.12
333.172	382.12
333.4	390.12
333.629	394.12
333.857	400.12
334.085	413.12
334.314	408.12
334.542	391.12
334.771	397.12
334.999	393.12
335.227	410.12
335.455	380.12
335.684	383.12
335.912	380.12
336.14	369.12
336.369	383.12
336.597	386.12
336.825	424.12
337.053	402.12
337.281	370.12
337.51	360.12
337.738	366.12
337.966	374.12
338.194	390.12
338.422	394.12
338.65	379.12
338.878	366.12
339.106	357.12
339.334	355.12
339.562	353.12
339.79	354.12
340.018	367.12
340.246	376.12
340.474	376.12
340.702	379.12
340.93	370.12
341.158	364.12
341.386	373.12
341.614	372.12
341.842	363.12
342.07	351.12
342.298	368.12
342.526	344.12
342.754	353.12
342.981	332.12
343.209	345.12
343.437	369.12
343.665	354.12
343.893	348.12
344.12	360.12
344.348	366.12
344.576	341.12
344.804	375.12
345.031	394.12
345.259	408.12
345.487	416.12
345.714	381.12
345.942	363.12
346.17	363.12
346.397	369.12
346.625	362.12
346.853	361.12
347.08	368.12
347.308	386.12
347.535	384.12
347.763	388.12
347.99	396.12
348.218	404.12
348.445	379.12
348.673	402.12
348.9	380.12
349.128	369.12
349.355	362.12
349.583	346.12
349.81	313.12
350.037	350.12
350.265	364.12
350.492	335.12
350.72	373.12
350.947	342.12
351.174	376.12
351.402	384.12
351.629	373.12
351.856	387.12
352.083	402.12
352.311	402.12
352.538	396.12
352.765	432.12
352.992	388.12
353.22	394.12
353.447	395.12
353.674	355.12
353.901	357.12
354.128	347.12
354.355	330.12
354.583	346.12
354.81	350.12
355.037	348.12
355.264	318.12
355.491	315.12
355.718	329.12
355.945	328.12
356.172	314.12
356.399	327.12
356.626	316.12
356.853	335.12
357.08	308.12
357.307	323.12
357.534	305.12
357.761	336.12
357.988	337.12
358.215	330.12
358.441	318.12
358.668	324.12
358.895	343.12
359.122	351.12
359.349	363.12
359.576	373.12
359.802	447.12
360.029	468.12
360.256	490.12
360.483	447.12
360.709	412.12
360.936	382.12
361.163	360.12
361.39	381.12
361.616	395.12
361.843	395.12
362.07	376.12
362.296	394.12
362.523	392.12
362.749	384.12
362.976	359.12
363.203	372.12
363.429	356.12
363.656	357.12
363.882	362.12
364.109	340.12
364.335	362.12
364.562	360.12
364.788	342.12
365.015	354.12
365.241	354.12
365.468	344.12
365.694	358.12
365.92	377.12
366.147	351.12
366.373	348.12
366.599	364.12
366.826	351.12
367.052	340.12
367.278	335.12
367.505	334.12
367.731	352.12
367.957	340.12
368.184	357.12
368.41	359.12
368.636	359.12
368.862	367.12
369.089	363.12
369.315	346.12
369.541	338.12
369.767	335.12
369.993	337.12
370.219	338.12
370.445	339.12
370.672	332.12
370.898	335.12
371.124	335.12
371.35	327.12
371.576	327.12
371.802	322.12
372.028	324.12
372.254	323.12
372.48	302.12
372.706	336.12
372.932	329.12
373.158	318.12
373.384	350.12
373.61	338.12
373.835	330.12
374.061	315.12
374.287	331.12
374.513	325.12
374.739	327.12
374.965	326.12
375.191	330.12
375.416	337.12
375.642	332.12
375.868	302.12
376.094	327.12
376.319	320.12
376.545	322.12
376.771	329.12
376.997	325.12
377.222	325.12
377.448	318.12
377.674	316.12
377.899	315.12
378.125	306.12
378.35	327.12
378.576	314.12
378.802	332.12
379.027	307.12
379.253	306.12
379.478	325.12
379.704	309.12
379.929	329.12
380.155	319.12
380.38	329.12
380.606	335.12
380.831	339.12
381.057	333.12
381.282	316.12
381.507	345.12
381.733	337.12
381.958	351.12
382.184	326.12
382.409	334.12
382.634	323.12
382.86	319.12
383.085	310.12
383.31	322.12
383.535	319.12
383.761	321.12
383.986	343.12
384.211	318.12
384.436	327.12
384.662	344.12
384.887	348.12
385.112	325.12
385.337	335.12
385.562	323.12
385.787	325.12
386.013	331.12
386.238	336.12
386.463	364.12
386.688	348.12
386.913	350.12
387.138	343.12
387.363	345.12
387.588	332.12
387.813	347.12
388.038	342.12
388.263	343.12
388.488	340.12
388.713	355.12
388.938	353.12
389.163	342.12
389.387	346.12
389.612	342.12
389.837	341.12
390.062	340.12
390.287	354.12
390.512	326.12
390.736	357.12
390.961	343.12
391.186	336.12
391.411	316.12
391.636	337.12
391.86	338.12
392.085	338.12
392.31	339.12
392.534	344.12
392.759	364.12
392.984	332.12
393.208	346.12
393.433	330.12
393.658	331.12
393.882	344.12
394.107	331.12
394.331	343.12
394.556	340.12
394.78	350.12
395.005	345.12
395.229	335.12
395.454	371.12
395.678	358.12
395.903	366.12
396.127	390.12
396.352	394.12
396.576	384.12
396.801	359.12
397.025	370.12
397.249	350.12
397.474	360.12
397.698	355.12
397.922	378.12
398.147	378.12
398.371	364.12
398.595	388.12
398.82	391.12
399.044	394.12
399.268	386.12
399.492	392.12
399.717	428.12
399.941	453.12
400.165	458.12
400.389	502.12
400.613	440.12
400.837	408.12
401.062	387.12
401.286	389.12
401.51	399.12
401.734	404.12
401.958	407.12
402.182	416.12
402.406	426.12
402.63	418.12
402.854	398.12
403.078	410.12
403.302	414.12
403.526	415.12
403.75	410.12
403.974	398.12
404.198	403.12
404.422	401.12
404.645	419.12
404.869	408.12
405.093	447.12
405.317	484.12
405.541	485.12
405.765	461.12
405.988	466.12
406.212	474.12
406.436	489.12
406.66	511.12
406.883	476.12
407.107	497.12
407.331	520.12
407.555	574.12
407.778	600.12
408.002	527.12
408.226	469.12
408.449	452.12
408.673	486.12
408.896	499.12
409.12	526.12
409.344	492.12
409.567	473.12
409.791	414.12
410.014	432.12
410.238	406.12
410.461	419.12
410.685	421.12
410.908	448.12
411.132	473.12
411.355	514.12
411.578	485.12
411.802	452.12
412.025	410.12
412.249	415.12
412.472	416.12
412.695	458.12
412.919	448.12
413.142	376.12
413.365	418.12
413.589	404.12
413.812	401.12
414.035	395.12
414.258	373.12
414.482	392.12
414.705	383.12
414.928	384.12
415.151	375.12
415.374	399.12
415.597	377.12
415.821	394.12
416.044	390.12
416.267	391.12
416.49	403.12
416.713	380.12
416.936	378.12
417.159	399.12
417.382	387.12
417.605	406.12
417.828	406.12
418.051	438.12
418.274	437.12
418.497	413.12
418.72	407.12
418.943	393.12
419.166	418.12
419.389	453.12
419.611	414.12
419.834	424.12
420.057	433.12
420.28	410.12
420.503	410.12
420.726	421.12
420.948	456.12
421.171	502.12
421.394	524.12
421.617	453.12
421.839	443.12
422.062	450.12
422.285	456.12
422.507	515.12
422.73	572.12
422.953	558.12
423.175	500.12
423.398	465.12
423.621	472.12
423.843	486.12
424.066	510.12
424.288	501.12
424.511	524.12
424.733	580.12
424.956	648.12
425.178	631.12
425.401	600.12
425.623	634.12
425.846	564.12
426.068	521.12
426.291	503.12
426.513	519.12
426.735	513.12
426.958	574.12
427.18	635.12
427.402	747.12
427.625	852.12
427.847	816.12
428.069	688.12
428.292	594.12
428.514	502.12
428.736	511.12
428.958	496.12
429.181	456.12
429.403	458.12
429.625	455.12
429.847	517.12
430.069	582.12
430.292	600.12
430.514	502.12
430.736	466.12
430.958	455.12
431.18	438.12
431.402	443.12
431.624	437.12
431.846	401.12
432.068	414.12
432.29	406.12
432.512	440.12
432.734	427.12
432.956	420.12
433.178	448.12
433.4	454.12
433.622	434.12
433.844	432.12
434.066	424.12
434.287	416.12
434.509	426.12
434.731	409.12
434.953	420.12
435.175	457.12
435.397	494.12
435.618	503.12
435.84	537.12
436.062	627.12
436.284	694.12
436.505	579.12
436.727	558.12
436.949	501.12
437.17	501.12
437.392	477.12
437.614	514.12
437.835	536.12
438.057	668.12
438.278	776.12
438.5	727.12
438.721	755.12
438.943	746.12
439.165	634.12
439.386	547.12
439.608	548.12
439.829	556.12
440.05	564.12
440.272	617.12
440.493	586.12
440.715	553.12
440.936	516.12
441.158	505.12
441.379	495.12
441.6	479.12
441.822	551.12
442.043	562.12
442.264	654.12
442.486	671.12
442.707	577.12
442.928	582.12
443.149	553.12
443.371	564.12
443.592	610.12
443.813	676.12
444.034	721.12
444.255	596.12
444.476	544.12
444.698	491.12
444.919	474.12
445.14	593.12
445.361	562.12
445.582	569.12
445.803	634.12
446.024	732.12
446.245	762.12
446.466	683.12
446.687	594.12
446.908	540.12
447.129	518.12
447.35	500.12
447.571	488.12
447.792	485.12
448.013	495.12
448.234	506.12
448.455	541.12
448.675	652.12
448.896	780.12
449.117	661.12
449.338	625.12
449.559	724.12
449.779	763.12
450	670.12
450.221	549.12
450.442	488.12
450.662	486.12
450.883	505.12
451.104	524.12
451.324	510.12
451.545	484.12
451.766	446.12
451.986	459.12
452.207	420.12
452.428	430.12
452.648	435.12
452.869	437.12
453.089	422.12
453.31	451.12
453.53	451.12
453.751	449.12
453.971	470.12
454.192	459.12
454.412	460.12
454.633	436.12
454.853	433.12
455.073	422.12
455.294	460.12
455.514	514.12
455.734	526.12
455.955	451.12
456.175	404.12
456.395	407.12
456.616	399.12
456.836	375.12
457.056	392.12
457.276	379.12
457.497	390.12
457.717	389.12
457.937	406.12
458.157	410.12
458.377	428.12
458.598	438.12
458.818	552.12
459.038	660.12
459.258	663.12
459.478	514.12
459.698	450.12
459.918	435.12
460.138	434.12
460.358	408.12
460.578	424.12
460.798	399.12
461.018	402.12
461.238	419.12
461.458	404.12
461.678	375.12
461.898	416.12
462.118	406.12
462.338	415.12
462.558	442.12
462.777	416.12
462.997	408.12
463.217	419.12
463.437	427.12
463.657	426.12
463.876	426.12
464.096	415.12
464.316	420.12
464.536	454.12
464.755	463.12
464.975	457.12
465.195	556.12
465.414	690.12
465.634	594.12
465.854	516.12
466.073	487.12
466.293	465.12
466.512	445.12
466.732	427.12
466.951	417.12
467.171	426.12
467.391	434.12
467.61	461.12
467.829	460.12
468.049	426.12
468.268	423.12
468.488	399.12
468.707	407.12
468.927	411.12
469.146	387.12
469.365	404.12
469.585	421.12
469.804	439.12
470.023	442.12
470.243	436.12
470.462	454.12
470.681	460.12
470.901	445.12
471.12	453.12
471.339	440.12
471.558	432.12
471.777	427.12
471.997	422.12
472.216	410.12
472.435	420.12
472.654	418.12
472.873	425.12
473.092	409.12
473.311	401.12
473.53	428.12
473.749	453.12
473.968	487.12
474.187	598.12
474.406	627.12
474.625	510.12
474.844	441.12
475.063	423.12
475.282	435.12
475.501	449.12
475.72	437.12
475.939	432.12
476.158	450.12
476.377	444.12
476.596	438.12
476.814	447.12
477.033	460.12
477.252	460.12
477.471	465.12
477.69	453.12
477.908	454.12
478.127	447.12
478.346	472.12
478.564	450.12
478.783	450.12
479.002	468.12
479.22	490.12
479.439	490.12
479.658	538.12
479.876	529.12
480.095	546.12
480.313	570.12
480.532	519.12
480.751	523.12
480.969	537.12
481.188	547.12
481.406	555.12
481.624	512.12
481.843	528.12
482.061	514.12
482.28	486.12
482.498	497.12
482.717	490.12
482.935	491.12
483.153	501.12
483.372	483.12
483.59	508.12
483.808	489.12
484.027	504.12
484.245	485.12
484.463	501.12
484.681	516.12
484.9	505.12
485.118	506.12
485.336	511.12
485.554	499.12
485.772	536.12
485.99	523.12
486.209	523.12
486.427	542.12
486.645	560.12
486.863	614.12
487.081	584.12
487.299	554.12
487.517	561.12
487.735	559.12
487.953	566.12
488.171	546.12
488.389	534.12
488.607	538.12
488.825	551.12
489.043	571.12
489.261	569.12
489.479	575.12
489.696	553.12
489.914	573.12
490.132	586.12
490.35	557.12
490.568	597.12
490.786	618.12
491.003	602.12
491.221	606.12
491.439	634.12
491.657	619.12
491.874	643.12
492.092	644.12
492.31	630.12
492.527	648.12
492.745	655.12
492.963	651.12
493.18	656.12
493.398	644.12
493.615	677.12
493.833	662.12
494.05	654.12
494.268	656.12
494.485	657.12
494.703	656.12
494.92	678.12
495.138	680.12
495.355	681.12
495.573	664.12
495.79	676.12
496.008	681.12
496.225	665.12
496.442	652.12
496.66	665.12
496.877	640.12
497.094	692.12
497.312	684.12
497.529	697.12
497.746	692.12
497.963	687.12
498.181	694.12
498.398	730.12
498.615	728.12
498.832	724.12
499.049	708.12
499.267	698.12
499.484	753.12
499.701	726.12
499.918	762.12
500.135	750.12
500.352	784.12
500.569	777.12
500.786	765.12
501.003	794.12
501.22	790.12
501.437	775.12
501.654	797.12
501.871	814.12
