Data from 1987.PennyLincolnUp.Lamp.En5.5.200Scan.071819.P2_HRD10591_17-15-17-971.txt Node
Date: Thu Jul 18 17:15:17 EDT 2019
User: cochatt
Spectrometer: HR+D1059
Trigger mode: 1
Integration Time (sec): 1.000000E-1
Scans to average: 1
Electric dark correction enabled: true
Nonlinearity correction enabled: false
Boxcar width: 0
XAxis mode: Wavelengths
Number of Pixels in Spectrum: 2048
>>>>>Begin Spectral Data<<<<<
223.165	-15.81
223.4	-15.81
223.635	-15.81
223.869	-9.81
224.104	-12.81
224.338	-1.81
224.573	-18.81
224.808	-11.81
225.042	-12.81
225.277	-6.81
225.511	-17.81
225.746	16.19
225.98	5.19
226.215	5.19
226.449	16.19
226.683	11.19
226.918	33.19
227.152	21.19
227.387	44.19
227.621	38.19
227.856	35.19
228.09	32.19
228.324	51.19
228.559	58.19
228.793	68.19
229.027	116.19
229.262	122.19
229.496	119.19
229.73	134.19
229.964	166.19
230.199	122.19
230.433	129.19
230.667	123.19
230.901	110.19
231.136	107.19
231.37	121.19
231.604	113.19
231.838	115.19
232.072	118.19
232.306	126.19
232.541	110.19
232.775	129.19
233.009	108.19
233.243	111.19
233.477	105.19
233.711	131.19
233.945	119.19
234.179	109.19
234.413	119.19
234.647	121.19
234.881	99.19
235.115	129.19
235.349	117.19
235.583	131.19
235.817	121.19
236.051	142.19
236.285	133.19
236.519	134.19
236.753	135.19
236.987	158.19
237.221	197.19
237.455	258.19
237.689	212.19
237.922	157.19
238.156	145.19
238.39	141.19
238.624	129.19
238.858	104.19
239.091	131.19
239.325	138.19
239.559	124.19
239.793	132.19
240.027	131.19
240.26	149.19
240.494	162.19
240.728	157.19
240.961	142.19
241.195	163.19
241.429	140.19
241.662	135.19
241.896	118.19
242.13	142.19
242.363	132.19
242.597	121.19
242.83	133.19
243.064	131.19
243.298	129.19
243.531	124.19
243.765	126.19
243.998	143.19
244.232	146.19
244.465	157.19
244.699	149.19
244.932	140.19
245.166	131.19
245.399	119.19
245.633	146.19
245.866	133.19
246.099	151.19
246.333	151.19
246.566	162.19
246.8	155.19
247.033	135.19
247.266	152.19
247.5	143.19
247.733	168.19
247.966	156.19
248.2	169.19
248.433	172.19
248.666	185.19
248.899	159.19
249.133	205.19
249.366	201.19
249.599	203.19
249.832	167.19
250.066	186.19
250.299	183.19
250.532	189.19
250.765	198.19
250.998	213.19
251.231	231.19
251.465	198.19
251.698	201.19
251.931	173.19
252.164	181.19
252.397	187.19
252.63	200.19
252.863	203.19
253.096	201.19
253.329	233.19
253.562	213.19
253.795	233.19
254.028	223.19
254.261	201.19
254.494	222.19
254.727	267.19
254.96	285.19
255.193	281.19
255.426	257.19
255.659	225.19
255.892	208.19
256.124	203.19
256.357	215.19
256.59	207.19
256.823	215.19
257.056	204.19
257.289	190.19
257.521	188.19
257.754	202.19
257.987	189.19
258.22	209.19
258.452	195.19
258.685	186.19
258.918	206.19
259.151	189.19
259.383	225.19
259.616	211.19
259.849	206.19
260.081	218.19
260.314	236.19
260.547	258.19
260.779	241.19
261.012	223.19
261.244	209.19
261.477	207.19
261.71	219.19
261.942	239.19
262.175	245.19
262.407	246.19
262.64	204.19
262.872	198.19
263.105	201.19
263.337	204.19
263.57	195.19
263.802	198.19
264.035	183.19
264.267	187.19
264.499	193.19
264.732	197.19
264.964	210.19
265.197	191.19
265.429	194.19
265.661	187.19
265.894	181.19
266.126	205.19
266.358	202.19
266.591	198.19
266.823	191.19
267.055	201.19
267.287	216.19
267.52	208.19
267.752	212.19
267.984	207.19
268.216	209.19
268.448	214.19
268.681	206.19
268.913	223.19
269.145	231.19
269.377	250.19
269.609	243.19
269.841	260.19
270.073	248.19
270.306	282.19
270.538	300.19
270.77	307.19
271.002	310.19
271.234	285.19
271.466	277.19
271.698	288.19
271.93	293.19
272.162	319.19
272.394	311.19
272.626	291.19
272.858	262.19
273.09	264.19
273.322	282.19
273.553	237.19
273.785	259.19
274.017	243.19
274.249	229.19
274.481	263.19
274.713	250.19
274.945	226.19
275.176	207.19
275.408	245.19
275.64	233.19
275.872	223.19
276.104	235.19
276.335	245.19
276.567	251.19
276.799	271.19
277.031	286.19
277.262	309.19
277.494	311.19
277.726	288.19
277.957	263.19
278.189	262.19
278.421	259.19
278.652	235.19
278.884	229.19
279.115	242.19
279.347	235.19
279.579	218.19
279.81	230.19
280.042	238.19
280.273	213.19
280.505	223.19
280.736	241.19
280.968	233.19
281.199	227.19
281.431	237.19
281.662	221.19
281.894	242.19
282.125	225.19
282.356	267.19
282.588	279.19
282.819	281.19
283.051	244.19
283.282	232.19
283.513	234.19
283.745	235.19
283.976	246.19
284.207	239.19
284.439	234.19
284.67	224.19
284.901	227.19
285.132	223.19
285.364	246.19
285.595	227.19
285.826	229.19
286.057	238.19
286.288	232.19
286.52	235.19
286.751	223.19
286.982	236.19
287.213	231.19
287.444	232.19
287.675	253.19
287.906	241.19
288.138	264.19
288.369	263.19
288.6	246.19
288.831	237.19
289.062	264.19
289.293	246.19
289.524	242.19
289.755	250.19
289.986	233.19
290.217	233.19
290.448	222.19
290.679	230.19
290.91	231.19
291.141	261.19
291.371	235.19
291.602	240.19
291.833	231.19
292.064	225.19
292.295	210.19
292.526	226.19
292.757	222.19
292.987	229.19
293.218	245.19
293.449	233.19
293.68	242.19
293.91	251.19
294.141	238.19
294.372	228.19
294.603	233.19
294.833	241.19
295.064	234.19
295.295	255.19
295.525	236.19
295.756	246.19
295.987	253.19
296.217	294.19
296.448	314.19
296.679	271.19
296.909	247.19
297.14	257.19
297.37	244.19
297.601	250.19
297.831	260.19
298.062	253.19
298.292	262.19
298.523	244.19
298.753	238.19
298.984	252.19
299.214	256.19
299.445	238.19
299.675	251.19
299.905	251.19
300.136	259.19
300.366	251.19
300.597	264.19
300.827	271.19
301.057	265.19
301.288	276.19
301.518	275.19
301.748	255.19
301.979	254.19
302.209	263.19
302.439	264.19
302.669	271.19
302.9	276.19
303.13	268.19
303.36	252.19
303.59	271.19
303.82	282.19
304.051	289.19
304.281	269.19
304.511	271.19
304.741	279.19
304.971	281.19
305.201	287.19
305.431	270.19
305.661	276.19
305.891	272.19
306.121	273.19
306.352	282.19
306.582	298.19
306.812	262.19
307.042	268.19
307.272	274.19
307.502	271.19
307.731	275.19
307.961	277.19
308.191	282.19
308.421	277.19
308.651	280.19
308.881	282.19
309.111	286.19
309.341	297.19
309.571	287.19
309.8	323.19
310.03	339.19
310.26	334.19
310.49	329.19
310.72	339.19
310.949	378.19
311.179	375.19
311.409	362.19
311.639	340.19
311.868	364.19
312.098	345.19
312.328	349.19
312.557	385.19
312.787	410.19
313.017	413.19
313.246	351.19
313.476	339.19
313.706	361.19
313.935	366.19
314.165	369.19
314.394	370.19
314.624	366.19
314.853	373.19
315.083	353.19
315.312	321.19
315.542	306.19
315.771	335.19
316.001	328.19
316.23	326.19
316.46	327.19
316.689	333.19
316.919	348.19
317.148	360.19
317.377	339.19
317.607	329.19
317.836	324.19
318.065	308.19
318.295	318.19
318.524	330.19
318.753	324.19
318.983	345.19
319.212	330.19
319.441	343.19
319.67	378.19
319.9	349.19
320.129	340.19
320.358	338.19
320.587	328.19
320.816	379.19
321.046	349.19
321.275	367.19
321.504	360.19
321.733	369.19
321.962	377.19
322.191	405.19
322.42	428.19
322.649	427.19
322.878	458.19
323.108	478.19
323.337	502.19
323.566	550.19
323.795	558.19
324.024	692.19
324.253	833.19
324.482	1174.19
324.71	1919.19
324.939	2635.19
325.168	2297.19
325.397	1286.19
325.626	833.19
325.855	663.19
326.084	578.19
326.313	559.19
326.542	533.19
326.77	602.19
326.999	723.19
327.228	1083.19
327.457	1642.19
327.686	2015.19
327.914	1376.19
328.143	889.19
328.372	735.19
328.6	653.19
328.829	622.19
329.058	659.19
329.287	651.19
329.515	580.19
329.744	521.19
329.972	503.19
330.201	515.19
330.43	543.19
330.658	622.19
330.887	667.19
331.115	641.19
331.344	552.19
331.572	461.19
331.801	478.19
332.03	482.19
332.258	433.19
332.486	410.19
332.715	421.19
332.943	409.19
333.172	399.19
333.4	392.19
333.629	385.19
333.857	399.19
334.085	444.19
334.314	389.19
334.542	401.19
334.771	392.19
334.999	397.19
335.227	392.19
335.455	378.19
335.684	379.19
335.912	371.19
336.14	358.19
336.369	388.19
336.597	394.19
336.825	385.19
337.053	370.19
337.281	377.19
337.51	356.19
337.738	373.19
337.966	379.19
338.194	405.19
338.422	398.19
338.65	381.19
338.878	362.19
339.106	357.19
339.334	382.19
339.562	359.19
339.79	355.19
340.018	356.19
340.246	386.19
340.474	399.19
340.702	404.19
340.93	354.19
341.158	368.19
341.386	378.19
341.614	393.19
341.842	388.19
342.07	383.19
342.298	385.19
342.526	370.19
342.754	350.19
342.981	336.19
343.209	339.19
343.437	353.19
343.665	366.19
343.893	373.19
344.12	363.19
344.348	353.19
344.576	370.19
344.804	379.19
345.031	415.19
345.259	400.19
345.487	382.19
345.714	388.19
345.942	368.19
346.17	380.19
346.397	370.19
346.625	358.19
346.853	341.19
347.08	389.19
347.308	377.19
347.535	406.19
347.763	378.19
347.99	409.19
348.218	412.19
348.445	403.19
348.673	393.19
348.9	369.19
349.128	366.19
349.355	358.19
349.583	357.19
349.81	355.19
350.037	330.19
350.265	340.19
350.492	354.19
350.72	364.19
350.947	372.19
351.174	388.19
351.402	378.19
351.629	389.19
351.856	367.19
352.083	395.19
352.311	418.19
352.538	402.19
352.765	406.19
352.992	409.19
353.22	391.19
353.447	376.19
353.674	373.19
353.901	345.19
354.128	331.19
354.355	341.19
354.583	351.19
354.81	342.19
355.037	322.19
355.264	309.19
355.491	327.19
355.718	337.19
355.945	324.19
356.172	335.19
356.399	332.19
356.626	322.19
356.853	330.19
357.08	319.19
357.307	348.19
357.534	342.19
357.761	308.19
357.988	323.19
358.215	354.19
358.441	322.19
358.668	313.19
358.895	340.19
359.122	349.19
359.349	353.19
359.576	384.19
359.802	426.19
360.029	465.19
360.256	478.19
360.483	449.19
360.709	402.19
360.936	373.19
361.163	380.19
361.39	380.19
361.616	388.19
361.843	371.19
362.07	398.19
362.296	375.19
362.523	371.19
362.749	375.19
362.976	365.19
363.203	361.19
363.429	351.19
363.656	356.19
363.882	363.19
364.109	348.19
364.335	342.19
364.562	356.19
364.788	358.19
365.015	339.19
365.241	351.19
365.468	355.19
365.694	361.19
365.92	365.19
366.147	359.19
366.373	344.19
366.599	351.19
366.826	349.19
367.052	347.19
367.278	339.19
367.505	363.19
367.731	349.19
367.957	354.19
368.184	354.19
368.41	338.19
368.636	359.19
368.862	355.19
369.089	349.19
369.315	338.19
369.541	330.19
369.767	365.19
369.993	345.19
370.219	335.19
370.445	332.19
370.672	335.19
370.898	319.19
371.124	333.19
371.35	341.19
371.576	324.19
371.802	326.19
372.028	340.19
372.254	316.19
372.48	328.19
372.706	329.19
372.932	326.19
373.158	332.19
373.384	334.19
373.61	322.19
373.835	337.19
374.061	311.19
374.287	333.19
374.513	346.19
374.739	358.19
374.965	341.19
375.191	338.19
375.416	340.19
375.642	339.19
375.868	353.19
376.094	337.19
376.319	325.19
376.545	323.19
376.771	338.19
376.997	317.19
377.222	326.19
377.448	315.19
377.674	337.19
377.899	315.19
378.125	311.19
378.35	314.19
378.576	326.19
378.802	321.19
379.027	328.19
379.253	318.19
379.478	309.19
379.704	325.19
379.929	330.19
380.155	310.19
380.38	323.19
380.606	321.19
380.831	328.19
381.057	347.19
381.282	351.19
381.507	333.19
381.733	323.19
381.958	334.19
382.184	318.19
382.409	330.19
382.634	348.19
382.86	330.19
383.085	326.19
383.31	342.19
383.535	348.19
383.761	341.19
383.986	339.19
384.211	334.19
384.436	348.19
384.662	374.19
384.887	345.19
385.112	337.19
385.337	339.19
385.562	350.19
385.787	352.19
386.013	367.19
386.238	370.19
386.463	352.19
386.688	359.19
386.913	350.19
387.138	325.19
387.363	345.19
387.588	343.19
387.813	349.19
388.038	341.19
388.263	333.19
388.488	351.19
388.713	323.19
388.938	349.19
389.163	353.19
389.387	353.19
389.612	337.19
389.837	338.19
390.062	324.19
390.287	347.19
390.512	333.19
390.736	337.19
390.961	331.19
391.186	343.19
391.411	352.19
391.636	358.19
391.86	356.19
392.085	339.19
392.31	346.19
392.534	357.19
392.759	337.19
392.984	341.19
393.208	362.19
393.433	334.19
393.658	360.19
393.882	361.19
394.107	346.19
394.331	355.19
394.556	345.19
394.78	343.19
395.005	358.19
395.229	333.19
395.454	355.19
395.678	355.19
395.903	364.19
396.127	392.19
396.352	407.19
396.576	378.19
396.801	357.19
397.025	345.19
397.249	375.19
397.474	363.19
397.698	376.19
397.922	383.19
398.147	391.19
398.371	388.19
398.595	393.19
398.82	384.19
399.044	390.19
399.268	402.19
399.492	421.19
399.717	421.19
399.941	471.19
400.165	485.19
400.389	494.19
400.613	439.19
400.837	435.19
401.062	413.19
401.286	395.19
401.51	407.19
401.734	386.19
401.958	412.19
402.182	407.19
402.406	411.19
402.63	425.19
402.854	410.19
403.078	413.19
403.302	415.19
403.526	439.19
403.75	448.19
403.974	408.19
404.198	396.19
404.422	395.19
404.645	425.19
404.869	435.19
405.093	429.19
405.317	471.19
405.541	491.19
405.765	437.19
405.988	443.19
406.212	467.19
406.436	494.19
406.66	515.19
406.883	458.19
407.107	485.19
407.331	526.19
407.555	582.19
407.778	590.19
408.002	558.19
408.226	505.19
408.449	491.19
408.673	493.19
408.896	499.19
409.12	550.19
409.344	517.19
409.567	460.19
409.791	424.19
410.014	426.19
410.238	413.19
410.461	422.19
410.685	442.19
410.908	465.19
411.132	473.19
411.355	511.19
411.578	474.19
411.802	461.19
412.025	430.19
412.249	409.19
412.472	430.19
412.695	421.19
412.919	425.19
413.142	419.19
413.365	407.19
413.589	385.19
413.812	415.19
414.035	396.19
414.258	383.19
414.482	381.19
414.705	390.19
414.928	400.19
415.151	381.19
415.374	396.19
415.597	401.19
415.821	393.19
416.044	381.19
416.267	381.19
416.49	404.19
416.713	405.19
416.936	414.19
417.159	398.19
417.382	405.19
417.605	397.19
417.828	414.19
418.051	449.19
418.274	426.19
418.497	420.19
418.72	390.19
418.943	407.19
419.166	419.19
419.389	439.19
419.611	430.19
419.834	437.19
420.057	427.19
420.28	411.19
420.503	443.19
420.726	446.19
420.948	457.19
421.171	500.19
421.394	542.19
421.617	453.19
421.839	445.19
422.062	435.19
422.285	458.19
422.507	517.19
422.73	591.19
422.953	572.19
423.175	516.19
423.398	490.19
423.621	493.19
423.843	475.19
424.066	487.19
424.288	509.19
424.511	503.19
424.733	564.19
424.956	651.19
425.178	633.19
425.401	636.19
425.623	644.19
425.846	555.19
426.068	531.19
426.291	506.19
426.513	489.19
426.735	539.19
426.958	581.19
427.18	653.19
427.402	768.19
427.625	858.19
427.847	810.19
428.069	660.19
428.292	593.19
428.514	539.19
428.736	495.19
428.958	492.19
429.181	473.19
429.403	476.19
429.625	491.19
429.847	519.19
430.069	569.19
430.292	584.19
430.514	524.19
430.736	497.19
430.958	452.19
431.18	464.19
431.402	445.19
431.624	435.19
431.846	434.19
432.068	424.19
432.29	436.19
432.512	446.19
432.734	428.19
432.956	424.19
433.178	427.19
433.4	459.19
433.622	435.19
433.844	440.19
434.066	424.19
434.287	413.19
434.509	435.19
434.731	452.19
434.953	458.19
435.175	469.19
435.397	507.19
435.618	530.19
435.84	576.19
436.062	661.19
436.284	693.19
436.505	597.19
436.727	531.19
436.949	513.19
437.17	490.19
437.392	468.19
437.614	513.19
437.835	544.19
438.057	656.19
438.278	750.19
438.5	739.19
438.721	797.19
438.943	773.19
439.165	633.19
439.386	556.19
439.608	545.19
439.829	550.19
440.05	579.19
440.272	628.19
440.493	578.19
440.715	527.19
440.936	502.19
441.158	486.19
441.379	474.19
441.6	502.19
441.822	521.19
442.043	542.19
442.264	626.19
442.486	669.19
442.707	580.19
442.928	539.19
443.149	548.19
443.371	564.19
443.592	611.19
443.813	710.19
444.034	753.19
444.255	629.19
444.476	546.19
444.698	538.19
444.919	516.19
445.14	605.19
445.361	569.19
445.582	568.19
445.803	633.19
446.024	730.19
446.245	731.19
446.466	648.19
446.687	588.19
446.908	517.19
447.129	503.19
447.35	504.19
447.571	482.19
447.792	461.19
448.013	475.19
448.234	515.19
448.455	584.19
448.675	699.19
448.896	763.19
449.117	657.19
449.338	627.19
449.559	734.19
449.779	810.19
450	655.19
450.221	543.19
450.442	499.19
450.662	478.19
450.883	509.19
451.104	555.19
451.324	538.19
451.545	483.19
451.766	453.19
451.986	433.19
452.207	429.19
452.428	422.19
452.648	448.19
452.869	445.19
453.089	435.19
453.31	466.19
453.53	461.19
453.751	449.19
453.971	446.19
454.192	477.19
454.412	470.19
454.633	453.19
454.853	441.19
455.073	436.19
455.294	470.19
455.514	535.19
455.734	538.19
455.955	441.19
456.175	428.19
456.395	395.19
456.616	411.19
456.836	398.19
457.056	366.19
457.276	376.19
457.497	403.19
457.717	385.19
457.937	427.19
458.157	421.19
458.377	434.19
458.598	461.19
458.818	546.19
459.038	641.19
459.258	667.19
459.478	530.19
459.698	458.19
459.918	446.19
460.138	413.19
460.358	452.19
460.578	426.19
460.798	426.19
461.018	453.19
461.238	413.19
461.458	407.19
461.678	404.19
461.898	437.19
462.118	397.19
462.338	404.19
462.558	429.19
462.777	425.19
462.997	396.19
463.217	431.19
463.437	440.19
463.657	406.19
463.876	437.19
464.096	443.19
464.316	437.19
464.536	442.19
464.755	476.19
464.975	450.19
465.195	550.19
465.414	675.19
465.634	570.19
465.854	515.19
466.073	463.19
466.293	474.19
466.512	429.19
466.732	418.19
466.951	417.19
467.171	433.19
467.391	437.19
467.61	442.19
467.829	458.19
468.049	462.19
468.268	423.19
468.488	420.19
468.707	409.19
468.927	387.19
469.146	423.19
469.365	411.19
469.585	412.19
469.804	438.19
470.023	454.19
470.243	438.19
470.462	455.19
470.681	483.19
470.901	466.19
471.12	445.19
471.339	446.19
471.558	433.19
471.777	420.19
471.997	413.19
472.216	428.19
472.435	422.19
472.654	431.19
472.873	421.19
473.092	434.19
473.311	410.19
473.53	419.19
473.749	451.19
473.968	493.19
474.187	618.19
474.406	609.19
474.625	507.19
474.844	455.19
475.063	431.19
475.282	438.19
475.501	451.19
475.72	445.19
475.939	445.19
476.158	438.19
476.377	436.19
476.596	454.19
476.814	465.19
477.033	460.19
477.252	454.19
477.471	458.19
477.69	448.19
477.908	453.19
478.127	470.19
478.346	461.19
478.564	477.19
478.783	461.19
479.002	484.19
479.22	479.19
479.439	503.19
479.658	515.19
479.876	540.19
480.095	537.19
480.313	548.19
480.532	535.19
480.751	515.19
480.969	511.19
481.188	533.19
481.406	539.19
481.624	522.19
481.843	507.19
482.061	536.19
482.28	485.19
482.498	506.19
482.717	517.19
482.935	509.19
483.153	486.19
483.372	501.19
483.59	518.19
483.808	501.19
484.027	523.19
484.245	511.19
484.463	514.19
484.681	529.19
484.9	535.19
485.118	540.19
485.336	525.19
485.554	522.19
485.772	539.19
485.99	529.19
486.209	540.19
486.427	525.19
486.645	554.19
486.863	591.19
487.081	599.19
487.299	583.19
487.517	568.19
487.735	578.19
487.953	560.19
488.171	567.19
488.389	563.19
488.607	546.19
488.825	569.19
489.043	564.19
489.261	553.19
489.479	575.19
489.696	566.19
489.914	561.19
490.132	570.19
490.35	586.19
490.568	579.19
490.786	589.19
491.003	620.19
491.221	614.19
491.439	613.19
491.657	611.19
491.874	645.19
492.092	613.19
492.31	647.19
492.527	654.19
492.745	656.19
492.963	631.19
493.18	643.19
493.398	673.19
493.615	706.19
493.833	684.19
494.05	661.19
494.268	663.19
494.485	644.19
494.703	659.19
494.92	672.19
495.138	665.19
495.355	665.19
495.573	691.19
495.79	670.19
496.008	671.19
496.225	676.19
496.442	661.19
496.66	689.19
496.877	684.19
497.094	658.19
497.312	671.19
497.529	680.19
497.746	668.19
497.963	709.19
498.181	709.19
498.398	703.19
498.615	707.19
498.832	742.19
499.049	740.19
499.267	744.19
499.484	725.19
499.701	741.19
499.918	762.19
500.135	765.19
500.352	795.19
500.569	773.19
500.786	806.19
501.003	775.19
501.22	773.19
501.437	784.19
501.654	791.19
501.871	801.19
