Data from 1987.PennyLincolnUp.Lamp.En5.5.200Scan.071819.P2_HRD10591_17-16-21-971.txt Node
Date: Thu Jul 18 17:16:21 EDT 2019
User: cochatt
Spectrometer: HR+D1059
Trigger mode: 1
Integration Time (sec): 1.000000E-1
Scans to average: 1
Electric dark correction enabled: true
Nonlinearity correction enabled: false
Boxcar width: 0
XAxis mode: Wavelengths
Number of Pixels in Spectrum: 2048
>>>>>Begin Spectral Data<<<<<
223.165	-9.12
223.4	-9.12
223.635	-9.12
223.869	-7.12
224.104	-12.12
224.338	-16.12
224.573	-18.12
224.808	-12.12
225.042	0.88
225.277	-5.12
225.511	-22.12
225.746	-1.12
225.98	6.88
226.215	11.88
226.449	23.88
226.683	11.88
226.918	20.88
227.152	26.88
227.387	31.88
227.621	37.88
227.856	52.88
228.09	57.88
228.324	47.88
228.559	66.88
228.793	67.88
229.027	123.88
229.262	124.88
229.496	123.88
229.73	132.88
229.964	157.88
230.199	160.88
230.433	125.88
230.667	123.88
230.901	127.88
231.136	122.88
231.37	98.88
231.604	123.88
231.838	109.88
232.072	126.88
232.306	109.88
232.541	114.88
232.775	104.88
233.009	117.88
233.243	124.88
233.477	109.88
233.711	112.88
233.945	120.88
234.179	118.88
234.413	124.88
234.647	108.88
234.881	112.88
235.115	120.88
235.349	134.88
235.583	128.88
235.817	125.88
236.051	110.88
236.285	128.88
236.519	130.88
236.753	154.88
236.987	141.88
237.221	204.88
237.455	270.88
237.689	194.88
237.922	156.88
238.156	145.88
238.39	139.88
238.624	136.88
238.858	124.88
239.091	136.88
239.325	148.88
239.559	134.88
239.793	126.88
240.027	147.88
240.26	154.88
240.494	174.88
240.728	174.88
240.961	157.88
241.195	144.88
241.429	142.88
241.662	137.88
241.896	137.88
242.13	145.88
242.363	136.88
242.597	132.88
242.83	150.88
243.064	132.88
243.298	122.88
243.531	133.88
243.765	136.88
243.998	139.88
244.232	139.88
244.465	141.88
244.699	131.88
244.932	141.88
245.166	134.88
245.399	136.88
245.633	135.88
245.866	122.88
246.099	129.88
246.333	128.88
246.566	141.88
246.8	138.88
247.033	148.88
247.266	151.88
247.5	155.88
247.733	178.88
247.966	167.88
248.2	167.88
248.433	157.88
248.666	180.88
248.899	174.88
249.133	200.88
249.366	227.88
249.599	210.88
249.832	187.88
250.066	174.88
250.299	158.88
250.532	171.88
250.765	203.88
250.998	208.88
251.231	242.88
251.465	220.88
251.698	212.88
251.931	197.88
252.164	206.88
252.397	200.88
252.63	205.88
252.863	223.88
253.096	214.88
253.329	223.88
253.562	230.88
253.795	239.88
254.028	224.88
254.261	211.88
254.494	226.88
254.727	269.88
254.96	294.88
255.193	278.88
255.426	264.88
255.659	229.88
255.892	230.88
256.124	222.88
256.357	207.88
256.59	219.88
256.823	198.88
257.056	209.88
257.289	190.88
257.521	198.88
257.754	199.88
257.987	206.88
258.22	210.88
258.452	204.88
258.685	212.88
258.918	191.88
259.151	202.88
259.383	210.88
259.616	216.88
259.849	235.88
260.081	228.88
260.314	259.88
260.547	247.88
260.779	243.88
261.012	229.88
261.244	232.88
261.477	223.88
261.71	216.88
261.942	224.88
262.175	254.88
262.407	237.88
262.64	215.88
262.872	194.88
263.105	213.88
263.337	193.88
263.57	214.88
263.802	200.88
264.035	208.88
264.267	180.88
264.499	196.88
264.732	202.88
264.964	196.88
265.197	195.88
265.429	183.88
265.661	207.88
265.894	205.88
266.126	195.88
266.358	201.88
266.591	198.88
266.823	207.88
267.055	207.88
267.287	216.88
267.52	208.88
267.752	215.88
267.984	204.88
268.216	216.88
268.448	202.88
268.681	215.88
268.913	233.88
269.145	244.88
269.377	250.88
269.609	272.88
269.841	264.88
270.073	256.88
270.306	271.88
270.538	320.88
270.77	313.88
271.002	308.88
271.234	282.88
271.466	279.88
271.698	301.88
271.93	317.88
272.162	332.88
272.394	321.88
272.626	297.88
272.858	299.88
273.09	278.88
273.322	250.88
273.553	255.88
273.785	251.88
274.017	248.88
274.249	259.88
274.481	252.88
274.713	262.88
274.945	271.88
275.176	250.88
275.408	255.88
275.64	247.88
275.872	249.88
276.104	238.88
276.335	241.88
276.567	237.88
276.799	280.88
277.031	291.88
277.262	318.88
277.494	309.88
277.726	297.88
277.957	239.88
278.189	262.88
278.421	236.88
278.652	251.88
278.884	242.88
279.115	230.88
279.347	236.88
279.579	244.88
279.81	254.88
280.042	218.88
280.273	252.88
280.505	232.88
280.736	218.88
280.968	229.88
281.199	241.88
281.431	227.88
281.662	227.88
281.894	225.88
282.125	240.88
282.356	275.88
282.588	290.88
282.819	293.88
283.051	266.88
283.282	234.88
283.513	252.88
283.745	250.88
283.976	238.88
284.207	245.88
284.439	233.88
284.67	247.88
284.901	244.88
285.132	231.88
285.364	231.88
285.595	236.88
285.826	256.88
286.057	248.88
286.288	234.88
286.52	238.88
286.751	238.88
286.982	223.88
287.213	229.88
287.444	226.88
287.675	236.88
287.906	259.88
288.138	247.88
288.369	271.88
288.6	267.88
288.831	244.88
289.062	254.88
289.293	248.88
289.524	244.88
289.755	248.88
289.986	233.88
290.217	234.88
290.448	259.88
290.679	254.88
290.91	248.88
291.141	223.88
291.371	248.88
291.602	233.88
291.833	221.88
292.064	258.88
292.295	249.88
292.526	227.88
292.757	250.88
292.987	248.88
293.218	233.88
293.449	238.88
293.68	228.88
293.91	245.88
294.141	250.88
294.372	238.88
294.603	240.88
294.833	225.88
295.064	229.88
295.295	232.88
295.525	264.88
295.756	267.88
295.987	252.88
296.217	299.88
296.448	307.88
296.679	269.88
296.909	247.88
297.14	235.88
297.37	239.88
297.601	245.88
297.831	237.88
298.062	256.88
298.292	262.88
298.523	251.88
298.753	239.88
298.984	248.88
299.214	266.88
299.445	259.88
299.675	274.88
299.905	272.88
300.136	264.88
300.366	271.88
300.597	259.88
300.827	256.88
301.057	280.88
301.288	302.88
301.518	283.88
301.748	279.88
301.979	282.88
302.209	281.88
302.439	307.88
302.669	283.88
302.9	266.88
303.13	260.88
303.36	280.88
303.59	284.88
303.82	304.88
304.051	303.88
304.281	283.88
304.511	266.88
304.741	271.88
304.971	259.88
305.201	267.88
305.431	278.88
305.661	262.88
305.891	273.88
306.121	280.88
306.352	297.88
306.582	303.88
306.812	281.88
307.042	276.88
307.272	279.88
307.502	284.88
307.731	270.88
307.961	277.88
308.191	279.88
308.421	302.88
308.651	304.88
308.881	300.88
309.111	292.88
309.341	285.88
309.571	326.88
309.8	331.88
310.03	343.88
310.26	374.88
310.49	360.88
310.72	365.88
310.949	379.88
311.179	414.88
311.409	376.88
311.639	366.88
311.868	346.88
312.098	363.88
312.328	370.88
312.557	394.88
312.787	412.88
313.017	411.88
313.246	374.88
313.476	365.88
313.706	359.88
313.935	338.88
314.165	396.88
314.394	394.88
314.624	377.88
314.853	373.88
315.083	342.88
315.312	322.88
315.542	350.88
315.771	330.88
316.001	336.88
316.23	331.88
316.46	322.88
316.689	339.88
316.919	349.88
317.148	354.88
317.377	368.88
317.607	359.88
317.836	345.88
318.065	338.88
318.295	351.88
318.524	328.88
318.753	324.88
318.983	343.88
319.212	328.88
319.441	360.88
319.67	381.88
319.9	323.88
320.129	326.88
320.358	353.88
320.587	348.88
320.816	372.88
321.046	365.88
321.275	386.88
321.504	388.88
321.733	381.88
321.962	392.88
322.191	422.88
322.42	415.88
322.649	446.88
322.878	460.88
323.108	488.88
323.337	517.88
323.566	563.88
323.795	600.88
324.024	699.88
324.253	852.88
324.482	1301.88
324.71	2002.88
324.939	2788.88
325.168	2483.88
325.397	1295.88
325.626	854.88
325.855	690.88
326.084	576.88
326.313	570.88
326.542	586.88
326.77	649.88
326.999	778.88
327.228	1151.88
327.457	1708.88
327.686	2118.88
327.914	1462.88
328.143	922.88
328.372	792.88
328.6	693.88
328.829	652.88
329.058	698.88
329.287	670.88
329.515	624.88
329.744	540.88
329.972	522.88
330.201	534.88
330.43	581.88
330.658	647.88
330.887	706.88
331.115	712.88
331.344	588.88
331.572	512.88
331.801	502.88
332.03	519.88
332.258	458.88
332.486	434.88
332.715	399.88
332.943	396.88
333.172	407.88
333.4	408.88
333.629	398.88
333.857	416.88
334.085	417.88
334.314	390.88
334.542	395.88
334.771	411.88
334.999	410.88
335.227	385.88
335.455	408.88
335.684	389.88
335.912	392.88
336.14	388.88
336.369	389.88
336.597	388.88
336.825	413.88
337.053	413.88
337.281	357.88
337.51	374.88
337.738	388.88
337.966	411.88
338.194	426.88
338.422	394.88
338.65	383.88
338.878	391.88
339.106	376.88
339.334	377.88
339.562	356.88
339.79	379.88
340.018	388.88
340.246	403.88
340.474	414.88
340.702	382.88
340.93	386.88
341.158	379.88
341.386	386.88
341.614	390.88
341.842	388.88
342.07	391.88
342.298	388.88
342.526	387.88
342.754	359.88
342.981	365.88
343.209	355.88
343.437	383.88
343.665	360.88
343.893	370.88
344.12	390.88
344.348	363.88
344.576	373.88
344.804	398.88
345.031	404.88
345.259	431.88
345.487	390.88
345.714	384.88
345.942	361.88
346.17	386.88
346.397	378.88
346.625	368.88
346.853	372.88
347.08	386.88
347.308	404.88
347.535	402.88
347.763	396.88
347.99	392.88
348.218	417.88
348.445	418.88
348.673	414.88
348.9	413.88
349.128	367.88
349.355	355.88
349.583	362.88
349.81	357.88
350.037	365.88
350.265	382.88
350.492	363.88
350.72	374.88
350.947	372.88
351.174	401.88
351.402	390.88
351.629	401.88
351.856	389.88
352.083	411.88
352.311	406.88
352.538	412.88
352.765	418.88
352.992	422.88
353.22	395.88
353.447	397.88
353.674	387.88
353.901	348.88
354.128	359.88
354.355	341.88
354.583	320.88
354.81	341.88
355.037	337.88
355.264	320.88
355.491	329.88
355.718	316.88
355.945	334.88
356.172	336.88
356.399	328.88
356.626	328.88
356.853	328.88
357.08	323.88
357.307	334.88
357.534	318.88
357.761	348.88
357.988	322.88
358.215	337.88
358.441	334.88
358.668	348.88
358.895	354.88
359.122	344.88
359.349	366.88
359.576	422.88
359.802	438.88
360.029	470.88
360.256	496.88
360.483	464.88
360.709	415.88
360.936	391.88
361.163	399.88
361.39	405.88
361.616	410.88
361.843	384.88
362.07	376.88
362.296	425.88
362.523	392.88
362.749	390.88
362.976	346.88
363.203	378.88
363.429	362.88
363.656	348.88
363.882	363.88
364.109	368.88
364.335	347.88
364.562	370.88
364.788	347.88
365.015	361.88
365.241	357.88
365.468	362.88
365.694	373.88
365.92	366.88
366.147	355.88
366.373	347.88
366.599	347.88
366.826	353.88
367.052	343.88
367.278	347.88
367.505	346.88
367.731	341.88
367.957	344.88
368.184	348.88
368.41	367.88
368.636	350.88
368.862	370.88
369.089	377.88
369.315	360.88
369.541	348.88
369.767	340.88
369.993	355.88
370.219	348.88
370.445	330.88
370.672	327.88
370.898	349.88
371.124	347.88
371.35	327.88
371.576	347.88
371.802	336.88
372.028	339.88
372.254	343.88
372.48	320.88
372.706	345.88
372.932	336.88
373.158	328.88
373.384	346.88
373.61	352.88
373.835	310.88
374.061	343.88
374.287	347.88
374.513	348.88
374.739	336.88
374.965	336.88
375.191	337.88
375.416	337.88
375.642	338.88
375.868	339.88
376.094	334.88
376.319	357.88
376.545	330.88
376.771	334.88
376.997	346.88
377.222	335.88
377.448	338.88
377.674	338.88
377.899	333.88
378.125	319.88
378.35	335.88
378.576	319.88
378.802	330.88
379.027	333.88
379.253	330.88
379.478	323.88
379.704	320.88
379.929	336.88
380.155	358.88
380.38	335.88
380.606	351.88
380.831	343.88
381.057	357.88
381.282	342.88
381.507	339.88
381.733	331.88
381.958	336.88
382.184	344.88
382.409	344.88
382.634	354.88
382.86	348.88
383.085	367.88
383.31	337.88
383.535	346.88
383.761	341.88
383.986	341.88
384.211	340.88
384.436	342.88
384.662	367.88
384.887	349.88
385.112	351.88
385.337	347.88
385.562	361.88
385.787	363.88
386.013	365.88
386.238	378.88
386.463	362.88
386.688	363.88
386.913	363.88
387.138	344.88
387.363	366.88
387.588	358.88
387.813	352.88
388.038	340.88
388.263	339.88
388.488	350.88
388.713	359.88
388.938	341.88
389.163	365.88
389.387	374.88
389.612	355.88
389.837	329.88
390.062	356.88
390.287	370.88
390.512	365.88
390.736	348.88
390.961	340.88
391.186	354.88
391.411	351.88
391.636	351.88
391.86	357.88
392.085	377.88
392.31	350.88
392.534	372.88
392.759	356.88
392.984	378.88
393.208	354.88
393.433	363.88
393.658	360.88
393.882	359.88
394.107	327.88
394.331	361.88
394.556	367.88
394.78	361.88
395.005	356.88
395.229	368.88
395.454	366.88
395.678	354.88
395.903	377.88
396.127	397.88
396.352	423.88
396.576	384.88
396.801	382.88
397.025	371.88
397.249	379.88
397.474	383.88
397.698	384.88
397.922	388.88
398.147	425.88
398.371	406.88
398.595	405.88
398.82	390.88
399.044	398.88
399.268	415.88
399.492	418.88
399.717	440.88
399.941	474.88
400.165	492.88
400.389	518.88
400.613	491.88
400.837	448.88
401.062	410.88
401.286	406.88
401.51	410.88
401.734	394.88
401.958	408.88
402.182	412.88
402.406	446.88
402.63	456.88
402.854	427.88
403.078	438.88
403.302	413.88
403.526	428.88
403.75	441.88
403.974	431.88
404.198	418.88
404.422	423.88
404.645	438.88
404.869	440.88
405.093	457.88
405.317	484.88
405.541	518.88
405.765	453.88
405.988	453.88
406.212	485.88
406.436	502.88
406.66	530.88
406.883	511.88
407.107	512.88
407.331	535.88
407.555	586.88
407.778	610.88
408.002	522.88
408.226	495.88
408.449	494.88
408.673	478.88
408.896	528.88
409.12	580.88
409.344	508.88
409.567	464.88
409.791	457.88
410.014	440.88
410.238	438.88
410.461	454.88
410.685	443.88
410.908	479.88
411.132	504.88
411.355	536.88
411.578	511.88
411.802	447.88
412.025	431.88
412.249	442.88
412.472	429.88
412.695	452.88
412.919	433.88
413.142	404.88
413.365	415.88
413.589	408.88
413.812	420.88
414.035	400.88
414.258	396.88
414.482	399.88
414.705	395.88
414.928	415.88
415.151	403.88
415.374	398.88
415.597	386.88
415.821	398.88
416.044	406.88
416.267	413.88
416.49	421.88
416.713	412.88
416.936	414.88
417.159	395.88
417.382	421.88
417.605	426.88
417.828	410.88
418.051	444.88
418.274	445.88
418.497	421.88
418.72	428.88
418.943	418.88
419.166	421.88
419.389	441.88
419.611	463.88
419.834	445.88
420.057	448.88
420.28	432.88
420.503	440.88
420.726	445.88
420.948	472.88
421.171	505.88
421.394	566.88
421.617	491.88
421.839	446.88
422.062	446.88
422.285	453.88
422.507	534.88
422.73	616.88
422.953	590.88
423.175	516.88
423.398	499.88
423.621	476.88
423.843	499.88
424.066	491.88
424.288	505.88
424.511	542.88
424.733	595.88
424.956	646.88
425.178	646.88
425.401	622.88
425.623	658.88
425.846	558.88
426.068	537.88
426.291	537.88
426.513	536.88
426.735	520.88
426.958	579.88
427.18	662.88
427.402	763.88
427.625	855.88
427.847	822.88
428.069	709.88
428.292	596.88
428.514	538.88
428.736	518.88
428.958	478.88
429.181	490.88
429.403	480.88
429.625	478.88
429.847	526.88
430.069	599.88
430.292	594.88
430.514	511.88
430.736	468.88
430.958	467.88
431.18	459.88
431.402	438.88
431.624	452.88
431.846	447.88
432.068	427.88
432.29	443.88
432.512	434.88
432.734	459.88
432.956	462.88
433.178	459.88
433.4	480.88
433.622	464.88
433.844	452.88
434.066	443.88
434.287	451.88
434.509	462.88
434.731	466.88
434.953	459.88
435.175	487.88
435.397	524.88
435.618	534.88
435.84	598.88
436.062	683.88
436.284	723.88
436.505	638.88
436.727	553.88
436.949	494.88
437.17	499.88
437.392	498.88
437.614	514.88
437.835	553.88
438.057	685.88
438.278	793.88
438.5	751.88
438.721	827.88
438.943	768.88
439.165	615.88
439.386	595.88
439.608	567.88
439.829	550.88
440.05	600.88
440.272	646.88
440.493	610.88
440.715	574.88
440.936	493.88
441.158	502.88
441.379	498.88
441.6	524.88
441.822	547.88
442.043	590.88
442.264	634.88
442.486	702.88
442.707	608.88
442.928	587.88
443.149	571.88
443.371	589.88
443.592	633.88
443.813	719.88
444.034	748.88
444.255	651.88
444.476	526.88
444.698	509.88
444.919	518.88
445.14	603.88
445.361	590.88
445.582	583.88
445.803	644.88
446.024	763.88
446.245	763.88
446.466	705.88
446.687	594.88
446.908	546.88
447.129	503.88
447.35	498.88
447.571	507.88
447.792	478.88
448.013	504.88
448.234	534.88
448.455	594.88
448.675	700.88
448.896	751.88
449.117	705.88
449.338	666.88
449.559	713.88
449.779	843.88
450	692.88
450.221	574.88
450.442	539.88
450.662	509.88
450.883	532.88
451.104	548.88
451.324	549.88
451.545	503.88
451.766	471.88
451.986	465.88
452.207	442.88
452.428	446.88
452.648	452.88
452.869	467.88
453.089	491.88
453.31	484.88
453.53	464.88
453.751	453.88
453.971	477.88
454.192	521.88
454.412	483.88
454.633	454.88
454.853	451.88
455.073	473.88
455.294	476.88
455.514	549.88
455.734	539.88
455.955	464.88
456.175	423.88
456.395	426.88
456.616	411.88
456.836	401.88
457.056	410.88
457.276	393.88
457.497	415.88
457.717	400.88
457.937	413.88
458.157	428.88
458.377	407.88
458.598	444.88
458.818	534.88
459.038	670.88
459.258	674.88
459.478	560.88
459.698	487.88
459.918	473.88
460.138	469.88
460.358	443.88
460.578	440.88
460.798	434.88
461.018	443.88
461.238	436.88
461.458	423.88
461.678	409.88
461.898	424.88
462.118	422.88
462.338	414.88
462.558	449.88
462.777	426.88
462.997	434.88
463.217	439.88
463.437	437.88
463.657	442.88
463.876	437.88
464.096	467.88
464.316	451.88
464.536	457.88
464.755	463.88
464.975	505.88
465.195	573.88
465.414	722.88
465.634	590.88
465.854	514.88
466.073	492.88
466.293	482.88
466.512	412.88
466.732	454.88
466.951	434.88
467.171	414.88
467.391	443.88
467.61	435.88
467.829	468.88
468.049	457.88
468.268	455.88
468.488	430.88
468.707	416.88
468.927	441.88
469.146	413.88
469.365	420.88
469.585	415.88
469.804	429.88
470.023	483.88
470.243	457.88
470.462	463.88
470.681	493.88
470.901	494.88
471.12	434.88
471.339	461.88
471.558	438.88
471.777	449.88
471.997	450.88
472.216	437.88
472.435	444.88
472.654	424.88
472.873	426.88
473.092	438.88
473.311	440.88
473.53	427.88
473.749	436.88
473.968	514.88
474.187	628.88
474.406	666.88
474.625	517.88
474.844	470.88
475.063	435.88
475.282	446.88
475.501	455.88
475.72	459.88
475.939	461.88
476.158	436.88
476.377	468.88
476.596	459.88
476.814	470.88
477.033	487.88
477.252	491.88
477.471	463.88
477.69	479.88
477.908	467.88
478.127	479.88
478.346	468.88
478.564	498.88
478.783	502.88
479.002	487.88
479.22	497.88
479.439	514.88
479.658	538.88
479.876	529.88
480.095	575.88
480.313	562.88
480.532	564.88
480.751	551.88
480.969	512.88
481.188	540.88
481.406	558.88
481.624	534.88
481.843	536.88
482.061	534.88
482.28	503.88
482.498	516.88
482.717	521.88
482.935	514.88
483.153	522.88
483.372	514.88
483.59	519.88
483.808	514.88
484.027	529.88
484.245	531.88
484.463	519.88
484.681	540.88
484.9	514.88
485.118	534.88
485.336	514.88
485.554	538.88
485.772	541.88
485.99	555.88
486.209	538.88
486.427	540.88
486.645	588.88
486.863	597.88
487.081	615.88
487.299	583.88
487.517	596.88
487.735	579.88
487.953	584.88
488.171	557.88
488.389	568.88
488.607	568.88
488.825	590.88
489.043	553.88
489.261	590.88
489.479	590.88
489.696	590.88
489.914	581.88
490.132	592.88
490.35	586.88
490.568	599.88
490.786	624.88
491.003	610.88
491.221	614.88
491.439	656.88
491.657	642.88
491.874	662.88
492.092	647.88
492.31	672.88
492.527	654.88
492.745	666.88
492.963	653.88
493.18	681.88
493.398	675.88
493.615	662.88
493.833	677.88
494.05	685.88
494.268	667.88
494.485	677.88
494.703	670.88
494.92	666.88
495.138	681.88
495.355	715.88
495.573	710.88
495.79	709.88
496.008	671.88
496.225	692.88
496.442	668.88
496.66	701.88
496.877	686.88
497.094	702.88
497.312	688.88
497.529	701.88
497.746	709.88
497.963	738.88
498.181	701.88
498.398	740.88
498.615	756.88
498.832	740.88
499.049	738.88
499.267	743.88
499.484	752.88
499.701	741.88
499.918	783.88
500.135	800.88
500.352	805.88
500.569	786.88
500.786	793.88
501.003	794.88
501.22	794.88
501.437	795.88
501.654	808.88
501.871	846.88
