Data from 1987.PennyLincolnUp.Lamp.En5.5.200Scan.071819.P2_HRD10591_17-16-41-972.txt Node
Date: Thu Jul 18 17:16:41 EDT 2019
User: cochatt
Spectrometer: HR+D1059
Trigger mode: 1
Integration Time (sec): 1.000000E-1
Scans to average: 1
Electric dark correction enabled: true
Nonlinearity correction enabled: false
Boxcar width: 0
XAxis mode: Wavelengths
Number of Pixels in Spectrum: 2048
>>>>>Begin Spectral Data<<<<<
223.165	-21.19
223.4	-21.19
223.635	-21.19
223.869	-24.19
224.104	-17.19
224.338	-1.19
224.573	-15.19
224.808	-8.19
225.042	-8.19
225.277	-11.19
225.511	-11.19
225.746	-6.19
225.98	20.81
226.215	13.81
226.449	0.81
226.683	19.81
226.918	29.81
227.152	38.81
227.387	21.81
227.621	37.81
227.856	39.81
228.09	53.81
228.324	56.81
228.559	55.81
228.793	88.81
229.027	115.81
229.262	114.81
229.496	115.81
229.73	144.81
229.964	196.81
230.199	138.81
230.433	129.81
230.667	121.81
230.901	131.81
231.136	128.81
231.37	100.81
231.604	104.81
231.838	133.81
232.072	118.81
232.306	119.81
232.541	121.81
232.775	112.81
233.009	119.81
233.243	115.81
233.477	125.81
233.711	127.81
233.945	105.81
234.179	114.81
234.413	125.81
234.647	107.81
234.881	127.81
235.115	111.81
235.349	126.81
235.583	136.81
235.817	129.81
236.051	134.81
236.285	136.81
236.519	132.81
236.753	139.81
236.987	160.81
237.221	200.81
237.455	271.81
237.689	223.81
237.922	147.81
238.156	142.81
238.39	139.81
238.624	127.81
238.858	133.81
239.091	129.81
239.325	128.81
239.559	116.81
239.793	137.81
240.027	155.81
240.26	145.81
240.494	161.81
240.728	178.81
240.961	151.81
241.195	125.81
241.429	130.81
241.662	146.81
241.896	139.81
242.13	140.81
242.363	147.81
242.597	122.81
242.83	135.81
243.064	133.81
243.298	138.81
243.531	142.81
243.765	140.81
243.998	150.81
244.232	145.81
244.465	126.81
244.699	155.81
244.932	143.81
245.166	128.81
245.399	150.81
245.633	144.81
245.866	135.81
246.099	148.81
246.333	151.81
246.566	146.81
246.8	140.81
247.033	151.81
247.266	160.81
247.5	156.81
247.733	170.81
247.966	178.81
248.2	181.81
248.433	191.81
248.666	176.81
248.899	178.81
249.133	206.81
249.366	214.81
249.599	210.81
249.832	175.81
250.066	186.81
250.299	191.81
250.532	182.81
250.765	202.81
250.998	236.81
251.231	259.81
251.465	212.81
251.698	214.81
251.931	218.81
252.164	213.81
252.397	199.81
252.63	208.81
252.863	219.81
253.096	244.81
253.329	232.81
253.562	247.81
253.795	227.81
254.028	213.81
254.261	216.81
254.494	221.81
254.727	272.81
254.96	303.81
255.193	295.81
255.426	265.81
255.659	254.81
255.892	234.81
256.124	215.81
256.357	223.81
256.59	227.81
256.823	211.81
257.056	193.81
257.289	216.81
257.521	206.81
257.754	217.81
257.987	209.81
258.22	205.81
258.452	193.81
258.685	195.81
258.918	207.81
259.151	187.81
259.383	219.81
259.616	212.81
259.849	217.81
260.081	229.81
260.314	241.81
260.547	255.81
260.779	239.81
261.012	222.81
261.244	245.81
261.477	212.81
261.71	225.81
261.942	229.81
262.175	236.81
262.407	248.81
262.64	229.81
262.872	219.81
263.105	231.81
263.337	200.81
263.57	204.81
263.802	200.81
264.035	199.81
264.267	197.81
264.499	204.81
264.732	200.81
264.964	200.81
265.197	213.81
265.429	200.81
265.661	205.81
265.894	185.81
266.126	205.81
266.358	181.81
266.591	200.81
266.823	206.81
267.055	215.81
267.287	205.81
267.52	221.81
267.752	213.81
267.984	218.81
268.216	208.81
268.448	201.81
268.681	205.81
268.913	227.81
269.145	233.81
269.377	259.81
269.609	279.81
269.841	269.81
270.073	276.81
270.306	289.81
270.538	319.81
270.77	301.81
271.002	309.81
271.234	283.81
271.466	306.81
271.698	303.81
271.93	331.81
272.162	323.81
272.394	316.81
272.626	301.81
272.858	291.81
273.09	288.81
273.322	273.81
273.553	260.81
273.785	243.81
274.017	263.81
274.249	258.81
274.481	261.81
274.713	233.81
274.945	256.81
275.176	252.81
275.408	244.81
275.64	259.81
275.872	238.81
276.104	246.81
276.335	247.81
276.567	262.81
276.799	270.81
277.031	287.81
277.262	305.81
277.494	298.81
277.726	294.81
277.957	268.81
278.189	273.81
278.421	267.81
278.652	251.81
278.884	245.81
279.115	235.81
279.347	245.81
279.579	232.81
279.81	231.81
280.042	227.81
280.273	247.81
280.505	246.81
280.736	231.81
280.968	224.81
281.199	232.81
281.431	233.81
281.662	239.81
281.894	223.81
282.125	222.81
282.356	275.81
282.588	280.81
282.819	283.81
283.051	255.81
283.282	236.81
283.513	236.81
283.745	239.81
283.976	236.81
284.207	239.81
284.439	249.81
284.67	232.81
284.901	247.81
285.132	243.81
285.364	213.81
285.595	247.81
285.826	248.81
286.057	260.81
286.288	234.81
286.52	248.81
286.751	230.81
286.982	246.81
287.213	238.81
287.444	247.81
287.675	264.81
287.906	267.81
288.138	267.81
288.369	265.81
288.6	280.81
288.831	245.81
289.062	249.81
289.293	236.81
289.524	236.81
289.755	251.81
289.986	256.81
290.217	262.81
290.448	252.81
290.679	243.81
290.91	253.81
291.141	227.81
291.371	257.81
291.602	249.81
291.833	259.81
292.064	245.81
292.295	245.81
292.526	249.81
292.757	233.81
292.987	279.81
293.218	246.81
293.449	238.81
293.68	249.81
293.91	235.81
294.141	246.81
294.372	254.81
294.603	247.81
294.833	246.81
295.064	247.81
295.295	254.81
295.525	246.81
295.756	255.81
295.987	255.81
296.217	299.81
296.448	339.81
296.679	281.81
296.909	246.81
297.14	268.81
297.37	255.81
297.601	283.81
297.831	263.81
298.062	254.81
298.292	265.81
298.523	235.81
298.753	257.81
298.984	265.81
299.214	256.81
299.445	257.81
299.675	261.81
299.905	271.81
300.136	269.81
300.366	261.81
300.597	262.81
300.827	271.81
301.057	263.81
301.288	299.81
301.518	276.81
301.748	274.81
301.979	277.81
302.209	268.81
302.439	288.81
302.669	285.81
302.9	291.81
303.13	261.81
303.36	297.81
303.59	290.81
303.82	303.81
304.051	296.81
304.281	274.81
304.511	287.81
304.741	262.81
304.971	267.81
305.201	273.81
305.431	275.81
305.661	267.81
305.891	254.81
306.121	274.81
306.352	284.81
306.582	308.81
306.812	294.81
307.042	275.81
307.272	300.81
307.502	285.81
307.731	288.81
307.961	296.81
308.191	279.81
308.421	281.81
308.651	288.81
308.881	294.81
309.111	291.81
309.341	311.81
309.571	334.81
309.8	335.81
310.03	355.81
310.26	364.81
310.49	367.81
310.72	380.81
310.949	398.81
311.179	406.81
311.409	355.81
311.639	355.81
311.868	370.81
312.098	343.81
312.328	370.81
312.557	379.81
312.787	413.81
313.017	405.81
313.246	375.81
313.476	348.81
313.706	341.81
313.935	363.81
314.165	386.81
314.394	379.81
314.624	371.81
314.853	363.81
315.083	357.81
315.312	329.81
315.542	324.81
315.771	333.81
316.001	324.81
316.23	337.81
316.46	315.81
316.689	328.81
316.919	364.81
317.148	364.81
317.377	360.81
317.607	346.81
317.836	366.81
318.065	336.81
318.295	335.81
318.524	333.81
318.753	336.81
318.983	329.81
319.212	335.81
319.441	355.81
319.67	373.81
319.9	348.81
320.129	345.81
320.358	341.81
320.587	351.81
320.816	365.81
321.046	366.81
321.275	366.81
321.504	357.81
321.733	375.81
321.962	395.81
322.191	414.81
322.42	428.81
322.649	448.81
322.878	467.81
323.108	483.81
323.337	526.81
323.566	545.81
323.795	615.81
324.024	683.81
324.253	892.81
324.482	1300.81
324.71	2014.81
324.939	2830.81
325.168	2443.81
325.397	1320.81
325.626	855.81
325.855	672.81
326.084	584.81
326.313	563.81
326.542	563.81
326.77	640.81
326.999	778.81
327.228	1119.81
327.457	1746.81
327.686	2139.81
327.914	1435.81
328.143	931.81
328.372	753.81
328.6	687.81
328.829	645.81
329.058	662.81
329.287	714.81
329.515	639.81
329.744	535.81
329.972	528.81
330.201	534.81
330.43	563.81
330.658	648.81
330.887	703.81
331.115	697.81
331.344	546.81
331.572	503.81
331.801	502.81
332.03	503.81
332.258	459.81
332.486	418.81
332.715	420.81
332.943	384.81
333.172	391.81
333.4	399.81
333.629	403.81
333.857	426.81
334.085	437.81
334.314	401.81
334.542	415.81
334.771	424.81
334.999	403.81
335.227	425.81
335.455	406.81
335.684	401.81
335.912	388.81
336.14	391.81
336.369	381.81
336.597	405.81
336.825	420.81
337.053	402.81
337.281	390.81
337.51	375.81
337.738	400.81
337.966	388.81
338.194	408.81
338.422	417.81
338.65	391.81
338.878	379.81
339.106	386.81
339.334	377.81
339.562	361.81
339.79	385.81
340.018	379.81
340.246	391.81
340.474	390.81
340.702	388.81
340.93	374.81
341.158	376.81
341.386	391.81
341.614	409.81
341.842	405.81
342.07	366.81
342.298	385.81
342.526	373.81
342.754	363.81
342.981	358.81
343.209	356.81
343.437	376.81
343.665	350.81
343.893	341.81
344.12	368.81
344.348	376.81
344.576	389.81
344.804	385.81
345.031	411.81
345.259	416.81
345.487	423.81
345.714	385.81
345.942	381.81
346.17	372.81
346.397	366.81
346.625	372.81
346.853	381.81
347.08	373.81
347.308	385.81
347.535	405.81
347.763	408.81
347.99	411.81
348.218	400.81
348.445	411.81
348.673	398.81
348.9	376.81
349.128	375.81
349.355	374.81
349.583	356.81
349.81	365.81
350.037	356.81
350.265	350.81
350.492	341.81
350.72	379.81
350.947	385.81
351.174	415.81
351.402	432.81
351.629	400.81
351.856	406.81
352.083	415.81
352.311	402.81
352.538	424.81
352.765	445.81
352.992	405.81
353.22	390.81
353.447	403.81
353.674	409.81
353.901	343.81
354.128	354.81
354.355	364.81
354.583	348.81
354.81	337.81
355.037	348.81
355.264	349.81
355.491	327.81
355.718	347.81
355.945	333.81
356.172	333.81
356.399	349.81
356.626	342.81
356.853	345.81
357.08	343.81
357.307	327.81
357.534	324.81
357.761	358.81
357.988	349.81
358.215	342.81
358.441	355.81
358.668	350.81
358.895	355.81
359.122	341.81
359.349	374.81
359.576	387.81
359.802	438.81
360.029	481.81
360.256	491.81
360.483	461.81
360.709	406.81
360.936	397.81
361.163	395.81
361.39	408.81
361.616	400.81
361.843	400.81
362.07	376.81
362.296	404.81
362.523	397.81
362.749	391.81
362.976	376.81
363.203	377.81
363.429	357.81
363.656	348.81
363.882	348.81
364.109	347.81
364.335	377.81
364.562	392.81
364.788	365.81
365.015	361.81
365.241	376.81
365.468	361.81
365.694	365.81
365.92	399.81
366.147	368.81
366.373	358.81
366.599	347.81
366.826	341.81
367.052	372.81
367.278	350.81
367.505	371.81
367.731	360.81
367.957	357.81
368.184	360.81
368.41	364.81
368.636	344.81
368.862	381.81
369.089	336.81
369.315	374.81
369.541	353.81
369.767	364.81
369.993	343.81
370.219	373.81
370.445	368.81
370.672	357.81
370.898	343.81
371.124	341.81
371.35	346.81
371.576	328.81
371.802	345.81
372.028	326.81
372.254	326.81
372.48	349.81
372.706	330.81
372.932	332.81
373.158	339.81
373.384	349.81
373.61	325.81
373.835	328.81
374.061	360.81
374.287	358.81
374.513	358.81
374.739	355.81
374.965	344.81
375.191	342.81
375.416	345.81
375.642	336.81
375.868	351.81
376.094	336.81
376.319	345.81
376.545	333.81
376.771	327.81
376.997	332.81
377.222	348.81
377.448	338.81
377.674	320.81
377.899	331.81
378.125	342.81
378.35	347.81
378.576	334.81
378.802	304.81
379.027	345.81
379.253	338.81
379.478	337.81
379.704	311.81
379.929	337.81
380.155	341.81
380.38	363.81
380.606	340.81
380.831	341.81
381.057	345.81
381.282	337.81
381.507	336.81
381.733	358.81
381.958	337.81
382.184	329.81
382.409	356.81
382.634	348.81
382.86	335.81
383.085	333.81
383.31	341.81
383.535	337.81
383.761	342.81
383.986	347.81
384.211	327.81
384.436	352.81
384.662	351.81
384.887	358.81
385.112	331.81
385.337	333.81
385.562	333.81
385.787	374.81
386.013	365.81
386.238	382.81
386.463	382.81
386.688	350.81
386.913	355.81
387.138	344.81
387.363	367.81
387.588	360.81
387.813	359.81
388.038	349.81
388.263	377.81
388.488	343.81
388.713	349.81
388.938	375.81
389.163	357.81
389.387	358.81
389.612	359.81
389.837	350.81
390.062	340.81
390.287	353.81
390.512	364.81
390.736	352.81
390.961	351.81
391.186	350.81
391.411	356.81
391.636	344.81
391.86	348.81
392.085	366.81
392.31	361.81
392.534	373.81
392.759	369.81
392.984	374.81
393.208	355.81
393.433	368.81
393.658	380.81
393.882	364.81
394.107	380.81
394.331	377.81
394.556	355.81
394.78	355.81
395.005	362.81
395.229	345.81
395.454	364.81
395.678	362.81
395.903	373.81
396.127	411.81
396.352	403.81
396.576	377.81
396.801	369.81
397.025	373.81
397.249	365.81
397.474	371.81
397.698	365.81
397.922	395.81
398.147	411.81
398.371	416.81
398.595	397.81
398.82	406.81
399.044	387.81
399.268	405.81
399.492	425.81
399.717	449.81
399.941	465.81
400.165	488.81
400.389	494.81
400.613	481.81
400.837	445.81
401.062	421.81
401.286	416.81
401.51	427.81
401.734	418.81
401.958	433.81
402.182	407.81
402.406	437.81
402.63	438.81
402.854	425.81
403.078	419.81
403.302	453.81
403.526	439.81
403.75	431.81
403.974	428.81
404.198	417.81
404.422	431.81
404.645	428.81
404.869	453.81
405.093	434.81
405.317	452.81
405.541	516.81
405.765	500.81
405.988	451.81
406.212	487.81
406.436	507.81
406.66	535.81
406.883	486.81
407.107	519.81
407.331	535.81
407.555	603.81
407.778	612.81
408.002	556.81
408.226	489.81
408.449	489.81
408.673	490.81
408.896	524.81
409.12	562.81
409.344	511.81
409.567	475.81
409.791	457.81
410.014	441.81
410.238	430.81
410.461	450.81
410.685	464.81
410.908	460.81
411.132	503.81
411.355	540.81
411.578	524.81
411.802	461.81
412.025	421.81
412.249	444.81
412.472	437.81
412.695	464.81
412.919	471.81
413.142	429.81
413.365	439.81
413.589	405.81
413.812	408.81
414.035	389.81
414.258	409.81
414.482	401.81
414.705	392.81
414.928	396.81
415.151	411.81
415.374	398.81
415.597	426.81
415.821	408.81
416.044	415.81
416.267	425.81
416.49	407.81
416.713	414.81
416.936	416.81
417.159	402.81
417.382	426.81
417.605	427.81
417.828	437.81
418.051	463.81
418.274	444.81
418.497	413.81
418.72	433.81
418.943	421.81
419.166	425.81
419.389	459.81
419.611	437.81
419.834	447.81
420.057	455.81
420.28	448.81
420.503	433.81
420.726	433.81
420.948	479.81
421.171	495.81
421.394	557.81
421.617	479.81
421.839	465.81
422.062	448.81
422.285	487.81
422.507	556.81
422.73	607.81
422.953	579.81
423.175	510.81
423.398	487.81
423.621	485.81
423.843	487.81
424.066	491.81
424.288	520.81
424.511	513.81
424.733	612.81
424.956	681.81
425.178	659.81
425.401	632.81
425.623	640.81
425.846	582.81
426.068	537.81
426.291	532.81
426.513	503.81
426.735	538.81
426.958	578.81
427.18	654.81
427.402	773.81
427.625	875.81
427.847	812.81
428.069	702.81
428.292	604.81
428.514	536.81
428.736	495.81
428.958	508.81
429.181	478.81
429.403	473.81
429.625	514.81
429.847	525.81
430.069	603.81
430.292	604.81
430.514	508.81
430.736	476.81
430.958	480.81
431.18	459.81
431.402	433.81
431.624	447.81
431.846	455.81
432.068	437.81
432.29	438.81
432.512	463.81
432.734	442.81
432.956	447.81
433.178	464.81
433.4	448.81
433.622	458.81
433.844	441.81
434.066	441.81
434.287	423.81
434.509	444.81
434.731	439.81
434.953	443.81
435.175	472.81
435.397	526.81
435.618	518.81
435.84	576.81
436.062	673.81
436.284	722.81
436.505	612.81
436.727	569.81
436.949	510.81
437.17	499.81
437.392	493.81
437.614	527.81
437.835	556.81
438.057	667.81
438.278	755.81
438.5	751.81
438.721	808.81
438.943	783.81
439.165	639.81
439.386	593.81
439.608	596.81
439.829	548.81
440.05	618.81
440.272	641.81
440.493	611.81
440.715	565.81
440.936	513.81
441.158	505.81
441.379	506.81
441.6	512.81
441.822	538.81
442.043	600.81
442.264	667.81
442.486	704.81
442.707	599.81
442.928	561.81
443.149	565.81
443.371	567.81
443.592	642.81
443.813	709.81
444.034	784.81
444.255	646.81
444.476	547.81
444.698	532.81
444.919	536.81
445.14	628.81
445.361	579.81
445.582	582.81
445.803	673.81
446.024	783.81
446.245	787.81
446.466	693.81
446.687	590.81
446.908	565.81
447.129	517.81
447.35	494.81
447.571	523.81
447.792	491.81
448.013	490.81
448.234	514.81
448.455	588.81
448.675	679.81
448.896	782.81
449.117	684.81
449.338	654.81
449.559	734.81
449.779	830.81
450	693.81
450.221	561.81
450.442	521.81
450.662	522.81
450.883	519.81
451.104	529.81
451.324	527.81
451.545	482.81
451.766	472.81
451.986	469.81
452.207	442.81
452.428	451.81
452.648	455.81
452.869	457.81
453.089	482.81
453.31	469.81
453.53	455.81
453.751	458.81
453.971	478.81
454.192	495.81
454.412	487.81
454.633	470.81
454.853	447.81
455.073	462.81
455.294	473.81
455.514	568.81
455.734	546.81
455.955	451.81
456.175	435.81
456.395	414.81
456.616	396.81
456.836	408.81
457.056	402.81
457.276	385.81
457.497	404.81
457.717	401.81
457.937	389.81
458.157	441.81
458.377	422.81
458.598	470.81
458.818	555.81
459.038	639.81
459.258	657.81
459.478	563.81
459.698	480.81
459.918	456.81
460.138	443.81
460.358	449.81
460.578	431.81
460.798	444.81
461.018	453.81
461.238	437.81
461.458	421.81
461.678	424.81
461.898	420.81
462.118	440.81
462.338	440.81
462.558	430.81
462.777	430.81
462.997	433.81
463.217	440.81
463.437	447.81
463.657	426.81
463.876	435.81
464.096	439.81
464.316	429.81
464.536	460.81
464.755	483.81
464.975	488.81
465.195	586.81
465.414	719.81
465.634	613.81
465.854	545.81
466.073	495.81
466.293	469.81
466.512	444.81
466.732	441.81
466.951	447.81
467.171	426.81
467.391	436.81
467.61	448.81
467.829	446.81
468.049	436.81
468.268	442.81
468.488	447.81
468.707	423.81
468.927	414.81
469.146	407.81
469.365	424.81
469.585	436.81
469.804	437.81
470.023	469.81
470.243	457.81
470.462	472.81
470.681	478.81
470.901	504.81
471.12	444.81
471.339	451.81
471.558	448.81
471.777	459.81
471.997	430.81
472.216	436.81
472.435	447.81
472.654	425.81
472.873	435.81
473.092	439.81
473.311	424.81
473.53	469.81
473.749	459.81
473.968	511.81
474.187	618.81
474.406	633.81
474.625	531.81
474.844	481.81
475.063	458.81
475.282	455.81
475.501	447.81
475.72	445.81
475.939	475.81
476.158	461.81
476.377	464.81
476.596	458.81
476.814	462.81
477.033	480.81
477.252	465.81
477.471	461.81
477.69	463.81
477.908	442.81
478.127	472.81
478.346	444.81
478.564	476.81
478.783	499.81
479.002	497.81
479.22	515.81
479.439	494.81
479.658	563.81
479.876	593.81
480.095	572.81
480.313	563.81
480.532	563.81
480.751	535.81
480.969	543.81
481.188	532.81
481.406	565.81
481.624	552.81
481.843	530.81
482.061	533.81
482.28	517.81
482.498	513.81
482.717	504.81
482.935	524.81
483.153	542.81
483.372	517.81
483.59	522.81
483.808	527.81
484.027	505.81
484.245	529.81
484.463	526.81
484.681	530.81
484.9	536.81
485.118	519.81
485.336	549.81
485.554	534.81
485.772	525.81
485.99	556.81
486.209	548.81
486.427	557.81
486.645	564.81
486.863	574.81
487.081	591.81
487.299	576.81
487.517	567.81
487.735	600.81
487.953	597.81
488.171	598.81
488.389	580.81
488.607	587.81
488.825	589.81
489.043	584.81
489.261	587.81
489.479	579.81
489.696	587.81
489.914	609.81
490.132	600.81
490.35	614.81
490.568	611.81
490.786	615.81
491.003	618.81
491.221	631.81
491.439	633.81
491.657	646.81
491.874	648.81
492.092	664.81
492.31	675.81
492.527	671.81
492.745	670.81
492.963	664.81
493.18	670.81
493.398	672.81
493.615	686.81
493.833	666.81
494.05	687.81
494.268	678.81
494.485	679.81
494.703	689.81
494.92	697.81
495.138	673.81
495.355	684.81
495.573	699.81
495.79	694.81
496.008	707.81
496.225	705.81
496.442	675.81
496.66	700.81
496.877	684.81
497.094	667.81
497.312	710.81
497.529	696.81
497.746	712.81
497.963	681.81
498.181	720.81
498.398	748.81
498.615	740.81
498.832	729.81
499.049	720.81
499.267	766.81
499.484	732.81
499.701	777.81
499.918	763.81
500.135	786.81
500.352	799.81
500.569	800.81
500.786	813.81
501.003	799.81
501.22	832.81
501.437	813.81
501.654	821.81
501.871	847.81
