Data from 1987.PennyLincolnUp.Lamp.En5.5.200Scan.071819.P2_HRD10591_17-15-21-971.txt Node
Date: Thu Jul 18 17:15:21 EDT 2019
User: cochatt
Spectrometer: HR+D1059
Trigger mode: 1
Integration Time (sec): 1.000000E-1
Scans to average: 1
Electric dark correction enabled: true
Nonlinearity correction enabled: false
Boxcar width: 0
XAxis mode: Wavelengths
Number of Pixels in Spectrum: 2048
>>>>>Begin Spectral Data<<<<<
223.165	-16.25
223.4	-16.25
223.635	-16.25
223.869	-27.25
224.104	-9.25
224.338	-15.25
224.573	-14.25
224.808	-26.25
225.042	-7.25
225.277	0.75
225.511	7.75
225.746	5.75
225.98	-4.25
226.215	13.75
226.449	14.75
226.683	28.75
226.918	22.75
227.152	25.75
227.387	29.75
227.621	44.75
227.856	45.75
228.09	56.75
228.324	56.75
228.559	65.75
228.793	75.75
229.027	111.75
229.262	111.75
229.496	137.75
229.73	154.75
229.964	169.75
230.199	137.75
230.433	128.75
230.667	135.75
230.901	122.75
231.136	128.75
231.37	128.75
231.604	103.75
231.838	119.75
232.072	111.75
232.306	118.75
232.541	129.75
232.775	120.75
233.009	124.75
233.243	130.75
233.477	129.75
233.711	110.75
233.945	122.75
234.179	102.75
234.413	122.75
234.647	116.75
234.881	107.75
235.115	126.75
235.349	122.75
235.583	122.75
235.817	119.75
236.051	113.75
236.285	136.75
236.519	138.75
236.753	148.75
236.987	146.75
237.221	188.75
237.455	254.75
237.689	195.75
237.922	154.75
238.156	140.75
238.39	125.75
238.624	138.75
238.858	140.75
239.091	134.75
239.325	114.75
239.559	136.75
239.793	132.75
240.027	140.75
240.26	151.75
240.494	158.75
240.728	152.75
240.961	175.75
241.195	152.75
241.429	143.75
241.662	132.75
241.896	121.75
242.13	120.75
242.363	144.75
242.597	150.75
242.83	129.75
243.064	133.75
243.298	134.75
243.531	134.75
243.765	116.75
243.998	133.75
244.232	143.75
244.465	141.75
244.699	129.75
244.932	145.75
245.166	139.75
245.399	146.75
245.633	140.75
245.866	149.75
246.099	136.75
246.333	144.75
246.566	137.75
246.8	156.75
247.033	137.75
247.266	143.75
247.5	163.75
247.733	153.75
247.966	171.75
248.2	168.75
248.433	165.75
248.666	160.75
248.899	186.75
249.133	192.75
249.366	209.75
249.599	213.75
249.832	193.75
250.066	192.75
250.299	152.75
250.532	177.75
250.765	190.75
250.998	222.75
251.231	232.75
251.465	207.75
251.698	202.75
251.931	190.75
252.164	186.75
252.397	208.75
252.63	197.75
252.863	213.75
253.096	208.75
253.329	222.75
253.562	240.75
253.795	215.75
254.028	234.75
254.261	224.75
254.494	235.75
254.727	256.75
254.96	297.75
255.193	264.75
255.426	262.75
255.659	224.75
255.892	223.75
256.124	215.75
256.357	210.75
256.59	208.75
256.823	197.75
257.056	215.75
257.289	194.75
257.521	212.75
257.754	192.75
257.987	180.75
258.22	203.75
258.452	180.75
258.685	200.75
258.918	215.75
259.151	213.75
259.383	208.75
259.616	212.75
259.849	212.75
260.081	216.75
260.314	241.75
260.547	265.75
260.779	235.75
261.012	218.75
261.244	209.75
261.477	225.75
261.71	202.75
261.942	218.75
262.175	221.75
262.407	233.75
262.64	225.75
262.872	205.75
263.105	183.75
263.337	204.75
263.57	182.75
263.802	193.75
264.035	193.75
264.267	189.75
264.499	191.75
264.732	186.75
264.964	193.75
265.197	201.75
265.429	177.75
265.661	200.75
265.894	202.75
266.126	188.75
266.358	173.75
266.591	192.75
266.823	217.75
267.055	200.75
267.287	215.75
267.52	217.75
267.752	200.75
267.984	204.75
268.216	208.75
268.448	205.75
268.681	211.75
268.913	211.75
269.145	262.75
269.377	271.75
269.609	261.75
269.841	263.75
270.073	244.75
270.306	263.75
270.538	289.75
270.77	301.75
271.002	285.75
271.234	264.75
271.466	274.75
271.698	297.75
271.93	297.75
272.162	318.75
272.394	322.75
272.626	303.75
272.858	278.75
273.09	266.75
273.322	249.75
273.553	245.75
273.785	266.75
274.017	247.75
274.249	235.75
274.481	235.75
274.713	238.75
274.945	246.75
275.176	256.75
275.408	234.75
275.64	239.75
275.872	238.75
276.104	229.75
276.335	249.75
276.567	242.75
276.799	263.75
277.031	276.75
277.262	291.75
277.494	296.75
277.726	286.75
277.957	277.75
278.189	270.75
278.421	235.75
278.652	231.75
278.884	234.75
279.115	231.75
279.347	240.75
279.579	230.75
279.81	237.75
280.042	211.75
280.273	223.75
280.505	205.75
280.736	221.75
280.968	238.75
281.199	237.75
281.431	251.75
281.662	227.75
281.894	233.75
282.125	245.75
282.356	247.75
282.588	285.75
282.819	280.75
283.051	255.75
283.282	238.75
283.513	246.75
283.745	239.75
283.976	228.75
284.207	229.75
284.439	230.75
284.67	228.75
284.901	228.75
285.132	229.75
285.364	212.75
285.595	224.75
285.826	224.75
286.057	236.75
286.288	228.75
286.52	229.75
286.751	232.75
286.982	232.75
287.213	226.75
287.444	235.75
287.675	244.75
287.906	244.75
288.138	256.75
288.369	258.75
288.6	271.75
288.831	248.75
289.062	236.75
289.293	237.75
289.524	225.75
289.755	227.75
289.986	225.75
290.217	227.75
290.448	220.75
290.679	256.75
290.91	249.75
291.141	228.75
291.371	238.75
291.602	216.75
291.833	244.75
292.064	212.75
292.295	234.75
292.526	240.75
292.757	242.75
292.987	247.75
293.218	231.75
293.449	226.75
293.68	253.75
293.91	262.75
294.141	233.75
294.372	236.75
294.603	224.75
294.833	228.75
295.064	241.75
295.295	248.75
295.525	250.75
295.756	244.75
295.987	260.75
296.217	296.75
296.448	282.75
296.679	271.75
296.909	240.75
297.14	233.75
297.37	251.75
297.601	249.75
297.831	254.75
298.062	238.75
298.292	232.75
298.523	243.75
298.753	264.75
298.984	251.75
299.214	253.75
299.445	250.75
299.675	260.75
299.905	267.75
300.136	250.75
300.366	247.75
300.597	242.75
300.827	249.75
301.057	261.75
301.288	289.75
301.518	279.75
301.748	247.75
301.979	263.75
302.209	275.75
302.439	266.75
302.669	268.75
302.9	263.75
303.13	266.75
303.36	282.75
303.59	252.75
303.82	273.75
304.051	293.75
304.281	251.75
304.511	270.75
304.741	245.75
304.971	262.75
305.201	258.75
305.431	257.75
305.661	247.75
305.891	266.75
306.121	275.75
306.352	263.75
306.582	286.75
306.812	276.75
307.042	271.75
307.272	266.75
307.502	247.75
307.731	273.75
307.961	275.75
308.191	282.75
308.421	274.75
308.651	286.75
308.881	283.75
309.111	288.75
309.341	288.75
309.571	313.75
309.8	312.75
310.03	322.75
310.26	348.75
310.49	337.75
310.72	336.75
310.949	373.75
311.179	383.75
311.409	361.75
311.639	341.75
311.868	337.75
312.098	353.75
312.328	335.75
312.557	375.75
312.787	379.75
313.017	382.75
313.246	357.75
313.476	335.75
313.706	343.75
313.935	353.75
314.165	335.75
314.394	351.75
314.624	356.75
314.853	362.75
315.083	346.75
315.312	320.75
315.542	320.75
315.771	335.75
316.001	331.75
316.23	320.75
316.46	312.75
316.689	334.75
316.919	323.75
317.148	333.75
317.377	360.75
317.607	329.75
317.836	335.75
318.065	319.75
318.295	344.75
318.524	328.75
318.753	319.75
318.983	326.75
319.212	332.75
319.441	336.75
319.67	353.75
319.9	319.75
320.129	334.75
320.358	343.75
320.587	340.75
320.816	346.75
321.046	354.75
321.275	350.75
321.504	347.75
321.733	355.75
321.962	358.75
322.191	401.75
322.42	402.75
322.649	437.75
322.878	429.75
323.108	462.75
323.337	487.75
323.566	543.75
323.795	560.75
324.024	624.75
324.253	791.75
324.482	1189.75
324.71	1767.75
324.939	2500.75
325.168	2212.75
325.397	1204.75
325.626	801.75
325.855	607.75
326.084	560.75
326.313	518.75
326.542	530.75
326.77	580.75
326.999	713.75
327.228	1018.75
327.457	1521.75
327.686	1910.75
327.914	1312.75
328.143	824.75
328.372	700.75
328.6	649.75
328.829	619.75
329.058	643.75
329.287	651.75
329.515	584.75
329.744	498.75
329.972	467.75
330.201	503.75
330.43	522.75
330.658	588.75
330.887	637.75
331.115	641.75
331.344	514.75
331.572	497.75
331.801	460.75
332.03	459.75
332.258	426.75
332.486	421.75
332.715	393.75
332.943	379.75
333.172	379.75
333.4	381.75
333.629	387.75
333.857	412.75
334.085	390.75
334.314	383.75
334.542	401.75
334.771	400.75
334.999	390.75
335.227	386.75
335.455	376.75
335.684	358.75
335.912	368.75
336.14	346.75
336.369	383.75
336.597	392.75
336.825	377.75
337.053	365.75
337.281	356.75
337.51	362.75
337.738	374.75
337.966	377.75
338.194	357.75
338.422	383.75
338.65	362.75
338.878	353.75
339.106	342.75
339.334	369.75
339.562	355.75
339.79	369.75
340.018	383.75
340.246	372.75
340.474	394.75
340.702	366.75
340.93	353.75
341.158	362.75
341.386	369.75
341.614	396.75
341.842	377.75
342.07	354.75
342.298	368.75
342.526	356.75
342.754	356.75
342.981	346.75
343.209	346.75
343.437	346.75
343.665	345.75
343.893	343.75
344.12	356.75
344.348	362.75
344.576	364.75
344.804	368.75
345.031	372.75
345.259	416.75
345.487	396.75
345.714	392.75
345.942	359.75
346.17	361.75
346.397	356.75
346.625	358.75
346.853	377.75
347.08	360.75
347.308	386.75
347.535	415.75
347.763	402.75
347.99	384.75
348.218	377.75
348.445	374.75
348.673	384.75
348.9	373.75
349.128	361.75
349.355	351.75
349.583	344.75
349.81	375.75
350.037	353.75
350.265	328.75
350.492	347.75
350.72	351.75
350.947	339.75
351.174	395.75
351.402	384.75
351.629	374.75
351.856	381.75
352.083	384.75
352.311	390.75
352.538	398.75
352.765	384.75
352.992	398.75
353.22	387.75
353.447	356.75
353.674	366.75
353.901	374.75
354.128	345.75
354.355	331.75
354.583	351.75
354.81	322.75
355.037	338.75
355.264	349.75
355.491	317.75
355.718	335.75
355.945	306.75
356.172	329.75
356.399	326.75
356.626	314.75
356.853	340.75
357.08	310.75
357.307	325.75
357.534	317.75
357.761	327.75
357.988	337.75
358.215	319.75
358.441	331.75
358.668	315.75
358.895	335.75
359.122	342.75
359.349	356.75
359.576	357.75
359.802	407.75
360.029	446.75
360.256	484.75
360.483	428.75
360.709	377.75
360.936	378.75
361.163	362.75
361.39	367.75
361.616	346.75
361.843	378.75
362.07	373.75
362.296	364.75
362.523	356.75
362.749	374.75
362.976	356.75
363.203	367.75
363.429	350.75
363.656	344.75
363.882	352.75
364.109	350.75
364.335	335.75
364.562	338.75
364.788	342.75
365.015	329.75
365.241	336.75
365.468	369.75
365.694	356.75
365.92	341.75
366.147	364.75
366.373	352.75
366.599	328.75
366.826	333.75
367.052	352.75
367.278	354.75
367.505	336.75
367.731	336.75
367.957	332.75
368.184	322.75
368.41	334.75
368.636	363.75
368.862	357.75
369.089	340.75
369.315	337.75
369.541	334.75
369.767	340.75
369.993	344.75
370.219	317.75
370.445	312.75
370.672	340.75
370.898	330.75
371.124	321.75
371.35	331.75
371.576	344.75
371.802	317.75
372.028	322.75
372.254	331.75
372.48	318.75
372.706	331.75
372.932	307.75
373.158	314.75
373.384	334.75
373.61	329.75
373.835	322.75
374.061	329.75
374.287	344.75
374.513	343.75
374.739	329.75
374.965	319.75
375.191	333.75
375.416	331.75
375.642	329.75
375.868	340.75
376.094	326.75
376.319	306.75
376.545	322.75
376.771	321.75
376.997	320.75
377.222	332.75
377.448	319.75
377.674	322.75
377.899	321.75
378.125	320.75
378.35	319.75
378.576	317.75
378.802	311.75
379.027	325.75
379.253	348.75
379.478	327.75
379.704	328.75
379.929	310.75
380.155	334.75
380.38	326.75
380.606	321.75
380.831	329.75
381.057	334.75
381.282	334.75
381.507	332.75
381.733	337.75
381.958	314.75
382.184	322.75
382.409	346.75
382.634	333.75
382.86	347.75
383.085	332.75
383.31	322.75
383.535	318.75
383.761	328.75
383.986	337.75
384.211	326.75
384.436	345.75
384.662	314.75
384.887	344.75
385.112	334.75
385.337	325.75
385.562	338.75
385.787	351.75
386.013	354.75
386.238	349.75
386.463	357.75
386.688	340.75
386.913	337.75
387.138	327.75
387.363	324.75
387.588	330.75
387.813	357.75
388.038	320.75
388.263	335.75
388.488	332.75
388.713	333.75
388.938	346.75
389.163	335.75
389.387	364.75
389.612	344.75
389.837	314.75
390.062	341.75
390.287	319.75
390.512	324.75
390.736	320.75
390.961	330.75
391.186	339.75
391.411	358.75
391.636	354.75
391.86	347.75
392.085	345.75
392.31	341.75
392.534	333.75
392.759	350.75
392.984	342.75
393.208	354.75
393.433	345.75
393.658	347.75
393.882	341.75
394.107	346.75
394.331	352.75
394.556	332.75
394.78	328.75
395.005	340.75
395.229	335.75
395.454	339.75
395.678	341.75
395.903	368.75
396.127	382.75
396.352	384.75
396.576	356.75
396.801	351.75
397.025	352.75
397.249	364.75
397.474	372.75
397.698	360.75
397.922	358.75
398.147	396.75
398.371	392.75
398.595	386.75
398.82	358.75
399.044	400.75
399.268	397.75
399.492	396.75
399.717	410.75
399.941	438.75
400.165	491.75
400.389	476.75
400.613	450.75
400.837	409.75
401.062	410.75
401.286	395.75
401.51	381.75
401.734	377.75
401.958	380.75
402.182	400.75
402.406	421.75
402.63	427.75
402.854	404.75
403.078	405.75
403.302	401.75
403.526	403.75
403.75	415.75
403.974	406.75
404.198	408.75
404.422	403.75
404.645	397.75
404.869	411.75
405.093	445.75
405.317	443.75
405.541	469.75
405.765	446.75
405.988	431.75
406.212	433.75
406.436	461.75
406.66	492.75
406.883	481.75
407.107	484.75
407.331	519.75
407.555	562.75
407.778	575.75
408.002	516.75
408.226	486.75
408.449	460.75
408.673	486.75
408.896	507.75
409.12	525.75
409.344	496.75
409.567	473.75
409.791	422.75
410.014	414.75
410.238	410.75
410.461	420.75
410.685	428.75
410.908	438.75
411.132	457.75
411.355	482.75
411.578	477.75
411.802	439.75
412.025	418.75
412.249	427.75
412.472	426.75
412.695	408.75
412.919	414.75
413.142	407.75
413.365	398.75
413.589	376.75
413.812	383.75
414.035	374.75
414.258	377.75
414.482	378.75
414.705	380.75
414.928	383.75
415.151	382.75
415.374	377.75
415.597	373.75
415.821	377.75
416.044	392.75
416.267	387.75
416.49	393.75
416.713	420.75
416.936	376.75
417.159	400.75
417.382	398.75
417.605	411.75
417.828	418.75
418.051	441.75
418.274	414.75
418.497	417.75
418.72	412.75
418.943	386.75
419.166	407.75
419.389	424.75
419.611	433.75
419.834	408.75
420.057	422.75
420.28	420.75
420.503	421.75
420.726	427.75
420.948	450.75
421.171	490.75
421.394	538.75
421.617	457.75
421.839	447.75
422.062	428.75
422.285	438.75
422.507	513.75
422.73	574.75
422.953	572.75
423.175	484.75
423.398	465.75
423.621	469.75
423.843	468.75
424.066	469.75
424.288	479.75
424.511	497.75
424.733	552.75
424.956	645.75
425.178	605.75
425.401	612.75
425.623	608.75
425.846	544.75
426.068	502.75
426.291	500.75
426.513	505.75
426.735	507.75
426.958	545.75
427.18	635.75
427.402	717.75
427.625	836.75
427.847	784.75
428.069	644.75
428.292	575.75
428.514	516.75
428.736	504.75
428.958	484.75
429.181	473.75
429.403	464.75
429.625	474.75
429.847	505.75
430.069	577.75
430.292	564.75
430.514	474.75
430.736	458.75
430.958	451.75
431.18	436.75
431.402	433.75
431.624	420.75
431.846	412.75
432.068	415.75
432.29	396.75
432.512	399.75
432.734	431.75
432.956	428.75
433.178	458.75
433.4	441.75
433.622	453.75
433.844	426.75
434.066	424.75
434.287	432.75
434.509	440.75
434.731	427.75
434.953	426.75
435.175	437.75
435.397	487.75
435.618	494.75
435.84	564.75
436.062	613.75
436.284	677.75
436.505	587.75
436.727	537.75
436.949	493.75
437.17	458.75
437.392	474.75
437.614	494.75
437.835	554.75
438.057	676.75
438.278	753.75
438.5	739.75
438.721	748.75
438.943	720.75
439.165	590.75
439.386	563.75
439.608	550.75
439.829	518.75
440.05	566.75
440.272	599.75
440.493	572.75
440.715	527.75
440.936	485.75
441.158	458.75
441.379	470.75
441.6	487.75
441.822	514.75
442.043	552.75
442.264	624.75
442.486	669.75
442.707	580.75
442.928	506.75
443.149	549.75
443.371	583.75
443.592	587.75
443.813	670.75
444.034	710.75
444.255	617.75
444.476	540.75
444.698	508.75
444.919	487.75
445.14	614.75
445.361	541.75
445.582	570.75
445.803	617.75
446.024	703.75
446.245	728.75
446.466	662.75
446.687	559.75
446.908	524.75
447.129	498.75
447.35	488.75
447.571	492.75
447.792	468.75
448.013	474.75
448.234	529.75
448.455	570.75
448.675	639.75
448.896	744.75
449.117	640.75
449.338	644.75
449.559	707.75
449.779	760.75
450	648.75
450.221	542.75
450.442	516.75
450.662	496.75
450.883	505.75
451.104	520.75
451.324	519.75
451.545	456.75
451.766	451.75
451.986	431.75
452.207	447.75
452.428	425.75
452.648	428.75
452.869	434.75
453.089	432.75
453.31	459.75
453.53	436.75
453.751	442.75
453.971	422.75
454.192	464.75
454.412	465.75
454.633	437.75
454.853	458.75
455.073	435.75
455.294	456.75
455.514	530.75
455.734	517.75
455.955	428.75
456.175	408.75
456.395	393.75
456.616	384.75
456.836	391.75
457.056	392.75
457.276	393.75
457.497	406.75
457.717	379.75
457.937	400.75
458.157	397.75
458.377	384.75
458.598	429.75
458.818	490.75
459.038	607.75
459.258	614.75
459.478	538.75
459.698	460.75
459.918	427.75
460.138	414.75
460.358	426.75
460.578	411.75
460.798	409.75
461.018	417.75
461.238	425.75
461.458	398.75
461.678	394.75
461.898	397.75
462.118	383.75
462.338	396.75
462.558	410.75
462.777	397.75
462.997	396.75
463.217	388.75
463.437	421.75
463.657	415.75
463.876	414.75
464.096	410.75
464.316	406.75
464.536	437.75
464.755	414.75
464.975	458.75
465.195	531.75
465.414	650.75
465.634	551.75
465.854	504.75
466.073	456.75
466.293	428.75
466.512	441.75
466.732	416.75
466.951	408.75
467.171	417.75
467.391	421.75
467.61	430.75
467.829	456.75
468.049	430.75
468.268	398.75
468.488	403.75
468.707	392.75
468.927	398.75
469.146	373.75
469.365	408.75
469.585	384.75
469.804	409.75
470.023	445.75
470.243	426.75
470.462	426.75
470.681	479.75
470.901	442.75
471.12	430.75
471.339	435.75
471.558	426.75
471.777	426.75
471.997	375.75
472.216	416.75
472.435	400.75
472.654	405.75
472.873	402.75
473.092	421.75
473.311	416.75
473.53	418.75
473.749	439.75
473.968	497.75
474.187	609.75
474.406	618.75
474.625	500.75
474.844	425.75
475.063	440.75
475.282	392.75
475.501	436.75
475.72	426.75
475.939	450.75
476.158	443.75
476.377	424.75
476.596	434.75
476.814	455.75
477.033	456.75
477.252	455.75
477.471	429.75
477.69	455.75
477.908	462.75
478.127	459.75
478.346	461.75
478.564	445.75
478.783	449.75
479.002	463.75
479.22	467.75
479.439	476.75
479.658	490.75
479.876	500.75
480.095	526.75
480.313	544.75
480.532	504.75
480.751	510.75
480.969	507.75
481.188	539.75
481.406	514.75
481.624	506.75
481.843	479.75
482.061	498.75
482.28	477.75
482.498	494.75
482.717	513.75
482.935	496.75
483.153	489.75
483.372	481.75
483.59	514.75
483.808	490.75
484.027	502.75
484.245	502.75
484.463	510.75
484.681	529.75
484.9	509.75
485.118	502.75
485.336	508.75
485.554	522.75
485.772	542.75
485.99	528.75
486.209	526.75
486.427	518.75
486.645	552.75
486.863	579.75
487.081	569.75
487.299	584.75
487.517	557.75
487.735	560.75
487.953	548.75
488.171	541.75
488.389	544.75
488.607	545.75
488.825	535.75
489.043	556.75
489.261	557.75
489.479	564.75
489.696	552.75
489.914	568.75
490.132	572.75
490.35	568.75
490.568	572.75
490.786	583.75
491.003	586.75
491.221	591.75
491.439	609.75
491.657	609.75
491.874	631.75
492.092	608.75
492.31	652.75
492.527	624.75
492.745	636.75
492.963	658.75
493.18	626.75
493.398	632.75
493.615	662.75
493.833	666.75
494.05	656.75
494.268	669.75
494.485	642.75
494.703	663.75
494.92	656.75
495.138	660.75
495.355	647.75
495.573	664.75
495.79	660.75
496.008	670.75
496.225	654.75
496.442	650.75
496.66	658.75
496.877	666.75
497.094	672.75
497.312	664.75
497.529	677.75
497.746	670.75
497.963	667.75
498.181	686.75
498.398	703.75
498.615	720.75
498.832	709.75
499.049	704.75
499.267	715.75
499.484	696.75
499.701	713.75
499.918	759.75
500.135	745.75
500.352	755.75
500.569	775.75
500.786	784.75
501.003	781.75
501.22	765.75
501.437	766.75
501.654	769.75
501.871	794.75
