Data from 1987.PennyLincolnUp.Lamp.En5.5.200Scan.071819.P2_HRD10591_17-16-51-972.txt Node
Date: Thu Jul 18 17:16:51 EDT 2019
User: cochatt
Spectrometer: HR+D1059
Trigger mode: 1
Integration Time (sec): 1.000000E-1
Scans to average: 1
Electric dark correction enabled: true
Nonlinearity correction enabled: false
Boxcar width: 0
XAxis mode: Wavelengths
Number of Pixels in Spectrum: 2048
>>>>>Begin Spectral Data<<<<<
223.165	-12.12
223.4	-12.12
223.635	-12.12
223.869	-19.12
224.104	1.88
224.338	-25.12
224.573	-1.12
224.808	-16.12
225.042	-23.12
225.277	1.88
225.511	-4.12
225.746	-5.12
225.98	0.88
226.215	1.88
226.449	12.88
226.683	5.88
226.918	42.88
227.152	37.88
227.387	39.88
227.621	30.88
227.856	39.88
228.09	44.88
228.324	47.88
228.559	59.88
228.793	78.88
229.027	99.88
229.262	131.88
229.496	134.88
229.73	138.88
229.964	170.88
230.199	143.88
230.433	142.88
230.667	136.88
230.901	131.88
231.136	114.88
231.37	120.88
231.604	102.88
231.838	113.88
232.072	107.88
232.306	120.88
232.541	122.88
232.775	115.88
233.009	104.88
233.243	113.88
233.477	116.88
233.711	121.88
233.945	111.88
234.179	110.88
234.413	113.88
234.647	115.88
234.881	108.88
235.115	129.88
235.349	127.88
235.583	119.88
235.817	135.88
236.051	136.88
236.285	110.88
236.519	132.88
236.753	124.88
236.987	166.88
237.221	197.88
237.455	260.88
237.689	186.88
237.922	145.88
238.156	133.88
238.39	138.88
238.624	131.88
238.858	115.88
239.091	129.88
239.325	124.88
239.559	131.88
239.793	135.88
240.027	138.88
240.26	143.88
240.494	183.88
240.728	159.88
240.961	155.88
241.195	135.88
241.429	153.88
241.662	143.88
241.896	127.88
242.13	140.88
242.363	133.88
242.597	134.88
242.83	143.88
243.064	131.88
243.298	135.88
243.531	123.88
243.765	119.88
243.998	142.88
244.232	158.88
244.465	141.88
244.699	145.88
244.932	137.88
245.166	123.88
245.399	147.88
245.633	141.88
245.866	143.88
246.099	128.88
246.333	146.88
246.566	134.88
246.8	145.88
247.033	172.88
247.266	154.88
247.5	165.88
247.733	148.88
247.966	161.88
248.2	181.88
248.433	171.88
248.666	161.88
248.899	177.88
249.133	205.88
249.366	223.88
249.599	206.88
249.832	206.88
250.066	176.88
250.299	177.88
250.532	186.88
250.765	188.88
250.998	210.88
251.231	241.88
251.465	207.88
251.698	199.88
251.931	198.88
252.164	197.88
252.397	199.88
252.63	186.88
252.863	192.88
253.096	214.88
253.329	225.88
253.562	224.88
253.795	230.88
254.028	206.88
254.261	214.88
254.494	232.88
254.727	263.88
254.96	285.88
255.193	282.88
255.426	259.88
255.659	245.88
255.892	226.88
256.124	232.88
256.357	226.88
256.59	203.88
256.823	206.88
257.056	207.88
257.289	187.88
257.521	198.88
257.754	198.88
257.987	212.88
258.22	187.88
258.452	205.88
258.685	208.88
258.918	185.88
259.151	196.88
259.383	213.88
259.616	213.88
259.849	222.88
260.081	241.88
260.314	245.88
260.547	264.88
260.779	225.88
261.012	218.88
261.244	223.88
261.477	229.88
261.71	203.88
261.942	227.88
262.175	244.88
262.407	209.88
262.64	205.88
262.872	222.88
263.105	209.88
263.337	208.88
263.57	201.88
263.802	197.88
264.035	194.88
264.267	194.88
264.499	180.88
264.732	203.88
264.964	191.88
265.197	181.88
265.429	191.88
265.661	188.88
265.894	209.88
266.126	193.88
266.358	202.88
266.591	178.88
266.823	191.88
267.055	198.88
267.287	229.88
267.52	204.88
267.752	201.88
267.984	200.88
268.216	205.88
268.448	226.88
268.681	222.88
268.913	225.88
269.145	236.88
269.377	264.88
269.609	258.88
269.841	251.88
270.073	281.88
270.306	288.88
270.538	295.88
270.77	307.88
271.002	301.88
271.234	287.88
271.466	281.88
271.698	308.88
271.93	301.88
272.162	305.88
272.394	324.88
272.626	275.88
272.858	285.88
273.09	280.88
273.322	255.88
273.553	257.88
273.785	255.88
274.017	237.88
274.249	236.88
274.481	233.88
274.713	242.88
274.945	251.88
275.176	223.88
275.408	240.88
275.64	246.88
275.872	227.88
276.104	251.88
276.335	250.88
276.567	242.88
276.799	254.88
277.031	285.88
277.262	299.88
277.494	300.88
277.726	259.88
277.957	269.88
278.189	251.88
278.421	255.88
278.652	243.88
278.884	241.88
279.115	215.88
279.347	229.88
279.579	224.88
279.81	231.88
280.042	215.88
280.273	221.88
280.505	242.88
280.736	236.88
280.968	220.88
281.199	210.88
281.431	230.88
281.662	231.88
281.894	242.88
282.125	238.88
282.356	257.88
282.588	282.88
282.819	299.88
283.051	246.88
283.282	235.88
283.513	234.88
283.745	226.88
283.976	229.88
284.207	231.88
284.439	241.88
284.67	249.88
284.901	236.88
285.132	230.88
285.364	211.88
285.595	231.88
285.826	236.88
286.057	245.88
286.288	238.88
286.52	234.88
286.751	233.88
286.982	237.88
287.213	222.88
287.444	236.88
287.675	237.88
287.906	239.88
288.138	274.88
288.369	277.88
288.6	277.88
288.831	251.88
289.062	234.88
289.293	249.88
289.524	261.88
289.755	230.88
289.986	244.88
290.217	244.88
290.448	235.88
290.679	236.88
290.91	233.88
291.141	242.88
291.371	238.88
291.602	239.88
291.833	217.88
292.064	234.88
292.295	243.88
292.526	261.88
292.757	238.88
292.987	253.88
293.218	221.88
293.449	236.88
293.68	250.88
293.91	244.88
294.141	245.88
294.372	248.88
294.603	250.88
294.833	247.88
295.064	245.88
295.295	239.88
295.525	244.88
295.756	236.88
295.987	263.88
296.217	310.88
296.448	331.88
296.679	273.88
296.909	243.88
297.14	242.88
297.37	252.88
297.601	243.88
297.831	255.88
298.062	241.88
298.292	255.88
298.523	246.88
298.753	233.88
298.984	248.88
299.214	252.88
299.445	264.88
299.675	263.88
299.905	239.88
300.136	255.88
300.366	254.88
300.597	250.88
300.827	264.88
301.057	265.88
301.288	291.88
301.518	282.88
301.748	254.88
301.979	263.88
302.209	278.88
302.439	277.88
302.669	272.88
302.9	277.88
303.13	264.88
303.36	283.88
303.59	278.88
303.82	287.88
304.051	284.88
304.281	281.88
304.511	268.88
304.741	253.88
304.971	243.88
305.201	252.88
305.431	261.88
305.661	254.88
305.891	273.88
306.121	277.88
306.352	280.88
306.582	293.88
306.812	278.88
307.042	285.88
307.272	264.88
307.502	249.88
307.731	286.88
307.961	278.88
308.191	267.88
308.421	273.88
308.651	288.88
308.881	281.88
309.111	292.88
309.341	309.88
309.571	316.88
309.8	307.88
310.03	334.88
310.26	338.88
310.49	339.88
310.72	344.88
310.949	370.88
311.179	383.88
311.409	346.88
311.639	321.88
311.868	358.88
312.098	348.88
312.328	353.88
312.557	376.88
312.787	399.88
313.017	389.88
313.246	354.88
313.476	342.88
313.706	346.88
313.935	352.88
314.165	357.88
314.394	381.88
314.624	381.88
314.853	372.88
315.083	350.88
315.312	343.88
315.542	346.88
315.771	337.88
316.001	324.88
316.23	319.88
316.46	333.88
316.689	332.88
316.919	351.88
317.148	360.88
317.377	356.88
317.607	341.88
317.836	350.88
318.065	334.88
318.295	328.88
318.524	321.88
318.753	328.88
318.983	315.88
319.212	327.88
319.441	355.88
319.67	354.88
319.9	338.88
320.129	343.88
320.358	346.88
320.587	348.88
320.816	357.88
321.046	367.88
321.275	373.88
321.504	352.88
321.733	360.88
321.962	378.88
322.191	380.88
322.42	434.88
322.649	437.88
322.878	475.88
323.108	488.88
323.337	516.88
323.566	552.88
323.795	621.88
324.024	682.88
324.253	870.88
324.482	1301.88
324.71	1978.88
324.939	2700.88
325.168	2407.88
325.397	1315.88
325.626	847.88
325.855	649.88
326.084	599.88
326.313	547.88
326.542	571.88
326.77	612.88
326.999	783.88
327.228	1101.88
327.457	1688.88
327.686	2087.88
327.914	1449.88
328.143	900.88
328.372	748.88
328.6	681.88
328.829	632.88
329.058	666.88
329.287	662.88
329.515	602.88
329.744	524.88
329.972	507.88
330.201	521.88
330.43	551.88
330.658	636.88
330.887	718.88
331.115	678.88
331.344	551.88
331.572	507.88
331.801	482.88
332.03	495.88
332.258	445.88
332.486	417.88
332.715	388.88
332.943	401.88
333.172	400.88
333.4	388.88
333.629	409.88
333.857	407.88
334.085	405.88
334.314	391.88
334.542	396.88
334.771	433.88
334.999	409.88
335.227	404.88
335.455	387.88
335.684	387.88
335.912	389.88
336.14	369.88
336.369	374.88
336.597	378.88
336.825	399.88
337.053	383.88
337.281	373.88
337.51	380.88
337.738	358.88
337.966	385.88
338.194	383.88
338.422	385.88
338.65	371.88
338.878	370.88
339.106	371.88
339.334	362.88
339.562	356.88
339.79	388.88
340.018	370.88
340.246	362.88
340.474	401.88
340.702	363.88
340.93	369.88
341.158	365.88
341.386	389.88
341.614	373.88
341.842	382.88
342.07	373.88
342.298	345.88
342.526	360.88
342.754	339.88
342.981	338.88
343.209	348.88
343.437	352.88
343.665	347.88
343.893	351.88
344.12	363.88
344.348	361.88
344.576	363.88
344.804	395.88
345.031	401.88
345.259	415.88
345.487	375.88
345.714	371.88
345.942	373.88
346.17	369.88
346.397	366.88
346.625	379.88
346.853	346.88
347.08	374.88
347.308	379.88
347.535	398.88
347.763	394.88
347.99	408.88
348.218	393.88
348.445	394.88
348.673	395.88
348.9	372.88
349.128	371.88
349.355	370.88
349.583	348.88
349.81	353.88
350.037	352.88
350.265	345.88
350.492	350.88
350.72	359.88
350.947	371.88
351.174	381.88
351.402	412.88
351.629	379.88
351.856	377.88
352.083	403.88
352.311	422.88
352.538	422.88
352.765	417.88
352.992	405.88
353.22	397.88
353.447	396.88
353.674	385.88
353.901	357.88
354.128	346.88
354.355	338.88
354.583	324.88
354.81	343.88
355.037	307.88
355.264	324.88
355.491	315.88
355.718	329.88
355.945	309.88
356.172	341.88
356.399	318.88
356.626	312.88
356.853	306.88
357.08	323.88
357.307	328.88
357.534	325.88
357.761	301.88
357.988	348.88
358.215	335.88
358.441	315.88
358.668	346.88
358.895	331.88
359.122	338.88
359.349	366.88
359.576	400.88
359.802	430.88
360.029	479.88
360.256	479.88
360.483	445.88
360.709	381.88
360.936	373.88
361.163	371.88
361.39	400.88
361.616	400.88
361.843	384.88
362.07	379.88
362.296	394.88
362.523	411.88
362.749	373.88
362.976	342.88
363.203	347.88
363.429	355.88
363.656	358.88
363.882	344.88
364.109	337.88
364.335	362.88
364.562	354.88
364.788	342.88
365.015	347.88
365.241	357.88
365.468	347.88
365.694	363.88
365.92	370.88
366.147	368.88
366.373	338.88
366.599	355.88
366.826	340.88
367.052	355.88
367.278	349.88
367.505	339.88
367.731	329.88
367.957	338.88
368.184	337.88
368.41	362.88
368.636	381.88
368.862	357.88
369.089	358.88
369.315	369.88
369.541	359.88
369.767	333.88
369.993	334.88
370.219	363.88
370.445	338.88
370.672	334.88
370.898	329.88
371.124	309.88
371.35	335.88
371.576	326.88
371.802	327.88
372.028	309.88
372.254	316.88
372.48	340.88
372.706	332.88
372.932	321.88
373.158	318.88
373.384	310.88
373.61	317.88
373.835	333.88
374.061	349.88
374.287	332.88
374.513	323.88
374.739	325.88
374.965	337.88
375.191	332.88
375.416	315.88
375.642	317.88
375.868	323.88
376.094	301.88
376.319	325.88
376.545	319.88
376.771	337.88
376.997	333.88
377.222	330.88
377.448	331.88
377.674	318.88
377.899	327.88
378.125	325.88
378.35	338.88
378.576	305.88
378.802	325.88
379.027	313.88
379.253	309.88
379.478	350.88
379.704	335.88
379.929	313.88
380.155	317.88
380.38	325.88
380.606	350.88
380.831	323.88
381.057	326.88
381.282	323.88
381.507	337.88
381.733	327.88
381.958	328.88
382.184	332.88
382.409	335.88
382.634	328.88
382.86	320.88
383.085	327.88
383.31	324.88
383.535	351.88
383.761	316.88
383.986	364.88
384.211	318.88
384.436	342.88
384.662	334.88
384.887	339.88
385.112	348.88
385.337	350.88
385.562	334.88
385.787	341.88
386.013	357.88
386.238	353.88
386.463	357.88
386.688	366.88
386.913	351.88
387.138	333.88
387.363	343.88
387.588	345.88
387.813	330.88
388.038	348.88
388.263	337.88
388.488	322.88
388.713	327.88
388.938	346.88
389.163	353.88
389.387	341.88
389.612	344.88
389.837	338.88
390.062	333.88
390.287	334.88
390.512	325.88
390.736	339.88
390.961	350.88
391.186	337.88
391.411	329.88
391.636	335.88
391.86	350.88
392.085	366.88
392.31	363.88
392.534	348.88
392.759	339.88
392.984	345.88
393.208	350.88
393.433	354.88
393.658	343.88
393.882	354.88
394.107	323.88
394.331	326.88
394.556	333.88
394.78	334.88
395.005	341.88
395.229	340.88
395.454	357.88
395.678	365.88
395.903	345.88
396.127	400.88
396.352	394.88
396.576	381.88
396.801	359.88
397.025	341.88
397.249	362.88
397.474	369.88
397.698	363.88
397.922	389.88
398.147	419.88
398.371	387.88
398.595	382.88
398.82	382.88
399.044	387.88
399.268	380.88
399.492	390.88
399.717	433.88
399.941	437.88
400.165	474.88
400.389	493.88
400.613	459.88
400.837	423.88
401.062	414.88
401.286	396.88
401.51	399.88
401.734	410.88
401.958	387.88
402.182	425.88
402.406	431.88
402.63	409.88
402.854	383.88
403.078	403.88
403.302	398.88
403.526	428.88
403.75	436.88
403.974	400.88
404.198	423.88
404.422	430.88
404.645	420.88
404.869	427.88
405.093	457.88
405.317	484.88
405.541	484.88
405.765	468.88
405.988	448.88
406.212	473.88
406.436	476.88
406.66	485.88
406.883	499.88
407.107	490.88
407.331	546.88
407.555	589.88
407.778	589.88
408.002	525.88
408.226	478.88
408.449	469.88
408.673	490.88
408.896	498.88
409.12	545.88
409.344	517.88
409.567	457.88
409.791	437.88
410.014	427.88
410.238	429.88
410.461	431.88
410.685	404.88
410.908	442.88
411.132	478.88
411.355	491.88
411.578	489.88
411.802	443.88
412.025	429.88
412.249	415.88
412.472	412.88
412.695	444.88
412.919	431.88
413.142	403.88
413.365	395.88
413.589	397.88
413.812	400.88
414.035	393.88
414.258	370.88
414.482	399.88
414.705	398.88
414.928	395.88
415.151	389.88
415.374	395.88
415.597	393.88
415.821	383.88
416.044	391.88
416.267	405.88
416.49	390.88
416.713	393.88
416.936	373.88
417.159	414.88
417.382	413.88
417.605	405.88
417.828	425.88
418.051	431.88
418.274	430.88
418.497	415.88
418.72	401.88
418.943	393.88
419.166	416.88
419.389	415.88
419.611	413.88
419.834	419.88
420.057	438.88
420.28	407.88
420.503	428.88
420.726	421.88
420.948	422.88
421.171	485.88
421.394	530.88
421.617	481.88
421.839	428.88
422.062	443.88
422.285	458.88
422.507	520.88
422.73	568.88
422.953	571.88
423.175	497.88
423.398	458.88
423.621	460.88
423.843	493.88
424.066	489.88
424.288	475.88
424.511	516.88
424.733	553.88
424.956	641.88
425.178	625.88
425.401	633.88
425.623	638.88
425.846	552.88
426.068	499.88
426.291	518.88
426.513	494.88
426.735	526.88
426.958	556.88
427.18	637.88
427.402	749.88
427.625	849.88
427.847	808.88
428.069	654.88
428.292	581.88
428.514	523.88
428.736	489.88
428.958	486.88
429.181	474.88
429.403	475.88
429.625	492.88
429.847	523.88
430.069	587.88
430.292	577.88
430.514	510.88
430.736	463.88
430.958	444.88
431.18	449.88
431.402	414.88
431.624	419.88
431.846	409.88
432.068	420.88
432.29	441.88
432.512	436.88
432.734	427.88
432.956	437.88
433.178	451.88
433.4	462.88
433.622	451.88
433.844	447.88
434.066	425.88
434.287	427.88
434.509	419.88
434.731	425.88
434.953	433.88
435.175	456.88
435.397	495.88
435.618	494.88
435.84	548.88
436.062	629.88
436.284	724.88
436.505	618.88
436.727	549.88
436.949	499.88
437.17	485.88
437.392	475.88
437.614	479.88
437.835	539.88
438.057	664.88
438.278	730.88
438.5	742.88
438.721	791.88
438.943	747.88
439.165	638.88
439.386	559.88
439.608	576.88
439.829	557.88
440.05	596.88
440.272	618.88
440.493	579.88
440.715	526.88
440.936	500.88
441.158	470.88
441.379	471.88
441.6	500.88
441.822	499.88
442.043	577.88
442.264	637.88
442.486	680.88
442.707	577.88
442.928	515.88
443.149	553.88
443.371	568.88
443.592	589.88
443.813	661.88
444.034	737.88
444.255	621.88
444.476	551.88
444.698	515.88
444.919	516.88
445.14	601.88
445.361	563.88
445.582	569.88
445.803	614.88
446.024	719.88
446.245	712.88
446.466	707.88
446.687	602.88
446.908	517.88
447.129	482.88
447.35	488.88
447.571	452.88
447.792	484.88
448.013	473.88
448.234	511.88
448.455	559.88
448.675	670.88
448.896	745.88
449.117	669.88
449.338	637.88
449.559	707.88
449.779	787.88
450	675.88
450.221	547.88
450.442	549.88
450.662	500.88
450.883	524.88
451.104	535.88
451.324	546.88
451.545	497.88
451.766	467.88
451.986	455.88
452.207	443.88
452.428	437.88
452.648	422.88
452.869	431.88
453.089	433.88
453.31	464.88
453.53	470.88
453.751	452.88
453.971	450.88
454.192	494.88
454.412	476.88
454.633	449.88
454.853	438.88
455.073	416.88
455.294	469.88
455.514	553.88
455.734	515.88
455.955	433.88
456.175	401.88
456.395	386.88
456.616	381.88
456.836	404.88
457.056	387.88
457.276	389.88
457.497	389.88
457.717	388.88
457.937	392.88
458.157	412.88
458.377	423.88
458.598	453.88
458.818	541.88
459.038	648.88
459.258	655.88
459.478	501.88
459.698	471.88
459.918	438.88
460.138	421.88
460.358	405.88
460.578	397.88
460.798	430.88
461.018	443.88
461.238	400.88
461.458	385.88
461.678	402.88
461.898	422.88
462.118	408.88
462.338	417.88
462.558	417.88
462.777	426.88
462.997	435.88
463.217	414.88
463.437	434.88
463.657	423.88
463.876	429.88
464.096	443.88
464.316	437.88
464.536	441.88
464.755	440.88
464.975	467.88
465.195	541.88
465.414	695.88
465.634	593.88
465.854	487.88
466.073	491.88
466.293	457.88
466.512	449.88
466.732	411.88
466.951	417.88
467.171	408.88
467.391	423.88
467.61	431.88
467.829	464.88
468.049	445.88
468.268	417.88
468.488	418.88
468.707	410.88
468.927	396.88
469.146	412.88
469.365	414.88
469.585	407.88
469.804	434.88
470.023	451.88
470.243	421.88
470.462	437.88
470.681	463.88
470.901	472.88
471.12	441.88
471.339	438.88
471.558	435.88
471.777	421.88
471.997	427.88
472.216	430.88
472.435	422.88
472.654	439.88
472.873	417.88
473.092	408.88
473.311	414.88
473.53	422.88
473.749	418.88
473.968	469.88
474.187	603.88
474.406	644.88
474.625	521.88
474.844	446.88
475.063	462.88
475.282	434.88
475.501	422.88
475.72	427.88
475.939	440.88
476.158	430.88
476.377	441.88
476.596	441.88
476.814	432.88
477.033	473.88
477.252	439.88
477.471	439.88
477.69	454.88
477.908	447.88
478.127	445.88
478.346	470.88
478.564	458.88
478.783	445.88
479.002	481.88
479.22	491.88
479.439	489.88
479.658	524.88
479.876	500.88
480.095	531.88
480.313	555.88
480.532	528.88
480.751	523.88
480.969	537.88
481.188	529.88
481.406	536.88
481.624	507.88
481.843	525.88
482.061	494.88
482.28	500.88
482.498	508.88
482.717	518.88
482.935	472.88
483.153	490.88
483.372	477.88
483.59	484.88
483.808	512.88
484.027	507.88
484.245	512.88
484.463	518.88
484.681	516.88
484.9	501.88
485.118	522.88
485.336	523.88
485.554	525.88
485.772	550.88
485.99	519.88
486.209	534.88
486.427	527.88
486.645	554.88
486.863	588.88
487.081	592.88
487.299	568.88
487.517	555.88
487.735	562.88
487.953	549.88
488.171	537.88
488.389	578.88
488.607	569.88
488.825	542.88
489.043	545.88
489.261	566.88
489.479	556.88
489.696	560.88
489.914	537.88
490.132	585.88
490.35	594.88
490.568	593.88
490.786	613.88
491.003	593.88
491.221	607.88
491.439	636.88
491.657	651.88
491.874	632.88
492.092	652.88
492.31	654.88
492.527	667.88
492.745	639.88
492.963	637.88
493.18	654.88
493.398	665.88
493.615	666.88
493.833	673.88
494.05	671.88
494.268	677.88
494.485	668.88
494.703	661.88
494.92	652.88
495.138	685.88
495.355	677.88
495.573	683.88
495.79	656.88
496.008	663.88
496.225	677.88
496.442	690.88
496.66	675.88
496.877	674.88
497.094	668.88
497.312	669.88
497.529	679.88
497.746	660.88
497.963	668.88
498.181	693.88
498.398	710.88
498.615	713.88
498.832	703.88
499.049	706.88
499.267	722.88
499.484	751.88
499.701	744.88
499.918	720.88
500.135	749.88
500.352	787.88
500.569	766.88
500.786	762.88
501.003	780.88
501.22	787.88
501.437	757.88
501.654	765.88
501.871	822.88
