Data from 1987.PennyLincolnUp.Lamp.En5.5.200Scan.071819.P2_HRD10591_17-15-48-971.txt Node
Date: Thu Jul 18 17:15:48 EDT 2019
User: cochatt
Spectrometer: HR+D1059
Trigger mode: 1
Integration Time (sec): 1.000000E-1
Scans to average: 1
Electric dark correction enabled: true
Nonlinearity correction enabled: false
Boxcar width: 0
XAxis mode: Wavelengths
Number of Pixels in Spectrum: 2048
>>>>>Begin Spectral Data<<<<<
223.165	-19.19
223.4	-19.19
223.635	-19.19
223.869	-21.19
224.104	-13.19
224.338	-16.19
224.573	6.81
224.808	-16.19
225.042	-13.19
225.277	-15.19
225.511	-3.19
225.746	11.81
225.98	-2.19
226.215	8.81
226.449	27.81
226.683	17.81
226.918	32.81
227.152	13.81
227.387	46.81
227.621	42.81
227.856	47.81
228.09	47.81
228.324	59.81
228.559	57.81
228.793	86.81
229.027	119.81
229.262	112.81
229.496	128.81
229.73	158.81
229.964	183.81
230.199	159.81
230.433	120.81
230.667	119.81
230.901	115.81
231.136	130.81
231.37	120.81
231.604	109.81
231.838	111.81
232.072	118.81
232.306	118.81
232.541	110.81
232.775	121.81
233.009	126.81
233.243	125.81
233.477	121.81
233.711	111.81
233.945	119.81
234.179	116.81
234.413	124.81
234.647	115.81
234.881	126.81
235.115	114.81
235.349	115.81
235.583	117.81
235.817	135.81
236.051	126.81
236.285	138.81
236.519	127.81
236.753	141.81
236.987	141.81
237.221	217.81
237.455	266.81
237.689	217.81
237.922	162.81
238.156	158.81
238.39	139.81
238.624	141.81
238.858	144.81
239.091	114.81
239.325	126.81
239.559	142.81
239.793	125.81
240.027	149.81
240.26	161.81
240.494	177.81
240.728	162.81
240.961	150.81
241.195	137.81
241.429	143.81
241.662	147.81
241.896	142.81
242.13	152.81
242.363	131.81
242.597	122.81
242.83	151.81
243.064	128.81
243.298	127.81
243.531	134.81
243.765	120.81
243.998	136.81
244.232	127.81
244.465	148.81
244.699	134.81
244.932	125.81
245.166	130.81
245.399	139.81
245.633	157.81
245.866	137.81
246.099	122.81
246.333	153.81
246.566	152.81
246.8	154.81
247.033	159.81
247.266	173.81
247.5	157.81
247.733	160.81
247.966	153.81
248.2	174.81
248.433	173.81
248.666	184.81
248.899	189.81
249.133	194.81
249.366	198.81
249.599	192.81
249.832	183.81
250.066	191.81
250.299	169.81
250.532	199.81
250.765	192.81
250.998	218.81
251.231	228.81
251.465	219.81
251.698	201.81
251.931	195.81
252.164	205.81
252.397	214.81
252.63	216.81
252.863	222.81
253.096	225.81
253.329	219.81
253.562	231.81
253.795	219.81
254.028	223.81
254.261	216.81
254.494	242.81
254.727	274.81
254.96	294.81
255.193	281.81
255.426	252.81
255.659	233.81
255.892	231.81
256.124	218.81
256.357	219.81
256.59	200.81
256.823	196.81
257.056	204.81
257.289	204.81
257.521	202.81
257.754	212.81
257.987	209.81
258.22	196.81
258.452	204.81
258.685	191.81
258.918	190.81
259.151	200.81
259.383	212.81
259.616	212.81
259.849	217.81
260.081	221.81
260.314	233.81
260.547	232.81
260.779	256.81
261.012	224.81
261.244	223.81
261.477	214.81
261.71	212.81
261.942	223.81
262.175	243.81
262.407	230.81
262.64	212.81
262.872	207.81
263.105	208.81
263.337	209.81
263.57	194.81
263.802	199.81
264.035	198.81
264.267	199.81
264.499	179.81
264.732	203.81
264.964	204.81
265.197	193.81
265.429	183.81
265.661	190.81
265.894	197.81
266.126	212.81
266.358	203.81
266.591	194.81
266.823	200.81
267.055	207.81
267.287	223.81
267.52	210.81
267.752	211.81
267.984	212.81
268.216	208.81
268.448	218.81
268.681	221.81
268.913	224.81
269.145	232.81
269.377	250.81
269.609	262.81
269.841	264.81
270.073	261.81
270.306	288.81
270.538	314.81
270.77	319.81
271.002	295.81
271.234	304.81
271.466	281.81
271.698	309.81
271.93	298.81
272.162	313.81
272.394	323.81
272.626	307.81
272.858	287.81
273.09	286.81
273.322	281.81
273.553	252.81
273.785	258.81
274.017	246.81
274.249	243.81
274.481	247.81
274.713	247.81
274.945	262.81
275.176	249.81
275.408	247.81
275.64	234.81
275.872	238.81
276.104	231.81
276.335	230.81
276.567	264.81
276.799	285.81
277.031	293.81
277.262	299.81
277.494	303.81
277.726	279.81
277.957	280.81
278.189	268.81
278.421	243.81
278.652	249.81
278.884	249.81
279.115	221.81
279.347	234.81
279.579	236.81
279.81	227.81
280.042	239.81
280.273	228.81
280.505	214.81
280.736	222.81
280.968	248.81
281.199	240.81
281.431	219.81
281.662	235.81
281.894	239.81
282.125	243.81
282.356	258.81
282.588	280.81
282.819	270.81
283.051	236.81
283.282	231.81
283.513	242.81
283.745	234.81
283.976	232.81
284.207	242.81
284.439	264.81
284.67	220.81
284.901	236.81
285.132	242.81
285.364	252.81
285.595	230.81
285.826	233.81
286.057	234.81
286.288	234.81
286.52	231.81
286.751	245.81
286.982	230.81
287.213	250.81
287.444	252.81
287.675	239.81
287.906	243.81
288.138	260.81
288.369	262.81
288.6	259.81
288.831	268.81
289.062	245.81
289.293	242.81
289.524	269.81
289.755	252.81
289.986	247.81
290.217	233.81
290.448	223.81
290.679	235.81
290.91	238.81
291.141	235.81
291.371	257.81
291.602	248.81
291.833	242.81
292.064	236.81
292.295	231.81
292.526	251.81
292.757	260.81
292.987	230.81
293.218	237.81
293.449	252.81
293.68	231.81
293.91	234.81
294.141	242.81
294.372	239.81
294.603	235.81
294.833	247.81
295.064	239.81
295.295	230.81
295.525	252.81
295.756	260.81
295.987	276.81
296.217	303.81
296.448	300.81
296.679	270.81
296.909	276.81
297.14	243.81
297.37	269.81
297.601	253.81
297.831	255.81
298.062	252.81
298.292	271.81
298.523	271.81
298.753	244.81
298.984	246.81
299.214	266.81
299.445	266.81
299.675	251.81
299.905	255.81
300.136	248.81
300.366	267.81
300.597	258.81
300.827	284.81
301.057	283.81
301.288	281.81
301.518	295.81
301.748	272.81
301.979	261.81
302.209	256.81
302.439	267.81
302.669	277.81
302.9	263.81
303.13	264.81
303.36	277.81
303.59	275.81
303.82	302.81
304.051	290.81
304.281	278.81
304.511	280.81
304.741	246.81
304.971	266.81
305.201	249.81
305.431	270.81
305.661	258.81
305.891	259.81
306.121	272.81
306.352	279.81
306.582	299.81
306.812	286.81
307.042	266.81
307.272	282.81
307.502	278.81
307.731	277.81
307.961	295.81
308.191	298.81
308.421	291.81
308.651	278.81
308.881	286.81
309.111	274.81
309.341	285.81
309.571	323.81
309.8	313.81
310.03	343.81
310.26	344.81
310.49	355.81
310.72	358.81
310.949	389.81
311.179	404.81
311.409	354.81
311.639	331.81
311.868	355.81
312.098	351.81
312.328	340.81
312.557	401.81
312.787	386.81
313.017	404.81
313.246	387.81
313.476	354.81
313.706	353.81
313.935	370.81
314.165	360.81
314.394	365.81
314.624	375.81
314.853	366.81
315.083	341.81
315.312	346.81
315.542	319.81
315.771	331.81
316.001	360.81
316.23	325.81
316.46	339.81
316.689	325.81
316.919	330.81
317.148	351.81
317.377	372.81
317.607	348.81
317.836	366.81
318.065	332.81
318.295	327.81
318.524	322.81
318.753	330.81
318.983	343.81
319.212	350.81
319.441	342.81
319.67	346.81
319.9	348.81
320.129	319.81
320.358	328.81
320.587	355.81
320.816	355.81
321.046	370.81
321.275	365.81
321.504	366.81
321.733	375.81
321.962	370.81
322.191	391.81
322.42	422.81
322.649	435.81
322.878	461.81
323.108	482.81
323.337	514.81
323.566	546.81
323.795	595.81
324.024	694.81
324.253	862.81
324.482	1255.81
324.71	1951.81
324.939	2684.81
325.168	2378.81
325.397	1298.81
325.626	845.81
325.855	649.81
326.084	581.81
326.313	541.81
326.542	567.81
326.77	625.81
326.999	782.81
327.228	1076.81
327.457	1684.81
327.686	2070.81
327.914	1420.81
328.143	897.81
328.372	749.81
328.6	680.81
328.829	658.81
329.058	673.81
329.287	671.81
329.515	611.81
329.744	538.81
329.972	502.81
330.201	538.81
330.43	560.81
330.658	611.81
330.887	671.81
331.115	687.81
331.344	556.81
331.572	488.81
331.801	488.81
332.03	494.81
332.258	443.81
332.486	414.81
332.715	402.81
332.943	407.81
333.172	414.81
333.4	394.81
333.629	406.81
333.857	402.81
334.085	394.81
334.314	389.81
334.542	406.81
334.771	397.81
334.999	395.81
335.227	397.81
335.455	392.81
335.684	394.81
335.912	388.81
336.14	359.81
336.369	386.81
336.597	406.81
336.825	424.81
337.053	396.81
337.281	373.81
337.51	392.81
337.738	395.81
337.966	367.81
338.194	386.81
338.422	392.81
338.65	374.81
338.878	376.81
339.106	368.81
339.334	370.81
339.562	352.81
339.79	375.81
340.018	370.81
340.246	388.81
340.474	382.81
340.702	370.81
340.93	385.81
341.158	381.81
341.386	377.81
341.614	390.81
341.842	368.81
342.07	372.81
342.298	357.81
342.526	375.81
342.754	357.81
342.981	354.81
343.209	357.81
343.437	379.81
343.665	359.81
343.893	352.81
344.12	386.81
344.348	365.81
344.576	370.81
344.804	380.81
345.031	400.81
345.259	423.81
345.487	411.81
345.714	380.81
345.942	381.81
346.17	388.81
346.397	368.81
346.625	373.81
346.853	374.81
347.08	365.81
347.308	378.81
347.535	406.81
347.763	410.81
347.99	409.81
348.218	396.81
348.445	410.81
348.673	415.81
348.9	389.81
349.128	380.81
349.355	376.81
349.583	351.81
349.81	346.81
350.037	366.81
350.265	363.81
350.492	343.81
350.72	365.81
350.947	367.81
351.174	380.81
351.402	406.81
351.629	397.81
351.856	390.81
352.083	414.81
352.311	400.81
352.538	423.81
352.765	418.81
352.992	386.81
353.22	383.81
353.447	388.81
353.674	393.81
353.901	350.81
354.128	356.81
354.355	352.81
354.583	350.81
354.81	319.81
355.037	338.81
355.264	330.81
355.491	319.81
355.718	335.81
355.945	325.81
356.172	340.81
356.399	327.81
356.626	299.81
356.853	331.81
357.08	350.81
357.307	337.81
357.534	316.81
357.761	335.81
357.988	334.81
358.215	332.81
358.441	338.81
358.668	340.81
358.895	361.81
359.122	367.81
359.349	348.81
359.576	383.81
359.802	424.81
360.029	477.81
360.256	503.81
360.483	461.81
360.709	400.81
360.936	393.81
361.163	372.81
361.39	388.81
361.616	382.81
361.843	373.81
362.07	384.81
362.296	404.81
362.523	396.81
362.749	370.81
362.976	378.81
363.203	351.81
363.429	355.81
363.656	373.81
363.882	343.81
364.109	341.81
364.335	349.81
364.562	364.81
364.788	345.81
365.015	362.81
365.241	347.81
365.468	352.81
365.694	372.81
365.92	358.81
366.147	373.81
366.373	363.81
366.599	349.81
366.826	345.81
367.052	345.81
367.278	348.81
367.505	351.81
367.731	346.81
367.957	343.81
368.184	354.81
368.41	354.81
368.636	360.81
368.862	376.81
369.089	359.81
369.315	346.81
369.541	346.81
369.767	338.81
369.993	344.81
370.219	339.81
370.445	348.81
370.672	371.81
370.898	344.81
371.124	345.81
371.35	333.81
371.576	342.81
371.802	318.81
372.028	318.81
372.254	332.81
372.48	327.81
372.706	321.81
372.932	319.81
373.158	338.81
373.384	341.81
373.61	329.81
373.835	342.81
374.061	344.81
374.287	355.81
374.513	339.81
374.739	348.81
374.965	336.81
375.191	325.81
375.416	338.81
375.642	344.81
375.868	342.81
376.094	320.81
376.319	347.81
376.545	346.81
376.771	347.81
376.997	334.81
377.222	326.81
377.448	344.81
377.674	335.81
377.899	331.81
378.125	319.81
378.35	333.81
378.576	330.81
378.802	334.81
379.027	336.81
379.253	323.81
379.478	330.81
379.704	315.81
379.929	331.81
380.155	329.81
380.38	330.81
380.606	350.81
380.831	339.81
381.057	334.81
381.282	340.81
381.507	326.81
381.733	351.81
381.958	339.81
382.184	336.81
382.409	359.81
382.634	334.81
382.86	341.81
383.085	331.81
383.31	339.81
383.535	354.81
383.761	355.81
383.986	347.81
384.211	345.81
384.436	335.81
384.662	357.81
384.887	364.81
385.112	355.81
385.337	327.81
385.562	354.81
385.787	338.81
386.013	345.81
386.238	351.81
386.463	366.81
386.688	351.81
386.913	341.81
387.138	348.81
387.363	349.81
387.588	350.81
387.813	356.81
388.038	346.81
388.263	340.81
388.488	388.81
388.713	363.81
388.938	355.81
389.163	358.81
389.387	354.81
389.612	360.81
389.837	360.81
390.062	353.81
390.287	349.81
390.512	346.81
390.736	350.81
390.961	353.81
391.186	342.81
391.411	359.81
391.636	357.81
391.86	354.81
392.085	344.81
392.31	342.81
392.534	344.81
392.759	381.81
392.984	365.81
393.208	336.81
393.433	356.81
393.658	370.81
393.882	359.81
394.107	359.81
394.331	356.81
394.556	346.81
394.78	338.81
395.005	374.81
395.229	346.81
395.454	368.81
395.678	373.81
395.903	370.81
396.127	407.81
396.352	431.81
396.576	377.81
396.801	364.81
397.025	357.81
397.249	359.81
397.474	383.81
397.698	350.81
397.922	385.81
398.147	401.81
398.371	406.81
398.595	418.81
398.82	390.81
399.044	415.81
399.268	407.81
399.492	423.81
399.717	453.81
399.941	455.81
400.165	498.81
400.389	494.81
400.613	458.81
400.837	440.81
401.062	415.81
401.286	401.81
401.51	409.81
401.734	378.81
401.958	411.81
402.182	419.81
402.406	438.81
402.63	456.81
402.854	417.81
403.078	430.81
403.302	422.81
403.526	407.81
403.75	414.81
403.974	411.81
404.198	420.81
404.422	417.81
404.645	438.81
404.869	420.81
405.093	455.81
405.317	467.81
405.541	514.81
405.765	463.81
405.988	450.81
406.212	498.81
406.436	503.81
406.66	524.81
406.883	482.81
407.107	489.81
407.331	550.81
407.555	618.81
407.778	599.81
408.002	548.81
408.226	519.81
408.449	502.81
408.673	457.81
408.896	530.81
409.12	548.81
409.344	516.81
409.567	485.81
409.791	462.81
410.014	450.81
410.238	455.81
410.461	428.81
410.685	441.81
410.908	446.81
411.132	508.81
411.355	527.81
411.578	527.81
411.802	447.81
412.025	436.81
412.249	448.81
412.472	436.81
412.695	435.81
412.919	437.81
413.142	416.81
413.365	410.81
413.589	408.81
413.812	407.81
414.035	419.81
414.258	382.81
414.482	411.81
414.705	376.81
414.928	397.81
415.151	403.81
415.374	399.81
415.597	407.81
415.821	385.81
416.044	419.81
416.267	406.81
416.49	408.81
416.713	403.81
416.936	406.81
417.159	425.81
417.382	421.81
417.605	423.81
417.828	451.81
418.051	471.81
418.274	425.81
418.497	417.81
418.72	434.81
418.943	412.81
419.166	440.81
419.389	432.81
419.611	432.81
419.834	428.81
420.057	444.81
420.28	414.81
420.503	429.81
420.726	430.81
420.948	448.81
421.171	529.81
421.394	526.81
421.617	487.81
421.839	462.81
422.062	440.81
422.285	458.81
422.507	518.81
422.73	592.81
422.953	586.81
423.175	498.81
423.398	484.81
423.621	481.81
423.843	481.81
424.066	508.81
424.288	487.81
424.511	520.81
424.733	566.81
424.956	646.81
425.178	662.81
425.401	645.81
425.623	656.81
425.846	589.81
426.068	515.81
426.291	520.81
426.513	528.81
426.735	534.81
426.958	593.81
427.18	644.81
427.402	790.81
427.625	900.81
427.847	820.81
428.069	698.81
428.292	592.81
428.514	521.81
428.736	498.81
428.958	514.81
429.181	501.81
429.403	501.81
429.625	505.81
429.847	536.81
430.069	585.81
430.292	604.81
430.514	485.81
430.736	508.81
430.958	480.81
431.18	443.81
431.402	436.81
431.624	454.81
431.846	441.81
432.068	435.81
432.29	444.81
432.512	452.81
432.734	443.81
432.956	444.81
433.178	469.81
433.4	472.81
433.622	455.81
433.844	452.81
434.066	437.81
434.287	431.81
434.509	440.81
434.731	431.81
434.953	458.81
435.175	460.81
435.397	499.81
435.618	525.81
435.84	575.81
436.062	663.81
436.284	713.81
436.505	628.81
436.727	568.81
436.949	502.81
437.17	484.81
437.392	474.81
437.614	529.81
437.835	552.81
438.057	682.81
438.278	754.81
438.5	752.81
438.721	793.81
438.943	750.81
439.165	643.81
439.386	558.81
439.608	576.81
439.829	574.81
440.05	592.81
440.272	630.81
440.493	615.81
440.715	540.81
440.936	529.81
441.158	484.81
441.379	489.81
441.6	518.81
441.822	536.81
442.043	582.81
442.264	655.81
442.486	698.81
442.707	610.81
442.928	533.81
443.149	548.81
443.371	585.81
443.592	628.81
443.813	698.81
444.034	769.81
444.255	610.81
444.476	536.81
444.698	535.81
444.919	524.81
445.14	607.81
445.361	582.81
445.582	566.81
445.803	644.81
446.024	751.81
446.245	764.81
446.466	707.81
446.687	594.81
446.908	544.81
447.129	508.81
447.35	486.81
447.571	514.81
447.792	514.81
448.013	514.81
448.234	539.81
448.455	580.81
448.675	716.81
448.896	773.81
449.117	698.81
449.338	675.81
449.559	716.81
449.779	807.81
450	683.81
450.221	566.81
450.442	524.81
450.662	504.81
450.883	509.81
451.104	553.81
451.324	530.81
451.545	522.81
451.766	486.81
451.986	446.81
452.207	464.81
452.428	424.81
452.648	450.81
452.869	447.81
453.089	448.81
453.31	476.81
453.53	471.81
453.751	459.81
453.971	470.81
454.192	489.81
454.412	466.81
454.633	465.81
454.853	461.81
455.073	456.81
455.294	478.81
455.514	540.81
455.734	541.81
455.955	458.81
456.175	440.81
456.395	402.81
456.616	387.81
456.836	388.81
457.056	402.81
457.276	398.81
457.497	393.81
457.717	391.81
457.937	421.81
458.157	411.81
458.377	407.81
458.598	456.81
458.818	550.81
459.038	659.81
459.258	651.81
459.478	527.81
459.698	482.81
459.918	455.81
460.138	442.81
460.358	436.81
460.578	427.81
460.798	440.81
461.018	439.81
461.238	413.81
461.458	446.81
461.678	389.81
461.898	413.81
462.118	430.81
462.338	424.81
462.558	420.81
462.777	417.81
462.997	452.81
463.217	420.81
463.437	424.81
463.657	431.81
463.876	444.81
464.096	441.81
464.316	428.81
464.536	460.81
464.755	462.81
464.975	482.81
465.195	565.81
465.414	717.81
465.634	596.81
465.854	508.81
466.073	459.81
466.293	468.81
466.512	442.81
466.732	428.81
466.951	442.81
467.171	426.81
467.391	436.81
467.61	463.81
467.829	459.81
468.049	446.81
468.268	426.81
468.488	428.81
468.707	407.81
468.927	416.81
469.146	397.81
469.365	402.81
469.585	416.81
469.804	444.81
470.023	450.81
470.243	439.81
470.462	460.81
470.681	476.81
470.901	470.81
471.12	463.81
471.339	445.81
471.558	453.81
471.777	431.81
471.997	435.81
472.216	405.81
472.435	448.81
472.654	432.81
472.873	429.81
473.092	420.81
473.311	430.81
473.53	435.81
473.749	458.81
473.968	504.81
474.187	598.81
474.406	657.81
474.625	526.81
474.844	482.81
475.063	448.81
475.282	429.81
475.501	437.81
475.72	446.81
475.939	452.81
476.158	459.81
476.377	438.81
476.596	448.81
476.814	471.81
477.033	483.81
477.252	452.81
477.471	468.81
477.69	470.81
477.908	452.81
478.127	461.81
478.346	466.81
478.564	486.81
478.783	481.81
479.002	488.81
479.22	477.81
479.439	526.81
479.658	542.81
479.876	554.81
480.095	526.81
480.313	575.81
480.532	556.81
480.751	526.81
480.969	553.81
481.188	548.81
481.406	560.81
481.624	559.81
481.843	498.81
482.061	510.81
482.28	493.81
482.498	530.81
482.717	506.81
482.935	507.81
483.153	523.81
483.372	518.81
483.59	536.81
483.808	527.81
484.027	504.81
484.245	538.81
484.463	534.81
484.681	530.81
484.9	541.81
485.118	532.81
485.336	538.81
485.554	555.81
485.772	542.81
485.99	543.81
486.209	570.81
486.427	553.81
486.645	566.81
486.863	610.81
487.081	605.81
487.299	568.81
487.517	580.81
487.735	564.81
487.953	558.81
488.171	566.81
488.389	566.81
488.607	554.81
488.825	565.81
489.043	566.81
489.261	574.81
489.479	573.81
489.696	573.81
489.914	600.81
490.132	595.81
490.35	567.81
490.568	583.81
490.786	613.81
491.003	619.81
491.221	635.81
491.439	637.81
491.657	653.81
491.874	658.81
492.092	648.81
492.31	652.81
492.527	652.81
492.745	664.81
492.963	648.81
493.18	669.81
493.398	692.81
493.615	705.81
493.833	674.81
494.05	670.81
494.268	676.81
494.485	669.81
494.703	671.81
494.92	676.81
495.138	669.81
495.355	667.81
495.573	674.81
495.79	694.81
496.008	682.81
496.225	688.81
496.442	693.81
496.66	663.81
496.877	697.81
497.094	704.81
497.312	731.81
497.529	694.81
497.746	710.81
497.963	724.81
498.181	722.81
498.398	726.81
498.615	731.81
498.832	718.81
499.049	740.81
499.267	740.81
499.484	762.81
499.701	782.81
499.918	775.81
500.135	803.81
500.352	785.81
500.569	822.81
500.786	790.81
501.003	783.81
501.22	789.81
501.437	793.81
501.654	794.81
501.871	824.81
