Data from 1987.PennyLincolnUp.Lamp.En5.5.200Scan.071819.P2_HRD10591_17-14-06-972.txt Node
Date: Thu Jul 18 17:14:06 EDT 2019
User: cochatt
Spectrometer: HR+D1059
Trigger mode: 1
Integration Time (sec): 1.000000E-1
Scans to average: 1
Electric dark correction enabled: true
Nonlinearity correction enabled: false
Boxcar width: 0
XAxis mode: Wavelengths
Number of Pixels in Spectrum: 2048
>>>>>Begin Spectral Data<<<<<
223.165	-13.69
223.4	-13.69
223.635	-13.69
223.869	-17.69
224.104	-27.69
224.338	-9.69
224.573	-5.69
224.808	-9.69
225.042	-13.69
225.277	5.31
225.511	-7.69
225.746	-8.69
225.98	-7.69
226.215	14.31
226.449	23.31
226.683	17.31
226.918	29.31
227.152	32.31
227.387	35.31
227.621	39.31
227.856	60.31
228.09	53.31
228.324	56.31
228.559	62.31
228.793	73.31
229.027	97.31
229.262	119.31
229.496	122.31
229.73	132.31
229.964	149.31
230.199	133.31
230.433	118.31
230.667	114.31
230.901	102.31
231.136	113.31
231.37	101.31
231.604	100.31
231.838	99.31
232.072	94.31
232.306	106.31
232.541	114.31
232.775	101.31
233.009	114.31
233.243	115.31
233.477	108.31
233.711	111.31
233.945	100.31
234.179	115.31
234.413	114.31
234.647	117.31
234.881	102.31
235.115	115.31
235.349	121.31
235.583	108.31
235.817	113.31
236.051	119.31
236.285	115.31
236.519	123.31
236.753	134.31
236.987	140.31
237.221	186.31
237.455	231.31
237.689	180.31
237.922	121.31
238.156	105.31
238.39	131.31
238.624	117.31
238.858	113.31
239.091	116.31
239.325	116.31
239.559	97.31
239.793	122.31
240.027	134.31
240.26	122.31
240.494	161.31
240.728	149.31
240.961	137.31
241.195	129.31
241.429	135.31
241.662	120.31
241.896	125.31
242.13	135.31
242.363	110.31
242.597	123.31
242.83	138.31
243.064	122.31
243.298	124.31
243.531	133.31
243.765	133.31
243.998	128.31
244.232	131.31
244.465	136.31
244.699	133.31
244.932	130.31
245.166	120.31
245.399	126.31
245.633	132.31
245.866	135.31
246.099	119.31
246.333	138.31
246.566	141.31
246.8	130.31
247.033	140.31
247.266	124.31
247.5	140.31
247.733	130.31
247.966	168.31
248.2	161.31
248.433	145.31
248.666	152.31
248.899	166.31
249.133	181.31
249.366	179.31
249.599	182.31
249.832	168.31
250.066	177.31
250.299	161.31
250.532	176.31
250.765	178.31
250.998	179.31
251.231	200.31
251.465	200.31
251.698	172.31
251.931	175.31
252.164	182.31
252.397	178.31
252.63	186.31
252.863	169.31
253.096	179.31
253.329	207.31
253.562	214.31
253.795	182.31
254.028	193.31
254.261	206.31
254.494	204.31
254.727	219.31
254.96	249.31
255.193	236.31
255.426	223.31
255.659	209.31
255.892	220.31
256.124	189.31
256.357	187.31
256.59	187.31
256.823	176.31
257.056	181.31
257.289	183.31
257.521	191.31
257.754	195.31
257.987	162.31
258.22	173.31
258.452	183.31
258.685	188.31
258.918	165.31
259.151	185.31
259.383	179.31
259.616	182.31
259.849	196.31
260.081	202.31
260.314	221.31
260.547	205.31
260.779	229.31
261.012	199.31
261.244	199.31
261.477	206.31
261.71	196.31
261.942	205.31
262.175	223.31
262.407	194.31
262.64	185.31
262.872	183.31
263.105	188.31
263.337	198.31
263.57	165.31
263.802	188.31
264.035	180.31
264.267	171.31
264.499	180.31
264.732	180.31
264.964	180.31
265.197	166.31
265.429	179.31
265.661	151.31
265.894	188.31
266.126	171.31
266.358	178.31
266.591	164.31
266.823	191.31
267.055	162.31
267.287	181.31
267.52	187.31
267.752	188.31
267.984	175.31
268.216	193.31
268.448	183.31
268.681	204.31
268.913	207.31
269.145	226.31
269.377	227.31
269.609	214.31
269.841	205.31
270.073	223.31
270.306	235.31
270.538	250.31
270.77	250.31
271.002	249.31
271.234	238.31
271.466	249.31
271.698	267.31
271.93	279.31
272.162	286.31
272.394	255.31
272.626	253.31
272.858	234.31
273.09	221.31
273.322	218.31
273.553	229.31
273.785	227.31
274.017	209.31
274.249	213.31
274.481	206.31
274.713	209.31
274.945	208.31
275.176	204.31
275.408	225.31
275.64	218.31
275.872	197.31
276.104	216.31
276.335	209.31
276.567	209.31
276.799	216.31
277.031	251.31
277.262	238.31
277.494	269.31
277.726	248.31
277.957	242.31
278.189	226.31
278.421	234.31
278.652	226.31
278.884	217.31
279.115	205.31
279.347	222.31
279.579	212.31
279.81	219.31
280.042	203.31
280.273	198.31
280.505	207.31
280.736	207.31
280.968	214.31
281.199	199.31
281.431	199.31
281.662	200.31
281.894	220.31
282.125	220.31
282.356	220.31
282.588	247.31
282.819	238.31
283.051	209.31
283.282	218.31
283.513	231.31
283.745	211.31
283.976	213.31
284.207	191.31
284.439	213.31
284.67	228.31
284.901	213.31
285.132	215.31
285.364	221.31
285.595	202.31
285.826	202.31
286.057	205.31
286.288	216.31
286.52	215.31
286.751	216.31
286.982	200.31
287.213	215.31
287.444	225.31
287.675	234.31
287.906	220.31
288.138	225.31
288.369	236.31
288.6	233.31
288.831	221.31
289.062	216.31
289.293	228.31
289.524	217.31
289.755	213.31
289.986	215.31
290.217	200.31
290.448	209.31
290.679	221.31
290.91	221.31
291.141	215.31
291.371	219.31
291.602	222.31
291.833	208.31
292.064	224.31
292.295	212.31
292.526	204.31
292.757	204.31
292.987	225.31
293.218	220.31
293.449	205.31
293.68	218.31
293.91	221.31
294.141	213.31
294.372	221.31
294.603	221.31
294.833	219.31
295.064	219.31
295.295	203.31
295.525	202.31
295.756	223.31
295.987	236.31
296.217	249.31
296.448	263.31
296.679	232.31
296.909	222.31
297.14	220.31
297.37	229.31
297.601	229.31
297.831	221.31
298.062	239.31
298.292	228.31
298.523	220.31
298.753	220.31
298.984	227.31
299.214	229.31
299.445	224.31
299.675	229.31
299.905	236.31
300.136	218.31
300.366	231.31
300.597	226.31
300.827	222.31
301.057	251.31
301.288	243.31
301.518	240.31
301.748	247.31
301.979	232.31
302.209	241.31
302.439	241.31
302.669	237.31
302.9	238.31
303.13	249.31
303.36	222.31
303.59	236.31
303.82	259.31
304.051	239.31
304.281	249.31
304.511	255.31
304.741	245.31
304.971	238.31
305.201	220.31
305.431	252.31
305.661	257.31
305.891	242.31
306.121	232.31
306.352	245.31
306.582	236.31
306.812	258.31
307.042	247.31
307.272	254.31
307.502	242.31
307.731	254.31
307.961	245.31
308.191	241.31
308.421	243.31
308.651	251.31
308.881	250.31
309.111	246.31
309.341	260.31
309.571	270.31
309.8	280.31
310.03	260.31
310.26	292.31
310.49	274.31
310.72	312.31
310.949	318.31
311.179	315.31
311.409	306.31
311.639	281.31
311.868	298.31
312.098	307.31
312.328	299.31
312.557	319.31
312.787	345.31
313.017	319.31
313.246	311.31
313.476	289.31
313.706	283.31
313.935	288.31
314.165	299.31
314.394	313.31
314.624	312.31
314.853	305.31
315.083	302.31
315.312	283.31
315.542	279.31
315.771	287.31
316.001	277.31
316.23	290.31
316.46	281.31
316.689	287.31
316.919	307.31
317.148	308.31
317.377	282.31
317.607	285.31
317.836	295.31
318.065	287.31
318.295	287.31
318.524	289.31
318.753	279.31
318.983	283.31
319.212	278.31
319.441	302.31
319.67	317.31
319.9	302.31
320.129	286.31
320.358	292.31
320.587	287.31
320.816	316.31
321.046	313.31
321.275	307.31
321.504	317.31
321.733	318.31
321.962	335.31
322.191	327.31
322.42	363.31
322.649	351.31
322.878	359.31
323.108	386.31
323.337	421.31
323.566	423.31
323.795	478.31
324.024	503.31
324.253	629.31
324.482	903.31
324.71	1371.31
324.939	1912.31
325.168	1737.31
325.397	946.31
325.626	616.31
325.855	492.31
326.084	463.31
326.313	442.31
326.542	441.31
326.77	457.31
326.999	551.31
327.228	790.31
327.457	1210.31
327.686	1486.31
327.914	1040.31
328.143	693.31
328.372	567.31
328.6	527.31
328.829	489.31
329.058	505.31
329.287	498.31
329.515	476.31
329.744	422.31
329.972	390.31
330.201	408.31
330.43	438.31
330.658	467.31
330.887	538.31
331.115	511.31
331.344	429.31
331.572	394.31
331.801	392.31
332.03	395.31
332.258	369.31
332.486	340.31
332.715	342.31
332.943	353.31
333.172	334.31
333.4	332.31
333.629	343.31
333.857	344.31
334.085	343.31
334.314	345.31
334.542	332.31
334.771	355.31
334.999	337.31
335.227	342.31
335.455	322.31
335.684	346.31
335.912	321.31
336.14	296.31
336.369	308.31
336.597	332.31
336.825	337.31
337.053	332.31
337.281	330.31
337.51	308.31
337.738	333.31
337.966	334.31
338.194	330.31
338.422	326.31
338.65	319.31
338.878	319.31
339.106	311.31
339.334	329.31
339.562	316.31
339.79	325.31
340.018	301.31
340.246	326.31
340.474	331.31
340.702	329.31
340.93	317.31
341.158	305.31
341.386	318.31
341.614	317.31
341.842	336.31
342.07	338.31
342.298	324.31
342.526	318.31
342.754	327.31
342.981	302.31
343.209	307.31
343.437	305.31
343.665	311.31
343.893	319.31
344.12	329.31
344.348	322.31
344.576	323.31
344.804	317.31
345.031	340.31
345.259	335.31
345.487	344.31
345.714	334.31
345.942	315.31
346.17	310.31
346.397	318.31
346.625	312.31
346.853	340.31
347.08	322.31
347.308	320.31
347.535	327.31
347.763	349.31
347.99	339.31
348.218	351.31
348.445	347.31
348.673	324.31
348.9	356.31
349.128	315.31
349.355	318.31
349.583	297.31
349.81	307.31
350.037	322.31
350.265	310.31
350.492	298.31
350.72	310.31
350.947	309.31
351.174	341.31
351.402	361.31
351.629	328.31
351.856	330.31
352.083	342.31
352.311	349.31
352.538	359.31
352.765	364.31
352.992	346.31
353.22	334.31
353.447	321.31
353.674	324.31
353.901	322.31
354.128	288.31
354.355	301.31
354.583	318.31
354.81	307.31
355.037	297.31
355.264	275.31
355.491	294.31
355.718	280.31
355.945	290.31
356.172	302.31
356.399	287.31
356.626	281.31
356.853	303.31
357.08	294.31
357.307	282.31
357.534	297.31
357.761	308.31
357.988	286.31
358.215	286.31
358.441	297.31
358.668	303.31
358.895	313.31
359.122	301.31
359.349	311.31
359.576	324.31
359.802	357.31
360.029	373.31
360.256	395.31
360.483	376.31
360.709	350.31
360.936	332.31
361.163	330.31
361.39	329.31
361.616	327.31
361.843	354.31
362.07	335.31
362.296	330.31
362.523	305.31
362.749	325.31
362.976	316.31
363.203	301.31
363.429	323.31
363.656	321.31
363.882	299.31
364.109	315.31
364.335	309.31
364.562	311.31
364.788	297.31
365.015	301.31
365.241	329.31
365.468	301.31
365.694	303.31
365.92	338.31
366.147	326.31
366.373	312.31
366.599	303.31
366.826	293.31
367.052	308.31
367.278	289.31
367.505	306.31
367.731	316.31
367.957	315.31
368.184	305.31
368.41	301.31
368.636	321.31
368.862	328.31
369.089	327.31
369.315	311.31
369.541	335.31
369.767	293.31
369.993	313.31
370.219	310.31
370.445	324.31
370.672	312.31
370.898	297.31
371.124	307.31
371.35	299.31
371.576	312.31
371.802	315.31
372.028	299.31
372.254	284.31
372.48	307.31
372.706	280.31
372.932	295.31
373.158	272.31
373.384	289.31
373.61	283.31
373.835	311.31
374.061	317.31
374.287	310.31
374.513	307.31
374.739	313.31
374.965	298.31
375.191	317.31
375.416	305.31
375.642	297.31
375.868	302.31
376.094	310.31
376.319	297.31
376.545	292.31
376.771	289.31
376.997	297.31
377.222	277.31
377.448	293.31
377.674	301.31
377.899	298.31
378.125	301.31
378.35	316.31
378.576	308.31
378.802	305.31
379.027	303.31
379.253	283.31
379.478	299.31
379.704	312.31
379.929	311.31
380.155	308.31
380.38	317.31
380.606	309.31
380.831	312.31
381.057	320.31
381.282	296.31
381.507	313.31
381.733	307.31
381.958	308.31
382.184	320.31
382.409	308.31
382.634	312.31
382.86	312.31
383.085	323.31
383.31	326.31
383.535	302.31
383.761	308.31
383.986	333.31
384.211	309.31
384.436	322.31
384.662	331.31
384.887	314.31
385.112	330.31
385.337	307.31
385.562	313.31
385.787	328.31
386.013	334.31
386.238	331.31
386.463	332.31
386.688	308.31
386.913	317.31
387.138	318.31
387.363	327.31
387.588	325.31
387.813	312.31
388.038	325.31
388.263	319.31
388.488	329.31
388.713	327.31
388.938	326.31
389.163	327.31
389.387	322.31
389.612	316.31
389.837	316.31
390.062	313.31
390.287	331.31
390.512	327.31
390.736	334.31
390.961	326.31
391.186	313.31
391.411	321.31
391.636	314.31
391.86	329.31
392.085	336.31
392.31	345.31
392.534	325.31
392.759	323.31
392.984	335.31
393.208	319.31
393.433	342.31
393.658	366.31
393.882	339.31
394.107	320.31
394.331	321.31
394.556	321.31
394.78	326.31
395.005	320.31
395.229	325.31
395.454	329.31
395.678	346.31
395.903	328.31
396.127	362.31
396.352	396.31
396.576	347.31
396.801	362.31
397.025	332.31
397.249	360.31
397.474	362.31
397.698	355.31
397.922	372.31
398.147	345.31
398.371	371.31
398.595	354.31
398.82	375.31
399.044	358.31
399.268	370.31
399.492	376.31
399.717	378.31
399.941	424.31
400.165	448.31
400.389	462.31
400.613	417.31
400.837	361.31
401.062	379.31
401.286	373.31
401.51	363.31
401.734	371.31
401.958	373.31
402.182	363.31
402.406	394.31
402.63	371.31
402.854	366.31
403.078	383.31
403.302	374.31
403.526	381.31
403.75	383.31
403.974	385.31
404.198	376.31
404.422	378.31
404.645	376.31
404.869	386.31
405.093	387.31
405.317	407.31
405.541	446.31
405.765	424.31
405.988	408.31
406.212	415.31
406.436	428.31
406.66	449.31
406.883	446.31
407.107	462.31
407.331	466.31
407.555	531.31
407.778	516.31
408.002	487.31
408.226	459.31
408.449	435.31
408.673	436.31
408.896	482.31
409.12	501.31
409.344	479.31
409.567	445.31
409.791	411.31
410.014	413.31
410.238	402.31
410.461	390.31
410.685	418.31
410.908	419.31
411.132	436.31
411.355	465.31
411.578	451.31
411.802	408.31
412.025	391.31
412.249	394.31
412.472	394.31
412.695	395.31
412.919	391.31
413.142	379.31
413.365	383.31
413.589	354.31
413.812	367.31
414.035	372.31
414.258	379.31
414.482	354.31
414.705	375.31
414.928	355.31
415.151	363.31
415.374	362.31
415.597	359.31
415.821	380.31
416.044	365.31
416.267	373.31
416.49	375.31
416.713	363.31
416.936	379.31
417.159	371.31
417.382	389.31
417.605	377.31
417.828	380.31
418.051	401.31
418.274	421.31
418.497	386.31
418.72	389.31
418.943	373.31
419.166	383.31
419.389	385.31
419.611	403.31
419.834	400.31
420.057	397.31
420.28	389.31
420.503	398.31
420.726	409.31
420.948	401.31
421.171	445.31
421.394	495.31
421.617	447.31
421.839	403.31
422.062	389.31
422.285	423.31
422.507	488.31
422.73	536.31
422.953	528.31
423.175	445.31
423.398	441.31
423.621	428.31
423.843	445.31
424.066	459.31
424.288	445.31
424.511	466.31
424.733	499.31
424.956	582.31
425.178	549.31
425.401	553.31
425.623	583.31
425.846	508.31
426.068	462.31
426.291	446.31
426.513	435.31
426.735	469.31
426.958	519.31
427.18	581.31
427.402	682.31
427.625	717.31
427.847	693.31
428.069	581.31
428.292	525.31
428.514	478.31
428.736	459.31
428.958	446.31
429.181	433.31
429.403	440.31
429.625	437.31
429.847	466.31
430.069	511.31
430.292	505.31
430.514	451.31
430.736	426.31
430.958	414.31
431.18	381.31
431.402	390.31
431.624	391.31
431.846	389.31
432.068	385.31
432.29	398.31
432.512	405.31
432.734	409.31
432.956	392.31
433.178	420.31
433.4	409.31
433.622	409.31
433.844	389.31
434.066	409.31
434.287	388.31
434.509	395.31
434.731	413.31
434.953	406.31
435.175	423.31
435.397	433.31
435.618	448.31
435.84	505.31
436.062	577.31
436.284	620.31
436.505	550.31
436.727	480.31
436.949	455.31
437.17	437.31
437.392	428.31
437.614	453.31
437.835	482.31
438.057	574.31
438.278	650.31
438.5	672.31
438.721	698.31
438.943	676.31
439.165	553.31
439.386	491.31
439.608	492.31
439.829	500.31
440.05	525.31
440.272	525.31
440.493	509.31
440.715	479.31
440.936	439.31
441.158	434.31
441.379	433.31
441.6	438.31
441.822	466.31
442.043	526.31
442.264	589.31
442.486	627.31
442.707	545.31
442.928	456.31
443.149	463.31
443.371	509.31
443.592	538.31
443.813	619.31
444.034	676.31
444.255	553.31
444.476	471.31
444.698	483.31
444.919	451.31
445.14	542.31
445.361	515.31
445.582	492.31
445.803	576.31
446.024	638.31
446.245	638.31
446.466	586.31
446.687	521.31
446.908	474.31
447.129	460.31
447.35	444.31
447.571	449.31
447.792	466.31
448.013	430.31
448.234	470.31
448.455	505.31
448.675	613.31
448.896	685.31
449.117	598.31
449.338	585.31
449.559	633.31
449.779	725.31
450	599.31
450.221	500.31
450.442	455.31
450.662	445.31
450.883	455.31
451.104	472.31
451.324	454.31
451.545	421.31
451.766	417.31
451.986	407.31
452.207	407.31
452.428	367.31
452.648	392.31
452.869	395.31
453.089	394.31
453.31	411.31
453.53	386.31
453.751	409.31
453.971	401.31
454.192	421.31
454.412	417.31
454.633	395.31
454.853	409.31
455.073	384.31
455.294	412.31
455.514	468.31
455.734	467.31
455.955	407.31
456.175	388.31
456.395	384.31
456.616	375.31
456.836	370.31
457.056	361.31
457.276	360.31
457.497	350.31
457.717	360.31
457.937	356.31
458.157	365.31
458.377	359.31
458.598	386.31
458.818	467.31
459.038	561.31
459.258	532.31
459.478	462.31
459.698	417.31
459.918	394.31
460.138	380.31
460.358	372.31
460.578	393.31
460.798	388.31
461.018	392.31
461.238	375.31
461.458	405.31
461.678	378.31
461.898	377.31
462.118	388.31
462.338	391.31
462.558	403.31
462.777	384.31
462.997	405.31
463.217	391.31
463.437	391.31
463.657	407.31
463.876	401.31
464.096	411.31
464.316	405.31
464.536	428.31
464.755	404.31
464.975	408.31
465.195	485.31
465.414	573.31
465.634	500.31
465.854	434.31
466.073	419.31
466.293	399.31
466.512	403.31
466.732	381.31
466.951	395.31
467.171	375.31
467.391	371.31
467.61	392.31
467.829	401.31
468.049	391.31
468.268	380.31
468.488	378.31
468.707	381.31
468.927	394.31
469.146	373.31
469.365	381.31
469.585	371.31
469.804	399.31
470.023	393.31
470.243	398.31
470.462	418.31
470.681	407.31
470.901	405.31
471.12	392.31
471.339	375.31
471.558	401.31
471.777	412.31
471.997	373.31
472.216	365.31
472.435	405.31
472.654	374.31
472.873	378.31
473.092	392.31
473.311	382.31
473.53	394.31
473.749	405.31
473.968	443.31
474.187	519.31
474.406	553.31
474.625	450.31
474.844	417.31
475.063	401.31
475.282	404.31
475.501	389.31
475.72	395.31
475.939	417.31
476.158	414.31
476.377	409.31
476.596	405.31
476.814	408.31
477.033	410.31
477.252	410.31
477.471	434.31
477.69	413.31
477.908	417.31
478.127	411.31
478.346	422.31
478.564	425.31
478.783	455.31
479.002	449.31
479.22	456.31
479.439	458.31
479.658	483.31
479.876	467.31
480.095	466.31
480.313	504.31
480.532	477.31
480.751	459.31
480.969	452.31
481.188	460.31
481.406	496.31
481.624	483.31
481.843	463.31
482.061	459.31
482.28	468.31
482.498	459.31
482.717	474.31
482.935	472.31
483.153	459.31
483.372	453.31
483.59	481.31
483.808	442.31
484.027	455.31
484.245	465.31
484.463	450.31
484.681	481.31
484.9	454.31
485.118	467.31
485.336	475.31
485.554	502.31
485.772	478.31
485.99	475.31
486.209	488.31
486.427	501.31
486.645	499.31
486.863	521.31
487.081	514.31
487.299	535.31
487.517	529.31
487.735	503.31
487.953	521.31
488.171	487.31
488.389	481.31
488.607	517.31
488.825	525.31
489.043	506.31
489.261	521.31
489.479	521.31
489.696	507.31
489.914	524.31
490.132	548.31
490.35	534.31
490.568	525.31
490.786	521.31
491.003	549.31
491.221	558.31
491.439	555.31
491.657	554.31
491.874	579.31
492.092	579.31
492.31	604.31
492.527	572.31
492.745	581.31
492.963	603.31
493.18	606.31
493.398	575.31
493.615	589.31
493.833	602.31
494.05	602.31
494.268	595.31
494.485	608.31
494.703	585.31
494.92	611.31
495.138	604.31
495.355	601.31
495.573	596.31
495.79	608.31
496.008	598.31
496.225	622.31
496.442	615.31
496.66	613.31
496.877	608.31
497.094	610.31
497.312	597.31
497.529	619.31
497.746	620.31
497.963	634.31
498.181	662.31
498.398	654.31
498.615	655.31
498.832	682.31
499.049	668.31
499.267	655.31
499.484	689.31
499.701	686.31
499.918	695.31
500.135	712.31
500.352	754.31
500.569	737.31
500.786	746.31
501.003	729.31
501.22	715.31
501.437	747.31
501.654	722.31
501.871	723.31
502.088	731.31
