Data from 1987.PennyLincolnUp.Lamp.En5.5.200Scan.071819.P2_HRD10591_17-14-59-971.txt Node
Date: Thu Jul 18 17:14:59 EDT 2019
User: cochatt
Spectrometer: HR+D1059
Trigger mode: 1
Integration Time (sec): 1.000000E-1
Scans to average: 1
Electric dark correction enabled: true
Nonlinearity correction enabled: false
Boxcar width: 0
XAxis mode: Wavelengths
Number of Pixels in Spectrum: 2048
>>>>>Begin Spectral Data<<<<<
223.165	-11.81
223.4	-11.81
223.635	-11.81
223.869	-22.81
224.104	-18.81
224.338	-12.81
224.573	-24.81
224.808	-16.81
225.042	7.19
225.277	-0.81
225.511	-9.81
225.746	3.19
225.98	-4.81
226.215	10.19
226.449	26.19
226.683	30.19
226.918	17.19
227.152	29.19
227.387	29.19
227.621	35.19
227.856	38.19
228.09	40.19
228.324	57.19
228.559	71.19
228.793	100.19
229.027	110.19
229.262	93.19
229.496	133.19
229.73	143.19
229.964	161.19
230.199	140.19
230.433	125.19
230.667	123.19
230.901	130.19
231.136	106.19
231.37	88.19
231.604	116.19
231.838	107.19
232.072	118.19
232.306	112.19
232.541	106.19
232.775	100.19
233.009	120.19
233.243	111.19
233.477	118.19
233.711	120.19
233.945	117.19
234.179	109.19
234.413	117.19
234.647	108.19
234.881	124.19
235.115	97.19
235.349	112.19
235.583	107.19
235.817	124.19
236.051	129.19
236.285	138.19
236.519	117.19
236.753	128.19
236.987	148.19
237.221	180.19
237.455	245.19
237.689	203.19
237.922	140.19
238.156	137.19
238.39	126.19
238.624	116.19
238.858	133.19
239.091	121.19
239.325	122.19
239.559	131.19
239.793	126.19
240.027	120.19
240.26	122.19
240.494	156.19
240.728	165.19
240.961	144.19
241.195	136.19
241.429	132.19
241.662	123.19
241.896	132.19
242.13	121.19
242.363	123.19
242.597	115.19
242.83	142.19
243.064	135.19
243.298	131.19
243.531	132.19
243.765	129.19
243.998	139.19
244.232	136.19
244.465	128.19
244.699	125.19
244.932	126.19
245.166	134.19
245.399	142.19
245.633	151.19
245.866	133.19
246.099	144.19
246.333	137.19
246.566	141.19
246.8	146.19
247.033	151.19
247.266	154.19
247.5	143.19
247.733	160.19
247.966	169.19
248.2	178.19
248.433	168.19
248.666	161.19
248.899	175.19
249.133	208.19
249.366	200.19
249.599	200.19
249.832	174.19
250.066	178.19
250.299	168.19
250.532	180.19
250.765	204.19
250.998	199.19
251.231	228.19
251.465	203.19
251.698	186.19
251.931	190.19
252.164	197.19
252.397	194.19
252.63	201.19
252.863	186.19
253.096	199.19
253.329	207.19
253.562	220.19
253.795	204.19
254.028	207.19
254.261	217.19
254.494	225.19
254.727	243.19
254.96	260.19
255.193	266.19
255.426	243.19
255.659	231.19
255.892	236.19
256.124	215.19
256.357	217.19
256.59	200.19
256.823	175.19
257.056	205.19
257.289	191.19
257.521	194.19
257.754	200.19
257.987	189.19
258.22	193.19
258.452	185.19
258.685	186.19
258.918	195.19
259.151	199.19
259.383	188.19
259.616	214.19
259.849	198.19
260.081	204.19
260.314	239.19
260.547	255.19
260.779	227.19
261.012	209.19
261.244	217.19
261.477	194.19
261.71	206.19
261.942	211.19
262.175	231.19
262.407	233.19
262.64	204.19
262.872	214.19
263.105	216.19
263.337	194.19
263.57	190.19
263.802	207.19
264.035	197.19
264.267	195.19
264.499	184.19
264.732	194.19
264.964	188.19
265.197	190.19
265.429	186.19
265.661	183.19
265.894	186.19
266.126	188.19
266.358	176.19
266.591	190.19
266.823	191.19
267.055	196.19
267.287	208.19
267.52	201.19
267.752	206.19
267.984	207.19
268.216	218.19
268.448	213.19
268.681	205.19
268.913	216.19
269.145	235.19
269.377	239.19
269.609	261.19
269.841	215.19
270.073	231.19
270.306	276.19
270.538	290.19
270.77	288.19
271.002	270.19
271.234	274.19
271.466	273.19
271.698	282.19
271.93	285.19
272.162	275.19
272.394	296.19
272.626	287.19
272.858	278.19
273.09	252.19
273.322	264.19
273.553	236.19
273.785	245.19
274.017	234.19
274.249	231.19
274.481	228.19
274.713	248.19
274.945	255.19
275.176	247.19
275.408	232.19
275.64	238.19
275.872	235.19
276.104	231.19
276.335	242.19
276.567	230.19
276.799	260.19
277.031	300.19
277.262	288.19
277.494	289.19
277.726	238.19
277.957	236.19
278.189	265.19
278.421	239.19
278.652	234.19
278.884	224.19
279.115	237.19
279.347	235.19
279.579	256.19
279.81	216.19
280.042	233.19
280.273	207.19
280.505	221.19
280.736	232.19
280.968	224.19
281.199	215.19
281.431	217.19
281.662	218.19
281.894	226.19
282.125	230.19
282.356	252.19
282.588	282.19
282.819	290.19
283.051	249.19
283.282	207.19
283.513	215.19
283.745	228.19
283.976	233.19
284.207	226.19
284.439	203.19
284.67	220.19
284.901	208.19
285.132	215.19
285.364	238.19
285.595	223.19
285.826	235.19
286.057	217.19
286.288	209.19
286.52	215.19
286.751	221.19
286.982	229.19
287.213	220.19
287.444	228.19
287.675	245.19
287.906	242.19
288.138	258.19
288.369	255.19
288.6	244.19
288.831	250.19
289.062	244.19
289.293	229.19
289.524	224.19
289.755	227.19
289.986	220.19
290.217	227.19
290.448	223.19
290.679	237.19
290.91	227.19
291.141	230.19
291.371	227.19
291.602	215.19
291.833	219.19
292.064	234.19
292.295	230.19
292.526	248.19
292.757	236.19
292.987	229.19
293.218	224.19
293.449	243.19
293.68	245.19
293.91	222.19
294.141	208.19
294.372	217.19
294.603	227.19
294.833	222.19
295.064	245.19
295.295	234.19
295.525	225.19
295.756	242.19
295.987	254.19
296.217	287.19
296.448	289.19
296.679	256.19
296.909	237.19
297.14	235.19
297.37	239.19
297.601	243.19
297.831	235.19
298.062	239.19
298.292	225.19
298.523	230.19
298.753	244.19
298.984	231.19
299.214	242.19
299.445	245.19
299.675	253.19
299.905	245.19
300.136	247.19
300.366	235.19
300.597	240.19
300.827	250.19
301.057	258.19
301.288	277.19
301.518	264.19
301.748	263.19
301.979	264.19
302.209	252.19
302.439	269.19
302.669	260.19
302.9	255.19
303.13	256.19
303.36	263.19
303.59	283.19
303.82	281.19
304.051	263.19
304.281	248.19
304.511	269.19
304.741	270.19
304.971	260.19
305.201	252.19
305.431	262.19
305.661	247.19
305.891	240.19
306.121	265.19
306.352	262.19
306.582	266.19
306.812	259.19
307.042	263.19
307.272	265.19
307.502	279.19
307.731	265.19
307.961	274.19
308.191	255.19
308.421	262.19
308.651	261.19
308.881	278.19
309.111	283.19
309.341	278.19
309.571	298.19
309.8	304.19
310.03	332.19
310.26	336.19
310.49	331.19
310.72	322.19
310.949	367.19
311.179	367.19
311.409	327.19
311.639	344.19
311.868	340.19
312.098	349.19
312.328	353.19
312.557	355.19
312.787	371.19
313.017	371.19
313.246	357.19
313.476	344.19
313.706	312.19
313.935	336.19
314.165	335.19
314.394	344.19
314.624	349.19
314.853	361.19
315.083	316.19
315.312	315.19
315.542	300.19
315.771	319.19
316.001	298.19
316.23	318.19
316.46	301.19
316.689	314.19
316.919	339.19
317.148	312.19
317.377	331.19
317.607	310.19
317.836	317.19
318.065	313.19
318.295	302.19
318.524	307.19
318.753	320.19
318.983	322.19
319.212	337.19
319.441	314.19
319.67	339.19
319.9	324.19
320.129	318.19
320.358	323.19
320.587	334.19
320.816	348.19
321.046	339.19
321.275	355.19
321.504	344.19
321.733	339.19
321.962	365.19
322.191	362.19
322.42	388.19
322.649	436.19
322.878	434.19
323.108	439.19
323.337	466.19
323.566	512.19
323.795	570.19
324.024	608.19
324.253	777.19
324.482	1114.19
324.71	1676.19
324.939	2357.19
325.168	2059.19
325.397	1147.19
325.626	770.19
325.855	598.19
326.084	546.19
326.313	519.19
326.542	546.19
326.77	599.19
326.999	712.19
327.228	926.19
327.457	1466.19
327.686	1747.19
327.914	1235.19
328.143	821.19
328.372	699.19
328.6	637.19
328.829	583.19
329.058	602.19
329.287	616.19
329.515	568.19
329.744	494.19
329.972	485.19
330.201	503.19
330.43	533.19
330.658	570.19
330.887	597.19
331.115	588.19
331.344	492.19
331.572	461.19
331.801	459.19
332.03	463.19
332.258	414.19
332.486	412.19
332.715	367.19
332.943	368.19
333.172	377.19
333.4	386.19
333.629	363.19
333.857	389.19
334.085	372.19
334.314	378.19
334.542	386.19
334.771	406.19
334.999	373.19
335.227	356.19
335.455	356.19
335.684	355.19
335.912	365.19
336.14	359.19
336.369	362.19
336.597	356.19
336.825	381.19
337.053	363.19
337.281	368.19
337.51	363.19
337.738	349.19
337.966	347.19
338.194	375.19
338.422	389.19
338.65	357.19
338.878	365.19
339.106	356.19
339.334	338.19
339.562	346.19
339.79	363.19
340.018	353.19
340.246	364.19
340.474	362.19
340.702	367.19
340.93	351.19
341.158	367.19
341.386	356.19
341.614	367.19
341.842	353.19
342.07	341.19
342.298	357.19
342.526	353.19
342.754	323.19
342.981	340.19
343.209	337.19
343.437	333.19
343.665	336.19
343.893	345.19
344.12	334.19
344.348	343.19
344.576	347.19
344.804	359.19
345.031	383.19
345.259	382.19
345.487	377.19
345.714	368.19
345.942	359.19
346.17	360.19
346.397	347.19
346.625	351.19
346.853	360.19
347.08	363.19
347.308	341.19
347.535	363.19
347.763	390.19
347.99	386.19
348.218	358.19
348.445	388.19
348.673	382.19
348.9	356.19
349.128	349.19
349.355	352.19
349.583	341.19
349.81	355.19
350.037	332.19
350.265	355.19
350.492	344.19
350.72	342.19
350.947	341.19
351.174	369.19
351.402	367.19
351.629	365.19
351.856	374.19
352.083	379.19
352.311	403.19
352.538	386.19
352.765	376.19
352.992	387.19
353.22	381.19
353.447	375.19
353.674	374.19
353.901	334.19
354.128	336.19
354.355	327.19
354.583	346.19
354.81	330.19
355.037	334.19
355.264	323.19
355.491	321.19
355.718	322.19
355.945	309.19
356.172	331.19
356.399	329.19
356.626	316.19
356.853	319.19
357.08	328.19
357.307	335.19
357.534	321.19
357.761	318.19
357.988	315.19
358.215	316.19
358.441	324.19
358.668	316.19
358.895	322.19
359.122	335.19
359.349	351.19
359.576	380.19
359.802	394.19
360.029	440.19
360.256	478.19
360.483	448.19
360.709	378.19
360.936	368.19
361.163	357.19
361.39	384.19
361.616	352.19
361.843	370.19
362.07	364.19
362.296	367.19
362.523	355.19
362.749	363.19
362.976	362.19
363.203	345.19
363.429	346.19
363.656	334.19
363.882	335.19
364.109	331.19
364.335	340.19
364.562	347.19
364.788	344.19
365.015	322.19
365.241	330.19
365.468	321.19
365.694	332.19
365.92	346.19
366.147	343.19
366.373	343.19
366.599	336.19
366.826	350.19
367.052	307.19
367.278	354.19
367.505	311.19
367.731	321.19
367.957	323.19
368.184	346.19
368.41	351.19
368.636	359.19
368.862	358.19
369.089	342.19
369.315	318.19
369.541	336.19
369.767	346.19
369.993	338.19
370.219	315.19
370.445	342.19
370.672	322.19
370.898	319.19
371.124	330.19
371.35	330.19
371.576	312.19
371.802	310.19
372.028	320.19
372.254	325.19
372.48	330.19
372.706	293.19
372.932	324.19
373.158	303.19
373.384	318.19
373.61	315.19
373.835	326.19
374.061	336.19
374.287	307.19
374.513	318.19
374.739	325.19
374.965	335.19
375.191	313.19
375.416	321.19
375.642	317.19
375.868	337.19
376.094	313.19
376.319	304.19
376.545	319.19
376.771	333.19
376.997	319.19
377.222	324.19
377.448	320.19
377.674	311.19
377.899	316.19
378.125	326.19
378.35	322.19
378.576	336.19
378.802	315.19
379.027	320.19
379.253	314.19
379.478	324.19
379.704	315.19
379.929	348.19
380.155	331.19
380.38	328.19
380.606	331.19
380.831	345.19
381.057	328.19
381.282	311.19
381.507	316.19
381.733	318.19
381.958	327.19
382.184	346.19
382.409	335.19
382.634	318.19
382.86	306.19
383.085	311.19
383.31	310.19
383.535	319.19
383.761	315.19
383.986	335.19
384.211	340.19
384.436	323.19
384.662	328.19
384.887	332.19
385.112	342.19
385.337	343.19
385.562	347.19
385.787	333.19
386.013	362.19
386.238	356.19
386.463	362.19
386.688	343.19
386.913	310.19
387.138	342.19
387.363	334.19
387.588	326.19
387.813	360.19
388.038	342.19
388.263	336.19
388.488	355.19
388.713	331.19
388.938	338.19
389.163	351.19
389.387	341.19
389.612	338.19
389.837	350.19
390.062	340.19
390.287	340.19
390.512	343.19
390.736	335.19
390.961	341.19
391.186	356.19
391.411	345.19
391.636	339.19
391.86	359.19
392.085	340.19
392.31	346.19
392.534	349.19
392.759	336.19
392.984	354.19
393.208	334.19
393.433	334.19
393.658	343.19
393.882	339.19
394.107	349.19
394.331	332.19
394.556	334.19
394.78	326.19
395.005	351.19
395.229	346.19
395.454	336.19
395.678	358.19
395.903	351.19
396.127	383.19
396.352	384.19
396.576	359.19
396.801	360.19
397.025	372.19
397.249	348.19
397.474	346.19
397.698	344.19
397.922	376.19
398.147	388.19
398.371	387.19
398.595	382.19
398.82	363.19
399.044	398.19
399.268	392.19
399.492	400.19
399.717	410.19
399.941	423.19
400.165	458.19
400.389	475.19
400.613	438.19
400.837	406.19
401.062	421.19
401.286	397.19
401.51	390.19
401.734	383.19
401.958	399.19
402.182	394.19
402.406	407.19
402.63	408.19
402.854	414.19
403.078	419.19
403.302	406.19
403.526	404.19
403.75	398.19
403.974	408.19
404.198	380.19
404.422	412.19
404.645	400.19
404.869	430.19
405.093	420.19
405.317	453.19
405.541	484.19
405.765	442.19
405.988	436.19
406.212	445.19
406.436	482.19
406.66	479.19
406.883	486.19
407.107	481.19
407.331	521.19
407.555	555.19
407.778	557.19
408.002	503.19
408.226	458.19
408.449	464.19
408.673	491.19
408.896	487.19
409.12	548.19
409.344	508.19
409.567	452.19
409.791	414.19
410.014	398.19
410.238	415.19
410.461	423.19
410.685	419.19
410.908	446.19
411.132	463.19
411.355	502.19
411.578	466.19
411.802	438.19
412.025	423.19
412.249	397.19
412.472	447.19
412.695	420.19
412.919	420.19
413.142	393.19
413.365	408.19
413.589	384.19
413.812	383.19
414.035	392.19
414.258	390.19
414.482	392.19
414.705	380.19
414.928	405.19
415.151	390.19
415.374	375.19
415.597	380.19
415.821	384.19
416.044	396.19
416.267	400.19
416.49	404.19
416.713	390.19
416.936	391.19
417.159	383.19
417.382	399.19
417.605	430.19
417.828	420.19
418.051	424.19
418.274	424.19
418.497	398.19
418.72	410.19
418.943	390.19
419.166	395.19
419.389	416.19
419.611	416.19
419.834	405.19
420.057	413.19
420.28	440.19
420.503	421.19
420.726	420.19
420.948	462.19
421.171	474.19
421.394	494.19
421.617	463.19
421.839	430.19
422.062	429.19
422.285	436.19
422.507	498.19
422.73	579.19
422.953	551.19
423.175	480.19
423.398	452.19
423.621	438.19
423.843	466.19
424.066	485.19
424.288	465.19
424.511	502.19
424.733	555.19
424.956	598.19
425.178	614.19
425.401	622.19
425.623	621.19
425.846	522.19
426.068	495.19
426.291	502.19
426.513	490.19
426.735	516.19
426.958	534.19
427.18	628.19
427.402	733.19
427.625	800.19
427.847	734.19
428.069	635.19
428.292	538.19
428.514	512.19
428.736	468.19
428.958	493.19
429.181	477.19
429.403	465.19
429.625	471.19
429.847	495.19
430.069	582.19
430.292	581.19
430.514	476.19
430.736	453.19
430.958	470.19
431.18	430.19
431.402	447.19
431.624	430.19
431.846	396.19
432.068	421.19
432.29	400.19
432.512	403.19
432.734	427.19
432.956	427.19
433.178	429.19
433.4	443.19
433.622	428.19
433.844	405.19
434.066	408.19
434.287	428.19
434.509	427.19
434.731	427.19
434.953	439.19
435.175	473.19
435.397	478.19
435.618	500.19
435.84	538.19
436.062	622.19
436.284	689.19
436.505	576.19
436.727	525.19
436.949	485.19
437.17	471.19
437.392	467.19
437.614	482.19
437.835	538.19
438.057	632.19
438.278	745.19
438.5	710.19
438.721	735.19
438.943	730.19
439.165	580.19
439.386	539.19
439.608	517.19
439.829	548.19
440.05	534.19
440.272	597.19
440.493	581.19
440.715	506.19
440.936	498.19
441.158	478.19
441.379	463.19
441.6	489.19
441.822	503.19
442.043	553.19
442.264	612.19
442.486	675.19
442.707	578.19
442.928	532.19
443.149	552.19
443.371	542.19
443.592	563.19
443.813	642.19
444.034	677.19
444.255	588.19
444.476	528.19
444.698	512.19
444.919	492.19
445.14	566.19
445.361	552.19
445.582	544.19
445.803	584.19
446.024	675.19
446.245	729.19
446.466	659.19
446.687	568.19
446.908	523.19
447.129	474.19
447.35	476.19
447.571	476.19
447.792	467.19
448.013	493.19
448.234	502.19
448.455	532.19
448.675	636.19
448.896	716.19
449.117	646.19
449.338	619.19
449.559	692.19
449.779	779.19
450	645.19
450.221	551.19
450.442	499.19
450.662	493.19
450.883	512.19
451.104	537.19
451.324	474.19
451.545	459.19
451.766	450.19
451.986	436.19
452.207	413.19
452.428	423.19
452.648	427.19
452.869	428.19
453.089	432.19
453.31	445.19
453.53	441.19
453.751	438.19
453.971	424.19
454.192	443.19
454.412	466.19
454.633	441.19
454.853	425.19
455.073	410.19
455.294	445.19
455.514	502.19
455.734	495.19
455.955	420.19
456.175	405.19
456.395	392.19
456.616	387.19
456.836	377.19
457.056	382.19
457.276	366.19
457.497	382.19
457.717	378.19
457.937	374.19
458.157	399.19
458.377	390.19
458.598	438.19
458.818	486.19
459.038	603.19
459.258	600.19
459.478	515.19
459.698	466.19
459.918	428.19
460.138	418.19
460.358	429.19
460.578	388.19
460.798	429.19
461.018	422.19
461.238	406.19
461.458	397.19
461.678	412.19
461.898	430.19
462.118	416.19
462.338	416.19
462.558	408.19
462.777	409.19
462.997	426.19
463.217	413.19
463.437	429.19
463.657	409.19
463.876	425.19
464.096	427.19
464.316	419.19
464.536	446.19
464.755	457.19
464.975	466.19
465.195	510.19
465.414	622.19
465.634	569.19
465.854	499.19
466.073	447.19
466.293	436.19
466.512	424.19
466.732	423.19
466.951	400.19
467.171	403.19
467.391	423.19
467.61	443.19
467.829	455.19
468.049	432.19
468.268	420.19
468.488	409.19
468.707	405.19
468.927	384.19
469.146	382.19
469.365	408.19
469.585	386.19
469.804	414.19
470.023	428.19
470.243	448.19
470.462	455.19
470.681	459.19
470.901	444.19
471.12	431.19
471.339	428.19
471.558	421.19
471.777	426.19
471.997	395.19
472.216	415.19
472.435	420.19
472.654	418.19
472.873	416.19
473.092	391.19
473.311	423.19
473.53	414.19
473.749	414.19
473.968	485.19
474.187	568.19
474.406	623.19
474.625	463.19
474.844	446.19
475.063	428.19
475.282	445.19
475.501	425.19
475.72	436.19
475.939	448.19
476.158	410.19
476.377	413.19
476.596	425.19
476.814	447.19
477.033	450.19
477.252	457.19
477.471	442.19
477.69	434.19
477.908	440.19
478.127	427.19
478.346	449.19
478.564	460.19
478.783	451.19
479.002	454.19
479.22	469.19
479.439	491.19
479.658	532.19
479.876	522.19
480.095	518.19
480.313	531.19
480.532	523.19
480.751	509.19
480.969	503.19
481.188	491.19
481.406	525.19
481.624	502.19
481.843	503.19
482.061	491.19
482.28	495.19
482.498	489.19
482.717	494.19
482.935	480.19
483.153	465.19
483.372	491.19
483.59	495.19
483.808	485.19
484.027	494.19
484.245	518.19
484.463	515.19
484.681	518.19
484.9	499.19
485.118	506.19
485.336	534.19
485.554	514.19
485.772	532.19
485.99	508.19
486.209	528.19
486.427	508.19
486.645	558.19
486.863	538.19
487.081	579.19
487.299	558.19
487.517	558.19
487.735	517.19
487.953	545.19
488.171	523.19
488.389	546.19
488.607	555.19
488.825	531.19
489.043	519.19
489.261	545.19
489.479	544.19
489.696	552.19
489.914	550.19
490.132	563.19
490.35	562.19
490.568	565.19
490.786	562.19
491.003	555.19
491.221	591.19
491.439	599.19
491.657	606.19
491.874	600.19
492.092	623.19
492.31	626.19
492.527	602.19
492.745	634.19
492.963	609.19
493.18	636.19
493.398	621.19
493.615	616.19
493.833	667.19
494.05	660.19
494.268	646.19
494.485	661.19
494.703	654.19
494.92	654.19
495.138	626.19
495.355	649.19
495.573	631.19
495.79	658.19
496.008	634.19
496.225	634.19
496.442	646.19
496.66	635.19
496.877	650.19
497.094	650.19
497.312	648.19
497.529	647.19
497.746	658.19
497.963	666.19
498.181	730.19
498.398	715.19
498.615	690.19
498.832	700.19
499.049	711.19
499.267	716.19
499.484	713.19
499.701	720.19
499.918	736.19
500.135	732.19
500.352	758.19
500.569	771.19
500.786	755.19
501.003	763.19
501.22	759.19
501.437	741.19
501.654	754.19
501.871	756.19
