Data from 1987.PennyLincolnUp.Lamp.En5.5.200Scan.071819.P2_HRD10591_17-16-37-972.txt Node
Date: Thu Jul 18 17:16:37 EDT 2019
User: cochatt
Spectrometer: HR+D1059
Trigger mode: 1
Integration Time (sec): 1.000000E-1
Scans to average: 1
Electric dark correction enabled: true
Nonlinearity correction enabled: false
Boxcar width: 0
XAxis mode: Wavelengths
Number of Pixels in Spectrum: 2048
>>>>>Begin Spectral Data<<<<<
223.165	-10.31
223.4	-10.31
223.635	-10.31
223.869	-23.31
224.104	-17.31
224.338	-18.31
224.573	-17.31
224.808	-6.31
225.042	-23.31
225.277	-19.31
225.511	-0.31
225.746	0.69
225.98	7.69
226.215	15.69
226.449	28.69
226.683	26.69
226.918	27.69
227.152	28.69
227.387	27.69
227.621	45.69
227.856	53.69
228.09	58.69
228.324	50.69
228.559	51.69
228.793	68.69
229.027	105.69
229.262	112.69
229.496	127.69
229.73	149.69
229.964	173.69
230.199	137.69
230.433	120.69
230.667	124.69
230.901	133.69
231.136	123.69
231.37	112.69
231.604	128.69
231.838	112.69
232.072	121.69
232.306	116.69
232.541	93.69
232.775	105.69
233.009	110.69
233.243	112.69
233.477	106.69
233.711	112.69
233.945	109.69
234.179	112.69
234.413	120.69
234.647	121.69
234.881	118.69
235.115	99.69
235.349	120.69
235.583	125.69
235.817	135.69
236.051	128.69
236.285	134.69
236.519	120.69
236.753	139.69
236.987	163.69
237.221	201.69
237.455	261.69
237.689	221.69
237.922	148.69
238.156	150.69
238.39	145.69
238.624	135.69
238.858	125.69
239.091	124.69
239.325	126.69
239.559	138.69
239.793	124.69
240.027	126.69
240.26	149.69
240.494	164.69
240.728	155.69
240.961	157.69
241.195	157.69
241.429	140.69
241.662	141.69
241.896	131.69
242.13	134.69
242.363	136.69
242.597	138.69
242.83	134.69
243.064	136.69
243.298	141.69
243.531	149.69
243.765	141.69
243.998	140.69
244.232	134.69
244.465	140.69
244.699	147.69
244.932	144.69
245.166	120.69
245.399	132.69
245.633	152.69
245.866	132.69
246.099	138.69
246.333	134.69
246.566	141.69
246.8	144.69
247.033	156.69
247.266	149.69
247.5	162.69
247.733	158.69
247.966	171.69
248.2	161.69
248.433	172.69
248.666	166.69
248.899	192.69
249.133	202.69
249.366	210.69
249.599	187.69
249.832	178.69
250.066	196.69
250.299	164.69
250.532	187.69
250.765	213.69
250.998	215.69
251.231	240.69
251.465	233.69
251.698	206.69
251.931	214.69
252.164	181.69
252.397	182.69
252.63	202.69
252.863	221.69
253.096	233.69
253.329	227.69
253.562	226.69
253.795	221.69
254.028	228.69
254.261	231.69
254.494	259.69
254.727	271.69
254.96	296.69
255.193	289.69
255.426	270.69
255.659	250.69
255.892	209.69
256.124	225.69
256.357	217.69
256.59	206.69
256.823	202.69
257.056	190.69
257.289	209.69
257.521	196.69
257.754	212.69
257.987	211.69
258.22	211.69
258.452	196.69
258.685	195.69
258.918	190.69
259.151	204.69
259.383	189.69
259.616	208.69
259.849	212.69
260.081	229.69
260.314	243.69
260.547	245.69
260.779	252.69
261.012	256.69
261.244	234.69
261.477	228.69
261.71	218.69
261.942	240.69
262.175	245.69
262.407	228.69
262.64	200.69
262.872	190.69
263.105	206.69
263.337	209.69
263.57	191.69
263.802	191.69
264.035	201.69
264.267	192.69
264.499	212.69
264.732	198.69
264.964	204.69
265.197	190.69
265.429	197.69
265.661	173.69
265.894	211.69
266.126	200.69
266.358	203.69
266.591	197.69
266.823	196.69
267.055	228.69
267.287	221.69
267.52	212.69
267.752	207.69
267.984	200.69
268.216	209.69
268.448	226.69
268.681	241.69
268.913	221.69
269.145	247.69
269.377	274.69
269.609	270.69
269.841	276.69
270.073	261.69
270.306	286.69
270.538	308.69
270.77	300.69
271.002	296.69
271.234	292.69
271.466	284.69
271.698	305.69
271.93	306.69
272.162	324.69
272.394	313.69
272.626	292.69
272.858	290.69
273.09	286.69
273.322	253.69
273.553	245.69
273.785	233.69
274.017	250.69
274.249	243.69
274.481	246.69
274.713	249.69
274.945	229.69
275.176	240.69
275.408	237.69
275.64	238.69
275.872	242.69
276.104	233.69
276.335	229.69
276.567	262.69
276.799	279.69
277.031	306.69
277.262	308.69
277.494	316.69
277.726	289.69
277.957	262.69
278.189	246.69
278.421	253.69
278.652	250.69
278.884	250.69
279.115	236.69
279.347	237.69
279.579	234.69
279.81	236.69
280.042	235.69
280.273	214.69
280.505	221.69
280.736	209.69
280.968	246.69
281.199	229.69
281.431	243.69
281.662	229.69
281.894	237.69
282.125	229.69
282.356	243.69
282.588	299.69
282.819	292.69
283.051	258.69
283.282	237.69
283.513	255.69
283.745	234.69
283.976	245.69
284.207	234.69
284.439	241.69
284.67	226.69
284.901	235.69
285.132	232.69
285.364	240.69
285.595	228.69
285.826	217.69
286.057	236.69
286.288	231.69
286.52	231.69
286.751	222.69
286.982	251.69
287.213	244.69
287.444	236.69
287.675	252.69
287.906	253.69
288.138	252.69
288.369	257.69
288.6	263.69
288.831	258.69
289.062	249.69
289.293	251.69
289.524	240.69
289.755	251.69
289.986	240.69
290.217	250.69
290.448	240.69
290.679	244.69
290.91	219.69
291.141	226.69
291.371	254.69
291.602	234.69
291.833	254.69
292.064	246.69
292.295	224.69
292.526	254.69
292.757	245.69
292.987	239.69
293.218	227.69
293.449	218.69
293.68	233.69
293.91	236.69
294.141	256.69
294.372	237.69
294.603	235.69
294.833	242.69
295.064	256.69
295.295	241.69
295.525	260.69
295.756	229.69
295.987	249.69
296.217	303.69
296.448	302.69
296.679	272.69
296.909	245.69
297.14	258.69
297.37	244.69
297.601	240.69
297.831	243.69
298.062	265.69
298.292	259.69
298.523	246.69
298.753	256.69
298.984	257.69
299.214	243.69
299.445	260.69
299.675	266.69
299.905	267.69
300.136	259.69
300.366	246.69
300.597	241.69
300.827	259.69
301.057	277.69
301.288	275.69
301.518	261.69
301.748	275.69
301.979	282.69
302.209	264.69
302.439	275.69
302.669	285.69
302.9	261.69
303.13	273.69
303.36	276.69
303.59	279.69
303.82	290.69
304.051	293.69
304.281	278.69
304.511	264.69
304.741	270.69
304.971	269.69
305.201	268.69
305.431	262.69
305.661	285.69
305.891	259.69
306.121	283.69
306.352	285.69
306.582	285.69
306.812	307.69
307.042	270.69
307.272	286.69
307.502	297.69
307.731	282.69
307.961	284.69
308.191	276.69
308.421	282.69
308.651	262.69
308.881	287.69
309.111	320.69
309.341	294.69
309.571	325.69
309.8	352.69
310.03	348.69
310.26	346.69
310.49	342.69
310.72	346.69
310.949	380.69
311.179	388.69
311.409	360.69
311.639	359.69
311.868	361.69
312.098	370.69
312.328	362.69
312.557	373.69
312.787	408.69
313.017	411.69
313.246	370.69
313.476	340.69
313.706	340.69
313.935	358.69
314.165	372.69
314.394	398.69
314.624	386.69
314.853	375.69
315.083	348.69
315.312	345.69
315.542	321.69
315.771	346.69
316.001	333.69
316.23	329.69
316.46	334.69
316.689	319.69
316.919	330.69
317.148	374.69
317.377	352.69
317.607	347.69
317.836	338.69
318.065	342.69
318.295	337.69
318.524	337.69
318.753	328.69
318.983	314.69
319.212	331.69
319.441	370.69
319.67	348.69
319.9	357.69
320.129	343.69
320.358	357.69
320.587	357.69
320.816	366.69
321.046	377.69
321.275	386.69
321.504	392.69
321.733	398.69
321.962	398.69
322.191	428.69
322.42	430.69
322.649	449.69
322.878	489.69
323.108	475.69
323.337	524.69
323.566	577.69
323.795	610.69
324.024	694.69
324.253	846.69
324.482	1296.69
324.71	2042.69
324.939	2861.69
325.168	2446.69
325.397	1308.69
325.626	852.69
325.855	680.69
326.084	569.69
326.313	560.69
326.542	571.69
326.77	628.69
326.999	774.69
327.228	1104.69
327.457	1728.69
327.686	2130.69
327.914	1434.69
328.143	945.69
328.372	739.69
328.6	708.69
328.829	663.69
329.058	684.69
329.287	694.69
329.515	606.69
329.744	524.69
329.972	501.69
330.201	531.69
330.43	556.69
330.658	609.69
330.887	718.69
331.115	676.69
331.344	523.69
331.572	500.69
331.801	505.69
332.03	487.69
332.258	450.69
332.486	440.69
332.715	426.69
332.943	401.69
333.172	423.69
333.4	396.69
333.629	408.69
333.857	408.69
334.085	416.69
334.314	394.69
334.542	432.69
334.771	424.69
334.999	405.69
335.227	401.69
335.455	384.69
335.684	378.69
335.912	377.69
336.14	388.69
336.369	373.69
336.597	390.69
336.825	395.69
337.053	392.69
337.281	387.69
337.51	379.69
337.738	388.69
337.966	379.69
338.194	387.69
338.422	384.69
338.65	378.69
338.878	374.69
339.106	377.69
339.334	386.69
339.562	360.69
339.79	369.69
340.018	374.69
340.246	388.69
340.474	409.69
340.702	396.69
340.93	399.69
341.158	363.69
341.386	376.69
341.614	400.69
341.842	399.69
342.07	368.69
342.298	390.69
342.526	376.69
342.754	375.69
342.981	343.69
343.209	350.69
343.437	365.69
343.665	361.69
343.893	361.69
344.12	350.69
344.348	360.69
344.576	369.69
344.804	394.69
345.031	408.69
345.259	452.69
345.487	400.69
345.714	410.69
345.942	378.69
346.17	386.69
346.397	372.69
346.625	345.69
346.853	382.69
347.08	389.69
347.308	392.69
347.535	393.69
347.763	411.69
347.99	404.69
348.218	402.69
348.445	409.69
348.673	389.69
348.9	386.69
349.128	375.69
349.355	370.69
349.583	363.69
349.81	349.69
350.037	342.69
350.265	361.69
350.492	372.69
350.72	360.69
350.947	390.69
351.174	408.69
351.402	421.69
351.629	386.69
351.856	412.69
352.083	389.69
352.311	437.69
352.538	415.69
352.765	418.69
352.992	383.69
353.22	413.69
353.447	382.69
353.674	372.69
353.901	369.69
354.128	368.69
354.355	331.69
354.583	338.69
354.81	342.69
355.037	326.69
355.264	339.69
355.491	318.69
355.718	333.69
355.945	316.69
356.172	328.69
356.399	326.69
356.626	338.69
356.853	325.69
357.08	336.69
357.307	346.69
357.534	338.69
357.761	316.69
357.988	333.69
358.215	332.69
358.441	344.69
358.668	345.69
358.895	356.69
359.122	349.69
359.349	374.69
359.576	373.69
359.802	427.69
360.029	474.69
360.256	498.69
360.483	456.69
360.709	427.69
360.936	384.69
361.163	387.69
361.39	402.69
361.616	372.69
361.843	380.69
362.07	384.69
362.296	402.69
362.523	387.69
362.749	380.69
362.976	377.69
363.203	372.69
363.429	337.69
363.656	338.69
363.882	365.69
364.109	347.69
364.335	349.69
364.562	364.69
364.788	359.69
365.015	354.69
365.241	340.69
365.468	369.69
365.694	376.69
365.92	382.69
366.147	357.69
366.373	344.69
366.599	359.69
366.826	353.69
367.052	346.69
367.278	332.69
367.505	364.69
367.731	359.69
367.957	368.69
368.184	363.69
368.41	358.69
368.636	363.69
368.862	377.69
369.089	357.69
369.315	338.69
369.541	336.69
369.767	336.69
369.993	344.69
370.219	352.69
370.445	348.69
370.672	347.69
370.898	330.69
371.124	317.69
371.35	349.69
371.576	323.69
371.802	338.69
372.028	329.69
372.254	321.69
372.48	341.69
372.706	341.69
372.932	341.69
373.158	339.69
373.384	325.69
373.61	328.69
373.835	327.69
374.061	353.69
374.287	339.69
374.513	348.69
374.739	332.69
374.965	318.69
375.191	345.69
375.416	339.69
375.642	345.69
375.868	330.69
376.094	329.69
376.319	340.69
376.545	334.69
376.771	329.69
376.997	343.69
377.222	329.69
377.448	314.69
377.674	329.69
377.899	310.69
378.125	315.69
378.35	332.69
378.576	323.69
378.802	330.69
379.027	337.69
379.253	332.69
379.478	318.69
379.704	319.69
379.929	316.69
380.155	324.69
380.38	331.69
380.606	324.69
380.831	346.69
381.057	346.69
381.282	333.69
381.507	342.69
381.733	344.69
381.958	336.69
382.184	313.69
382.409	354.69
382.634	349.69
382.86	347.69
383.085	342.69
383.31	334.69
383.535	353.69
383.761	334.69
383.986	337.69
384.211	344.69
384.436	353.69
384.662	353.69
384.887	355.69
385.112	343.69
385.337	350.69
385.562	356.69
385.787	348.69
386.013	357.69
386.238	379.69
386.463	382.69
386.688	362.69
386.913	354.69
387.138	372.69
387.363	356.69
387.588	346.69
387.813	357.69
388.038	345.69
388.263	358.69
388.488	329.69
388.713	362.69
388.938	348.69
389.163	342.69
389.387	343.69
389.612	350.69
389.837	345.69
390.062	348.69
390.287	337.69
390.512	339.69
390.736	354.69
390.961	346.69
391.186	338.69
391.411	340.69
391.636	357.69
391.86	351.69
392.085	349.69
392.31	366.69
392.534	374.69
392.759	361.69
392.984	366.69
393.208	345.69
393.433	347.69
393.658	363.69
393.882	371.69
394.107	366.69
394.331	364.69
394.556	333.69
394.78	365.69
395.005	350.69
395.229	358.69
395.454	363.69
395.678	372.69
395.903	374.69
396.127	404.69
396.352	406.69
396.576	401.69
396.801	378.69
397.025	374.69
397.249	371.69
397.474	392.69
397.698	400.69
397.922	391.69
398.147	392.69
398.371	412.69
398.595	398.69
398.82	414.69
399.044	405.69
399.268	400.69
399.492	401.69
399.717	427.69
399.941	474.69
400.165	485.69
400.389	494.69
400.613	488.69
400.837	419.69
401.062	408.69
401.286	398.69
401.51	406.69
401.734	393.69
401.958	406.69
402.182	408.69
402.406	411.69
402.63	428.69
402.854	430.69
403.078	431.69
403.302	439.69
403.526	453.69
403.75	430.69
403.974	421.69
404.198	408.69
404.422	409.69
404.645	427.69
404.869	426.69
405.093	448.69
405.317	489.69
405.541	501.69
405.765	459.69
405.988	483.69
406.212	465.69
406.436	502.69
406.66	534.69
406.883	490.69
407.107	511.69
407.331	546.69
407.555	603.69
407.778	592.69
408.002	550.69
408.226	507.69
408.449	479.69
408.673	505.69
408.896	510.69
409.12	550.69
409.344	535.69
409.567	463.69
409.791	453.69
410.014	451.69
410.238	443.69
410.461	440.69
410.685	445.69
410.908	474.69
411.132	489.69
411.355	524.69
411.578	500.69
411.802	447.69
412.025	435.69
412.249	428.69
412.472	449.69
412.695	457.69
412.919	428.69
413.142	418.69
413.365	417.69
413.589	422.69
413.812	420.69
414.035	410.69
414.258	412.69
414.482	416.69
414.705	389.69
414.928	404.69
415.151	395.69
415.374	394.69
415.597	409.69
415.821	387.69
416.044	413.69
416.267	416.69
416.49	399.69
416.713	405.69
416.936	416.69
417.159	394.69
417.382	438.69
417.605	422.69
417.828	426.69
418.051	446.69
418.274	448.69
418.497	426.69
418.72	402.69
418.943	418.69
419.166	426.69
419.389	450.69
419.611	457.69
419.834	446.69
420.057	435.69
420.28	417.69
420.503	419.69
420.726	439.69
420.948	430.69
421.171	501.69
421.394	547.69
421.617	486.69
421.839	454.69
422.062	472.69
422.285	474.69
422.507	531.69
422.73	606.69
422.953	587.69
423.175	509.69
423.398	477.69
423.621	482.69
423.843	487.69
424.066	499.69
424.288	500.69
424.511	499.69
424.733	571.69
424.956	653.69
425.178	641.69
425.401	646.69
425.623	651.69
425.846	554.69
426.068	518.69
426.291	531.69
426.513	532.69
426.735	541.69
426.958	570.69
427.18	652.69
427.402	780.69
427.625	894.69
427.847	830.69
428.069	685.69
428.292	593.69
428.514	538.69
428.736	505.69
428.958	498.69
429.181	474.69
429.403	470.69
429.625	498.69
429.847	551.69
430.069	602.69
430.292	595.69
430.514	534.69
430.736	471.69
430.958	465.69
431.18	436.69
431.402	463.69
431.624	453.69
431.846	435.69
432.068	427.69
432.29	453.69
432.512	417.69
432.734	445.69
432.956	434.69
433.178	441.69
433.4	477.69
433.622	458.69
433.844	456.69
434.066	436.69
434.287	441.69
434.509	435.69
434.731	428.69
434.953	444.69
435.175	442.69
435.397	489.69
435.618	518.69
435.84	546.69
436.062	659.69
436.284	712.69
436.505	621.69
436.727	569.69
436.949	518.69
437.17	493.69
437.392	488.69
437.614	515.69
437.835	560.69
438.057	682.69
438.278	770.69
438.5	747.69
438.721	808.69
438.943	740.69
439.165	644.69
439.386	561.69
439.608	564.69
439.829	578.69
440.05	619.69
440.272	642.69
440.493	638.69
440.715	555.69
440.936	532.69
441.158	494.69
441.379	469.69
441.6	540.69
441.822	543.69
442.043	558.69
442.264	661.69
442.486	699.69
442.707	596.69
442.928	560.69
443.149	540.69
443.371	581.69
443.592	619.69
443.813	721.69
444.034	763.69
444.255	625.69
444.476	552.69
444.698	537.69
444.919	518.69
445.14	608.69
445.361	577.69
445.582	573.69
445.803	633.69
446.024	757.69
446.245	760.69
446.466	683.69
446.687	610.69
446.908	549.69
447.129	519.69
447.35	505.69
447.571	485.69
447.792	467.69
448.013	489.69
448.234	524.69
448.455	574.69
448.675	684.69
448.896	788.69
449.117	701.69
449.338	652.69
449.559	731.69
449.779	822.69
450	696.69
450.221	586.69
450.442	506.69
450.662	511.69
450.883	522.69
451.104	552.69
451.324	546.69
451.545	504.69
451.766	485.69
451.986	454.69
452.207	444.69
452.428	453.69
452.648	434.69
452.869	455.69
453.089	454.69
453.31	472.69
453.53	472.69
453.751	450.69
453.971	466.69
454.192	509.69
454.412	504.69
454.633	457.69
454.853	446.69
455.073	469.69
455.294	470.69
455.514	550.69
455.734	520.69
455.955	448.69
456.175	435.69
456.395	397.69
456.616	390.69
456.836	405.69
457.056	388.69
457.276	380.69
457.497	388.69
457.717	397.69
457.937	393.69
458.157	418.69
458.377	408.69
458.598	461.69
458.818	542.69
459.038	683.69
459.258	667.69
459.478	533.69
459.698	466.69
459.918	458.69
460.138	426.69
460.358	423.69
460.578	446.69
460.798	461.69
461.018	451.69
461.238	422.69
461.458	438.69
461.678	392.69
461.898	381.69
462.118	405.69
462.338	443.69
462.558	420.69
462.777	420.69
462.997	439.69
463.217	422.69
463.437	432.69
463.657	416.69
463.876	452.69
464.096	442.69
464.316	436.69
464.536	457.69
464.755	468.69
464.975	483.69
465.195	560.69
465.414	709.69
465.634	604.69
465.854	518.69
466.073	491.69
466.293	437.69
466.512	439.69
466.732	432.69
466.951	433.69
467.171	439.69
467.391	456.69
467.61	470.69
467.829	471.69
468.049	448.69
468.268	444.69
468.488	426.69
468.707	423.69
468.927	424.69
469.146	405.69
469.365	413.69
469.585	418.69
469.804	432.69
470.023	444.69
470.243	421.69
470.462	461.69
470.681	474.69
470.901	475.69
471.12	468.69
471.339	445.69
471.558	446.69
471.777	451.69
471.997	428.69
472.216	420.69
472.435	433.69
472.654	432.69
472.873	407.69
473.092	406.69
473.311	432.69
473.53	423.69
473.749	456.69
473.968	493.69
474.187	636.69
474.406	653.69
474.625	521.69
474.844	458.69
475.063	438.69
475.282	447.69
475.501	448.69
475.72	439.69
475.939	472.69
476.158	439.69
476.377	445.69
476.596	429.69
476.814	457.69
477.033	446.69
477.252	457.69
477.471	469.69
477.69	462.69
477.908	453.69
478.127	468.69
478.346	461.69
478.564	473.69
478.783	476.69
479.002	468.69
479.22	490.69
479.439	523.69
479.658	524.69
479.876	540.69
480.095	549.69
480.313	582.69
480.532	551.69
480.751	539.69
480.969	552.69
481.188	554.69
481.406	549.69
481.624	503.69
481.843	555.69
482.061	518.69
482.28	518.69
482.498	516.69
482.717	513.69
482.935	510.69
483.153	499.69
483.372	489.69
483.59	522.69
483.808	514.69
484.027	522.69
484.245	533.69
484.463	518.69
484.681	512.69
484.9	524.69
485.118	532.69
485.336	520.69
485.554	530.69
485.772	532.69
485.99	553.69
486.209	538.69
486.427	564.69
486.645	561.69
486.863	598.69
487.081	625.69
487.299	586.69
487.517	560.69
487.735	560.69
487.953	569.69
488.171	582.69
488.389	564.69
488.607	580.69
488.825	554.69
489.043	572.69
489.261	568.69
489.479	573.69
489.696	583.69
489.914	583.69
490.132	561.69
490.35	574.69
490.568	597.69
490.786	621.69
491.003	621.69
491.221	633.69
491.439	636.69
491.657	636.69
491.874	656.69
492.092	644.69
492.31	650.69
492.527	652.69
492.745	660.69
492.963	659.69
493.18	668.69
493.398	672.69
493.615	701.69
493.833	682.69
494.05	696.69
494.268	664.69
494.485	672.69
494.703	682.69
494.92	680.69
495.138	704.69
495.355	677.69
495.573	700.69
495.79	704.69
496.008	673.69
496.225	659.69
496.442	671.69
496.66	682.69
496.877	650.69
497.094	682.69
497.312	688.69
497.529	707.69
497.746	709.69
497.963	715.69
498.181	724.69
498.398	735.69
498.615	718.69
498.832	741.69
499.049	723.69
499.267	718.69
499.484	748.69
499.701	775.69
499.918	762.69
500.135	797.69
500.352	797.69
500.569	787.69
500.786	804.69
501.003	788.69
501.22	772.69
501.437	786.69
501.654	804.69
501.871	788.69
