Data from 1987.PennyLincolnUp.Lamp.En5.5.200Scan.071819.P2_HRD10591_17-15-28-971.txt Node
Date: Thu Jul 18 17:15:28 EDT 2019
User: cochatt
Spectrometer: HR+D1059
Trigger mode: 1
Integration Time (sec): 1.000000E-1
Scans to average: 1
Electric dark correction enabled: true
Nonlinearity correction enabled: false
Boxcar width: 0
XAxis mode: Wavelengths
Number of Pixels in Spectrum: 2048
>>>>>Begin Spectral Data<<<<<
223.165	-25.62
223.4	-25.62
223.635	-25.62
223.869	-21.62
224.104	-1.62
224.338	-17.62
224.573	-12.62
224.808	-10.62
225.042	-8.62
225.277	-7.62
225.511	4.38
225.746	-7.62
225.98	22.38
226.215	10.38
226.449	9.38
226.683	17.38
226.918	22.38
227.152	27.38
227.387	25.38
227.621	45.38
227.856	41.38
228.09	40.38
228.324	40.38
228.559	66.38
228.793	56.38
229.027	93.38
229.262	96.38
229.496	123.38
229.73	151.38
229.964	182.38
230.199	134.38
230.433	117.38
230.667	116.38
230.901	120.38
231.136	120.38
231.37	102.38
231.604	118.38
231.838	105.38
232.072	109.38
232.306	111.38
232.541	117.38
232.775	106.38
233.009	117.38
233.243	110.38
233.477	108.38
233.711	114.38
233.945	114.38
234.179	122.38
234.413	125.38
234.647	99.38
234.881	123.38
235.115	114.38
235.349	120.38
235.583	117.38
235.817	118.38
236.051	130.38
236.285	132.38
236.519	127.38
236.753	127.38
236.987	152.38
237.221	184.38
237.455	235.38
237.689	210.38
237.922	164.38
238.156	146.38
238.39	140.38
238.624	127.38
238.858	125.38
239.091	111.38
239.325	134.38
239.559	136.38
239.793	132.38
240.027	130.38
240.26	138.38
240.494	168.38
240.728	168.38
240.961	147.38
241.195	136.38
241.429	124.38
241.662	134.38
241.896	124.38
242.13	137.38
242.363	134.38
242.597	139.38
242.83	135.38
243.064	142.38
243.298	125.38
243.531	131.38
243.765	130.38
243.998	134.38
244.232	139.38
244.465	151.38
244.699	134.38
244.932	143.38
245.166	128.38
245.399	131.38
245.633	152.38
245.866	148.38
246.099	140.38
246.333	134.38
246.566	140.38
246.8	152.38
247.033	160.38
247.266	151.38
247.5	159.38
247.733	171.38
247.966	169.38
248.2	180.38
248.433	183.38
248.666	162.38
248.899	180.38
249.133	205.38
249.366	214.38
249.599	206.38
249.832	178.38
250.066	180.38
250.299	178.38
250.532	178.38
250.765	195.38
250.998	238.38
251.231	221.38
251.465	214.38
251.698	193.38
251.931	192.38
252.164	186.38
252.397	201.38
252.63	199.38
252.863	207.38
253.096	195.38
253.329	229.38
253.562	223.38
253.795	218.38
254.028	211.38
254.261	206.38
254.494	226.38
254.727	266.38
254.96	277.38
255.193	275.38
255.426	262.38
255.659	234.38
255.892	221.38
256.124	229.38
256.357	216.38
256.59	206.38
256.823	218.38
257.056	205.38
257.289	186.38
257.521	213.38
257.754	201.38
257.987	194.38
258.22	206.38
258.452	191.38
258.685	199.38
258.918	197.38
259.151	203.38
259.383	223.38
259.616	205.38
259.849	215.38
260.081	219.38
260.314	263.38
260.547	237.38
260.779	247.38
261.012	231.38
261.244	215.38
261.477	220.38
261.71	202.38
261.942	227.38
262.175	242.38
262.407	231.38
262.64	197.38
262.872	218.38
263.105	196.38
263.337	211.38
263.57	201.38
263.802	186.38
264.035	203.38
264.267	200.38
264.499	194.38
264.732	180.38
264.964	186.38
265.197	183.38
265.429	193.38
265.661	189.38
265.894	201.38
266.126	196.38
266.358	189.38
266.591	188.38
266.823	186.38
267.055	202.38
267.287	202.38
267.52	205.38
267.752	209.38
267.984	213.38
268.216	201.38
268.448	208.38
268.681	217.38
268.913	227.38
269.145	229.38
269.377	263.38
269.609	267.38
269.841	242.38
270.073	252.38
270.306	276.38
270.538	298.38
270.77	310.38
271.002	295.38
271.234	287.38
271.466	291.38
271.698	278.38
271.93	308.38
272.162	293.38
272.394	300.38
272.626	286.38
272.858	279.38
273.09	251.38
273.322	267.38
273.553	263.38
273.785	236.38
274.017	225.38
274.249	227.38
274.481	232.38
274.713	234.38
274.945	255.38
275.176	262.38
275.408	257.38
275.64	222.38
275.872	236.38
276.104	234.38
276.335	250.38
276.567	259.38
276.799	273.38
277.031	288.38
277.262	308.38
277.494	289.38
277.726	270.38
277.957	261.38
278.189	227.38
278.421	250.38
278.652	243.38
278.884	244.38
279.115	227.38
279.347	234.38
279.579	232.38
279.81	249.38
280.042	230.38
280.273	230.38
280.505	223.38
280.736	215.38
280.968	216.38
281.199	228.38
281.431	219.38
281.662	235.38
281.894	232.38
282.125	238.38
282.356	232.38
282.588	285.38
282.819	270.38
283.051	238.38
283.282	224.38
283.513	239.38
283.745	226.38
283.976	230.38
284.207	235.38
284.439	244.38
284.67	235.38
284.901	229.38
285.132	242.38
285.364	234.38
285.595	238.38
285.826	239.38
286.057	223.38
286.288	214.38
286.52	213.38
286.751	236.38
286.982	228.38
287.213	243.38
287.444	238.38
287.675	239.38
287.906	242.38
288.138	269.38
288.369	260.38
288.6	259.38
288.831	244.38
289.062	246.38
289.293	248.38
289.524	231.38
289.755	235.38
289.986	238.38
290.217	239.38
290.448	253.38
290.679	243.38
290.91	251.38
291.141	221.38
291.371	244.38
291.602	225.38
291.833	230.38
292.064	243.38
292.295	236.38
292.526	252.38
292.757	232.38
292.987	249.38
293.218	243.38
293.449	240.38
293.68	229.38
293.91	231.38
294.141	242.38
294.372	229.38
294.603	229.38
294.833	235.38
295.064	230.38
295.295	224.38
295.525	228.38
295.756	230.38
295.987	254.38
296.217	286.38
296.448	291.38
296.679	262.38
296.909	237.38
297.14	258.38
297.37	243.38
297.601	244.38
297.831	234.38
298.062	243.38
298.292	254.38
298.523	252.38
298.753	267.38
298.984	256.38
299.214	264.38
299.445	252.38
299.675	248.38
299.905	262.38
300.136	263.38
300.366	246.38
300.597	244.38
300.827	277.38
301.057	278.38
301.288	266.38
301.518	278.38
301.748	249.38
301.979	250.38
302.209	272.38
302.439	259.38
302.669	267.38
302.9	272.38
303.13	282.38
303.36	277.38
303.59	277.38
303.82	283.38
304.051	279.38
304.281	263.38
304.511	279.38
304.741	271.38
304.971	265.38
305.201	264.38
305.431	266.38
305.661	260.38
305.891	265.38
306.121	284.38
306.352	263.38
306.582	268.38
306.812	273.38
307.042	282.38
307.272	276.38
307.502	266.38
307.731	267.38
307.961	280.38
308.191	276.38
308.421	274.38
308.651	300.38
308.881	291.38
309.111	299.38
309.341	284.38
309.571	319.38
309.8	342.38
310.03	339.38
310.26	334.38
310.49	347.38
310.72	349.38
310.949	382.38
311.179	388.38
311.409	351.38
311.639	342.38
311.868	333.38
312.098	345.38
312.328	350.38
312.557	346.38
312.787	386.38
313.017	386.38
313.246	382.38
313.476	338.38
313.706	334.38
313.935	346.38
314.165	342.38
314.394	378.38
314.624	390.38
314.853	358.38
315.083	356.38
315.312	332.38
315.542	328.38
315.771	323.38
316.001	345.38
316.23	317.38
316.46	335.38
316.689	346.38
316.919	326.38
317.148	353.38
317.377	345.38
317.607	332.38
317.836	356.38
318.065	331.38
318.295	334.38
318.524	335.38
318.753	324.38
318.983	333.38
319.212	331.38
319.441	332.38
319.67	343.38
319.9	333.38
320.129	348.38
320.358	334.38
320.587	347.38
320.816	354.38
321.046	357.38
321.275	375.38
321.504	382.38
321.733	359.38
321.962	373.38
322.191	397.38
322.42	416.38
322.649	449.38
322.878	459.38
323.108	485.38
323.337	524.38
323.566	532.38
323.795	607.38
324.024	665.38
324.253	828.38
324.482	1224.38
324.71	1868.38
324.939	2653.38
325.168	2311.38
325.397	1255.38
325.626	798.38
325.855	633.38
326.084	557.38
326.313	531.38
326.542	531.38
326.77	619.38
326.999	756.38
327.228	1038.38
327.457	1623.38
327.686	1967.38
327.914	1350.38
328.143	875.38
328.372	719.38
328.6	675.38
328.829	622.38
329.058	662.38
329.287	670.38
329.515	609.38
329.744	515.38
329.972	489.38
330.201	495.38
330.43	552.38
330.658	603.38
330.887	642.38
331.115	644.38
331.344	562.38
331.572	480.38
331.801	494.38
332.03	485.38
332.258	461.38
332.486	437.38
332.715	397.38
332.943	385.38
333.172	383.38
333.4	399.38
333.629	412.38
333.857	408.38
334.085	398.38
334.314	390.38
334.542	406.38
334.771	389.38
334.999	407.38
335.227	382.38
335.455	381.38
335.684	401.38
335.912	377.38
336.14	376.38
336.369	380.38
336.597	381.38
336.825	393.38
337.053	389.38
337.281	383.38
337.51	361.38
337.738	388.38
337.966	394.38
338.194	419.38
338.422	381.38
338.65	383.38
338.878	360.38
339.106	370.38
339.334	362.38
339.562	372.38
339.79	349.38
340.018	374.38
340.246	354.38
340.474	370.38
340.702	367.38
340.93	372.38
341.158	362.38
341.386	382.38
341.614	374.38
341.842	375.38
342.07	366.38
342.298	366.38
342.526	363.38
342.754	356.38
342.981	359.38
343.209	331.38
343.437	319.38
343.665	354.38
343.893	347.38
344.12	352.38
344.348	379.38
344.576	364.38
344.804	384.38
345.031	384.38
345.259	417.38
345.487	398.38
345.714	398.38
345.942	352.38
346.17	360.38
346.397	363.38
346.625	370.38
346.853	392.38
347.08	363.38
347.308	372.38
347.535	392.38
347.763	405.38
347.99	408.38
348.218	399.38
348.445	400.38
348.673	385.38
348.9	377.38
349.128	332.38
349.355	354.38
349.583	363.38
349.81	340.38
350.037	343.38
350.265	360.38
350.492	349.38
350.72	370.38
350.947	377.38
351.174	383.38
351.402	376.38
351.629	399.38
351.856	399.38
352.083	393.38
352.311	407.38
352.538	414.38
352.765	411.38
352.992	395.38
353.22	382.38
353.447	365.38
353.674	365.38
353.901	373.38
354.128	349.38
354.355	339.38
354.583	325.38
354.81	346.38
355.037	337.38
355.264	334.38
355.491	313.38
355.718	324.38
355.945	334.38
356.172	339.38
356.399	319.38
356.626	322.38
356.853	331.38
357.08	341.38
357.307	314.38
357.534	332.38
357.761	327.38
357.988	333.38
358.215	334.38
358.441	331.38
358.668	342.38
358.895	352.38
359.122	348.38
359.349	354.38
359.576	391.38
359.802	442.38
360.029	450.38
360.256	472.38
360.483	441.38
360.709	382.38
360.936	383.38
361.163	373.38
361.39	389.38
361.616	391.38
361.843	371.38
362.07	390.38
362.296	404.38
362.523	381.38
362.749	352.38
362.976	355.38
363.203	368.38
363.429	373.38
363.656	349.38
363.882	337.38
364.109	341.38
364.335	344.38
364.562	338.38
364.788	349.38
365.015	348.38
365.241	347.38
365.468	349.38
365.694	367.38
365.92	371.38
366.147	366.38
366.373	370.38
366.599	350.38
366.826	336.38
367.052	327.38
367.278	339.38
367.505	340.38
367.731	364.38
367.957	337.38
368.184	341.38
368.41	360.38
368.636	362.38
368.862	375.38
369.089	351.38
369.315	345.38
369.541	339.38
369.767	342.38
369.993	334.38
370.219	356.38
370.445	348.38
370.672	343.38
370.898	344.38
371.124	328.38
371.35	348.38
371.576	330.38
371.802	345.38
372.028	307.38
372.254	335.38
372.48	324.38
372.706	323.38
372.932	336.38
373.158	332.38
373.384	330.38
373.61	343.38
373.835	335.38
374.061	342.38
374.287	337.38
374.513	335.38
374.739	324.38
374.965	334.38
375.191	308.38
375.416	331.38
375.642	328.38
375.868	317.38
376.094	343.38
376.319	336.38
376.545	329.38
376.771	314.38
376.997	332.38
377.222	331.38
377.448	343.38
377.674	343.38
377.899	329.38
378.125	322.38
378.35	328.38
378.576	309.38
378.802	315.38
379.027	316.38
379.253	312.38
379.478	332.38
379.704	330.38
379.929	333.38
380.155	336.38
380.38	327.38
380.606	344.38
380.831	324.38
381.057	337.38
381.282	319.38
381.507	344.38
381.733	342.38
381.958	326.38
382.184	302.38
382.409	326.38
382.634	318.38
382.86	347.38
383.085	337.38
383.31	343.38
383.535	331.38
383.761	340.38
383.986	327.38
384.211	340.38
384.436	351.38
384.662	354.38
384.887	336.38
385.112	334.38
385.337	335.38
385.562	345.38
385.787	334.38
386.013	336.38
386.238	367.38
386.463	376.38
386.688	354.38
386.913	342.38
387.138	360.38
387.363	330.38
387.588	351.38
387.813	344.38
388.038	343.38
388.263	336.38
388.488	356.38
388.713	340.38
388.938	338.38
389.163	372.38
389.387	347.38
389.612	361.38
389.837	352.38
390.062	334.38
390.287	333.38
390.512	339.38
390.736	336.38
390.961	350.38
391.186	330.38
391.411	358.38
391.636	347.38
391.86	346.38
392.085	340.38
392.31	340.38
392.534	354.38
392.759	349.38
392.984	332.38
393.208	355.38
393.433	338.38
393.658	342.38
393.882	330.38
394.107	346.38
394.331	343.38
394.556	349.38
394.78	351.38
395.005	362.38
395.229	368.38
395.454	373.38
395.678	352.38
395.903	378.38
396.127	392.38
396.352	384.38
396.576	395.38
396.801	380.38
397.025	391.38
397.249	370.38
397.474	388.38
397.698	360.38
397.922	380.38
398.147	379.38
398.371	378.38
398.595	379.38
398.82	382.38
399.044	387.38
399.268	384.38
399.492	420.38
399.717	436.38
399.941	452.38
400.165	471.38
400.389	487.38
400.613	464.38
400.837	405.38
401.062	406.38
401.286	389.38
401.51	406.38
401.734	388.38
401.958	394.38
402.182	407.38
402.406	418.38
402.63	410.38
402.854	407.38
403.078	405.38
403.302	409.38
403.526	419.38
403.75	413.38
403.974	421.38
404.198	390.38
404.422	421.38
404.645	445.38
404.869	411.38
405.093	433.38
405.317	446.38
405.541	479.38
405.765	463.38
405.988	449.38
406.212	471.38
406.436	511.38
406.66	503.38
406.883	504.38
407.107	502.38
407.331	514.38
407.555	579.38
407.778	578.38
408.002	547.38
408.226	479.38
408.449	475.38
408.673	476.38
408.896	532.38
409.12	520.38
409.344	503.38
409.567	459.38
409.791	440.38
410.014	446.38
410.238	415.38
410.461	445.38
410.685	428.38
410.908	443.38
411.132	469.38
411.355	476.38
411.578	499.38
411.802	447.38
412.025	438.38
412.249	416.38
412.472	420.38
412.695	428.38
412.919	427.38
413.142	421.38
413.365	404.38
413.589	407.38
413.812	424.38
414.035	380.38
414.258	393.38
414.482	391.38
414.705	387.38
414.928	389.38
415.151	380.38
415.374	388.38
415.597	379.38
415.821	394.38
416.044	402.38
416.267	419.38
416.49	414.38
416.713	394.38
416.936	370.38
417.159	363.38
417.382	418.38
417.605	421.38
417.828	423.38
418.051	459.38
418.274	419.38
418.497	406.38
418.72	400.38
418.943	412.38
419.166	413.38
419.389	439.38
419.611	428.38
419.834	421.38
420.057	438.38
420.28	463.38
420.503	430.38
420.726	438.38
420.948	426.38
421.171	492.38
421.394	549.38
421.617	458.38
421.839	429.38
422.062	454.38
422.285	443.38
422.507	511.38
422.73	585.38
422.953	570.38
423.175	504.38
423.398	466.38
423.621	470.38
423.843	463.38
424.066	476.38
424.288	468.38
424.511	508.38
424.733	549.38
424.956	640.38
425.178	629.38
425.401	606.38
425.623	635.38
425.846	550.38
426.068	500.38
426.291	527.38
426.513	528.38
426.735	500.38
426.958	560.38
427.18	658.38
427.402	757.38
427.625	863.38
427.847	803.38
428.069	659.38
428.292	578.38
428.514	523.38
428.736	491.38
428.958	494.38
429.181	498.38
429.403	470.38
429.625	482.38
429.847	519.38
430.069	568.38
430.292	575.38
430.514	512.38
430.736	481.38
430.958	470.38
431.18	422.38
431.402	447.38
431.624	409.38
431.846	429.38
432.068	449.38
432.29	417.38
432.512	444.38
432.734	449.38
432.956	442.38
433.178	439.38
433.4	464.38
433.622	451.38
433.844	436.38
434.066	430.38
434.287	424.38
434.509	444.38
434.731	447.38
434.953	445.38
435.175	456.38
435.397	506.38
435.618	510.38
435.84	559.38
436.062	643.38
436.284	696.38
436.505	594.38
436.727	542.38
436.949	498.38
437.17	462.38
437.392	484.38
437.614	494.38
437.835	545.38
438.057	639.38
438.278	750.38
438.5	722.38
438.721	775.38
438.943	755.38
439.165	609.38
439.386	570.38
439.608	537.38
439.829	540.38
440.05	587.38
440.272	605.38
440.493	595.38
440.715	527.38
440.936	506.38
441.158	501.38
441.379	478.38
441.6	501.38
441.822	517.38
442.043	575.38
442.264	623.38
442.486	674.38
442.707	594.38
442.928	550.38
443.149	566.38
443.371	575.38
443.592	591.38
443.813	690.38
444.034	748.38
444.255	620.38
444.476	533.38
444.698	511.38
444.919	514.38
445.14	600.38
445.361	560.38
445.582	536.38
445.803	616.38
446.024	722.38
446.245	732.38
446.466	670.38
446.687	572.38
446.908	510.38
447.129	493.38
447.35	490.38
447.571	461.38
447.792	472.38
448.013	486.38
448.234	510.38
448.455	570.38
448.675	678.38
448.896	743.38
449.117	652.38
449.338	637.38
449.559	725.38
449.779	809.38
450	653.38
450.221	544.38
450.442	492.38
450.662	499.38
450.883	508.38
451.104	505.38
451.324	516.38
451.545	482.38
451.766	460.38
451.986	459.38
452.207	432.38
452.428	440.38
452.648	424.38
452.869	441.38
453.089	434.38
453.31	468.38
453.53	471.38
453.751	434.38
453.971	442.38
454.192	474.38
454.412	476.38
454.633	435.38
454.853	429.38
455.073	438.38
455.294	459.38
455.514	545.38
455.734	517.38
455.955	465.38
456.175	404.38
456.395	394.38
456.616	396.38
456.836	414.38
457.056	388.38
457.276	388.38
457.497	395.38
457.717	385.38
457.937	413.38
458.157	421.38
458.377	413.38
458.598	453.38
458.818	540.38
459.038	632.38
459.258	652.38
459.478	543.38
459.698	462.38
459.918	451.38
460.138	421.38
460.358	460.38
460.578	434.38
460.798	437.38
461.018	424.38
461.238	430.38
461.458	406.38
461.678	401.38
461.898	398.38
462.118	414.38
462.338	416.38
462.558	420.38
462.777	438.38
462.997	418.38
463.217	434.38
463.437	427.38
463.657	431.38
463.876	436.38
464.096	440.38
464.316	442.38
464.536	458.38
464.755	451.38
464.975	471.38
465.195	543.38
465.414	681.38
465.634	585.38
465.854	520.38
466.073	496.38
466.293	458.38
466.512	456.38
466.732	427.38
466.951	431.38
467.171	403.38
467.391	439.38
467.61	448.38
467.829	472.38
468.049	446.38
468.268	426.38
468.488	409.38
468.707	413.38
468.927	405.38
469.146	405.38
469.365	410.38
469.585	404.38
469.804	429.38
470.023	469.38
470.243	431.38
470.462	443.38
470.681	459.38
470.901	471.38
471.12	435.38
471.339	445.38
471.558	445.38
471.777	411.38
471.997	414.38
472.216	418.38
472.435	426.38
472.654	407.38
472.873	426.38
473.092	397.38
473.311	414.38
473.53	440.38
473.749	451.38
473.968	484.38
474.187	597.38
474.406	622.38
474.625	490.38
474.844	452.38
475.063	438.38
475.282	431.38
475.501	437.38
475.72	446.38
475.939	438.38
476.158	455.38
476.377	452.38
476.596	438.38
476.814	438.38
477.033	443.38
477.252	460.38
477.471	452.38
477.69	442.38
477.908	465.38
478.127	453.38
478.346	458.38
478.564	468.38
478.783	465.38
479.002	466.38
479.22	482.38
479.439	513.38
479.658	548.38
479.876	536.38
480.095	532.38
480.313	555.38
480.532	544.38
480.751	489.38
480.969	518.38
481.188	525.38
481.406	532.38
481.624	517.38
481.843	524.38
482.061	499.38
482.28	515.38
482.498	502.38
482.717	488.38
482.935	504.38
483.153	507.38
483.372	502.38
483.59	524.38
483.808	505.38
484.027	519.38
484.245	523.38
484.463	515.38
484.681	519.38
484.9	536.38
485.118	509.38
485.336	508.38
485.554	534.38
485.772	527.38
485.99	522.38
486.209	535.38
486.427	524.38
486.645	555.38
486.863	578.38
487.081	555.38
487.299	570.38
487.517	564.38
487.735	552.38
487.953	562.38
488.171	568.38
488.389	551.38
488.607	567.38
488.825	582.38
489.043	555.38
489.261	549.38
489.479	569.38
489.696	572.38
489.914	560.38
490.132	591.38
490.35	589.38
490.568	589.38
490.786	596.38
491.003	600.38
491.221	628.38
491.439	611.38
491.657	623.38
491.874	644.38
492.092	638.38
492.31	648.38
492.527	632.38
492.745	660.38
492.963	632.38
493.18	623.38
493.398	654.38
493.615	644.38
493.833	655.38
494.05	645.38
494.268	656.38
494.485	668.38
494.703	661.38
494.92	677.38
495.138	680.38
495.355	680.38
495.573	684.38
495.79	667.38
496.008	680.38
496.225	660.38
496.442	670.38
496.66	665.38
496.877	655.38
497.094	667.38
497.312	666.38
497.529	673.38
497.746	707.38
497.963	706.38
498.181	717.38
498.398	736.38
498.615	716.38
498.832	717.38
499.049	718.38
499.267	733.38
499.484	747.38
499.701	738.38
499.918	740.38
500.135	783.38
500.352	754.38
500.569	781.38
500.786	790.38
501.003	783.38
501.22	765.38
501.437	796.38
501.654	794.38
501.871	817.38
