Data from 1987.PennyLincolnUp.Lamp.En5.5.200Scan.071819.P2_HRD10591_17-16-31-971.txt Node
Date: Thu Jul 18 17:16:31 EDT 2019
User: cochatt
Spectrometer: HR+D1059
Trigger mode: 1
Integration Time (sec): 1.000000E-1
Scans to average: 1
Electric dark correction enabled: true
Nonlinearity correction enabled: false
Boxcar width: 0
XAxis mode: Wavelengths
Number of Pixels in Spectrum: 2048
>>>>>Begin Spectral Data<<<<<
223.165	-7.06
223.4	-7.06
223.635	-7.06
223.869	-15.06
224.104	-25.06
224.338	-11.06
224.573	-9.06
224.808	-12.06
225.042	-9.06
225.277	-15.06
225.511	-6.06
225.746	9.94
225.98	0.94
226.215	5.94
226.449	23.94
226.683	16.94
226.918	12.94
227.152	38.94
227.387	12.94
227.621	20.94
227.856	43.94
228.09	39.94
228.324	48.94
228.559	59.94
228.793	70.94
229.027	120.94
229.262	118.94
229.496	122.94
229.73	157.94
229.964	182.94
230.199	148.94
230.433	110.94
230.667	129.94
230.901	116.94
231.136	116.94
231.37	106.94
231.604	123.94
231.838	125.94
232.072	102.94
232.306	116.94
232.541	106.94
232.775	107.94
233.009	118.94
233.243	106.94
233.477	112.94
233.711	121.94
233.945	123.94
234.179	123.94
234.413	117.94
234.647	105.94
234.881	110.94
235.115	121.94
235.349	105.94
235.583	107.94
235.817	126.94
236.051	121.94
236.285	127.94
236.519	129.94
236.753	132.94
236.987	143.94
237.221	185.94
237.455	253.94
237.689	227.94
237.922	145.94
238.156	137.94
238.39	137.94
238.624	135.94
238.858	120.94
239.091	125.94
239.325	129.94
239.559	134.94
239.793	120.94
240.027	129.94
240.26	139.94
240.494	174.94
240.728	137.94
240.961	154.94
241.195	144.94
241.429	139.94
241.662	143.94
241.896	121.94
242.13	116.94
242.363	124.94
242.597	123.94
242.83	148.94
243.064	138.94
243.298	132.94
243.531	125.94
243.765	139.94
243.998	125.94
244.232	130.94
244.465	128.94
244.699	143.94
244.932	138.94
245.166	146.94
245.399	133.94
245.633	129.94
245.866	150.94
246.099	139.94
246.333	131.94
246.566	148.94
246.8	136.94
247.033	126.94
247.266	157.94
247.5	143.94
247.733	130.94
247.966	170.94
248.2	158.94
248.433	171.94
248.666	168.94
248.899	193.94
249.133	197.94
249.366	212.94
249.599	203.94
249.832	197.94
250.066	162.94
250.299	167.94
250.532	178.94
250.765	185.94
250.998	232.94
251.231	246.94
251.465	211.94
251.698	209.94
251.931	190.94
252.164	189.94
252.397	193.94
252.63	207.94
252.863	200.94
253.096	218.94
253.329	234.94
253.562	224.94
253.795	217.94
254.028	216.94
254.261	225.94
254.494	219.94
254.727	261.94
254.96	279.94
255.193	280.94
255.426	242.94
255.659	220.94
255.892	245.94
256.124	221.94
256.357	216.94
256.59	210.94
256.823	209.94
257.056	184.94
257.289	217.94
257.521	204.94
257.754	207.94
257.987	200.94
258.22	169.94
258.452	193.94
258.685	191.94
258.918	196.94
259.151	193.94
259.383	197.94
259.616	193.94
259.849	214.94
260.081	216.94
260.314	246.94
260.547	255.94
260.779	241.94
261.012	223.94
261.244	239.94
261.477	224.94
261.71	218.94
261.942	216.94
262.175	231.94
262.407	247.94
262.64	201.94
262.872	194.94
263.105	200.94
263.337	185.94
263.57	202.94
263.802	200.94
264.035	193.94
264.267	184.94
264.499	194.94
264.732	181.94
264.964	201.94
265.197	202.94
265.429	196.94
265.661	184.94
265.894	205.94
266.126	190.94
266.358	187.94
266.591	187.94
266.823	197.94
267.055	206.94
267.287	204.94
267.52	212.94
267.752	201.94
267.984	190.94
268.216	200.94
268.448	215.94
268.681	219.94
268.913	225.94
269.145	239.94
269.377	255.94
269.609	251.94
269.841	266.94
270.073	272.94
270.306	280.94
270.538	315.94
270.77	326.94
271.002	289.94
271.234	279.94
271.466	299.94
271.698	293.94
271.93	303.94
272.162	324.94
272.394	320.94
272.626	306.94
272.858	282.94
273.09	274.94
273.322	267.94
273.553	248.94
273.785	249.94
274.017	244.94
274.249	230.94
274.481	254.94
274.713	245.94
274.945	263.94
275.176	235.94
275.408	246.94
275.64	225.94
275.872	237.94
276.104	235.94
276.335	255.94
276.567	257.94
276.799	272.94
277.031	282.94
277.262	290.94
277.494	294.94
277.726	296.94
277.957	267.94
278.189	257.94
278.421	247.94
278.652	237.94
278.884	247.94
279.115	251.94
279.347	239.94
279.579	229.94
279.81	234.94
280.042	227.94
280.273	227.94
280.505	229.94
280.736	238.94
280.968	214.94
281.199	220.94
281.431	214.94
281.662	221.94
281.894	218.94
282.125	249.94
282.356	263.94
282.588	307.94
282.819	291.94
283.051	257.94
283.282	240.94
283.513	227.94
283.745	232.94
283.976	241.94
284.207	221.94
284.439	240.94
284.67	237.94
284.901	228.94
285.132	230.94
285.364	224.94
285.595	219.94
285.826	228.94
286.057	222.94
286.288	228.94
286.52	232.94
286.751	209.94
286.982	242.94
287.213	229.94
287.444	247.94
287.675	244.94
287.906	267.94
288.138	247.94
288.369	254.94
288.6	255.94
288.831	249.94
289.062	243.94
289.293	226.94
289.524	232.94
289.755	230.94
289.986	232.94
290.217	235.94
290.448	229.94
290.679	240.94
290.91	243.94
291.141	259.94
291.371	228.94
291.602	199.94
291.833	245.94
292.064	245.94
292.295	244.94
292.526	223.94
292.757	260.94
292.987	244.94
293.218	251.94
293.449	251.94
293.68	265.94
293.91	240.94
294.141	234.94
294.372	233.94
294.603	249.94
294.833	245.94
295.064	243.94
295.295	238.94
295.525	253.94
295.756	253.94
295.987	247.94
296.217	305.94
296.448	311.94
296.679	284.94
296.909	251.94
297.14	257.94
297.37	235.94
297.601	232.94
297.831	246.94
298.062	238.94
298.292	244.94
298.523	249.94
298.753	238.94
298.984	227.94
299.214	258.94
299.445	241.94
299.675	249.94
299.905	267.94
300.136	259.94
300.366	260.94
300.597	243.94
300.827	255.94
301.057	266.94
301.288	257.94
301.518	282.94
301.748	271.94
301.979	278.94
302.209	265.94
302.439	268.94
302.669	270.94
302.9	260.94
303.13	285.94
303.36	273.94
303.59	274.94
303.82	294.94
304.051	291.94
304.281	270.94
304.511	267.94
304.741	249.94
304.971	272.94
305.201	265.94
305.431	277.94
305.661	251.94
305.891	279.94
306.121	259.94
306.352	304.94
306.582	290.94
306.812	293.94
307.042	270.94
307.272	278.94
307.502	267.94
307.731	291.94
307.961	281.94
308.191	280.94
308.421	277.94
308.651	264.94
308.881	299.94
309.111	298.94
309.341	285.94
309.571	310.94
309.8	307.94
310.03	323.94
310.26	350.94
310.49	380.94
310.72	367.94
310.949	387.94
311.179	403.94
311.409	340.94
311.639	342.94
311.868	359.94
312.098	357.94
312.328	360.94
312.557	380.94
312.787	379.94
313.017	412.94
313.246	373.94
313.476	353.94
313.706	336.94
313.935	347.94
314.165	375.94
314.394	413.94
314.624	371.94
314.853	369.94
315.083	337.94
315.312	320.94
315.542	326.94
315.771	328.94
316.001	324.94
316.23	304.94
316.46	324.94
316.689	316.94
316.919	331.94
317.148	353.94
317.377	355.94
317.607	338.94
317.836	355.94
318.065	338.94
318.295	331.94
318.524	340.94
318.753	330.94
318.983	327.94
319.212	331.94
319.441	349.94
319.67	343.94
319.9	345.94
320.129	350.94
320.358	342.94
320.587	361.94
320.816	363.94
321.046	376.94
321.275	367.94
321.504	362.94
321.733	381.94
321.962	388.94
322.191	412.94
322.42	439.94
322.649	455.94
322.878	467.94
323.108	494.94
323.337	517.94
323.566	558.94
323.795	631.94
324.024	690.94
324.253	885.94
324.482	1290.94
324.71	1990.94
324.939	2764.94
325.168	2435.94
325.397	1335.94
325.626	850.94
325.855	662.94
326.084	576.94
326.313	525.94
326.542	561.94
326.77	629.94
326.999	765.94
327.228	1097.94
327.457	1709.94
327.686	2097.94
327.914	1429.94
328.143	917.94
328.372	761.94
328.6	708.94
328.829	666.94
329.058	721.94
329.287	689.94
329.515	598.94
329.744	540.94
329.972	517.94
330.201	530.94
330.43	574.94
330.658	605.94
330.887	727.94
331.115	682.94
331.344	558.94
331.572	487.94
331.801	490.94
332.03	486.94
332.258	446.94
332.486	417.94
332.715	397.94
332.943	400.94
333.172	408.94
333.4	409.94
333.629	403.94
333.857	392.94
334.085	419.94
334.314	383.94
334.542	410.94
334.771	408.94
334.999	408.94
335.227	401.94
335.455	385.94
335.684	377.94
335.912	374.94
336.14	359.94
336.369	387.94
336.597	387.94
336.825	386.94
337.053	376.94
337.281	375.94
337.51	389.94
337.738	390.94
337.966	392.94
338.194	393.94
338.422	385.94
338.65	383.94
338.878	367.94
339.106	360.94
339.334	373.94
339.562	349.94
339.79	379.94
340.018	361.94
340.246	383.94
340.474	401.94
340.702	391.94
340.93	383.94
341.158	374.94
341.386	380.94
341.614	390.94
341.842	397.94
342.07	377.94
342.298	340.94
342.526	365.94
342.754	373.94
342.981	335.94
343.209	349.94
343.437	346.94
343.665	366.94
343.893	373.94
344.12	365.94
344.348	361.94
344.576	373.94
344.804	369.94
345.031	403.94
345.259	423.94
345.487	407.94
345.714	406.94
345.942	372.94
346.17	366.94
346.397	390.94
346.625	360.94
346.853	354.94
347.08	370.94
347.308	390.94
347.535	380.94
347.763	410.94
347.99	397.94
348.218	387.94
348.445	398.94
348.673	402.94
348.9	371.94
349.128	373.94
349.355	353.94
349.583	345.94
349.81	350.94
350.037	354.94
350.265	362.94
350.492	372.94
350.72	357.94
350.947	374.94
351.174	385.94
351.402	416.94
351.629	396.94
351.856	396.94
352.083	379.94
352.311	434.94
352.538	426.94
352.765	426.94
352.992	404.94
353.22	387.94
353.447	391.94
353.674	379.94
353.901	358.94
354.128	361.94
354.355	348.94
354.583	331.94
354.81	343.94
355.037	329.94
355.264	330.94
355.491	336.94
355.718	317.94
355.945	337.94
356.172	341.94
356.399	322.94
356.626	301.94
356.853	337.94
357.08	306.94
357.307	337.94
357.534	335.94
357.761	331.94
357.988	335.94
358.215	327.94
358.441	329.94
358.668	342.94
358.895	352.94
359.122	348.94
359.349	376.94
359.576	395.94
359.802	421.94
360.029	471.94
360.256	494.94
360.483	456.94
360.709	418.94
360.936	406.94
361.163	394.94
361.39	407.94
361.616	415.94
361.843	397.94
362.07	387.94
362.296	394.94
362.523	369.94
362.749	392.94
362.976	363.94
363.203	350.94
363.429	342.94
363.656	342.94
363.882	359.94
364.109	346.94
364.335	351.94
364.562	345.94
364.788	347.94
365.015	347.94
365.241	342.94
365.468	352.94
365.694	360.94
365.92	353.94
366.147	349.94
366.373	351.94
366.599	353.94
366.826	338.94
367.052	321.94
367.278	344.94
367.505	338.94
367.731	337.94
367.957	351.94
368.184	367.94
368.41	381.94
368.636	362.94
368.862	372.94
369.089	345.94
369.315	354.94
369.541	330.94
369.767	340.94
369.993	327.94
370.219	336.94
370.445	354.94
370.672	337.94
370.898	327.94
371.124	325.94
371.35	328.94
371.576	321.94
371.802	317.94
372.028	328.94
372.254	342.94
372.48	333.94
372.706	347.94
372.932	326.94
373.158	312.94
373.384	343.94
373.61	335.94
373.835	318.94
374.061	344.94
374.287	337.94
374.513	331.94
374.739	346.94
374.965	335.94
375.191	349.94
375.416	344.94
375.642	339.94
375.868	339.94
376.094	327.94
376.319	317.94
376.545	313.94
376.771	327.94
376.997	317.94
377.222	312.94
377.448	321.94
377.674	334.94
377.899	353.94
378.125	331.94
378.35	317.94
378.576	333.94
378.802	337.94
379.027	335.94
379.253	320.94
379.478	337.94
379.704	333.94
379.929	326.94
380.155	317.94
380.38	323.94
380.606	340.94
380.831	328.94
381.057	319.94
381.282	325.94
381.507	336.94
381.733	328.94
381.958	318.94
382.184	343.94
382.409	332.94
382.634	314.94
382.86	334.94
383.085	335.94
383.31	327.94
383.535	343.94
383.761	327.94
383.986	324.94
384.211	329.94
384.436	338.94
384.662	343.94
384.887	330.94
385.112	336.94
385.337	322.94
385.562	351.94
385.787	344.94
386.013	362.94
386.238	365.94
386.463	359.94
386.688	351.94
386.913	362.94
387.138	328.94
387.363	348.94
387.588	333.94
387.813	336.94
388.038	338.94
388.263	333.94
388.488	344.94
388.713	332.94
388.938	353.94
389.163	353.94
389.387	333.94
389.612	353.94
389.837	346.94
390.062	358.94
390.287	329.94
390.512	324.94
390.736	348.94
390.961	346.94
391.186	343.94
391.411	327.94
391.636	331.94
391.86	343.94
392.085	346.94
392.31	342.94
392.534	352.94
392.759	338.94
392.984	351.94
393.208	345.94
393.433	345.94
393.658	352.94
393.882	336.94
394.107	361.94
394.331	347.94
394.556	332.94
394.78	336.94
395.005	336.94
395.229	345.94
395.454	350.94
395.678	353.94
395.903	369.94
396.127	399.94
396.352	404.94
396.576	377.94
396.801	370.94
397.025	375.94
397.249	368.94
397.474	360.94
397.698	383.94
397.922	360.94
398.147	395.94
398.371	403.94
398.595	390.94
398.82	409.94
399.044	387.94
399.268	381.94
399.492	415.94
399.717	421.94
399.941	450.94
400.165	482.94
400.389	479.94
400.613	469.94
400.837	422.94
401.062	415.94
401.286	404.94
401.51	395.94
401.734	398.94
401.958	405.94
402.182	406.94
402.406	410.94
402.63	414.94
402.854	422.94
403.078	415.94
403.302	430.94
403.526	435.94
403.75	424.94
403.974	413.94
404.198	385.94
404.422	417.94
404.645	430.94
404.869	429.94
405.093	430.94
405.317	477.94
405.541	505.94
405.765	466.94
405.988	465.94
406.212	459.94
406.436	490.94
406.66	511.94
406.883	462.94
407.107	504.94
407.331	536.94
407.555	594.94
407.778	597.94
408.002	518.94
408.226	517.94
408.449	483.94
408.673	479.94
408.896	498.94
409.12	543.94
409.344	530.94
409.567	445.94
409.791	451.94
410.014	439.94
410.238	413.94
410.461	429.94
410.685	431.94
410.908	458.94
411.132	479.94
411.355	531.94
411.578	508.94
411.802	466.94
412.025	411.94
412.249	421.94
412.472	402.94
412.695	448.94
412.919	429.94
413.142	417.94
413.365	409.94
413.589	410.94
413.812	416.94
414.035	373.94
414.258	390.94
414.482	392.94
414.705	400.94
414.928	401.94
415.151	389.94
415.374	395.94
415.597	395.94
415.821	386.94
416.044	401.94
416.267	406.94
416.49	396.94
416.713	395.94
416.936	402.94
417.159	387.94
417.382	437.94
417.605	403.94
417.828	437.94
418.051	450.94
418.274	451.94
418.497	422.94
418.72	414.94
418.943	408.94
419.166	419.94
419.389	409.94
419.611	434.94
419.834	429.94
420.057	437.94
420.28	420.94
420.503	409.94
420.726	422.94
420.948	437.94
421.171	498.94
421.394	538.94
421.617	469.94
421.839	425.94
422.062	441.94
422.285	449.94
422.507	502.94
422.73	614.94
422.953	559.94
423.175	516.94
423.398	485.94
423.621	495.94
423.843	473.94
424.066	458.94
424.288	484.94
424.511	514.94
424.733	555.94
424.956	652.94
425.178	647.94
425.401	622.94
425.623	648.94
425.846	567.94
426.068	541.94
426.291	527.94
426.513	514.94
426.735	503.94
426.958	562.94
427.18	650.94
427.402	779.94
427.625	821.94
427.847	810.94
428.069	681.94
428.292	589.94
428.514	531.94
428.736	513.94
428.958	515.94
429.181	481.94
429.403	455.94
429.625	477.94
429.847	534.94
430.069	596.94
430.292	591.94
430.514	499.94
430.736	474.94
430.958	473.94
431.18	452.94
431.402	460.94
431.624	403.94
431.846	401.94
432.068	417.94
432.29	418.94
432.512	413.94
432.734	429.94
432.956	445.94
433.178	473.94
433.4	439.94
433.622	450.94
433.844	428.94
434.066	455.94
434.287	442.94
434.509	416.94
434.731	412.94
434.953	445.94
435.175	461.94
435.397	485.94
435.618	513.94
435.84	563.94
436.062	635.94
436.284	720.94
436.505	622.94
436.727	557.94
436.949	500.94
437.17	477.94
437.392	492.94
437.614	521.94
437.835	546.94
438.057	673.94
438.278	745.94
438.5	740.94
438.721	794.94
438.943	760.94
439.165	617.94
439.386	562.94
439.608	544.94
439.829	539.94
440.05	578.94
440.272	614.94
440.493	589.94
440.715	529.94
440.936	501.94
441.158	509.94
441.379	477.94
441.6	494.94
441.822	538.94
442.043	587.94
442.264	651.94
442.486	687.94
442.707	580.94
442.928	555.94
443.149	551.94
443.371	557.94
443.592	600.94
443.813	703.94
444.034	774.94
444.255	643.94
444.476	553.94
444.698	517.94
444.919	503.94
445.14	588.94
445.361	567.94
445.582	574.94
445.803	660.94
446.024	752.94
446.245	770.94
446.466	707.94
446.687	581.94
446.908	550.94
447.129	500.94
447.35	485.94
447.571	480.94
447.792	468.94
448.013	491.94
448.234	527.94
448.455	579.94
448.675	677.94
448.896	771.94
449.117	678.94
449.338	650.94
449.559	724.94
449.779	802.94
450	665.94
450.221	580.94
450.442	511.94
450.662	477.94
450.883	522.94
451.104	553.94
451.324	545.94
451.545	491.94
451.766	447.94
451.986	429.94
452.207	437.94
452.428	435.94
452.648	419.94
452.869	436.94
453.089	470.94
453.31	455.94
453.53	459.94
453.751	432.94
453.971	462.94
454.192	468.94
454.412	482.94
454.633	479.94
454.853	448.94
455.073	420.94
455.294	451.94
455.514	524.94
455.734	533.94
455.955	441.94
456.175	423.94
456.395	381.94
456.616	403.94
456.836	409.94
457.056	379.94
457.276	367.94
457.497	373.94
457.717	396.94
457.937	401.94
458.157	401.94
458.377	443.94
458.598	430.94
458.818	558.94
459.038	657.94
459.258	676.94
459.478	516.94
459.698	471.94
459.918	449.94
460.138	433.94
460.358	445.94
460.578	415.94
460.798	422.94
461.018	423.94
461.238	400.94
461.458	433.94
461.678	422.94
461.898	418.94
462.118	412.94
462.338	416.94
462.558	407.94
462.777	423.94
462.997	425.94
463.217	431.94
463.437	421.94
463.657	423.94
463.876	414.94
464.096	429.94
464.316	439.94
464.536	458.94
464.755	458.94
464.975	478.94
465.195	548.94
465.414	696.94
465.634	595.94
465.854	517.94
466.073	481.94
466.293	443.94
466.512	435.94
466.732	406.94
466.951	431.94
467.171	407.94
467.391	413.94
467.61	437.94
467.829	457.94
468.049	443.94
468.268	451.94
468.488	430.94
468.707	401.94
468.927	426.94
469.146	414.94
469.365	421.94
469.585	404.94
469.804	439.94
470.023	432.94
470.243	441.94
470.462	453.94
470.681	492.94
470.901	473.94
471.12	441.94
471.339	442.94
471.558	445.94
471.777	426.94
471.997	425.94
472.216	409.94
472.435	416.94
472.654	409.94
472.873	407.94
473.092	407.94
473.311	416.94
473.53	429.94
473.749	443.94
473.968	493.94
474.187	632.94
474.406	633.94
474.625	497.94
474.844	480.94
475.063	448.94
475.282	417.94
475.501	447.94
475.72	437.94
475.939	458.94
476.158	448.94
476.377	426.94
476.596	455.94
476.814	455.94
477.033	469.94
477.252	481.94
477.471	467.94
477.69	471.94
477.908	478.94
478.127	466.94
478.346	435.94
478.564	453.94
478.783	447.94
479.002	469.94
479.22	495.94
479.439	518.94
479.658	526.94
479.876	543.94
480.095	543.94
480.313	552.94
480.532	549.94
480.751	518.94
480.969	510.94
481.188	572.94
481.406	551.94
481.624	532.94
481.843	526.94
482.061	505.94
482.28	525.94
482.498	498.94
482.717	488.94
482.935	527.94
483.153	521.94
483.372	499.94
483.59	516.94
483.808	506.94
484.027	493.94
484.245	506.94
484.463	531.94
484.681	516.94
484.9	521.94
485.118	510.94
485.336	529.94
485.554	531.94
485.772	531.94
485.99	530.94
486.209	531.94
486.427	526.94
486.645	572.94
486.863	587.94
487.081	577.94
487.299	569.94
487.517	575.94
487.735	549.94
487.953	584.94
488.171	559.94
488.389	572.94
488.607	562.94
488.825	575.94
489.043	560.94
489.261	589.94
489.479	577.94
489.696	582.94
489.914	567.94
490.132	563.94
490.35	579.94
490.568	578.94
490.786	612.94
491.003	602.94
491.221	626.94
491.439	624.94
491.657	645.94
491.874	651.94
492.092	657.94
492.31	646.94
492.527	671.94
492.745	639.94
492.963	662.94
493.18	648.94
493.398	677.94
493.615	665.94
493.833	653.94
494.05	693.94
494.268	665.94
494.485	689.94
494.703	668.94
494.92	665.94
495.138	695.94
495.355	669.94
495.573	672.94
495.79	689.94
496.008	697.94
496.225	674.94
496.442	679.94
496.66	696.94
496.877	681.94
497.094	677.94
497.312	666.94
497.529	699.94
497.746	679.94
497.963	688.94
498.181	705.94
498.398	708.94
498.615	729.94
498.832	723.94
499.049	726.94
499.267	747.94
499.484	732.94
499.701	727.94
499.918	767.94
500.135	751.94
500.352	775.94
500.569	787.94
500.786	809.94
501.003	796.94
501.22	785.94
501.437	806.94
501.654	778.94
501.871	821.94
