Data from 1987.PennyLincolnUp.Lamp.En5.5.200Scan.071819.P2_HRD10591_17-15-54-972.txt Node
Date: Thu Jul 18 17:15:54 EDT 2019
User: cochatt
Spectrometer: HR+D1059
Trigger mode: 1
Integration Time (sec): 1.000000E-1
Scans to average: 1
Electric dark correction enabled: true
Nonlinearity correction enabled: false
Boxcar width: 0
XAxis mode: Wavelengths
Number of Pixels in Spectrum: 2048
>>>>>Begin Spectral Data<<<<<
223.165	-17.56
223.4	-17.56
223.635	-17.56
223.869	-12.56
224.104	-16.56
224.338	3.44
224.573	-18.56
224.808	-0.56
225.042	-24.56
225.277	-2.56
225.511	6.44
225.746	5.44
225.98	17.44
226.215	-10.56
226.449	-1.56
226.683	19.44
226.918	18.44
227.152	34.44
227.387	34.44
227.621	37.44
227.856	35.44
228.09	44.44
228.324	66.44
228.559	63.44
228.793	82.44
229.027	120.44
229.262	129.44
229.496	123.44
229.73	155.44
229.964	181.44
230.199	141.44
230.433	125.44
230.667	115.44
230.901	111.44
231.136	121.44
231.37	130.44
231.604	123.44
231.838	134.44
232.072	113.44
232.306	111.44
232.541	114.44
232.775	117.44
233.009	107.44
233.243	111.44
233.477	123.44
233.711	101.44
233.945	105.44
234.179	109.44
234.413	128.44
234.647	129.44
234.881	117.44
235.115	114.44
235.349	120.44
235.583	115.44
235.817	106.44
236.051	117.44
236.285	135.44
236.519	117.44
236.753	139.44
236.987	158.44
237.221	189.44
237.455	253.44
237.689	213.44
237.922	140.44
238.156	126.44
238.39	117.44
238.624	140.44
238.858	118.44
239.091	144.44
239.325	121.44
239.559	135.44
239.793	133.44
240.027	147.44
240.26	149.44
240.494	178.44
240.728	149.44
240.961	145.44
241.195	142.44
241.429	137.44
241.662	142.44
241.896	139.44
242.13	131.44
242.363	135.44
242.597	128.44
242.83	129.44
243.064	146.44
243.298	130.44
243.531	123.44
243.765	129.44
243.998	137.44
244.232	136.44
244.465	142.44
244.699	142.44
244.932	141.44
245.166	139.44
245.399	141.44
245.633	128.44
245.866	140.44
246.099	152.44
246.333	145.44
246.566	159.44
246.8	150.44
247.033	146.44
247.266	158.44
247.5	162.44
247.733	171.44
247.966	159.44
248.2	169.44
248.433	169.44
248.666	181.44
248.899	186.44
249.133	206.44
249.366	202.44
249.599	196.44
249.832	178.44
250.066	181.44
250.299	173.44
250.532	180.44
250.765	181.44
250.998	211.44
251.231	220.44
251.465	203.44
251.698	189.44
251.931	198.44
252.164	196.44
252.397	205.44
252.63	198.44
252.863	194.44
253.096	204.44
253.329	220.44
253.562	232.44
253.795	206.44
254.028	207.44
254.261	209.44
254.494	217.44
254.727	263.44
254.96	307.44
255.193	277.44
255.426	265.44
255.659	226.44
255.892	215.44
256.124	200.44
256.357	213.44
256.59	228.44
256.823	191.44
257.056	193.44
257.289	202.44
257.521	217.44
257.754	199.44
257.987	188.44
258.22	190.44
258.452	202.44
258.685	189.44
258.918	193.44
259.151	207.44
259.383	205.44
259.616	213.44
259.849	197.44
260.081	222.44
260.314	236.44
260.547	265.44
260.779	225.44
261.012	240.44
261.244	222.44
261.477	218.44
261.71	207.44
261.942	222.44
262.175	228.44
262.407	233.44
262.64	196.44
262.872	198.44
263.105	193.44
263.337	198.44
263.57	198.44
263.802	175.44
264.035	200.44
264.267	199.44
264.499	196.44
264.732	198.44
264.964	185.44
265.197	170.44
265.429	204.44
265.661	181.44
265.894	193.44
266.126	205.44
266.358	217.44
266.591	200.44
266.823	200.44
267.055	220.44
267.287	209.44
267.52	180.44
267.752	212.44
267.984	213.44
268.216	215.44
268.448	201.44
268.681	226.44
268.913	213.44
269.145	231.44
269.377	259.44
269.609	255.44
269.841	260.44
270.073	250.44
270.306	289.44
270.538	315.44
270.77	320.44
271.002	297.44
271.234	307.44
271.466	276.44
271.698	301.44
271.93	293.44
272.162	303.44
272.394	309.44
272.626	313.44
272.858	279.44
273.09	262.44
273.322	258.44
273.553	270.44
273.785	267.44
274.017	247.44
274.249	251.44
274.481	250.44
274.713	243.44
274.945	228.44
275.176	249.44
275.408	247.44
275.64	247.44
275.872	231.44
276.104	241.44
276.335	225.44
276.567	255.44
276.799	255.44
277.031	287.44
277.262	294.44
277.494	303.44
277.726	279.44
277.957	283.44
278.189	251.44
278.421	259.44
278.652	243.44
278.884	226.44
279.115	257.44
279.347	219.44
279.579	218.44
279.81	223.44
280.042	224.44
280.273	223.44
280.505	230.44
280.736	221.44
280.968	217.44
281.199	207.44
281.431	206.44
281.662	228.44
281.894	235.44
282.125	217.44
282.356	264.44
282.588	274.44
282.819	301.44
283.051	247.44
283.282	227.44
283.513	247.44
283.745	234.44
283.976	219.44
284.207	246.44
284.439	226.44
284.67	235.44
284.901	232.44
285.132	227.44
285.364	230.44
285.595	227.44
285.826	240.44
286.057	225.44
286.288	213.44
286.52	237.44
286.751	231.44
286.982	246.44
287.213	243.44
287.444	228.44
287.675	227.44
287.906	254.44
288.138	264.44
288.369	269.44
288.6	260.44
288.831	262.44
289.062	247.44
289.293	235.44
289.524	229.44
289.755	242.44
289.986	241.44
290.217	245.44
290.448	247.44
290.679	226.44
290.91	227.44
291.141	221.44
291.371	243.44
291.602	231.44
291.833	227.44
292.064	227.44
292.295	232.44
292.526	231.44
292.757	233.44
292.987	246.44
293.218	225.44
293.449	245.44
293.68	237.44
293.91	232.44
294.141	236.44
294.372	228.44
294.603	236.44
294.833	234.44
295.064	238.44
295.295	244.44
295.525	251.44
295.756	257.44
295.987	270.44
296.217	280.44
296.448	323.44
296.679	282.44
296.909	261.44
297.14	245.44
297.37	239.44
297.601	244.44
297.831	241.44
298.062	233.44
298.292	256.44
298.523	248.44
298.753	258.44
298.984	242.44
299.214	243.44
299.445	254.44
299.675	242.44
299.905	241.44
300.136	270.44
300.366	252.44
300.597	252.44
300.827	258.44
301.057	265.44
301.288	290.44
301.518	277.44
301.748	263.44
301.979	267.44
302.209	269.44
302.439	275.44
302.669	261.44
302.9	263.44
303.13	270.44
303.36	290.44
303.59	285.44
303.82	280.44
304.051	287.44
304.281	274.44
304.511	289.44
304.741	263.44
304.971	274.44
305.201	267.44
305.431	271.44
305.661	281.44
305.891	270.44
306.121	266.44
306.352	283.44
306.582	269.44
306.812	294.44
307.042	275.44
307.272	275.44
307.502	285.44
307.731	281.44
307.961	254.44
308.191	267.44
308.421	281.44
308.651	281.44
308.881	291.44
309.111	295.44
309.341	302.44
309.571	310.44
309.8	313.44
310.03	316.44
310.26	331.44
310.49	340.44
310.72	353.44
310.949	372.44
311.179	379.44
311.409	363.44
311.639	319.44
311.868	350.44
312.098	351.44
312.328	360.44
312.557	363.44
312.787	387.44
313.017	397.44
313.246	365.44
313.476	344.44
313.706	350.44
313.935	353.44
314.165	355.44
314.394	383.44
314.624	379.44
314.853	354.44
315.083	351.44
315.312	349.44
315.542	325.44
315.771	313.44
316.001	323.44
316.23	292.44
316.46	323.44
316.689	338.44
316.919	339.44
317.148	357.44
317.377	358.44
317.607	361.44
317.836	351.44
318.065	339.44
318.295	321.44
318.524	324.44
318.753	333.44
318.983	353.44
319.212	338.44
319.441	362.44
319.67	334.44
319.9	343.44
320.129	323.44
320.358	336.44
320.587	345.44
320.816	344.44
321.046	363.44
321.275	386.44
321.504	382.44
321.733	366.44
321.962	405.44
322.191	389.44
322.42	416.44
322.649	458.44
322.878	439.44
323.108	469.44
323.337	527.44
323.566	571.44
323.795	588.44
324.024	658.44
324.253	839.44
324.482	1239.44
324.71	1934.44
324.939	2674.44
325.168	2337.44
325.397	1286.44
325.626	830.44
325.855	658.44
326.084	587.44
326.313	553.44
326.542	564.44
326.77	629.44
326.999	748.44
327.228	1068.44
327.457	1650.44
327.686	2003.44
327.914	1378.44
328.143	858.44
328.372	744.44
328.6	689.44
328.829	654.44
329.058	641.44
329.287	686.44
329.515	595.44
329.744	534.44
329.972	522.44
330.201	502.44
330.43	562.44
330.658	595.44
330.887	689.44
331.115	673.44
331.344	547.44
331.572	480.44
331.801	469.44
332.03	452.44
332.258	439.44
332.486	407.44
332.715	406.44
332.943	419.44
333.172	396.44
333.4	391.44
333.629	377.44
333.857	398.44
334.085	400.44
334.314	389.44
334.542	397.44
334.771	390.44
334.999	391.44
335.227	399.44
335.455	376.44
335.684	365.44
335.912	364.44
336.14	386.44
336.369	385.44
336.597	397.44
336.825	399.44
337.053	370.44
337.281	374.44
337.51	374.44
337.738	373.44
337.966	398.44
338.194	390.44
338.422	379.44
338.65	359.44
338.878	358.44
339.106	374.44
339.334	360.44
339.562	369.44
339.79	366.44
340.018	359.44
340.246	369.44
340.474	371.44
340.702	372.44
340.93	367.44
341.158	381.44
341.386	379.44
341.614	385.44
341.842	396.44
342.07	388.44
342.298	340.44
342.526	353.44
342.754	349.44
342.981	328.44
343.209	355.44
343.437	350.44
343.665	329.44
343.893	360.44
344.12	351.44
344.348	352.44
344.576	371.44
344.804	370.44
345.031	407.44
345.259	399.44
345.487	396.44
345.714	414.44
345.942	381.44
346.17	392.44
346.397	386.44
346.625	365.44
346.853	343.44
347.08	356.44
347.308	345.44
347.535	391.44
347.763	403.44
347.99	371.44
348.218	392.44
348.445	417.44
348.673	398.44
348.9	373.44
349.128	375.44
349.355	338.44
349.583	371.44
349.81	339.44
350.037	342.44
350.265	345.44
350.492	338.44
350.72	357.44
350.947	361.44
351.174	390.44
351.402	389.44
351.629	403.44
351.856	400.44
352.083	397.44
352.311	398.44
352.538	413.44
352.765	410.44
352.992	382.44
353.22	389.44
353.447	393.44
353.674	365.44
353.901	346.44
354.128	342.44
354.355	327.44
354.583	335.44
354.81	348.44
355.037	330.44
355.264	327.44
355.491	334.44
355.718	317.44
355.945	321.44
356.172	323.44
356.399	319.44
356.626	322.44
356.853	332.44
357.08	326.44
357.307	329.44
357.534	305.44
357.761	327.44
357.988	351.44
358.215	340.44
358.441	341.44
358.668	325.44
358.895	357.44
359.122	347.44
359.349	364.44
359.576	395.44
359.802	417.44
360.029	469.44
360.256	489.44
360.483	454.44
360.709	386.44
360.936	389.44
361.163	409.44
361.39	403.44
361.616	394.44
361.843	360.44
362.07	378.44
362.296	372.44
362.523	393.44
362.749	354.44
362.976	373.44
363.203	366.44
363.429	353.44
363.656	377.44
363.882	355.44
364.109	356.44
364.335	340.44
364.562	337.44
364.788	369.44
365.015	337.44
365.241	350.44
365.468	343.44
365.694	358.44
365.92	353.44
366.147	361.44
366.373	341.44
366.599	336.44
366.826	344.44
367.052	339.44
367.278	331.44
367.505	344.44
367.731	337.44
367.957	347.44
368.184	357.44
368.41	348.44
368.636	351.44
368.862	357.44
369.089	356.44
369.315	340.44
369.541	322.44
369.767	339.44
369.993	330.44
370.219	346.44
370.445	334.44
370.672	337.44
370.898	320.44
371.124	334.44
371.35	338.44
371.576	301.44
371.802	306.44
372.028	302.44
372.254	329.44
372.48	330.44
372.706	311.44
372.932	326.44
373.158	310.44
373.384	332.44
373.61	330.44
373.835	323.44
374.061	325.44
374.287	335.44
374.513	323.44
374.739	315.44
374.965	330.44
375.191	327.44
375.416	327.44
375.642	328.44
375.868	318.44
376.094	331.44
376.319	328.44
376.545	323.44
376.771	325.44
376.997	324.44
377.222	336.44
377.448	327.44
377.674	323.44
377.899	315.44
378.125	339.44
378.35	322.44
378.576	337.44
378.802	320.44
379.027	339.44
379.253	308.44
379.478	325.44
379.704	316.44
379.929	302.44
380.155	329.44
380.38	335.44
380.606	330.44
380.831	330.44
381.057	326.44
381.282	326.44
381.507	331.44
381.733	333.44
381.958	334.44
382.184	340.44
382.409	316.44
382.634	330.44
382.86	335.44
383.085	340.44
383.31	338.44
383.535	328.44
383.761	343.44
383.986	313.44
384.211	317.44
384.436	322.44
384.662	347.44
384.887	338.44
385.112	337.44
385.337	346.44
385.562	339.44
385.787	341.44
386.013	366.44
386.238	350.44
386.463	375.44
386.688	353.44
386.913	349.44
387.138	340.44
387.363	338.44
387.588	365.44
387.813	353.44
388.038	342.44
388.263	351.44
388.488	355.44
388.713	338.44
388.938	353.44
389.163	340.44
389.387	348.44
389.612	327.44
389.837	323.44
390.062	317.44
390.287	328.44
390.512	324.44
390.736	338.44
390.961	332.44
391.186	331.44
391.411	350.44
391.636	355.44
391.86	349.44
392.085	357.44
392.31	332.44
392.534	356.44
392.759	339.44
392.984	359.44
393.208	359.44
393.433	339.44
393.658	347.44
393.882	352.44
394.107	334.44
394.331	327.44
394.556	328.44
394.78	357.44
395.005	350.44
395.229	334.44
395.454	349.44
395.678	355.44
395.903	383.44
396.127	389.44
396.352	392.44
396.576	360.44
396.801	350.44
397.025	345.44
397.249	364.44
397.474	386.44
397.698	363.44
397.922	380.44
398.147	369.44
398.371	399.44
398.595	381.44
398.82	384.44
399.044	381.44
399.268	396.44
399.492	411.44
399.717	419.44
399.941	431.44
400.165	462.44
400.389	502.44
400.613	445.44
400.837	423.44
401.062	390.44
401.286	406.44
401.51	395.44
401.734	379.44
401.958	417.44
402.182	413.44
402.406	423.44
402.63	422.44
402.854	414.44
403.078	402.44
403.302	413.44
403.526	407.44
403.75	428.44
403.974	399.44
404.198	397.44
404.422	419.44
404.645	409.44
404.869	421.44
405.093	434.44
405.317	469.44
405.541	493.44
405.765	461.44
405.988	439.44
406.212	457.44
406.436	496.44
406.66	513.44
406.883	474.44
407.107	487.44
407.331	534.44
407.555	563.44
407.778	579.44
408.002	536.44
408.226	484.44
408.449	445.44
408.673	467.44
408.896	500.44
409.12	553.44
409.344	515.44
409.567	437.44
409.791	419.44
410.014	414.44
410.238	414.44
410.461	430.44
410.685	442.44
410.908	445.44
411.132	481.44
411.355	513.44
411.578	492.44
411.802	438.44
412.025	428.44
412.249	427.44
412.472	430.44
412.695	435.44
412.919	419.44
413.142	417.44
413.365	392.44
413.589	384.44
413.812	392.44
414.035	401.44
414.258	385.44
414.482	381.44
414.705	397.44
414.928	385.44
415.151	401.44
415.374	384.44
415.597	392.44
415.821	371.44
416.044	383.44
416.267	426.44
416.49	400.44
416.713	365.44
416.936	397.44
417.159	413.44
417.382	436.44
417.605	375.44
417.828	415.44
418.051	451.44
418.274	445.44
418.497	429.44
418.72	407.44
418.943	403.44
419.166	428.44
419.389	435.44
419.611	410.44
419.834	414.44
420.057	437.44
420.28	447.44
420.503	424.44
420.726	439.44
420.948	441.44
421.171	493.44
421.394	492.44
421.617	457.44
421.839	415.44
422.062	453.44
422.285	457.44
422.507	512.44
422.73	589.44
422.953	579.44
423.175	518.44
423.398	485.44
423.621	468.44
423.843	475.44
424.066	495.44
424.288	487.44
424.511	515.44
424.733	577.44
424.956	649.44
425.178	626.44
425.401	627.44
425.623	621.44
425.846	537.44
426.068	499.44
426.291	521.44
426.513	502.44
426.735	515.44
426.958	561.44
427.18	642.44
427.402	739.44
427.625	840.44
427.847	812.44
428.069	655.44
428.292	586.44
428.514	528.44
428.736	491.44
428.958	485.44
429.181	473.44
429.403	456.44
429.625	480.44
429.847	499.44
430.069	569.44
430.292	582.44
430.514	468.44
430.736	449.44
430.958	465.44
431.18	434.44
431.402	449.44
431.624	421.44
431.846	406.44
432.068	420.44
432.29	428.44
432.512	446.44
432.734	428.44
432.956	419.44
433.178	453.44
433.4	461.44
433.622	470.44
433.844	441.44
434.066	467.44
434.287	410.44
434.509	445.44
434.731	433.44
434.953	445.44
435.175	470.44
435.397	487.44
435.618	502.44
435.84	557.44
436.062	635.44
436.284	693.44
436.505	594.44
436.727	551.44
436.949	497.44
437.17	475.44
437.392	482.44
437.614	481.44
437.835	551.44
438.057	659.44
438.278	769.44
438.5	760.44
438.721	796.44
438.943	750.44
439.165	604.44
439.386	573.44
439.608	548.44
439.829	548.44
440.05	587.44
440.272	635.44
440.493	575.44
440.715	514.44
440.936	502.44
441.158	474.44
441.379	448.44
441.6	492.44
441.822	502.44
442.043	568.44
442.264	655.44
442.486	668.44
442.707	574.44
442.928	545.44
443.149	541.44
443.371	556.44
443.592	602.44
443.813	674.44
444.034	711.44
444.255	610.44
444.476	541.44
444.698	493.44
444.919	489.44
445.14	578.44
445.361	574.44
445.582	560.44
445.803	621.44
446.024	710.44
446.245	721.44
446.466	684.44
446.687	597.44
446.908	537.44
447.129	492.44
447.35	487.44
447.571	465.44
447.792	467.44
448.013	489.44
448.234	546.44
448.455	565.44
448.675	682.44
448.896	724.44
449.117	654.44
449.338	656.44
449.559	729.44
449.779	795.44
450	662.44
450.221	571.44
450.442	507.44
450.662	503.44
450.883	536.44
451.104	533.44
451.324	506.44
451.545	501.44
451.766	479.44
451.986	445.44
452.207	428.44
452.428	427.44
452.648	433.44
452.869	436.44
453.089	444.44
453.31	444.44
453.53	461.44
453.751	445.44
453.971	454.44
454.192	479.44
454.412	475.44
454.633	445.44
454.853	430.44
455.073	449.44
455.294	443.44
455.514	533.44
455.734	521.44
455.955	445.44
456.175	412.44
456.395	407.44
456.616	385.44
456.836	391.44
457.056	389.44
457.276	379.44
457.497	383.44
457.717	389.44
457.937	382.44
458.157	403.44
458.377	421.44
458.598	438.44
458.818	535.44
459.038	635.44
459.258	642.44
459.478	538.44
459.698	472.44
459.918	431.44
460.138	421.44
460.358	433.44
460.578	428.44
460.798	431.44
461.018	444.44
461.238	399.44
461.458	399.44
461.678	404.44
461.898	414.44
462.118	388.44
462.338	414.44
462.558	415.44
462.777	414.44
462.997	418.44
463.217	413.44
463.437	421.44
463.657	415.44
463.876	430.44
464.096	430.44
464.316	439.44
464.536	449.44
464.755	433.44
464.975	467.44
465.195	533.44
465.414	689.44
465.634	595.44
465.854	546.44
466.073	478.44
466.293	453.44
466.512	421.44
466.732	402.44
466.951	417.44
467.171	427.44
467.391	423.44
467.61	438.44
467.829	453.44
468.049	445.44
468.268	439.44
468.488	434.44
468.707	425.44
468.927	416.44
469.146	391.44
469.365	414.44
469.585	400.44
469.804	409.44
470.023	454.44
470.243	431.44
470.462	445.44
470.681	479.44
470.901	480.44
471.12	416.44
471.339	437.44
471.558	422.44
471.777	418.44
471.997	424.44
472.216	421.44
472.435	402.44
472.654	414.44
472.873	405.44
473.092	412.44
473.311	421.44
473.53	439.44
473.749	439.44
473.968	483.44
474.187	598.44
474.406	653.44
474.625	511.44
474.844	433.44
475.063	430.44
475.282	411.44
475.501	428.44
475.72	456.44
475.939	437.44
476.158	406.44
476.377	445.44
476.596	433.44
476.814	450.44
477.033	461.44
477.252	469.44
477.471	457.44
477.69	460.44
477.908	442.44
478.127	459.44
478.346	452.44
478.564	464.44
478.783	478.44
479.002	470.44
479.22	469.44
479.439	503.44
479.658	523.44
479.876	522.44
480.095	549.44
480.313	561.44
480.532	521.44
480.751	507.44
480.969	518.44
481.188	535.44
481.406	555.44
481.624	523.44
481.843	491.44
482.061	485.44
482.28	508.44
482.498	489.44
482.717	498.44
482.935	501.44
483.153	497.44
483.372	497.44
483.59	490.44
483.808	507.44
484.027	487.44
484.245	510.44
484.463	503.44
484.681	494.44
484.9	486.44
485.118	510.44
485.336	509.44
485.554	542.44
485.772	516.44
485.99	539.44
486.209	537.44
486.427	530.44
486.645	550.44
486.863	567.44
487.081	593.44
487.299	557.44
487.517	547.44
487.735	569.44
487.953	559.44
488.171	547.44
488.389	565.44
488.607	569.44
488.825	565.44
489.043	546.44
489.261	553.44
489.479	563.44
489.696	576.44
489.914	563.44
490.132	581.44
490.35	572.44
490.568	571.44
490.786	591.44
491.003	602.44
491.221	615.44
491.439	614.44
491.657	632.44
491.874	627.44
492.092	635.44
492.31	626.44
492.527	653.44
492.745	657.44
492.963	639.44
493.18	648.44
493.398	671.44
493.615	654.44
493.833	646.44
494.05	663.44
494.268	666.44
494.485	663.44
494.703	687.44
494.92	680.44
495.138	680.44
495.355	646.44
495.573	678.44
495.79	689.44
496.008	666.44
496.225	657.44
496.442	667.44
496.66	663.44
496.877	681.44
497.094	660.44
497.312	659.44
497.529	662.44
497.746	687.44
497.963	718.44
498.181	695.44
498.398	726.44
498.615	719.44
498.832	697.44
499.049	718.44
499.267	724.44
499.484	744.44
499.701	753.44
499.918	785.44
500.135	751.44
500.352	766.44
500.569	774.44
500.786	809.44
501.003	776.44
501.22	774.44
501.437	745.44
501.654	773.44
501.871	821.44
