Data from 1987.PennyLincolnUp.Lamp.En5.5.200Scan.071819.P2_HRD10591_17-16-26-971.txt Node
Date: Thu Jul 18 17:16:26 EDT 2019
User: cochatt
Spectrometer: HR+D1059
Trigger mode: 1
Integration Time (sec): 1.000000E-1
Scans to average: 1
Electric dark correction enabled: true
Nonlinearity correction enabled: false
Boxcar width: 0
XAxis mode: Wavelengths
Number of Pixels in Spectrum: 2048
>>>>>Begin Spectral Data<<<<<
223.165	-21.19
223.4	-21.19
223.635	-21.19
223.869	-18.19
224.104	-18.19
224.338	-11.19
224.573	-10.19
224.808	-16.19
225.042	-17.19
225.277	-16.19
225.511	-0.19
225.746	2.81
225.98	4.81
226.215	15.81
226.449	13.81
226.683	18.81
226.918	40.81
227.152	31.81
227.387	21.81
227.621	42.81
227.856	45.81
228.09	47.81
228.324	47.81
228.559	50.81
228.793	65.81
229.027	102.81
229.262	116.81
229.496	125.81
229.73	153.81
229.964	158.81
230.199	147.81
230.433	138.81
230.667	116.81
230.901	125.81
231.136	129.81
231.37	124.81
231.604	107.81
231.838	118.81
232.072	101.81
232.306	122.81
232.541	106.81
232.775	103.81
233.009	98.81
233.243	120.81
233.477	94.81
233.711	105.81
233.945	100.81
234.179	104.81
234.413	109.81
234.647	111.81
234.881	120.81
235.115	125.81
235.349	118.81
235.583	122.81
235.817	117.81
236.051	119.81
236.285	141.81
236.519	123.81
236.753	124.81
236.987	153.81
237.221	198.81
237.455	255.81
237.689	216.81
237.922	152.81
238.156	141.81
238.39	125.81
238.624	121.81
238.858	123.81
239.091	128.81
239.325	128.81
239.559	126.81
239.793	139.81
240.027	134.81
240.26	141.81
240.494	159.81
240.728	142.81
240.961	162.81
241.195	152.81
241.429	145.81
241.662	133.81
241.896	130.81
242.13	125.81
242.363	127.81
242.597	132.81
242.83	127.81
243.064	134.81
243.298	126.81
243.531	136.81
243.765	127.81
243.998	129.81
244.232	141.81
244.465	131.81
244.699	123.81
244.932	129.81
245.166	137.81
245.399	148.81
245.633	125.81
245.866	130.81
246.099	137.81
246.333	142.81
246.566	145.81
246.8	151.81
247.033	147.81
247.266	157.81
247.5	175.81
247.733	178.81
247.966	156.81
248.2	156.81
248.433	160.81
248.666	171.81
248.899	200.81
249.133	199.81
249.366	204.81
249.599	190.81
249.832	203.81
250.066	189.81
250.299	175.81
250.532	204.81
250.765	202.81
250.998	212.81
251.231	234.81
251.465	221.81
251.698	206.81
251.931	196.81
252.164	203.81
252.397	197.81
252.63	193.81
252.863	194.81
253.096	202.81
253.329	232.81
253.562	239.81
253.795	212.81
254.028	199.81
254.261	205.81
254.494	224.81
254.727	279.81
254.96	269.81
255.193	277.81
255.426	244.81
255.659	233.81
255.892	237.81
256.124	216.81
256.357	218.81
256.59	210.81
256.823	203.81
257.056	205.81
257.289	222.81
257.521	195.81
257.754	195.81
257.987	206.81
258.22	195.81
258.452	203.81
258.685	193.81
258.918	185.81
259.151	197.81
259.383	211.81
259.616	216.81
259.849	223.81
260.081	237.81
260.314	251.81
260.547	232.81
260.779	247.81
261.012	241.81
261.244	228.81
261.477	221.81
261.71	217.81
261.942	218.81
262.175	235.81
262.407	243.81
262.64	214.81
262.872	203.81
263.105	210.81
263.337	219.81
263.57	205.81
263.802	199.81
264.035	193.81
264.267	177.81
264.499	197.81
264.732	178.81
264.964	201.81
265.197	204.81
265.429	211.81
265.661	195.81
265.894	197.81
266.126	201.81
266.358	193.81
266.591	200.81
266.823	201.81
267.055	220.81
267.287	223.81
267.52	201.81
267.752	203.81
267.984	199.81
268.216	192.81
268.448	203.81
268.681	216.81
268.913	234.81
269.145	242.81
269.377	276.81
269.609	271.81
269.841	242.81
270.073	275.81
270.306	269.81
270.538	300.81
270.77	303.81
271.002	266.81
271.234	277.81
271.466	283.81
271.698	305.81
271.93	319.81
272.162	294.81
272.394	323.81
272.626	297.81
272.858	291.81
273.09	269.81
273.322	279.81
273.553	244.81
273.785	271.81
274.017	258.81
274.249	249.81
274.481	249.81
274.713	258.81
274.945	259.81
275.176	235.81
275.408	239.81
275.64	233.81
275.872	239.81
276.104	247.81
276.335	230.81
276.567	254.81
276.799	267.81
277.031	290.81
277.262	299.81
277.494	288.81
277.726	268.81
277.957	265.81
278.189	255.81
278.421	266.81
278.652	237.81
278.884	249.81
279.115	241.81
279.347	235.81
279.579	241.81
279.81	223.81
280.042	216.81
280.273	228.81
280.505	237.81
280.736	222.81
280.968	239.81
281.199	217.81
281.431	215.81
281.662	218.81
281.894	226.81
282.125	237.81
282.356	259.81
282.588	286.81
282.819	289.81
283.051	250.81
283.282	241.81
283.513	233.81
283.745	261.81
283.976	235.81
284.207	238.81
284.439	236.81
284.67	250.81
284.901	227.81
285.132	235.81
285.364	219.81
285.595	229.81
285.826	243.81
286.057	243.81
286.288	244.81
286.52	249.81
286.751	226.81
286.982	243.81
287.213	236.81
287.444	243.81
287.675	251.81
287.906	252.81
288.138	267.81
288.369	245.81
288.6	271.81
288.831	241.81
289.062	251.81
289.293	250.81
289.524	236.81
289.755	252.81
289.986	246.81
290.217	250.81
290.448	231.81
290.679	226.81
290.91	227.81
291.141	239.81
291.371	240.81
291.602	244.81
291.833	235.81
292.064	234.81
292.295	234.81
292.526	220.81
292.757	233.81
292.987	231.81
293.218	239.81
293.449	252.81
293.68	222.81
293.91	239.81
294.141	243.81
294.372	233.81
294.603	242.81
294.833	249.81
295.064	251.81
295.295	251.81
295.525	262.81
295.756	273.81
295.987	265.81
296.217	301.81
296.448	311.81
296.679	266.81
296.909	251.81
297.14	255.81
297.37	259.81
297.601	247.81
297.831	251.81
298.062	244.81
298.292	251.81
298.523	251.81
298.753	251.81
298.984	264.81
299.214	255.81
299.445	250.81
299.675	259.81
299.905	259.81
300.136	267.81
300.366	237.81
300.597	259.81
300.827	267.81
301.057	268.81
301.288	278.81
301.518	277.81
301.748	252.81
301.979	264.81
302.209	275.81
302.439	278.81
302.669	277.81
302.9	276.81
303.13	273.81
303.36	285.81
303.59	283.81
303.82	292.81
304.051	284.81
304.281	266.81
304.511	264.81
304.741	272.81
304.971	260.81
305.201	254.81
305.431	275.81
305.661	266.81
305.891	281.81
306.121	278.81
306.352	285.81
306.582	284.81
306.812	279.81
307.042	273.81
307.272	277.81
307.502	272.81
307.731	284.81
307.961	255.81
308.191	273.81
308.421	273.81
308.651	284.81
308.881	290.81
309.111	283.81
309.341	282.81
309.571	317.81
309.8	331.81
310.03	337.81
310.26	351.81
310.49	333.81
310.72	362.81
310.949	390.81
311.179	405.81
311.409	364.81
311.639	351.81
311.868	357.81
312.098	358.81
312.328	356.81
312.557	375.81
312.787	415.81
313.017	394.81
313.246	353.81
313.476	346.81
313.706	339.81
313.935	375.81
314.165	359.81
314.394	379.81
314.624	404.81
314.853	367.81
315.083	350.81
315.312	345.81
315.542	330.81
315.771	321.81
316.001	319.81
316.23	331.81
316.46	318.81
316.689	329.81
316.919	358.81
317.148	347.81
317.377	359.81
317.607	352.81
317.836	353.81
318.065	333.81
318.295	354.81
318.524	344.81
318.753	314.81
318.983	305.81
319.212	340.81
319.441	353.81
319.67	369.81
319.9	344.81
320.129	342.81
320.358	352.81
320.587	360.81
320.816	357.81
321.046	369.81
321.275	371.81
321.504	383.81
321.733	404.81
321.962	377.81
322.191	407.81
322.42	442.81
322.649	443.81
322.878	465.81
323.108	499.81
323.337	517.81
323.566	568.81
323.795	599.81
324.024	662.81
324.253	857.81
324.482	1294.81
324.71	1995.81
324.939	2730.81
325.168	2395.81
325.397	1287.81
325.626	839.81
325.855	664.81
326.084	589.81
326.313	565.81
326.542	577.81
326.77	627.81
326.999	779.81
327.228	1124.81
327.457	1691.81
327.686	2085.81
327.914	1450.81
328.143	915.81
328.372	775.81
328.6	695.81
328.829	646.81
329.058	689.81
329.287	691.81
329.515	616.81
329.744	535.81
329.972	524.81
330.201	531.81
330.43	559.81
330.658	617.81
330.887	716.81
331.115	699.81
331.344	565.81
331.572	508.81
331.801	499.81
332.03	488.81
332.258	477.81
332.486	422.81
332.715	422.81
332.943	417.81
333.172	386.81
333.4	412.81
333.629	403.81
333.857	394.81
334.085	401.81
334.314	382.81
334.542	389.81
334.771	420.81
334.999	412.81
335.227	415.81
335.455	391.81
335.684	377.81
335.912	381.81
336.14	379.81
336.369	385.81
336.597	390.81
336.825	404.81
337.053	375.81
337.281	374.81
337.51	391.81
337.738	389.81
337.966	393.81
338.194	385.81
338.422	401.81
338.65	380.81
338.878	400.81
339.106	371.81
339.334	368.81
339.562	369.81
339.79	359.81
340.018	361.81
340.246	370.81
340.474	367.81
340.702	382.81
340.93	394.81
341.158	387.81
341.386	353.81
341.614	380.81
341.842	389.81
342.07	363.81
342.298	379.81
342.526	378.81
342.754	353.81
342.981	349.81
343.209	335.81
343.437	339.81
343.665	360.81
343.893	363.81
344.12	382.81
344.348	367.81
344.576	379.81
344.804	374.81
345.031	420.81
345.259	425.81
345.487	394.81
345.714	385.81
345.942	389.81
346.17	377.81
346.397	358.81
346.625	401.81
346.853	394.81
347.08	384.81
347.308	392.81
347.535	395.81
347.763	405.81
347.99	395.81
348.218	398.81
348.445	419.81
348.673	418.81
348.9	371.81
349.128	367.81
349.355	364.81
349.583	366.81
349.81	360.81
350.037	340.81
350.265	348.81
350.492	373.81
350.72	364.81
350.947	383.81
351.174	386.81
351.402	412.81
351.629	389.81
351.856	401.81
352.083	394.81
352.311	415.81
352.538	434.81
352.765	439.81
352.992	415.81
353.22	385.81
353.447	400.81
353.674	369.81
353.901	355.81
354.128	349.81
354.355	322.81
354.583	348.81
354.81	338.81
355.037	351.81
355.264	320.81
355.491	330.81
355.718	345.81
355.945	329.81
356.172	321.81
356.399	335.81
356.626	324.81
356.853	321.81
357.08	311.81
357.307	290.81
357.534	331.81
357.761	328.81
357.988	339.81
358.215	332.81
358.441	334.81
358.668	342.81
358.895	355.81
359.122	367.81
359.349	361.81
359.576	409.81
359.802	419.81
360.029	471.81
360.256	490.81
360.483	440.81
360.709	421.81
360.936	395.81
361.163	392.81
361.39	388.81
361.616	389.81
361.843	373.81
362.07	381.81
362.296	410.81
362.523	405.81
362.749	381.81
362.976	387.81
363.203	354.81
363.429	348.81
363.656	368.81
363.882	372.81
364.109	331.81
364.335	349.81
364.562	355.81
364.788	347.81
365.015	354.81
365.241	357.81
365.468	371.81
365.694	376.81
365.92	364.81
366.147	343.81
366.373	332.81
366.599	364.81
366.826	365.81
367.052	355.81
367.278	326.81
367.505	352.81
367.731	354.81
367.957	362.81
368.184	363.81
368.41	363.81
368.636	354.81
368.862	371.81
369.089	361.81
369.315	351.81
369.541	364.81
369.767	354.81
369.993	344.81
370.219	347.81
370.445	353.81
370.672	321.81
370.898	336.81
371.124	349.81
371.35	343.81
371.576	329.81
371.802	351.81
372.028	325.81
372.254	340.81
372.48	355.81
372.706	330.81
372.932	323.81
373.158	332.81
373.384	337.81
373.61	328.81
373.835	337.81
374.061	330.81
374.287	346.81
374.513	347.81
374.739	343.81
374.965	332.81
375.191	332.81
375.416	316.81
375.642	321.81
375.868	329.81
376.094	340.81
376.319	310.81
376.545	344.81
376.771	345.81
376.997	339.81
377.222	337.81
377.448	344.81
377.674	333.81
377.899	344.81
378.125	329.81
378.35	330.81
378.576	321.81
378.802	310.81
379.027	337.81
379.253	335.81
379.478	324.81
379.704	328.81
379.929	317.81
380.155	320.81
380.38	330.81
380.606	338.81
380.831	345.81
381.057	349.81
381.282	336.81
381.507	338.81
381.733	340.81
381.958	322.81
382.184	319.81
382.409	355.81
382.634	337.81
382.86	347.81
383.085	343.81
383.31	340.81
383.535	323.81
383.761	337.81
383.986	332.81
384.211	319.81
384.436	343.81
384.662	345.81
384.887	332.81
385.112	339.81
385.337	341.81
385.562	336.81
385.787	360.81
386.013	361.81
386.238	373.81
386.463	345.81
386.688	354.81
386.913	369.81
387.138	346.81
387.363	330.81
387.588	357.81
387.813	363.81
388.038	345.81
388.263	345.81
388.488	334.81
388.713	343.81
388.938	365.81
389.163	377.81
389.387	362.81
389.612	337.81
389.837	353.81
390.062	353.81
390.287	344.81
390.512	346.81
390.736	332.81
390.961	348.81
391.186	336.81
391.411	357.81
391.636	374.81
391.86	355.81
392.085	375.81
392.31	362.81
392.534	341.81
392.759	360.81
392.984	337.81
393.208	339.81
393.433	349.81
393.658	373.81
393.882	367.81
394.107	354.81
394.331	350.81
394.556	362.81
394.78	354.81
395.005	352.81
395.229	344.81
395.454	357.81
395.678	361.81
395.903	382.81
396.127	401.81
396.352	415.81
396.576	395.81
396.801	380.81
397.025	376.81
397.249	378.81
397.474	389.81
397.698	386.81
397.922	367.81
398.147	395.81
398.371	407.81
398.595	393.81
398.82	395.81
399.044	380.81
399.268	394.81
399.492	423.81
399.717	402.81
399.941	451.81
400.165	489.81
400.389	490.81
400.613	466.81
400.837	415.81
401.062	432.81
401.286	397.81
401.51	399.81
401.734	401.81
401.958	421.81
402.182	400.81
402.406	419.81
402.63	453.81
402.854	416.81
403.078	421.81
403.302	436.81
403.526	431.81
403.75	426.81
403.974	421.81
404.198	415.81
404.422	427.81
404.645	427.81
404.869	427.81
405.093	445.81
405.317	465.81
405.541	506.81
405.765	455.81
405.988	454.81
406.212	456.81
406.436	494.81
406.66	524.81
406.883	495.81
407.107	511.81
407.331	537.81
407.555	611.81
407.778	605.81
408.002	544.81
408.226	508.81
408.449	486.81
408.673	484.81
408.896	511.81
409.12	565.81
409.344	520.81
409.567	471.81
409.791	423.81
410.014	447.81
410.238	433.81
410.461	434.81
410.685	438.81
410.908	455.81
411.132	509.81
411.355	519.81
411.578	498.81
411.802	441.81
412.025	429.81
412.249	434.81
412.472	431.81
412.695	453.81
412.919	451.81
413.142	432.81
413.365	421.81
413.589	421.81
413.812	400.81
414.035	396.81
414.258	385.81
414.482	391.81
414.705	395.81
414.928	374.81
415.151	392.81
415.374	390.81
415.597	380.81
415.821	393.81
416.044	408.81
416.267	400.81
416.49	405.81
416.713	414.81
416.936	424.81
417.159	397.81
417.382	418.81
417.605	420.81
417.828	434.81
418.051	471.81
418.274	426.81
418.497	417.81
418.72	426.81
418.943	432.81
419.166	402.81
419.389	445.81
419.611	435.81
419.834	453.81
420.057	430.81
420.28	440.81
420.503	424.81
420.726	421.81
420.948	457.81
421.171	513.81
421.394	529.81
421.617	460.81
421.839	428.81
422.062	453.81
422.285	475.81
422.507	508.81
422.73	593.81
422.953	589.81
423.175	521.81
423.398	467.81
423.621	477.81
423.843	496.81
424.066	508.81
424.288	499.81
424.511	525.81
424.733	603.81
424.956	643.81
425.178	621.81
425.401	628.81
425.623	623.81
425.846	556.81
426.068	519.81
426.291	524.81
426.513	522.81
426.735	524.81
426.958	568.81
427.18	663.81
427.402	797.81
427.625	879.81
427.847	837.81
428.069	695.81
428.292	593.81
428.514	542.81
428.736	531.81
428.958	505.81
429.181	481.81
429.403	481.81
429.625	494.81
429.847	519.81
430.069	588.81
430.292	573.81
430.514	521.81
430.736	460.81
430.958	477.81
431.18	455.81
431.402	456.81
431.624	459.81
431.846	420.81
432.068	403.81
432.29	434.81
432.512	433.81
432.734	441.81
432.956	442.81
433.178	468.81
433.4	462.81
433.622	448.81
433.844	428.81
434.066	427.81
434.287	440.81
434.509	431.81
434.731	443.81
434.953	441.81
435.175	466.81
435.397	495.81
435.618	488.81
435.84	563.81
436.062	663.81
436.284	714.81
436.505	624.81
436.727	523.81
436.949	491.81
437.17	467.81
437.392	525.81
437.614	519.81
437.835	556.81
438.057	673.81
438.278	777.81
438.5	791.81
438.721	818.81
438.943	751.81
439.165	624.81
439.386	561.81
439.608	548.81
439.829	568.81
440.05	624.81
440.272	666.81
440.493	607.81
440.715	557.81
440.936	520.81
441.158	511.81
441.379	493.81
441.6	503.81
441.822	517.81
442.043	578.81
442.264	663.81
442.486	709.81
442.707	593.81
442.928	555.81
443.149	559.81
443.371	589.81
443.592	645.81
443.813	678.81
444.034	733.81
444.255	612.81
444.476	535.81
444.698	509.81
444.919	524.81
445.14	606.81
445.361	590.81
445.582	578.81
445.803	640.81
446.024	770.81
446.245	773.81
446.466	702.81
446.687	601.81
446.908	537.81
447.129	515.81
447.35	503.81
447.571	503.81
447.792	499.81
448.013	511.81
448.234	500.81
448.455	597.81
448.675	679.81
448.896	767.81
449.117	693.81
449.338	670.81
449.559	767.81
449.779	809.81
450	652.81
450.221	583.81
450.442	522.81
450.662	507.81
450.883	511.81
451.104	542.81
451.324	522.81
451.545	500.81
451.766	453.81
451.986	465.81
452.207	465.81
452.428	457.81
452.648	433.81
452.869	458.81
453.089	480.81
453.31	452.81
453.53	460.81
453.751	470.81
453.971	477.81
454.192	479.81
454.412	460.81
454.633	460.81
454.853	443.81
455.073	461.81
455.294	497.81
455.514	553.81
455.734	524.81
455.955	420.81
456.175	416.81
456.395	410.81
456.616	402.81
456.836	403.81
457.056	398.81
457.276	380.81
457.497	389.81
457.717	379.81
457.937	407.81
458.157	420.81
458.377	426.81
458.598	444.81
458.818	540.81
459.038	647.81
459.258	645.81
459.478	523.81
459.698	484.81
459.918	473.81
460.138	457.81
460.358	437.81
460.578	429.81
460.798	428.81
461.018	419.81
461.238	411.81
461.458	431.81
461.678	411.81
461.898	431.81
462.118	415.81
462.338	413.81
462.558	422.81
462.777	419.81
462.997	447.81
463.217	451.81
463.437	438.81
463.657	434.81
463.876	449.81
464.096	470.81
464.316	443.81
464.536	447.81
464.755	464.81
464.975	463.81
465.195	551.81
465.414	705.81
465.634	602.81
465.854	509.81
466.073	481.81
466.293	443.81
466.512	442.81
466.732	421.81
466.951	433.81
467.171	417.81
467.391	456.81
467.61	458.81
467.829	428.81
468.049	436.81
468.268	403.81
468.488	419.81
468.707	416.81
468.927	427.81
469.146	410.81
469.365	426.81
469.585	398.81
469.804	434.81
470.023	443.81
470.243	445.81
470.462	455.81
470.681	490.81
470.901	480.81
471.12	431.81
471.339	441.81
471.558	447.81
471.777	422.81
471.997	421.81
472.216	427.81
472.435	446.81
472.654	417.81
472.873	440.81
473.092	413.81
473.311	436.81
473.53	437.81
473.749	441.81
473.968	495.81
474.187	628.81
474.406	636.81
474.625	537.81
474.844	447.81
475.063	457.81
475.282	438.81
475.501	448.81
475.72	433.81
475.939	461.81
476.158	458.81
476.377	435.81
476.596	454.81
476.814	464.81
477.033	469.81
477.252	462.81
477.471	475.81
477.69	458.81
477.908	460.81
478.127	469.81
478.346	478.81
478.564	480.81
478.783	482.81
479.002	502.81
479.22	486.81
479.439	503.81
479.658	537.81
479.876	569.81
480.095	537.81
480.313	578.81
480.532	543.81
480.751	525.81
480.969	534.81
481.188	544.81
481.406	541.81
481.624	531.81
481.843	516.81
482.061	508.81
482.28	529.81
482.498	512.81
482.717	511.81
482.935	495.81
483.153	491.81
483.372	514.81
483.59	516.81
483.808	525.81
484.027	520.81
484.245	523.81
484.463	505.81
484.681	504.81
484.9	546.81
485.118	541.81
485.336	525.81
485.554	543.81
485.772	544.81
485.99	529.81
486.209	538.81
486.427	551.81
486.645	554.81
486.863	613.81
487.081	586.81
487.299	586.81
487.517	578.81
487.735	566.81
487.953	566.81
488.171	579.81
488.389	552.81
488.607	576.81
488.825	577.81
489.043	573.81
489.261	567.81
489.479	575.81
489.696	608.81
489.914	589.81
490.132	600.81
490.35	605.81
490.568	598.81
490.786	616.81
491.003	604.81
491.221	642.81
491.439	643.81
491.657	636.81
491.874	627.81
492.092	645.81
492.31	647.81
492.527	650.81
492.745	663.81
492.963	659.81
493.18	666.81
493.398	669.81
493.615	684.81
493.833	660.81
494.05	676.81
494.268	699.81
494.485	669.81
494.703	657.81
494.92	691.81
495.138	659.81
495.355	691.81
495.573	696.81
495.79	695.81
496.008	682.81
496.225	683.81
496.442	697.81
496.66	691.81
496.877	696.81
497.094	703.81
497.312	681.81
497.529	690.81
497.746	697.81
497.963	720.81
498.181	747.81
498.398	749.81
498.615	725.81
498.832	740.81
499.049	736.81
499.267	737.81
499.484	736.81
499.701	785.81
499.918	753.81
500.135	795.81
500.352	795.81
500.569	814.81
500.786	782.81
501.003	822.81
501.22	796.81
501.437	785.81
501.654	799.81
501.871	841.81
