Data from 1987.PennyLincolnUp.Lamp.En5.5.200Scan.071819.P2_HRD10591_17-15-06-971.txt Node
Date: Thu Jul 18 17:15:06 EDT 2019
User: cochatt
Spectrometer: HR+D1059
Trigger mode: 1
Integration Time (sec): 1.000000E-1
Scans to average: 1
Electric dark correction enabled: true
Nonlinearity correction enabled: false
Boxcar width: 0
XAxis mode: Wavelengths
Number of Pixels in Spectrum: 2048
>>>>>Begin Spectral Data<<<<<
223.165	-20.38
223.4	-20.38
223.635	-20.38
223.869	-25.38
224.104	-8.38
224.338	-14.38
224.573	-28.38
224.808	-26.38
225.042	-10.38
225.277	-12.38
225.511	0.62
225.746	10.62
225.98	7.62
226.215	10.62
226.449	27.62
226.683	27.62
226.918	31.62
227.152	29.62
227.387	37.62
227.621	43.62
227.856	37.62
228.09	49.62
228.324	57.62
228.559	53.62
228.793	61.62
229.027	99.62
229.262	117.62
229.496	126.62
229.73	148.62
229.964	173.62
230.199	129.62
230.433	126.62
230.667	116.62
230.901	120.62
231.136	108.62
231.37	109.62
231.604	118.62
231.838	104.62
232.072	117.62
232.306	111.62
232.541	100.62
232.775	111.62
233.009	123.62
233.243	129.62
233.477	119.62
233.711	113.62
233.945	108.62
234.179	103.62
234.413	128.62
234.647	107.62
234.881	113.62
235.115	107.62
235.349	109.62
235.583	120.62
235.817	123.62
236.051	127.62
236.285	123.62
236.519	121.62
236.753	136.62
236.987	159.62
237.221	189.62
237.455	246.62
237.689	201.62
237.922	145.62
238.156	139.62
238.39	127.62
238.624	124.62
238.858	117.62
239.091	123.62
239.325	119.62
239.559	119.62
239.793	144.62
240.027	133.62
240.26	139.62
240.494	178.62
240.728	161.62
240.961	153.62
241.195	134.62
241.429	123.62
241.662	129.62
241.896	127.62
242.13	122.62
242.363	137.62
242.597	136.62
242.83	137.62
243.064	119.62
243.298	128.62
243.531	140.62
243.765	123.62
243.998	144.62
244.232	136.62
244.465	140.62
244.699	137.62
244.932	146.62
245.166	147.62
245.399	134.62
245.633	137.62
245.866	140.62
246.099	130.62
246.333	138.62
246.566	130.62
246.8	155.62
247.033	141.62
247.266	145.62
247.5	147.62
247.733	162.62
247.966	154.62
248.2	156.62
248.433	155.62
248.666	173.62
248.899	176.62
249.133	203.62
249.366	201.62
249.599	207.62
249.832	183.62
250.066	159.62
250.299	173.62
250.532	166.62
250.765	186.62
250.998	203.62
251.231	221.62
251.465	211.62
251.698	202.62
251.931	193.62
252.164	193.62
252.397	201.62
252.63	205.62
252.863	220.62
253.096	211.62
253.329	216.62
253.562	236.62
253.795	215.62
254.028	220.62
254.261	221.62
254.494	231.62
254.727	244.62
254.96	278.62
255.193	271.62
255.426	243.62
255.659	235.62
255.892	230.62
256.124	226.62
256.357	207.62
256.59	193.62
256.823	186.62
257.056	194.62
257.289	196.62
257.521	193.62
257.754	208.62
257.987	196.62
258.22	191.62
258.452	184.62
258.685	193.62
258.918	187.62
259.151	178.62
259.383	188.62
259.616	219.62
259.849	196.62
260.081	229.62
260.314	243.62
260.547	250.62
260.779	235.62
261.012	218.62
261.244	213.62
261.477	209.62
261.71	216.62
261.942	217.62
262.175	228.62
262.407	229.62
262.64	194.62
262.872	192.62
263.105	206.62
263.337	195.62
263.57	198.62
263.802	210.62
264.035	190.62
264.267	197.62
264.499	200.62
264.732	186.62
264.964	199.62
265.197	188.62
265.429	192.62
265.661	193.62
265.894	191.62
266.126	189.62
266.358	185.62
266.591	176.62
266.823	200.62
267.055	213.62
267.287	189.62
267.52	191.62
267.752	204.62
267.984	197.62
268.216	203.62
268.448	209.62
268.681	200.62
268.913	225.62
269.145	225.62
269.377	241.62
269.609	245.62
269.841	248.62
270.073	257.62
270.306	273.62
270.538	268.62
270.77	300.62
271.002	280.62
271.234	272.62
271.466	292.62
271.698	314.62
271.93	307.62
272.162	298.62
272.394	300.62
272.626	291.62
272.858	291.62
273.09	268.62
273.322	249.62
273.553	243.62
273.785	240.62
274.017	244.62
274.249	259.62
274.481	225.62
274.713	232.62
274.945	254.62
275.176	240.62
275.408	236.62
275.64	219.62
275.872	233.62
276.104	233.62
276.335	244.62
276.567	241.62
276.799	261.62
277.031	287.62
277.262	285.62
277.494	289.62
277.726	275.62
277.957	247.62
278.189	250.62
278.421	243.62
278.652	232.62
278.884	232.62
279.115	227.62
279.347	239.62
279.579	224.62
279.81	239.62
280.042	225.62
280.273	225.62
280.505	221.62
280.736	227.62
280.968	221.62
281.199	220.62
281.431	226.62
281.662	220.62
281.894	228.62
282.125	232.62
282.356	244.62
282.588	279.62
282.819	267.62
283.051	244.62
283.282	221.62
283.513	224.62
283.745	226.62
283.976	221.62
284.207	224.62
284.439	246.62
284.67	251.62
284.901	235.62
285.132	236.62
285.364	223.62
285.595	226.62
285.826	220.62
286.057	217.62
286.288	229.62
286.52	229.62
286.751	221.62
286.982	227.62
287.213	224.62
287.444	233.62
287.675	220.62
287.906	246.62
288.138	249.62
288.369	258.62
288.6	267.62
288.831	253.62
289.062	238.62
289.293	263.62
289.524	235.62
289.755	232.62
289.986	236.62
290.217	233.62
290.448	258.62
290.679	227.62
290.91	241.62
291.141	235.62
291.371	257.62
291.602	218.62
291.833	246.62
292.064	252.62
292.295	240.62
292.526	230.62
292.757	255.62
292.987	232.62
293.218	244.62
293.449	225.62
293.68	225.62
293.91	222.62
294.141	228.62
294.372	217.62
294.603	238.62
294.833	249.62
295.064	242.62
295.295	231.62
295.525	232.62
295.756	244.62
295.987	262.62
296.217	291.62
296.448	297.62
296.679	251.62
296.909	221.62
297.14	236.62
297.37	263.62
297.601	251.62
297.831	240.62
298.062	233.62
298.292	257.62
298.523	257.62
298.753	268.62
298.984	229.62
299.214	247.62
299.445	243.62
299.675	233.62
299.905	248.62
300.136	254.62
300.366	246.62
300.597	243.62
300.827	269.62
301.057	294.62
301.288	284.62
301.518	280.62
301.748	265.62
301.979	258.62
302.209	274.62
302.439	256.62
302.669	267.62
302.9	268.62
303.13	255.62
303.36	248.62
303.59	284.62
303.82	284.62
304.051	279.62
304.281	264.62
304.511	258.62
304.741	266.62
304.971	246.62
305.201	254.62
305.431	259.62
305.661	260.62
305.891	273.62
306.121	270.62
306.352	293.62
306.582	278.62
306.812	280.62
307.042	267.62
307.272	281.62
307.502	265.62
307.731	277.62
307.961	272.62
308.191	276.62
308.421	284.62
308.651	310.62
308.881	285.62
309.111	280.62
309.341	291.62
309.571	294.62
309.8	319.62
310.03	321.62
310.26	327.62
310.49	329.62
310.72	329.62
310.949	368.62
311.179	361.62
311.409	348.62
311.639	331.62
311.868	332.62
312.098	340.62
312.328	345.62
312.557	361.62
312.787	371.62
313.017	379.62
313.246	339.62
313.476	346.62
313.706	336.62
313.935	332.62
314.165	347.62
314.394	375.62
314.624	354.62
314.853	340.62
315.083	344.62
315.312	337.62
315.542	300.62
315.771	319.62
316.001	305.62
316.23	311.62
316.46	316.62
316.689	318.62
316.919	330.62
317.148	350.62
317.377	338.62
317.607	322.62
317.836	335.62
318.065	318.62
318.295	314.62
318.524	304.62
318.753	319.62
318.983	317.62
319.212	313.62
319.441	349.62
319.67	343.62
319.9	331.62
320.129	317.62
320.358	355.62
320.587	331.62
320.816	337.62
321.046	349.62
321.275	359.62
321.504	354.62
321.733	348.62
321.962	387.62
322.191	373.62
322.42	408.62
322.649	419.62
322.878	431.62
323.108	440.62
323.337	503.62
323.566	531.62
323.795	579.62
324.024	635.62
324.253	796.62
324.482	1190.62
324.71	1841.62
324.939	2553.62
325.168	2221.62
325.397	1232.62
325.626	779.62
325.855	625.62
326.084	557.62
326.313	535.62
326.542	550.62
326.77	595.62
326.999	722.62
327.228	1017.62
327.457	1589.62
327.686	1957.62
327.914	1360.62
328.143	882.62
328.372	727.62
328.6	633.62
328.829	610.62
329.058	641.62
329.287	639.62
329.515	577.62
329.744	510.62
329.972	500.62
330.201	504.62
330.43	511.62
330.658	569.62
330.887	653.62
331.115	636.62
331.344	543.62
331.572	472.62
331.801	479.62
332.03	461.62
332.258	424.62
332.486	403.62
332.715	401.62
332.943	395.62
333.172	387.62
333.4	379.62
333.629	397.62
333.857	396.62
334.085	401.62
334.314	387.62
334.542	360.62
334.771	395.62
334.999	377.62
335.227	394.62
335.455	359.62
335.684	358.62
335.912	368.62
336.14	358.62
336.369	354.62
336.597	399.62
336.825	390.62
337.053	383.62
337.281	359.62
337.51	340.62
337.738	378.62
337.966	383.62
338.194	386.62
338.422	365.62
338.65	369.62
338.878	367.62
339.106	371.62
339.334	373.62
339.562	354.62
339.79	361.62
340.018	349.62
340.246	386.62
340.474	377.62
340.702	379.62
340.93	369.62
341.158	361.62
341.386	373.62
341.614	378.62
341.842	370.62
342.07	375.62
342.298	376.62
342.526	337.62
342.754	343.62
342.981	346.62
343.209	348.62
343.437	336.62
343.665	336.62
343.893	333.62
344.12	342.62
344.348	356.62
344.576	347.62
344.804	367.62
345.031	393.62
345.259	385.62
345.487	375.62
345.714	377.62
345.942	343.62
346.17	363.62
346.397	358.62
346.625	348.62
346.853	363.62
347.08	347.62
347.308	370.62
347.535	373.62
347.763	379.62
347.99	407.62
348.218	392.62
348.445	388.62
348.673	375.62
348.9	363.62
349.128	341.62
349.355	358.62
349.583	344.62
349.81	363.62
350.037	360.62
350.265	371.62
350.492	347.62
350.72	351.62
350.947	359.62
351.174	363.62
351.402	390.62
351.629	375.62
351.856	376.62
352.083	384.62
352.311	392.62
352.538	397.62
352.765	415.62
352.992	383.62
353.22	372.62
353.447	371.62
353.674	368.62
353.901	342.62
354.128	337.62
354.355	344.62
354.583	341.62
354.81	323.62
355.037	328.62
355.264	328.62
355.491	313.62
355.718	326.62
355.945	311.62
356.172	307.62
356.399	331.62
356.626	286.62
356.853	312.62
357.08	316.62
357.307	322.62
357.534	324.62
357.761	313.62
357.988	313.62
358.215	318.62
358.441	333.62
358.668	315.62
358.895	312.62
359.122	340.62
359.349	346.62
359.576	362.62
359.802	397.62
360.029	449.62
360.256	475.62
360.483	436.62
360.709	397.62
360.936	375.62
361.163	384.62
361.39	383.62
361.616	393.62
361.843	376.62
362.07	367.62
362.296	378.62
362.523	375.62
362.749	373.62
362.976	372.62
363.203	350.62
363.429	349.62
363.656	343.62
363.882	353.62
364.109	344.62
364.335	344.62
364.562	349.62
364.788	328.62
365.015	350.62
365.241	367.62
365.468	354.62
365.694	350.62
365.92	350.62
366.147	352.62
366.373	330.62
366.599	333.62
366.826	320.62
367.052	348.62
367.278	329.62
367.505	331.62
367.731	352.62
367.957	333.62
368.184	346.62
368.41	347.62
368.636	362.62
368.862	352.62
369.089	343.62
369.315	343.62
369.541	340.62
369.767	351.62
369.993	332.62
370.219	339.62
370.445	325.62
370.672	326.62
370.898	327.62
371.124	334.62
371.35	337.62
371.576	333.62
371.802	309.62
372.028	317.62
372.254	321.62
372.48	335.62
372.706	303.62
372.932	311.62
373.158	321.62
373.384	326.62
373.61	332.62
373.835	333.62
374.061	336.62
374.287	329.62
374.513	328.62
374.739	324.62
374.965	332.62
375.191	341.62
375.416	340.62
375.642	320.62
375.868	337.62
376.094	325.62
376.319	321.62
376.545	332.62
376.771	341.62
376.997	315.62
377.222	328.62
377.448	325.62
377.674	325.62
377.899	323.62
378.125	332.62
378.35	309.62
378.576	326.62
378.802	325.62
379.027	322.62
379.253	325.62
379.478	312.62
379.704	316.62
379.929	341.62
380.155	320.62
380.38	304.62
380.606	341.62
380.831	326.62
381.057	343.62
381.282	312.62
381.507	315.62
381.733	339.62
381.958	342.62
382.184	336.62
382.409	329.62
382.634	333.62
382.86	318.62
383.085	321.62
383.31	328.62
383.535	316.62
383.761	338.62
383.986	343.62
384.211	344.62
384.436	348.62
384.662	329.62
384.887	328.62
385.112	332.62
385.337	354.62
385.562	317.62
385.787	349.62
386.013	361.62
386.238	344.62
386.463	344.62
386.688	329.62
386.913	335.62
387.138	344.62
387.363	359.62
387.588	335.62
387.813	335.62
388.038	330.62
388.263	329.62
388.488	345.62
388.713	340.62
388.938	327.62
389.163	361.62
389.387	367.62
389.612	345.62
389.837	345.62
390.062	365.62
390.287	333.62
390.512	343.62
390.736	340.62
390.961	354.62
391.186	362.62
391.411	351.62
391.636	352.62
391.86	345.62
392.085	337.62
392.31	325.62
392.534	358.62
392.759	340.62
392.984	354.62
393.208	344.62
393.433	336.62
393.658	347.62
393.882	330.62
394.107	349.62
394.331	352.62
394.556	348.62
394.78	342.62
395.005	348.62
395.229	361.62
395.454	352.62
395.678	365.62
395.903	370.62
396.127	373.62
396.352	387.62
396.576	372.62
396.801	355.62
397.025	354.62
397.249	367.62
397.474	377.62
397.698	384.62
397.922	383.62
398.147	384.62
398.371	383.62
398.595	379.62
398.82	377.62
399.044	375.62
399.268	391.62
399.492	388.62
399.717	431.62
399.941	462.62
400.165	463.62
400.389	495.62
400.613	460.62
400.837	434.62
401.062	402.62
401.286	402.62
401.51	418.62
401.734	397.62
401.958	397.62
402.182	403.62
402.406	404.62
402.63	423.62
402.854	416.62
403.078	397.62
403.302	414.62
403.526	447.62
403.75	438.62
403.974	407.62
404.198	387.62
404.422	406.62
404.645	423.62
404.869	420.62
405.093	451.62
405.317	459.62
405.541	473.62
405.765	464.62
405.988	442.62
406.212	454.62
406.436	464.62
406.66	503.62
406.883	454.62
407.107	482.62
407.331	543.62
407.555	597.62
407.778	610.62
408.002	524.62
408.226	477.62
408.449	482.62
408.673	474.62
408.896	483.62
409.12	560.62
409.344	507.62
409.567	468.62
409.791	437.62
410.014	434.62
410.238	422.62
410.461	411.62
410.685	435.62
410.908	450.62
411.132	471.62
411.355	519.62
411.578	467.62
411.802	433.62
412.025	428.62
412.249	407.62
412.472	418.62
412.695	436.62
412.919	426.62
413.142	401.62
413.365	394.62
413.589	424.62
413.812	402.62
414.035	385.62
414.258	387.62
414.482	402.62
414.705	392.62
414.928	373.62
415.151	373.62
415.374	393.62
415.597	370.62
415.821	387.62
416.044	400.62
416.267	401.62
416.49	390.62
416.713	383.62
416.936	386.62
417.159	407.62
417.382	418.62
417.605	409.62
417.828	416.62
418.051	429.62
418.274	444.62
418.497	405.62
418.72	410.62
418.943	383.62
419.166	432.62
419.389	415.62
419.611	409.62
419.834	429.62
420.057	433.62
420.28	405.62
420.503	415.62
420.726	416.62
420.948	455.62
421.171	481.62
421.394	505.62
421.617	457.62
421.839	442.62
422.062	429.62
422.285	443.62
422.507	506.62
422.73	600.62
422.953	577.62
423.175	518.62
423.398	483.62
423.621	465.62
423.843	479.62
424.066	485.62
424.288	490.62
424.511	497.62
424.733	563.62
424.956	630.62
425.178	627.62
425.401	636.62
425.623	621.62
425.846	528.62
426.068	509.62
426.291	501.62
426.513	516.62
426.735	528.62
426.958	539.62
427.18	639.62
427.402	748.62
427.625	831.62
427.847	777.62
428.069	649.62
428.292	559.62
428.514	519.62
428.736	511.62
428.958	480.62
429.181	461.62
429.403	477.62
429.625	479.62
429.847	510.62
430.069	585.62
430.292	587.62
430.514	480.62
430.736	453.62
430.958	453.62
431.18	433.62
431.402	419.62
431.624	419.62
431.846	422.62
432.068	433.62
432.29	415.62
432.512	412.62
432.734	435.62
432.956	435.62
433.178	454.62
433.4	440.62
433.622	410.62
433.844	433.62
434.066	406.62
434.287	431.62
434.509	450.62
434.731	437.62
434.953	444.62
435.175	466.62
435.397	495.62
435.618	499.62
435.84	556.62
436.062	627.62
436.284	705.62
436.505	614.62
436.727	529.62
436.949	486.62
437.17	465.62
437.392	467.62
437.614	501.62
437.835	545.62
438.057	665.62
438.278	747.62
438.5	705.62
438.721	740.62
438.943	744.62
439.165	603.62
439.386	548.62
439.608	535.62
439.829	547.62
440.05	582.62
440.272	625.62
440.493	584.62
440.715	493.62
440.936	474.62
441.158	500.62
441.379	465.62
441.6	484.62
441.822	519.62
442.043	572.62
442.264	651.62
442.486	660.62
442.707	599.62
442.928	519.62
443.149	556.62
443.371	548.62
443.592	599.62
443.813	667.62
444.034	720.62
444.255	618.62
444.476	524.62
444.698	510.62
444.919	488.62
445.14	595.62
445.361	569.62
445.582	592.62
445.803	615.62
446.024	725.62
446.245	707.62
446.466	649.62
446.687	583.62
446.908	532.62
447.129	503.62
447.35	498.62
447.571	475.62
447.792	476.62
448.013	476.62
448.234	490.62
448.455	562.62
448.675	668.62
448.896	743.62
449.117	680.62
449.338	633.62
449.559	745.62
449.779	791.62
450	663.62
450.221	560.62
450.442	501.62
450.662	479.62
450.883	473.62
451.104	526.62
451.324	519.62
451.545	469.62
451.766	462.62
451.986	447.62
452.207	425.62
452.428	426.62
452.648	441.62
452.869	447.62
453.089	451.62
453.31	446.62
453.53	437.62
453.751	421.62
453.971	445.62
454.192	481.62
454.412	446.62
454.633	433.62
454.853	433.62
455.073	423.62
455.294	443.62
455.514	540.62
455.734	507.62
455.955	438.62
456.175	405.62
456.395	399.62
456.616	378.62
456.836	379.62
457.056	383.62
457.276	381.62
457.497	384.62
457.717	401.62
457.937	402.62
458.157	401.62
458.377	432.62
458.598	427.62
458.818	507.62
459.038	639.62
459.258	612.62
459.478	521.62
459.698	466.62
459.918	427.62
460.138	439.62
460.358	421.62
460.578	417.62
460.798	405.62
461.018	415.62
461.238	409.62
461.458	405.62
461.678	420.62
461.898	427.62
462.118	405.62
462.338	414.62
462.558	412.62
462.777	413.62
462.997	433.62
463.217	432.62
463.437	440.62
463.657	436.62
463.876	428.62
464.096	415.62
464.316	431.62
464.536	448.62
464.755	461.62
464.975	487.62
465.195	528.62
465.414	651.62
465.634	569.62
465.854	484.62
466.073	447.62
466.293	457.62
466.512	416.62
466.732	451.62
466.951	431.62
467.171	415.62
467.391	417.62
467.61	459.62
467.829	441.62
468.049	436.62
468.268	416.62
468.488	405.62
468.707	422.62
468.927	403.62
469.146	387.62
469.365	391.62
469.585	395.62
469.804	417.62
470.023	443.62
470.243	437.62
470.462	445.62
470.681	460.62
470.901	461.62
471.12	447.62
471.339	429.62
471.558	429.62
471.777	431.62
471.997	415.62
472.216	419.62
472.435	423.62
472.654	419.62
472.873	411.62
473.092	418.62
473.311	408.62
473.53	422.62
473.749	415.62
473.968	483.62
474.187	586.62
474.406	617.62
474.625	513.62
474.844	455.62
475.063	436.62
475.282	438.62
475.501	444.62
475.72	419.62
475.939	431.62
476.158	431.62
476.377	453.62
476.596	432.62
476.814	442.62
477.033	447.62
477.252	444.62
477.471	471.62
477.69	448.62
477.908	469.62
478.127	448.62
478.346	457.62
478.564	458.62
478.783	460.62
479.002	477.62
479.22	482.62
479.439	509.62
479.658	531.62
479.876	538.62
480.095	516.62
480.313	555.62
480.532	525.62
480.751	505.62
480.969	507.62
481.188	515.62
481.406	537.62
481.624	510.62
481.843	501.62
482.061	493.62
482.28	486.62
482.498	490.62
482.717	481.62
482.935	492.62
483.153	496.62
483.372	501.62
483.59	489.62
483.808	490.62
484.027	486.62
484.245	497.62
484.463	503.62
484.681	512.62
484.9	515.62
485.118	522.62
485.336	539.62
485.554	516.62
485.772	522.62
485.99	509.62
486.209	526.62
486.427	546.62
486.645	559.62
486.863	606.62
487.081	586.62
487.299	553.62
487.517	583.62
487.735	543.62
487.953	553.62
488.171	561.62
488.389	542.62
488.607	539.62
488.825	566.62
489.043	553.62
489.261	568.62
489.479	588.62
489.696	553.62
489.914	543.62
490.132	588.62
490.35	561.62
490.568	589.62
490.786	582.62
491.003	610.62
491.221	612.62
491.439	634.62
491.657	633.62
491.874	654.62
492.092	653.62
492.31	641.62
492.527	624.62
492.745	622.62
492.963	630.62
493.18	648.62
493.398	652.62
493.615	643.62
493.833	651.62
494.05	663.62
494.268	673.62
494.485	632.62
494.703	642.62
494.92	663.62
495.138	657.62
495.355	659.62
495.573	682.62
495.79	678.62
496.008	669.62
496.225	659.62
496.442	665.62
496.66	669.62
496.877	669.62
497.094	671.62
497.312	666.62
497.529	674.62
497.746	683.62
497.963	687.62
498.181	704.62
498.398	718.62
498.615	703.62
498.832	722.62
499.049	725.62
499.267	717.62
499.484	732.62
499.701	733.62
499.918	772.62
500.135	759.62
500.352	795.62
500.569	772.62
500.786	775.62
501.003	777.62
501.22	761.62
501.437	802.62
501.654	777.62
501.871	811.62
