Data from 1987.PennyLincolnUp.Lamp.En5.5.200Scan.071819.P2_HRD10591_17-16-30-971.txt Node
Date: Thu Jul 18 17:16:30 EDT 2019
User: cochatt
Spectrometer: HR+D1059
Trigger mode: 1
Integration Time (sec): 1.000000E-1
Scans to average: 1
Electric dark correction enabled: true
Nonlinearity correction enabled: false
Boxcar width: 0
XAxis mode: Wavelengths
Number of Pixels in Spectrum: 2048
>>>>>Begin Spectral Data<<<<<
223.165	-4.81
223.4	-4.81
223.635	-4.81
223.869	-21.81
224.104	-18.81
224.338	-10.81
224.573	-24.81
224.808	-18.81
225.042	-10.81
225.277	-10.81
225.511	10.19
225.746	1.19
225.98	8.19
226.215	2.19
226.449	23.19
226.683	29.19
226.918	25.19
227.152	22.19
227.387	31.19
227.621	49.19
227.856	43.19
228.09	75.19
228.324	53.19
228.559	41.19
228.793	61.19
229.027	110.19
229.262	112.19
229.496	132.19
229.73	154.19
229.964	182.19
230.199	153.19
230.433	133.19
230.667	125.19
230.901	116.19
231.136	118.19
231.37	116.19
231.604	124.19
231.838	108.19
232.072	122.19
232.306	100.19
232.541	118.19
232.775	111.19
233.009	116.19
233.243	116.19
233.477	125.19
233.711	123.19
233.945	111.19
234.179	124.19
234.413	127.19
234.647	108.19
234.881	124.19
235.115	128.19
235.349	121.19
235.583	125.19
235.817	140.19
236.051	132.19
236.285	122.19
236.519	131.19
236.753	142.19
236.987	171.19
237.221	209.19
237.455	255.19
237.689	228.19
237.922	165.19
238.156	152.19
238.39	136.19
238.624	122.19
238.858	144.19
239.091	132.19
239.325	125.19
239.559	130.19
239.793	118.19
240.027	153.19
240.26	165.19
240.494	164.19
240.728	150.19
240.961	168.19
241.195	156.19
241.429	136.19
241.662	136.19
241.896	126.19
242.13	146.19
242.363	156.19
242.597	145.19
242.83	134.19
243.064	133.19
243.298	148.19
243.531	136.19
243.765	135.19
243.998	127.19
244.232	136.19
244.465	125.19
244.699	151.19
244.932	150.19
245.166	140.19
245.399	131.19
245.633	139.19
245.866	139.19
246.099	137.19
246.333	162.19
246.566	127.19
246.8	158.19
247.033	143.19
247.266	174.19
247.5	168.19
247.733	167.19
247.966	171.19
248.2	176.19
248.433	181.19
248.666	186.19
248.899	197.19
249.133	205.19
249.366	229.19
249.599	221.19
249.832	172.19
250.066	187.19
250.299	187.19
250.532	189.19
250.765	198.19
250.998	223.19
251.231	231.19
251.465	225.19
251.698	208.19
251.931	209.19
252.164	200.19
252.397	200.19
252.63	196.19
252.863	198.19
253.096	225.19
253.329	216.19
253.562	229.19
253.795	234.19
254.028	229.19
254.261	208.19
254.494	233.19
254.727	242.19
254.96	287.19
255.193	292.19
255.426	271.19
255.659	241.19
255.892	221.19
256.124	228.19
256.357	226.19
256.59	225.19
256.823	214.19
257.056	213.19
257.289	205.19
257.521	193.19
257.754	220.19
257.987	186.19
258.22	213.19
258.452	214.19
258.685	197.19
258.918	192.19
259.151	204.19
259.383	197.19
259.616	210.19
259.849	226.19
260.081	245.19
260.314	252.19
260.547	256.19
260.779	260.19
261.012	246.19
261.244	212.19
261.477	216.19
261.71	227.19
261.942	222.19
262.175	242.19
262.407	235.19
262.64	216.19
262.872	209.19
263.105	209.19
263.337	204.19
263.57	204.19
263.802	209.19
264.035	204.19
264.267	188.19
264.499	193.19
264.732	200.19
264.964	210.19
265.197	184.19
265.429	189.19
265.661	207.19
265.894	180.19
266.126	187.19
266.358	196.19
266.591	201.19
266.823	210.19
267.055	214.19
267.287	201.19
267.52	207.19
267.752	206.19
267.984	208.19
268.216	199.19
268.448	219.19
268.681	223.19
268.913	244.19
269.145	249.19
269.377	273.19
269.609	255.19
269.841	249.19
270.073	250.19
270.306	302.19
270.538	316.19
270.77	312.19
271.002	302.19
271.234	286.19
271.466	291.19
271.698	306.19
271.93	331.19
272.162	297.19
272.394	302.19
272.626	304.19
272.858	280.19
273.09	279.19
273.322	264.19
273.553	250.19
273.785	247.19
274.017	260.19
274.249	272.19
274.481	245.19
274.713	250.19
274.945	245.19
275.176	249.19
275.408	246.19
275.64	254.19
275.872	249.19
276.104	273.19
276.335	264.19
276.567	264.19
276.799	278.19
277.031	289.19
277.262	313.19
277.494	299.19
277.726	278.19
277.957	273.19
278.189	275.19
278.421	236.19
278.652	237.19
278.884	231.19
279.115	237.19
279.347	239.19
279.579	236.19
279.81	227.19
280.042	233.19
280.273	233.19
280.505	232.19
280.736	245.19
280.968	225.19
281.199	239.19
281.431	215.19
281.662	219.19
281.894	234.19
282.125	238.19
282.356	248.19
282.588	283.19
282.819	297.19
283.051	252.19
283.282	241.19
283.513	237.19
283.745	239.19
283.976	235.19
284.207	234.19
284.439	230.19
284.67	234.19
284.901	240.19
285.132	234.19
285.364	230.19
285.595	252.19
285.826	252.19
286.057	239.19
286.288	251.19
286.52	233.19
286.751	227.19
286.982	219.19
287.213	224.19
287.444	235.19
287.675	246.19
287.906	266.19
288.138	268.19
288.369	246.19
288.6	265.19
288.831	257.19
289.062	261.19
289.293	246.19
289.524	223.19
289.755	220.19
289.986	250.19
290.217	240.19
290.448	245.19
290.679	239.19
290.91	242.19
291.141	233.19
291.371	234.19
291.602	245.19
291.833	240.19
292.064	237.19
292.295	245.19
292.526	262.19
292.757	242.19
292.987	246.19
293.218	235.19
293.449	242.19
293.68	231.19
293.91	236.19
294.141	231.19
294.372	237.19
294.603	224.19
294.833	225.19
295.064	244.19
295.295	255.19
295.525	239.19
295.756	260.19
295.987	258.19
296.217	299.19
296.448	305.19
296.679	272.19
296.909	248.19
297.14	246.19
297.37	242.19
297.601	260.19
297.831	248.19
298.062	256.19
298.292	250.19
298.523	265.19
298.753	249.19
298.984	249.19
299.214	261.19
299.445	273.19
299.675	275.19
299.905	268.19
300.136	278.19
300.366	256.19
300.597	258.19
300.827	255.19
301.057	275.19
301.288	285.19
301.518	276.19
301.748	270.19
301.979	267.19
302.209	269.19
302.439	272.19
302.669	267.19
302.9	286.19
303.13	278.19
303.36	275.19
303.59	271.19
303.82	282.19
304.051	297.19
304.281	263.19
304.511	260.19
304.741	264.19
304.971	262.19
305.201	266.19
305.431	271.19
305.661	265.19
305.891	271.19
306.121	273.19
306.352	296.19
306.582	294.19
306.812	282.19
307.042	288.19
307.272	275.19
307.502	308.19
307.731	286.19
307.961	284.19
308.191	276.19
308.421	289.19
308.651	300.19
308.881	284.19
309.111	288.19
309.341	326.19
309.571	309.19
309.8	335.19
310.03	330.19
310.26	343.19
310.49	341.19
310.72	360.19
310.949	368.19
311.179	388.19
311.409	376.19
311.639	346.19
311.868	342.19
312.098	354.19
312.328	363.19
312.557	394.19
312.787	390.19
313.017	395.19
313.246	367.19
313.476	348.19
313.706	360.19
313.935	348.19
314.165	354.19
314.394	383.19
314.624	384.19
314.853	360.19
315.083	356.19
315.312	341.19
315.542	333.19
315.771	328.19
316.001	334.19
316.23	325.19
316.46	328.19
316.689	317.19
316.919	338.19
317.148	359.19
317.377	354.19
317.607	354.19
317.836	333.19
318.065	342.19
318.295	348.19
318.524	338.19
318.753	333.19
318.983	336.19
319.212	345.19
319.441	351.19
319.67	335.19
319.9	344.19
320.129	340.19
320.358	338.19
320.587	341.19
320.816	355.19
321.046	344.19
321.275	363.19
321.504	369.19
321.733	368.19
321.962	402.19
322.191	397.19
322.42	436.19
322.649	455.19
322.878	447.19
323.108	462.19
323.337	498.19
323.566	520.19
323.795	591.19
324.024	692.19
324.253	879.19
324.482	1248.19
324.71	1959.19
324.939	2759.19
325.168	2394.19
325.397	1279.19
325.626	841.19
325.855	659.19
326.084	590.19
326.313	578.19
326.542	577.19
326.77	620.19
326.999	776.19
327.228	1099.19
327.457	1663.19
327.686	2089.19
327.914	1403.19
328.143	886.19
328.372	728.19
328.6	704.19
328.829	629.19
329.058	657.19
329.287	688.19
329.515	593.19
329.744	540.19
329.972	507.19
330.201	542.19
330.43	565.19
330.658	620.19
330.887	692.19
331.115	670.19
331.344	554.19
331.572	506.19
331.801	492.19
332.03	500.19
332.258	461.19
332.486	433.19
332.715	412.19
332.943	396.19
333.172	394.19
333.4	413.19
333.629	400.19
333.857	424.19
334.085	414.19
334.314	383.19
334.542	397.19
334.771	409.19
334.999	407.19
335.227	401.19
335.455	400.19
335.684	402.19
335.912	378.19
336.14	383.19
336.369	376.19
336.597	372.19
336.825	397.19
337.053	383.19
337.281	379.19
337.51	384.19
337.738	399.19
337.966	371.19
338.194	395.19
338.422	399.19
338.65	381.19
338.878	391.19
339.106	363.19
339.334	361.19
339.562	370.19
339.79	369.19
340.018	371.19
340.246	383.19
340.474	379.19
340.702	368.19
340.93	376.19
341.158	365.19
341.386	372.19
341.614	388.19
341.842	411.19
342.07	380.19
342.298	360.19
342.526	377.19
342.754	375.19
342.981	368.19
343.209	361.19
343.437	361.19
343.665	365.19
343.893	350.19
344.12	367.19
344.348	359.19
344.576	372.19
344.804	374.19
345.031	405.19
345.259	434.19
345.487	410.19
345.714	395.19
345.942	353.19
346.17	364.19
346.397	368.19
346.625	362.19
346.853	391.19
347.08	364.19
347.308	380.19
347.535	410.19
347.763	398.19
347.99	402.19
348.218	400.19
348.445	411.19
348.673	406.19
348.9	382.19
349.128	360.19
349.355	358.19
349.583	344.19
349.81	351.19
350.037	359.19
350.265	369.19
350.492	374.19
350.72	352.19
350.947	359.19
351.174	384.19
351.402	406.19
351.629	408.19
351.856	388.19
352.083	410.19
352.311	417.19
352.538	408.19
352.765	411.19
352.992	416.19
353.22	402.19
353.447	393.19
353.674	355.19
353.901	360.19
354.128	346.19
354.355	358.19
354.583	351.19
354.81	343.19
355.037	353.19
355.264	345.19
355.491	321.19
355.718	335.19
355.945	343.19
356.172	313.19
356.399	327.19
356.626	352.19
356.853	344.19
357.08	330.19
357.307	348.19
357.534	327.19
357.761	340.19
357.988	342.19
358.215	337.19
358.441	338.19
358.668	328.19
358.895	348.19
359.122	341.19
359.349	367.19
359.576	386.19
359.802	429.19
360.029	460.19
360.256	495.19
360.483	459.19
360.709	391.19
360.936	397.19
361.163	388.19
361.39	389.19
361.616	389.19
361.843	391.19
362.07	393.19
362.296	396.19
362.523	370.19
362.749	362.19
362.976	385.19
363.203	356.19
363.429	353.19
363.656	359.19
363.882	361.19
364.109	332.19
364.335	354.19
364.562	352.19
364.788	345.19
365.015	366.19
365.241	352.19
365.468	351.19
365.694	374.19
365.92	374.19
366.147	365.19
366.373	363.19
366.599	334.19
366.826	358.19
367.052	349.19
367.278	351.19
367.505	341.19
367.731	357.19
367.957	330.19
368.184	340.19
368.41	351.19
368.636	369.19
368.862	371.19
369.089	346.19
369.315	343.19
369.541	353.19
369.767	364.19
369.993	345.19
370.219	333.19
370.445	348.19
370.672	340.19
370.898	332.19
371.124	329.19
371.35	341.19
371.576	329.19
371.802	340.19
372.028	343.19
372.254	315.19
372.48	314.19
372.706	304.19
372.932	344.19
373.158	345.19
373.384	329.19
373.61	320.19
373.835	349.19
374.061	338.19
374.287	331.19
374.513	363.19
374.739	333.19
374.965	337.19
375.191	344.19
375.416	306.19
375.642	335.19
375.868	358.19
376.094	343.19
376.319	342.19
376.545	332.19
376.771	350.19
376.997	330.19
377.222	316.19
377.448	339.19
377.674	310.19
377.899	349.19
378.125	338.19
378.35	336.19
378.576	293.19
378.802	322.19
379.027	361.19
379.253	322.19
379.478	345.19
379.704	323.19
379.929	315.19
380.155	330.19
380.38	317.19
380.606	334.19
380.831	345.19
381.057	343.19
381.282	344.19
381.507	319.19
381.733	338.19
381.958	319.19
382.184	346.19
382.409	330.19
382.634	343.19
382.86	324.19
383.085	336.19
383.31	330.19
383.535	336.19
383.761	326.19
383.986	357.19
384.211	344.19
384.436	342.19
384.662	350.19
384.887	365.19
385.112	330.19
385.337	344.19
385.562	349.19
385.787	332.19
386.013	363.19
386.238	374.19
386.463	361.19
386.688	335.19
386.913	341.19
387.138	346.19
387.363	336.19
387.588	349.19
387.813	338.19
388.038	346.19
388.263	349.19
388.488	352.19
388.713	332.19
388.938	348.19
389.163	339.19
389.387	352.19
389.612	343.19
389.837	344.19
390.062	332.19
390.287	343.19
390.512	341.19
390.736	345.19
390.961	363.19
391.186	356.19
391.411	350.19
391.636	343.19
391.86	336.19
392.085	357.19
392.31	364.19
392.534	336.19
392.759	340.19
392.984	355.19
393.208	347.19
393.433	344.19
393.658	352.19
393.882	361.19
394.107	353.19
394.331	349.19
394.556	350.19
394.78	339.19
395.005	354.19
395.229	349.19
395.454	356.19
395.678	372.19
395.903	369.19
396.127	394.19
396.352	412.19
396.576	384.19
396.801	394.19
397.025	366.19
397.249	358.19
397.474	384.19
397.698	385.19
397.922	387.19
398.147	420.19
398.371	390.19
398.595	410.19
398.82	367.19
399.044	376.19
399.268	404.19
399.492	417.19
399.717	441.19
399.941	460.19
400.165	465.19
400.389	484.19
400.613	446.19
400.837	414.19
401.062	421.19
401.286	394.19
401.51	396.19
401.734	379.19
401.958	401.19
402.182	412.19
402.406	414.19
402.63	418.19
402.854	438.19
403.078	422.19
403.302	428.19
403.526	416.19
403.75	402.19
403.974	424.19
404.198	409.19
404.422	416.19
404.645	437.19
404.869	429.19
405.093	444.19
405.317	473.19
405.541	479.19
405.765	478.19
405.988	478.19
406.212	463.19
406.436	470.19
406.66	520.19
406.883	491.19
407.107	500.19
407.331	529.19
407.555	586.19
407.778	595.19
408.002	552.19
408.226	485.19
408.449	484.19
408.673	483.19
408.896	498.19
409.12	541.19
409.344	517.19
409.567	451.19
409.791	422.19
410.014	425.19
410.238	417.19
410.461	446.19
410.685	442.19
410.908	450.19
411.132	478.19
411.355	520.19
411.578	512.19
411.802	447.19
412.025	418.19
412.249	417.19
412.472	422.19
412.695	437.19
412.919	452.19
413.142	408.19
413.365	396.19
413.589	405.19
413.812	404.19
414.035	410.19
414.258	394.19
414.482	386.19
414.705	408.19
414.928	386.19
415.151	394.19
415.374	394.19
415.597	403.19
415.821	400.19
416.044	406.19
416.267	398.19
416.49	397.19
416.713	408.19
416.936	414.19
417.159	396.19
417.382	419.19
417.605	423.19
417.828	421.19
418.051	453.19
418.274	416.19
418.497	408.19
418.72	426.19
418.943	407.19
419.166	420.19
419.389	430.19
419.611	407.19
419.834	425.19
420.057	433.19
420.28	447.19
420.503	426.19
420.726	415.19
420.948	451.19
421.171	485.19
421.394	535.19
421.617	459.19
421.839	447.19
422.062	434.19
422.285	463.19
422.507	539.19
422.73	569.19
422.953	577.19
423.175	510.19
423.398	481.19
423.621	480.19
423.843	492.19
424.066	513.19
424.288	482.19
424.511	508.19
424.733	593.19
424.956	644.19
425.178	648.19
425.401	608.19
425.623	640.19
425.846	560.19
426.068	520.19
426.291	504.19
426.513	520.19
426.735	519.19
426.958	576.19
427.18	630.19
427.402	746.19
427.625	830.19
427.847	832.19
428.069	673.19
428.292	583.19
428.514	537.19
428.736	506.19
428.958	512.19
429.181	485.19
429.403	463.19
429.625	483.19
429.847	530.19
430.069	583.19
430.292	586.19
430.514	499.19
430.736	488.19
430.958	470.19
431.18	453.19
431.402	432.19
431.624	420.19
431.846	409.19
432.068	417.19
432.29	433.19
432.512	429.19
432.734	453.19
432.956	463.19
433.178	472.19
433.4	453.19
433.622	444.19
433.844	443.19
434.066	432.19
434.287	422.19
434.509	430.19
434.731	435.19
434.953	439.19
435.175	446.19
435.397	486.19
435.618	534.19
435.84	545.19
436.062	643.19
436.284	681.19
436.505	607.19
436.727	528.19
436.949	519.19
437.17	482.19
437.392	486.19
437.614	507.19
437.835	571.19
438.057	652.19
438.278	752.19
438.5	749.19
438.721	771.19
438.943	736.19
439.165	617.19
439.386	582.19
439.608	528.19
439.829	572.19
440.05	600.19
440.272	632.19
440.493	566.19
440.715	545.19
440.936	504.19
441.158	505.19
441.379	462.19
441.6	478.19
441.822	519.19
442.043	575.19
442.264	630.19
442.486	676.19
442.707	588.19
442.928	568.19
443.149	549.19
443.371	562.19
443.592	599.19
443.813	712.19
444.034	745.19
444.255	628.19
444.476	546.19
444.698	514.19
444.919	522.19
445.14	618.19
445.361	598.19
445.582	569.19
445.803	638.19
446.024	741.19
446.245	768.19
446.466	674.19
446.687	601.19
446.908	556.19
447.129	512.19
447.35	511.19
447.571	483.19
447.792	474.19
448.013	494.19
448.234	502.19
448.455	580.19
448.675	688.19
448.896	774.19
449.117	670.19
449.338	650.19
449.559	757.19
449.779	833.19
450	667.19
450.221	559.19
450.442	512.19
450.662	508.19
450.883	524.19
451.104	531.19
451.324	528.19
451.545	472.19
451.766	476.19
451.986	431.19
452.207	448.19
452.428	437.19
452.648	419.19
452.869	433.19
453.089	464.19
453.31	453.19
453.53	450.19
453.751	438.19
453.971	457.19
454.192	469.19
454.412	474.19
454.633	440.19
454.853	431.19
455.073	463.19
455.294	462.19
455.514	525.19
455.734	537.19
455.955	465.19
456.175	414.19
456.395	399.19
456.616	378.19
456.836	381.19
457.056	396.19
457.276	393.19
457.497	380.19
457.717	402.19
457.937	414.19
458.157	394.19
458.377	429.19
458.598	458.19
458.818	551.19
459.038	659.19
459.258	638.19
459.478	536.19
459.698	473.19
459.918	463.19
460.138	434.19
460.358	440.19
460.578	421.19
460.798	448.19
461.018	432.19
461.238	422.19
461.458	404.19
461.678	416.19
461.898	415.19
462.118	425.19
462.338	444.19
462.558	437.19
462.777	417.19
462.997	412.19
463.217	430.19
463.437	436.19
463.657	421.19
463.876	436.19
464.096	430.19
464.316	441.19
464.536	464.19
464.755	474.19
464.975	478.19
465.195	549.19
465.414	701.19
465.634	615.19
465.854	524.19
466.073	468.19
466.293	449.19
466.512	441.19
466.732	421.19
466.951	401.19
467.171	426.19
467.391	436.19
467.61	457.19
467.829	463.19
468.049	458.19
468.268	430.19
468.488	418.19
468.707	438.19
468.927	420.19
469.146	403.19
469.365	420.19
469.585	423.19
469.804	414.19
470.023	440.19
470.243	452.19
470.462	458.19
470.681	479.19
470.901	480.19
471.12	448.19
471.339	433.19
471.558	451.19
471.777	451.19
471.997	441.19
472.216	410.19
472.435	421.19
472.654	418.19
472.873	433.19
473.092	409.19
473.311	417.19
473.53	435.19
473.749	440.19
473.968	509.19
474.187	613.19
474.406	622.19
474.625	505.19
474.844	463.19
475.063	448.19
475.282	426.19
475.501	449.19
475.72	438.19
475.939	464.19
476.158	442.19
476.377	442.19
476.596	439.19
476.814	448.19
477.033	468.19
477.252	462.19
477.471	457.19
477.69	449.19
477.908	462.19
478.127	468.19
478.346	476.19
478.564	464.19
478.783	455.19
479.002	483.19
479.22	504.19
479.439	506.19
479.658	527.19
479.876	542.19
480.095	548.19
480.313	572.19
480.532	576.19
480.751	518.19
480.969	511.19
481.188	551.19
481.406	556.19
481.624	556.19
481.843	515.19
482.061	517.19
482.28	519.19
482.498	490.19
482.717	519.19
482.935	501.19
483.153	506.19
483.372	530.19
483.59	519.19
483.808	520.19
484.027	517.19
484.245	516.19
484.463	502.19
484.681	526.19
484.9	497.19
485.118	534.19
485.336	513.19
485.554	542.19
485.772	543.19
485.99	534.19
486.209	534.19
486.427	547.19
486.645	568.19
486.863	580.19
487.081	597.19
487.299	583.19
487.517	570.19
487.735	545.19
487.953	544.19
488.171	573.19
488.389	558.19
488.607	572.19
488.825	571.19
489.043	576.19
489.261	581.19
489.479	579.19
489.696	568.19
489.914	569.19
490.132	593.19
490.35	583.19
490.568	599.19
490.786	575.19
491.003	622.19
491.221	600.19
491.439	639.19
491.657	619.19
491.874	629.19
492.092	653.19
492.31	656.19
492.527	641.19
492.745	662.19
492.963	662.19
493.18	652.19
493.398	683.19
493.615	658.19
493.833	673.19
494.05	668.19
494.268	696.19
494.485	674.19
494.703	656.19
494.92	685.19
495.138	658.19
495.355	678.19
495.573	668.19
495.79	652.19
496.008	676.19
496.225	667.19
496.442	684.19
496.66	694.19
496.877	668.19
497.094	696.19
497.312	681.19
497.529	689.19
497.746	679.19
497.963	687.19
498.181	720.19
498.398	725.19
498.615	702.19
498.832	746.19
499.049	720.19
499.267	734.19
499.484	720.19
499.701	749.19
499.918	744.19
500.135	769.19
500.352	786.19
500.569	769.19
500.786	778.19
501.003	788.19
501.22	762.19
501.437	788.19
501.654	810.19
501.871	823.19
