Data from 1987.PennyLincolnUp.Lamp.En5.5.200Scan.071819.P2_HRD10591_17-16-43-971.txt Node
Date: Thu Jul 18 17:16:43 EDT 2019
User: cochatt
Spectrometer: HR+D1059
Trigger mode: 1
Integration Time (sec): 1.000000E-1
Scans to average: 1
Electric dark correction enabled: true
Nonlinearity correction enabled: false
Boxcar width: 0
XAxis mode: Wavelengths
Number of Pixels in Spectrum: 2048
>>>>>Begin Spectral Data<<<<<
223.165	-19.38
223.4	-19.38
223.635	-19.38
223.869	-21.38
224.104	-23.38
224.338	-19.38
224.573	-8.38
224.808	-8.38
225.042	-19.38
225.277	-2.38
225.511	-7.38
225.746	7.62
225.98	-0.38
226.215	7.62
226.449	23.62
226.683	23.62
226.918	26.62
227.152	40.62
227.387	25.62
227.621	35.62
227.856	30.62
228.09	42.62
228.324	53.62
228.559	49.62
228.793	70.62
229.027	108.62
229.262	121.62
229.496	122.62
229.73	151.62
229.964	172.62
230.199	154.62
230.433	139.62
230.667	121.62
230.901	116.62
231.136	127.62
231.37	118.62
231.604	120.62
231.838	126.62
232.072	113.62
232.306	123.62
232.541	118.62
232.775	124.62
233.009	114.62
233.243	104.62
233.477	119.62
233.711	117.62
233.945	119.62
234.179	118.62
234.413	113.62
234.647	124.62
234.881	101.62
235.115	119.62
235.349	144.62
235.583	133.62
235.817	121.62
236.051	125.62
236.285	132.62
236.519	135.62
236.753	126.62
236.987	158.62
237.221	193.62
237.455	245.62
237.689	211.62
237.922	157.62
238.156	143.62
238.39	135.62
238.624	129.62
238.858	130.62
239.091	123.62
239.325	129.62
239.559	130.62
239.793	132.62
240.027	140.62
240.26	130.62
240.494	165.62
240.728	161.62
240.961	135.62
241.195	127.62
241.429	146.62
241.662	141.62
241.896	133.62
242.13	120.62
242.363	136.62
242.597	130.62
242.83	141.62
243.064	118.62
243.298	131.62
243.531	143.62
243.765	127.62
243.998	143.62
244.232	122.62
244.465	151.62
244.699	148.62
244.932	146.62
245.166	126.62
245.399	133.62
245.633	143.62
245.866	139.62
246.099	135.62
246.333	147.62
246.566	149.62
246.8	147.62
247.033	154.62
247.266	143.62
247.5	147.62
247.733	159.62
247.966	170.62
248.2	161.62
248.433	175.62
248.666	177.62
248.899	189.62
249.133	207.62
249.366	210.62
249.599	200.62
249.832	193.62
250.066	180.62
250.299	179.62
250.532	191.62
250.765	194.62
250.998	196.62
251.231	223.62
251.465	207.62
251.698	203.62
251.931	217.62
252.164	207.62
252.397	206.62
252.63	190.62
252.863	195.62
253.096	211.62
253.329	220.62
253.562	219.62
253.795	214.62
254.028	211.62
254.261	211.62
254.494	217.62
254.727	266.62
254.96	277.62
255.193	282.62
255.426	257.62
255.659	234.62
255.892	229.62
256.124	226.62
256.357	189.62
256.59	197.62
256.823	199.62
257.056	204.62
257.289	204.62
257.521	196.62
257.754	207.62
257.987	200.62
258.22	210.62
258.452	167.62
258.685	197.62
258.918	196.62
259.151	212.62
259.383	200.62
259.616	216.62
259.849	216.62
260.081	231.62
260.314	258.62
260.547	254.62
260.779	254.62
261.012	235.62
261.244	207.62
261.477	214.62
261.71	234.62
261.942	218.62
262.175	242.62
262.407	229.62
262.64	218.62
262.872	199.62
263.105	194.62
263.337	177.62
263.57	201.62
263.802	205.62
264.035	183.62
264.267	187.62
264.499	175.62
264.732	219.62
264.964	181.62
265.197	181.62
265.429	188.62
265.661	181.62
265.894	202.62
266.126	190.62
266.358	197.62
266.591	198.62
266.823	201.62
267.055	205.62
267.287	193.62
267.52	199.62
267.752	218.62
267.984	200.62
268.216	194.62
268.448	208.62
268.681	206.62
268.913	212.62
269.145	246.62
269.377	272.62
269.609	270.62
269.841	263.62
270.073	251.62
270.306	275.62
270.538	311.62
270.77	312.62
271.002	275.62
271.234	299.62
271.466	308.62
271.698	297.62
271.93	311.62
272.162	302.62
272.394	311.62
272.626	297.62
272.858	274.62
273.09	278.62
273.322	245.62
273.553	236.62
273.785	241.62
274.017	243.62
274.249	237.62
274.481	241.62
274.713	236.62
274.945	228.62
275.176	221.62
275.408	258.62
275.64	253.62
275.872	234.62
276.104	230.62
276.335	235.62
276.567	259.62
276.799	271.62
277.031	286.62
277.262	312.62
277.494	285.62
277.726	286.62
277.957	259.62
278.189	247.62
278.421	258.62
278.652	237.62
278.884	240.62
279.115	238.62
279.347	254.62
279.579	225.62
279.81	221.62
280.042	235.62
280.273	225.62
280.505	234.62
280.736	232.62
280.968	221.62
281.199	215.62
281.431	221.62
281.662	215.62
281.894	238.62
282.125	235.62
282.356	252.62
282.588	273.62
282.819	290.62
283.051	229.62
283.282	227.62
283.513	229.62
283.745	224.62
283.976	233.62
284.207	230.62
284.439	243.62
284.67	238.62
284.901	234.62
285.132	234.62
285.364	223.62
285.595	217.62
285.826	227.62
286.057	236.62
286.288	235.62
286.52	232.62
286.751	218.62
286.982	230.62
287.213	228.62
287.444	249.62
287.675	221.62
287.906	241.62
288.138	246.62
288.369	251.62
288.6	257.62
288.831	268.62
289.062	237.62
289.293	236.62
289.524	249.62
289.755	258.62
289.986	242.62
290.217	232.62
290.448	246.62
290.679	239.62
290.91	228.62
291.141	238.62
291.371	247.62
291.602	227.62
291.833	227.62
292.064	244.62
292.295	236.62
292.526	247.62
292.757	232.62
292.987	226.62
293.218	234.62
293.449	229.62
293.68	229.62
293.91	255.62
294.141	241.62
294.372	233.62
294.603	240.62
294.833	241.62
295.064	236.62
295.295	242.62
295.525	232.62
295.756	243.62
295.987	250.62
296.217	283.62
296.448	303.62
296.679	250.62
296.909	220.62
297.14	224.62
297.37	245.62
297.601	234.62
297.831	236.62
298.062	245.62
298.292	228.62
298.523	239.62
298.753	259.62
298.984	238.62
299.214	253.62
299.445	259.62
299.675	237.62
299.905	250.62
300.136	249.62
300.366	259.62
300.597	239.62
300.827	253.62
301.057	265.62
301.288	264.62
301.518	286.62
301.748	262.62
301.979	277.62
302.209	270.62
302.439	269.62
302.669	283.62
302.9	251.62
303.13	264.62
303.36	267.62
303.59	278.62
303.82	272.62
304.051	273.62
304.281	281.62
304.511	253.62
304.741	259.62
304.971	257.62
305.201	274.62
305.431	264.62
305.661	247.62
305.891	279.62
306.121	261.62
306.352	272.62
306.582	277.62
306.812	262.62
307.042	260.62
307.272	267.62
307.502	262.62
307.731	296.62
307.961	273.62
308.191	271.62
308.421	283.62
308.651	277.62
308.881	278.62
309.111	282.62
309.341	285.62
309.571	317.62
309.8	323.62
310.03	333.62
310.26	345.62
310.49	336.62
310.72	360.62
310.949	363.62
311.179	369.62
311.409	354.62
311.639	346.62
311.868	344.62
312.098	353.62
312.328	367.62
312.557	393.62
312.787	416.62
313.017	390.62
313.246	382.62
313.476	335.62
313.706	329.62
313.935	341.62
314.165	363.62
314.394	376.62
314.624	373.62
314.853	370.62
315.083	335.62
315.312	331.62
315.542	313.62
315.771	329.62
316.001	311.62
316.23	323.62
316.46	307.62
316.689	336.62
316.919	355.62
317.148	350.62
317.377	332.62
317.607	336.62
317.836	341.62
318.065	330.62
318.295	331.62
318.524	314.62
318.753	327.62
318.983	316.62
319.212	327.62
319.441	345.62
319.67	341.62
319.9	347.62
320.129	333.62
320.358	333.62
320.587	342.62
320.816	356.62
321.046	364.62
321.275	365.62
321.504	357.62
321.733	366.62
321.962	385.62
322.191	409.62
322.42	409.62
322.649	447.62
322.878	462.62
323.108	476.62
323.337	529.62
323.566	569.62
323.795	570.62
324.024	651.62
324.253	860.62
324.482	1228.62
324.71	1901.62
324.939	2628.62
325.168	2284.62
325.397	1265.62
325.626	804.62
325.855	668.62
326.084	572.62
326.313	554.62
326.542	551.62
326.77	630.62
326.999	752.62
327.228	1066.62
327.457	1625.62
327.686	2005.62
327.914	1367.62
328.143	882.62
328.372	734.62
328.6	663.62
328.829	641.62
329.058	645.62
329.287	675.62
329.515	611.62
329.744	535.62
329.972	497.62
330.201	522.62
330.43	559.62
330.658	596.62
330.887	706.62
331.115	660.62
331.344	546.62
331.572	471.62
331.801	475.62
332.03	471.62
332.258	443.62
332.486	419.62
332.715	395.62
332.943	396.62
333.172	390.62
333.4	403.62
333.629	394.62
333.857	398.62
334.085	402.62
334.314	388.62
334.542	382.62
334.771	387.62
334.999	391.62
335.227	402.62
335.455	378.62
335.684	378.62
335.912	356.62
336.14	361.62
336.369	374.62
336.597	381.62
336.825	379.62
337.053	377.62
337.281	362.62
337.51	366.62
337.738	362.62
337.966	377.62
338.194	381.62
338.422	376.62
338.65	368.62
338.878	371.62
339.106	350.62
339.334	359.62
339.562	344.62
339.79	349.62
340.018	375.62
340.246	371.62
340.474	381.62
340.702	387.62
340.93	364.62
341.158	351.62
341.386	367.62
341.614	370.62
341.842	373.62
342.07	369.62
342.298	373.62
342.526	362.62
342.754	352.62
342.981	342.62
343.209	358.62
343.437	339.62
343.665	351.62
343.893	371.62
344.12	348.62
344.348	341.62
344.576	337.62
344.804	372.62
345.031	399.62
345.259	397.62
345.487	392.62
345.714	387.62
345.942	364.62
346.17	353.62
346.397	354.62
346.625	358.62
346.853	365.62
347.08	369.62
347.308	378.62
347.535	366.62
347.763	400.62
347.99	372.62
348.218	381.62
348.445	385.62
348.673	379.62
348.9	364.62
349.128	360.62
349.355	350.62
349.583	342.62
349.81	355.62
350.037	356.62
350.265	334.62
350.492	356.62
350.72	351.62
350.947	367.62
351.174	377.62
351.402	375.62
351.629	379.62
351.856	401.62
352.083	408.62
352.311	407.62
352.538	386.62
352.765	426.62
352.992	390.62
353.22	388.62
353.447	396.62
353.674	365.62
353.901	344.62
354.128	340.62
354.355	329.62
354.583	339.62
354.81	328.62
355.037	337.62
355.264	307.62
355.491	320.62
355.718	315.62
355.945	309.62
356.172	318.62
356.399	319.62
356.626	325.62
356.853	323.62
357.08	322.62
357.307	318.62
357.534	322.62
357.761	312.62
357.988	325.62
358.215	312.62
358.441	314.62
358.668	313.62
358.895	333.62
359.122	347.62
359.349	355.62
359.576	377.62
359.802	412.62
360.029	469.62
360.256	498.62
360.483	439.62
360.709	398.62
360.936	383.62
361.163	379.62
361.39	390.62
361.616	373.62
361.843	370.62
362.07	364.62
362.296	391.62
362.523	373.62
362.749	372.62
362.976	366.62
363.203	357.62
363.429	354.62
363.656	321.62
363.882	329.62
364.109	372.62
364.335	348.62
364.562	332.62
364.788	343.62
365.015	340.62
365.241	311.62
365.468	377.62
365.694	347.62
365.92	355.62
366.147	364.62
366.373	350.62
366.599	347.62
366.826	325.62
367.052	322.62
367.278	363.62
367.505	340.62
367.731	345.62
367.957	331.62
368.184	331.62
368.41	355.62
368.636	368.62
368.862	357.62
369.089	353.62
369.315	350.62
369.541	331.62
369.767	328.62
369.993	339.62
370.219	351.62
370.445	345.62
370.672	309.62
370.898	328.62
371.124	321.62
371.35	332.62
371.576	334.62
371.802	338.62
372.028	306.62
372.254	316.62
372.48	315.62
372.706	301.62
372.932	315.62
373.158	330.62
373.384	309.62
373.61	321.62
373.835	331.62
374.061	310.62
374.287	315.62
374.513	326.62
374.739	327.62
374.965	315.62
375.191	321.62
375.416	329.62
375.642	316.62
375.868	325.62
376.094	316.62
376.319	311.62
376.545	321.62
376.771	341.62
376.997	311.62
377.222	319.62
377.448	309.62
377.674	328.62
377.899	326.62
378.125	309.62
378.35	319.62
378.576	310.62
378.802	317.62
379.027	314.62
379.253	327.62
379.478	328.62
379.704	331.62
379.929	327.62
380.155	317.62
380.38	322.62
380.606	321.62
380.831	327.62
381.057	335.62
381.282	323.62
381.507	322.62
381.733	327.62
381.958	320.62
382.184	314.62
382.409	322.62
382.634	313.62
382.86	329.62
383.085	331.62
383.31	311.62
383.535	322.62
383.761	334.62
383.986	340.62
384.211	321.62
384.436	305.62
384.662	322.62
384.887	324.62
385.112	336.62
385.337	302.62
385.562	313.62
385.787	330.62
386.013	350.62
386.238	359.62
386.463	357.62
386.688	342.62
386.913	348.62
387.138	335.62
387.363	326.62
387.588	336.62
387.813	318.62
388.038	341.62
388.263	340.62
388.488	322.62
388.713	328.62
388.938	339.62
389.163	347.62
389.387	355.62
389.612	356.62
389.837	352.62
390.062	315.62
390.287	329.62
390.512	329.62
390.736	343.62
390.961	343.62
391.186	343.62
391.411	333.62
391.636	350.62
391.86	337.62
392.085	330.62
392.31	321.62
392.534	335.62
392.759	344.62
392.984	363.62
393.208	334.62
393.433	316.62
393.658	331.62
393.882	335.62
394.107	350.62
394.331	328.62
394.556	326.62
394.78	330.62
395.005	338.62
395.229	334.62
395.454	344.62
395.678	349.62
395.903	368.62
396.127	395.62
396.352	380.62
396.576	356.62
396.801	349.62
397.025	359.62
397.249	333.62
397.474	333.62
397.698	356.62
397.922	379.62
398.147	388.62
398.371	393.62
398.595	363.62
398.82	359.62
399.044	377.62
399.268	370.62
399.492	394.62
399.717	404.62
399.941	444.62
400.165	443.62
400.389	469.62
400.613	436.62
400.837	425.62
401.062	406.62
401.286	379.62
401.51	409.62
401.734	391.62
401.958	384.62
402.182	386.62
402.406	411.62
402.63	406.62
402.854	423.62
403.078	401.62
403.302	407.62
403.526	433.62
403.75	424.62
403.974	403.62
404.198	399.62
404.422	426.62
404.645	394.62
404.869	422.62
405.093	429.62
405.317	457.62
405.541	487.62
405.765	437.62
405.988	430.62
406.212	449.62
406.436	467.62
406.66	497.62
406.883	459.62
407.107	483.62
407.331	519.62
407.555	555.62
407.778	556.62
408.002	497.62
408.226	486.62
408.449	475.62
408.673	475.62
408.896	474.62
409.12	518.62
409.344	491.62
409.567	462.62
409.791	434.62
410.014	419.62
410.238	415.62
410.461	409.62
410.685	427.62
410.908	426.62
411.132	473.62
411.355	494.62
411.578	478.62
411.802	423.62
412.025	427.62
412.249	395.62
412.472	421.62
412.695	437.62
412.919	435.62
413.142	400.62
413.365	390.62
413.589	373.62
413.812	403.62
414.035	386.62
414.258	403.62
414.482	379.62
414.705	372.62
414.928	382.62
415.151	374.62
415.374	381.62
415.597	370.62
415.821	393.62
416.044	381.62
416.267	397.62
416.49	390.62
416.713	366.62
416.936	383.62
417.159	381.62
417.382	403.62
417.605	405.62
417.828	416.62
418.051	424.62
418.274	415.62
418.497	391.62
418.72	381.62
418.943	372.62
419.166	400.62
419.389	422.62
419.611	418.62
419.834	411.62
420.057	423.62
420.28	428.62
420.503	405.62
420.726	431.62
420.948	439.62
421.171	483.62
421.394	504.62
421.617	465.62
421.839	428.62
422.062	439.62
422.285	462.62
422.507	513.62
422.73	590.62
422.953	577.62
423.175	492.62
423.398	465.62
423.621	471.62
423.843	469.62
424.066	485.62
424.288	484.62
424.511	517.62
424.733	547.62
424.956	633.62
425.178	611.62
425.401	614.62
425.623	634.62
425.846	551.62
426.068	520.62
426.291	503.62
426.513	505.62
426.735	499.62
426.958	558.62
427.18	631.62
427.402	744.62
427.625	819.62
427.847	773.62
428.069	650.62
428.292	581.62
428.514	529.62
428.736	497.62
428.958	494.62
429.181	469.62
429.403	453.62
429.625	476.62
429.847	529.62
430.069	572.62
430.292	561.62
430.514	486.62
430.736	445.62
430.958	451.62
431.18	441.62
431.402	418.62
431.624	415.62
431.846	421.62
432.068	403.62
432.29	427.62
432.512	414.62
432.734	452.62
432.956	419.62
433.178	439.62
433.4	445.62
433.622	451.62
433.844	419.62
434.066	423.62
434.287	417.62
434.509	431.62
434.731	425.62
434.953	448.62
435.175	466.62
435.397	498.62
435.618	494.62
435.84	543.62
436.062	655.62
436.284	673.62
436.505	595.62
436.727	507.62
436.949	493.62
437.17	491.62
437.392	459.62
437.614	485.62
437.835	523.62
438.057	653.62
438.278	741.62
438.5	731.62
438.721	760.62
438.943	708.62
439.165	617.62
439.386	535.62
439.608	526.62
439.829	531.62
440.05	554.62
440.272	602.62
440.493	573.62
440.715	514.62
440.936	507.62
441.158	492.62
441.379	491.62
441.6	491.62
441.822	503.62
442.043	570.62
442.264	629.62
442.486	659.62
442.707	578.62
442.928	521.62
443.149	535.62
443.371	555.62
443.592	587.62
443.813	677.62
444.034	707.62
444.255	624.62
444.476	515.62
444.698	497.62
444.919	487.62
445.14	569.62
445.361	543.62
445.582	559.62
445.803	629.62
446.024	697.62
446.245	715.62
446.466	665.62
446.687	571.62
446.908	525.62
447.129	491.62
447.35	468.62
447.571	474.62
447.792	466.62
448.013	460.62
448.234	519.62
448.455	571.62
448.675	663.62
448.896	753.62
449.117	653.62
449.338	621.62
449.559	691.62
449.779	749.62
450	660.62
450.221	530.62
450.442	485.62
450.662	490.62
450.883	494.62
451.104	521.62
451.324	508.62
451.545	483.62
451.766	465.62
451.986	441.62
452.207	426.62
452.428	430.62
452.648	429.62
452.869	450.62
453.089	440.62
453.31	463.62
453.53	440.62
453.751	441.62
453.971	443.62
454.192	479.62
454.412	464.62
454.633	443.62
454.853	428.62
455.073	421.62
455.294	472.62
455.514	522.62
455.734	511.62
455.955	455.62
456.175	402.62
456.395	394.62
456.616	399.62
456.836	393.62
457.056	380.62
457.276	379.62
457.497	379.62
457.717	384.62
457.937	383.62
458.157	423.62
458.377	410.62
458.598	443.62
458.818	519.62
459.038	611.62
459.258	629.62
459.478	523.62
459.698	431.62
459.918	438.62
460.138	408.62
460.358	421.62
460.578	383.62
460.798	427.62
461.018	415.62
461.238	386.62
461.458	398.62
461.678	393.62
461.898	417.62
462.118	397.62
462.338	413.62
462.558	411.62
462.777	398.62
462.997	403.62
463.217	414.62
463.437	409.62
463.657	417.62
463.876	415.62
464.096	436.62
464.316	411.62
464.536	451.62
464.755	437.62
464.975	468.62
465.195	567.62
465.414	706.62
465.634	600.62
465.854	502.62
466.073	494.62
466.293	464.62
466.512	422.62
466.732	404.62
466.951	440.62
467.171	411.62
467.391	425.62
467.61	433.62
467.829	474.62
468.049	427.62
468.268	417.62
468.488	420.62
468.707	438.62
468.927	422.62
469.146	394.62
469.365	404.62
469.585	428.62
469.804	408.62
470.023	437.62
470.243	423.62
470.462	432.62
470.681	461.62
470.901	454.62
471.12	438.62
471.339	412.62
471.558	440.62
471.777	433.62
471.997	423.62
472.216	414.62
472.435	423.62
472.654	419.62
472.873	392.62
473.092	405.62
473.311	422.62
473.53	412.62
473.749	427.62
473.968	481.62
474.187	590.62
474.406	622.62
474.625	502.62
474.844	465.62
475.063	426.62
475.282	435.62
475.501	423.62
475.72	430.62
475.939	424.62
476.158	443.62
476.377	437.62
476.596	424.62
476.814	469.62
477.033	444.62
477.252	459.62
477.471	453.62
477.69	459.62
477.908	449.62
478.127	455.62
478.346	435.62
478.564	413.62
478.783	452.62
479.002	458.62
479.22	456.62
479.439	498.62
479.658	532.62
479.876	553.62
480.095	535.62
480.313	570.62
480.532	525.62
480.751	491.62
480.969	525.62
481.188	539.62
481.406	544.62
481.624	508.62
481.843	489.62
482.061	473.62
482.28	489.62
482.498	510.62
482.717	487.62
482.935	486.62
483.153	486.62
483.372	491.62
483.59	497.62
483.808	470.62
484.027	505.62
484.245	486.62
484.463	501.62
484.681	488.62
484.9	503.62
485.118	515.62
485.336	527.62
485.554	519.62
485.772	521.62
485.99	527.62
486.209	513.62
486.427	499.62
486.645	539.62
486.863	564.62
487.081	598.62
487.299	532.62
487.517	542.62
487.735	540.62
487.953	555.62
488.171	541.62
488.389	555.62
488.607	555.62
488.825	570.62
489.043	548.62
489.261	558.62
489.479	566.62
489.696	546.62
489.914	567.62
490.132	581.62
490.35	556.62
490.568	569.62
490.786	606.62
491.003	603.62
491.221	601.62
491.439	604.62
491.657	627.62
491.874	599.62
492.092	611.62
492.31	644.62
492.527	653.62
492.745	661.62
492.963	651.62
493.18	639.62
493.398	621.62
493.615	645.62
493.833	643.62
494.05	641.62
494.268	656.62
494.485	639.62
494.703	645.62
494.92	648.62
495.138	670.62
495.355	659.62
495.573	666.62
495.79	663.62
496.008	667.62
496.225	650.62
496.442	661.62
496.66	641.62
496.877	679.62
497.094	681.62
497.312	663.62
497.529	680.62
497.746	670.62
497.963	699.62
498.181	693.62
498.398	681.62
498.615	700.62
498.832	716.62
499.049	703.62
499.267	717.62
499.484	709.62
499.701	723.62
499.918	734.62
500.135	754.62
500.352	747.62
500.569	745.62
500.786	746.62
501.003	771.62
501.22	766.62
501.437	789.62
501.654	753.62
501.871	799.62
