Data from 1987.PennyLincolnUp.Lamp.En5.5.200Scan.071819.P2_HRD10591_17-15-55-972.txt Node
Date: Thu Jul 18 17:15:55 EDT 2019
User: cochatt
Spectrometer: HR+D1059
Trigger mode: 1
Integration Time (sec): 1.000000E-1
Scans to average: 1
Electric dark correction enabled: true
Nonlinearity correction enabled: false
Boxcar width: 0
XAxis mode: Wavelengths
Number of Pixels in Spectrum: 2048
>>>>>Begin Spectral Data<<<<<
223.165	-9.69
223.4	-9.69
223.635	-9.69
223.869	-10.69
224.104	-23.69
224.338	-24.69
224.573	-6.69
224.808	-7.69
225.042	-10.69
225.277	-11.69
225.511	2.31
225.746	9.31
225.98	-6.69
226.215	16.31
226.449	13.31
226.683	22.31
226.918	23.31
227.152	25.31
227.387	32.31
227.621	38.31
227.856	42.31
228.09	52.31
228.324	38.31
228.559	65.31
228.793	75.31
229.027	111.31
229.262	119.31
229.496	133.31
229.73	159.31
229.964	155.31
230.199	133.31
230.433	124.31
230.667	130.31
230.901	110.31
231.136	117.31
231.37	105.31
231.604	128.31
231.838	119.31
232.072	123.31
232.306	99.31
232.541	106.31
232.775	112.31
233.009	128.31
233.243	129.31
233.477	120.31
233.711	118.31
233.945	119.31
234.179	118.31
234.413	120.31
234.647	116.31
234.881	125.31
235.115	120.31
235.349	126.31
235.583	123.31
235.817	122.31
236.051	130.31
236.285	126.31
236.519	124.31
236.753	131.31
236.987	162.31
237.221	202.31
237.455	265.31
237.689	214.31
237.922	155.31
238.156	138.31
238.39	144.31
238.624	130.31
238.858	126.31
239.091	123.31
239.325	130.31
239.559	133.31
239.793	119.31
240.027	160.31
240.26	155.31
240.494	155.31
240.728	149.31
240.961	148.31
241.195	143.31
241.429	142.31
241.662	142.31
241.896	136.31
242.13	125.31
242.363	115.31
242.597	132.31
242.83	144.31
243.064	137.31
243.298	147.31
243.531	120.31
243.765	146.31
243.998	117.31
244.232	144.31
244.465	157.31
244.699	150.31
244.932	142.31
245.166	146.31
245.399	138.31
245.633	140.31
245.866	143.31
246.099	142.31
246.333	155.31
246.566	137.31
246.8	159.31
247.033	160.31
247.266	135.31
247.5	159.31
247.733	175.31
247.966	160.31
248.2	177.31
248.433	162.31
248.666	163.31
248.899	181.31
249.133	210.31
249.366	220.31
249.599	207.31
249.832	193.31
250.066	182.31
250.299	188.31
250.532	179.31
250.765	198.31
250.998	215.31
251.231	220.31
251.465	217.31
251.698	211.31
251.931	214.31
252.164	217.31
252.397	212.31
252.63	206.31
252.863	192.31
253.096	212.31
253.329	234.31
253.562	220.31
253.795	228.31
254.028	222.31
254.261	212.31
254.494	215.31
254.727	262.31
254.96	264.31
255.193	296.31
255.426	243.31
255.659	223.31
255.892	231.31
256.124	226.31
256.357	210.31
256.59	206.31
256.823	200.31
257.056	197.31
257.289	219.31
257.521	206.31
257.754	193.31
257.987	201.31
258.22	199.31
258.452	184.31
258.685	201.31
258.918	182.31
259.151	199.31
259.383	211.31
259.616	201.31
259.849	213.31
260.081	225.31
260.314	231.31
260.547	253.31
260.779	238.31
261.012	226.31
261.244	221.31
261.477	221.31
261.71	198.31
261.942	218.31
262.175	234.31
262.407	232.31
262.64	208.31
262.872	200.31
263.105	213.31
263.337	196.31
263.57	209.31
263.802	190.31
264.035	208.31
264.267	202.31
264.499	204.31
264.732	201.31
264.964	206.31
265.197	188.31
265.429	204.31
265.661	195.31
265.894	189.31
266.126	208.31
266.358	199.31
266.591	180.31
266.823	213.31
267.055	192.31
267.287	186.31
267.52	210.31
267.752	208.31
267.984	199.31
268.216	212.31
268.448	229.31
268.681	211.31
268.913	228.31
269.145	249.31
269.377	252.31
269.609	271.31
269.841	255.31
270.073	262.31
270.306	270.31
270.538	292.31
270.77	319.31
271.002	290.31
271.234	286.31
271.466	293.31
271.698	311.31
271.93	312.31
272.162	327.31
272.394	308.31
272.626	303.31
272.858	286.31
273.09	286.31
273.322	263.31
273.553	231.31
273.785	247.31
274.017	229.31
274.249	256.31
274.481	264.31
274.713	244.31
274.945	241.31
275.176	251.31
275.408	246.31
275.64	236.31
275.872	227.31
276.104	230.31
276.335	227.31
276.567	262.31
276.799	262.31
277.031	296.31
277.262	298.31
277.494	294.31
277.726	270.31
277.957	279.31
278.189	252.31
278.421	239.31
278.652	235.31
278.884	242.31
279.115	230.31
279.347	245.31
279.579	219.31
279.81	214.31
280.042	236.31
280.273	238.31
280.505	216.31
280.736	216.31
280.968	228.31
281.199	243.31
281.431	239.31
281.662	233.31
281.894	229.31
282.125	231.31
282.356	276.31
282.588	288.31
282.819	296.31
283.051	259.31
283.282	239.31
283.513	226.31
283.745	240.31
283.976	227.31
284.207	249.31
284.439	237.31
284.67	242.31
284.901	230.31
285.132	235.31
285.364	253.31
285.595	245.31
285.826	243.31
286.057	229.31
286.288	232.31
286.52	214.31
286.751	228.31
286.982	242.31
287.213	216.31
287.444	250.31
287.675	234.31
287.906	217.31
288.138	252.31
288.369	248.31
288.6	264.31
288.831	235.31
289.062	245.31
289.293	242.31
289.524	227.31
289.755	260.31
289.986	229.31
290.217	242.31
290.448	242.31
290.679	246.31
290.91	212.31
291.141	232.31
291.371	216.31
291.602	239.31
291.833	239.31
292.064	258.31
292.295	242.31
292.526	235.31
292.757	232.31
292.987	248.31
293.218	246.31
293.449	226.31
293.68	226.31
293.91	259.31
294.141	244.31
294.372	230.31
294.603	236.31
294.833	243.31
295.064	234.31
295.295	251.31
295.525	236.31
295.756	253.31
295.987	272.31
296.217	295.31
296.448	293.31
296.679	261.31
296.909	250.31
297.14	250.31
297.37	245.31
297.601	240.31
297.831	262.31
298.062	233.31
298.292	249.31
298.523	248.31
298.753	265.31
298.984	229.31
299.214	246.31
299.445	249.31
299.675	272.31
299.905	258.31
300.136	251.31
300.366	264.31
300.597	251.31
300.827	272.31
301.057	282.31
301.288	280.31
301.518	279.31
301.748	269.31
301.979	271.31
302.209	278.31
302.439	275.31
302.669	270.31
302.9	273.31
303.13	269.31
303.36	283.31
303.59	281.31
303.82	310.31
304.051	280.31
304.281	264.31
304.511	279.31
304.741	256.31
304.971	266.31
305.201	267.31
305.431	264.31
305.661	267.31
305.891	279.31
306.121	272.31
306.352	279.31
306.582	294.31
306.812	278.31
307.042	267.31
307.272	270.31
307.502	276.31
307.731	287.31
307.961	274.31
308.191	245.31
308.421	295.31
308.651	282.31
308.881	293.31
309.111	300.31
309.341	311.31
309.571	314.31
309.8	328.31
310.03	340.31
310.26	343.31
310.49	344.31
310.72	353.31
310.949	376.31
311.179	392.31
311.409	352.31
311.639	349.31
311.868	361.31
312.098	347.31
312.328	359.31
312.557	383.31
312.787	411.31
313.017	392.31
313.246	375.31
313.476	367.31
313.706	346.31
313.935	342.31
314.165	363.31
314.394	379.31
314.624	382.31
314.853	339.31
315.083	350.31
315.312	354.31
315.542	324.31
315.771	316.31
316.001	319.31
316.23	330.31
316.46	344.31
316.689	324.31
316.919	339.31
317.148	358.31
317.377	353.31
317.607	349.31
317.836	323.31
318.065	341.31
318.295	335.31
318.524	348.31
318.753	324.31
318.983	347.31
319.212	330.31
319.441	338.31
319.67	364.31
319.9	344.31
320.129	360.31
320.358	333.31
320.587	342.31
320.816	363.31
321.046	354.31
321.275	365.31
321.504	362.31
321.733	374.31
321.962	376.31
322.191	399.31
322.42	430.31
322.649	461.31
322.878	456.31
323.108	489.31
323.337	502.31
323.566	548.31
323.795	611.31
324.024	674.31
324.253	872.31
324.482	1240.31
324.71	1922.31
324.939	2714.31
325.168	2340.31
325.397	1282.31
325.626	827.31
325.855	646.31
326.084	569.31
326.313	539.31
326.542	559.31
326.77	632.31
326.999	734.31
327.228	1098.31
327.457	1691.31
327.686	2086.31
327.914	1425.31
328.143	875.31
328.372	745.31
328.6	664.31
328.829	638.31
329.058	671.31
329.287	692.31
329.515	601.31
329.744	541.31
329.972	516.31
330.201	512.31
330.43	527.31
330.658	605.31
330.887	702.31
331.115	658.31
331.344	556.31
331.572	510.31
331.801	490.31
332.03	472.31
332.258	457.31
332.486	424.31
332.715	372.31
332.943	388.31
333.172	402.31
333.4	406.31
333.629	378.31
333.857	401.31
334.085	406.31
334.314	388.31
334.542	378.31
334.771	420.31
334.999	383.31
335.227	382.31
335.455	388.31
335.684	384.31
335.912	389.31
336.14	356.31
336.369	384.31
336.597	396.31
336.825	408.31
337.053	392.31
337.281	356.31
337.51	360.31
337.738	373.31
337.966	366.31
338.194	400.31
338.422	393.31
338.65	376.31
338.878	379.31
339.106	367.31
339.334	356.31
339.562	358.31
339.79	346.31
340.018	369.31
340.246	378.31
340.474	367.31
340.702	366.31
340.93	381.31
341.158	342.31
341.386	376.31
341.614	380.31
341.842	388.31
342.07	383.31
342.298	359.31
342.526	374.31
342.754	349.31
342.981	353.31
343.209	342.31
343.437	367.31
343.665	346.31
343.893	360.31
344.12	349.31
344.348	371.31
344.576	360.31
344.804	384.31
345.031	407.31
345.259	410.31
345.487	403.31
345.714	384.31
345.942	372.31
346.17	367.31
346.397	352.31
346.625	374.31
346.853	379.31
347.08	378.31
347.308	375.31
347.535	390.31
347.763	399.31
347.99	396.31
348.218	397.31
348.445	384.31
348.673	412.31
348.9	402.31
349.128	369.31
349.355	357.31
349.583	342.31
349.81	350.31
350.037	363.31
350.265	348.31
350.492	347.31
350.72	369.31
350.947	371.31
351.174	385.31
351.402	396.31
351.629	408.31
351.856	394.31
352.083	417.31
352.311	414.31
352.538	401.31
352.765	423.31
352.992	411.31
353.22	394.31
353.447	383.31
353.674	372.31
353.901	352.31
354.128	350.31
354.355	355.31
354.583	333.31
354.81	356.31
355.037	309.31
355.264	335.31
355.491	324.31
355.718	330.31
355.945	317.31
356.172	311.31
356.399	323.31
356.626	318.31
356.853	337.31
357.08	334.31
357.307	333.31
357.534	317.31
357.761	313.31
357.988	336.31
358.215	310.31
358.441	328.31
358.668	330.31
358.895	340.31
359.122	359.31
359.349	354.31
359.576	385.31
359.802	434.31
360.029	456.31
360.256	470.31
360.483	446.31
360.709	393.31
360.936	380.31
361.163	374.31
361.39	381.31
361.616	407.31
361.843	400.31
362.07	388.31
362.296	393.31
362.523	374.31
362.749	386.31
362.976	372.31
363.203	365.31
363.429	342.31
363.656	348.31
363.882	357.31
364.109	359.31
364.335	362.31
364.562	356.31
364.788	355.31
365.015	339.31
365.241	344.31
365.468	363.31
365.694	361.31
365.92	378.31
366.147	344.31
366.373	350.31
366.599	349.31
366.826	345.31
367.052	342.31
367.278	334.31
367.505	354.31
367.731	339.31
367.957	344.31
368.184	363.31
368.41	344.31
368.636	362.31
368.862	364.31
369.089	355.31
369.315	338.31
369.541	340.31
369.767	348.31
369.993	353.31
370.219	368.31
370.445	367.31
370.672	340.31
370.898	329.31
371.124	310.31
371.35	335.31
371.576	327.31
371.802	349.31
372.028	318.31
372.254	318.31
372.48	323.31
372.706	338.31
372.932	329.31
373.158	324.31
373.384	327.31
373.61	326.31
373.835	346.31
374.061	320.31
374.287	370.31
374.513	313.31
374.739	346.31
374.965	340.31
375.191	324.31
375.416	336.31
375.642	318.31
375.868	318.31
376.094	322.31
376.319	321.31
376.545	351.31
376.771	325.31
376.997	338.31
377.222	341.31
377.448	341.31
377.674	312.31
377.899	319.31
378.125	336.31
378.35	327.31
378.576	321.31
378.802	308.31
379.027	309.31
379.253	318.31
379.478	316.31
379.704	333.31
379.929	346.31
380.155	324.31
380.38	319.31
380.606	336.31
380.831	334.31
381.057	332.31
381.282	329.31
381.507	328.31
381.733	337.31
381.958	326.31
382.184	341.31
382.409	338.31
382.634	341.31
382.86	345.31
383.085	342.31
383.31	339.31
383.535	326.31
383.761	324.31
383.986	352.31
384.211	327.31
384.436	331.31
384.662	346.31
384.887	332.31
385.112	335.31
385.337	355.31
385.562	336.31
385.787	346.31
386.013	363.31
386.238	376.31
386.463	360.31
386.688	351.31
386.913	348.31
387.138	339.31
387.363	326.31
387.588	348.31
387.813	342.31
388.038	347.31
388.263	355.31
388.488	356.31
388.713	346.31
388.938	358.31
389.163	361.31
389.387	353.31
389.612	345.31
389.837	359.31
390.062	342.31
390.287	340.31
390.512	328.31
390.736	350.31
390.961	344.31
391.186	335.31
391.411	358.31
391.636	332.31
391.86	348.31
392.085	338.31
392.31	347.31
392.534	361.31
392.759	359.31
392.984	340.31
393.208	348.31
393.433	359.31
393.658	331.31
393.882	351.31
394.107	363.31
394.331	355.31
394.556	340.31
394.78	356.31
395.005	350.31
395.229	365.31
395.454	370.31
395.678	359.31
395.903	370.31
396.127	386.31
396.352	393.31
396.576	385.31
396.801	374.31
397.025	357.31
397.249	372.31
397.474	364.31
397.698	366.31
397.922	386.31
398.147	389.31
398.371	393.31
398.595	385.31
398.82	378.31
399.044	395.31
399.268	404.31
399.492	393.31
399.717	417.31
399.941	442.31
400.165	467.31
400.389	486.31
400.613	450.31
400.837	432.31
401.062	418.31
401.286	406.31
401.51	431.31
401.734	401.31
401.958	404.31
402.182	408.31
402.406	426.31
402.63	442.31
402.854	407.31
403.078	404.31
403.302	420.31
403.526	427.31
403.75	408.31
403.974	406.31
404.198	416.31
404.422	414.31
404.645	420.31
404.869	441.31
405.093	439.31
405.317	470.31
405.541	503.31
405.765	468.31
405.988	441.31
406.212	469.31
406.436	507.31
406.66	503.31
406.883	487.31
407.107	490.31
407.331	549.31
407.555	601.31
407.778	586.31
408.002	549.31
408.226	506.31
408.449	489.31
408.673	480.31
408.896	511.31
409.12	555.31
409.344	512.31
409.567	459.31
409.791	440.31
410.014	442.31
410.238	415.31
410.461	431.31
410.685	447.31
410.908	474.31
411.132	495.31
411.355	536.31
411.578	496.31
411.802	449.31
412.025	430.31
412.249	414.31
412.472	440.31
412.695	418.31
412.919	434.31
413.142	414.31
413.365	389.31
413.589	416.31
413.812	391.31
414.035	406.31
414.258	386.31
414.482	397.31
414.705	414.31
414.928	390.31
415.151	386.31
415.374	401.31
415.597	412.31
415.821	399.31
416.044	405.31
416.267	400.31
416.49	400.31
416.713	390.31
416.936	420.31
417.159	370.31
417.382	417.31
417.605	409.31
417.828	428.31
418.051	462.31
418.274	441.31
418.497	425.31
418.72	388.31
418.943	407.31
419.166	408.31
419.389	428.31
419.611	419.31
419.834	437.31
420.057	434.31
420.28	416.31
420.503	425.31
420.726	436.31
420.948	464.31
421.171	499.31
421.394	531.31
421.617	482.31
421.839	437.31
422.062	438.31
422.285	457.31
422.507	534.31
422.73	584.31
422.953	581.31
423.175	507.31
423.398	479.31
423.621	453.31
423.843	499.31
424.066	512.31
424.288	472.31
424.511	511.31
424.733	565.31
424.956	648.31
425.178	632.31
425.401	626.31
425.623	636.31
425.846	575.31
426.068	537.31
426.291	511.31
426.513	499.31
426.735	510.31
426.958	566.31
427.18	664.31
427.402	767.31
427.625	852.31
427.847	798.31
428.069	654.31
428.292	572.31
428.514	528.31
428.736	517.31
428.958	477.31
429.181	494.31
429.403	490.31
429.625	514.31
429.847	518.31
430.069	579.31
430.292	578.31
430.514	494.31
430.736	477.31
430.958	474.31
431.18	437.31
431.402	417.31
431.624	419.31
431.846	431.31
432.068	446.31
432.29	427.31
432.512	425.31
432.734	453.31
432.956	431.31
433.178	459.31
433.4	452.31
433.622	442.31
433.844	414.31
434.066	429.31
434.287	428.31
434.509	426.31
434.731	442.31
434.953	461.31
435.175	456.31
435.397	498.31
435.618	482.31
435.84	555.31
436.062	653.31
436.284	688.31
436.505	606.31
436.727	534.31
436.949	534.31
437.17	491.31
437.392	490.31
437.614	499.31
437.835	552.31
438.057	654.31
438.278	748.31
438.5	746.31
438.721	786.31
438.943	735.31
439.165	615.31
439.386	576.31
439.608	545.31
439.829	536.31
440.05	597.31
440.272	634.31
440.493	608.31
440.715	558.31
440.936	520.31
441.158	503.31
441.379	496.31
441.6	505.31
441.822	528.31
442.043	584.31
442.264	640.31
442.486	703.31
442.707	605.31
442.928	571.31
443.149	559.31
443.371	563.31
443.592	614.31
443.813	715.31
444.034	747.31
444.255	603.31
444.476	546.31
444.698	516.31
444.919	511.31
445.14	616.31
445.361	583.31
445.582	588.31
445.803	652.31
446.024	759.31
446.245	738.31
446.466	694.31
446.687	608.31
446.908	531.31
447.129	510.31
447.35	500.31
447.571	480.31
447.792	475.31
448.013	471.31
448.234	521.31
448.455	572.31
448.675	690.31
448.896	769.31
449.117	702.31
449.338	657.31
449.559	733.31
449.779	822.31
450	701.31
450.221	551.31
450.442	516.31
450.662	492.31
450.883	496.31
451.104	528.31
451.324	518.31
451.545	466.31
451.766	461.31
451.986	472.31
452.207	431.31
452.428	438.31
452.648	436.31
452.869	451.31
453.089	456.31
453.31	450.31
453.53	450.31
453.751	450.31
453.971	466.31
454.192	503.31
454.412	465.31
454.633	474.31
454.853	463.31
455.073	421.31
455.294	485.31
455.514	531.31
455.734	540.31
455.955	463.31
456.175	420.31
456.395	419.31
456.616	402.31
456.836	413.31
457.056	402.31
457.276	387.31
457.497	395.31
457.717	403.31
457.937	378.31
458.157	405.31
458.377	443.31
458.598	446.31
458.818	545.31
459.038	632.31
459.258	648.31
459.478	523.31
459.698	453.31
459.918	445.31
460.138	440.31
460.358	429.31
460.578	443.31
460.798	432.31
461.018	428.31
461.238	432.31
461.458	393.31
461.678	400.31
461.898	419.31
462.118	403.31
462.338	427.31
462.558	422.31
462.777	426.31
462.997	429.31
463.217	441.31
463.437	432.31
463.657	426.31
463.876	447.31
464.096	439.31
464.316	453.31
464.536	454.31
464.755	453.31
464.975	483.31
465.195	562.31
465.414	684.31
465.634	591.31
465.854	530.31
466.073	463.31
466.293	455.31
466.512	442.31
466.732	428.31
466.951	423.31
467.171	444.31
467.391	423.31
467.61	456.31
467.829	446.31
468.049	450.31
468.268	415.31
468.488	421.31
468.707	415.31
468.927	404.31
469.146	391.31
469.365	411.31
469.585	412.31
469.804	415.31
470.023	419.31
470.243	427.31
470.462	451.31
470.681	486.31
470.901	469.31
471.12	442.31
471.339	416.31
471.558	424.31
471.777	451.31
471.997	424.31
472.216	406.31
472.435	419.31
472.654	411.31
472.873	417.31
473.092	418.31
473.311	423.31
473.53	425.31
473.749	424.31
473.968	496.31
474.187	610.31
474.406	646.31
474.625	490.31
474.844	473.31
475.063	439.31
475.282	436.31
475.501	450.31
475.72	454.31
475.939	441.31
476.158	443.31
476.377	446.31
476.596	454.31
476.814	461.31
477.033	467.31
477.252	469.31
477.471	460.31
477.69	470.31
477.908	487.31
478.127	463.31
478.346	458.31
478.564	452.31
478.783	450.31
479.002	482.31
479.22	474.31
479.439	501.31
479.658	516.31
479.876	553.31
480.095	543.31
480.313	558.31
480.532	546.31
480.751	526.31
480.969	518.31
481.188	529.31
481.406	571.31
481.624	534.31
481.843	513.31
482.061	527.31
482.28	524.31
482.498	511.31
482.717	511.31
482.935	538.31
483.153	512.31
483.372	502.31
483.59	490.31
483.808	522.31
484.027	507.31
484.245	518.31
484.463	498.31
484.681	502.31
484.9	512.31
485.118	523.31
485.336	544.31
485.554	526.31
485.772	526.31
485.99	542.31
486.209	542.31
486.427	543.31
486.645	558.31
486.863	580.31
487.081	586.31
487.299	567.31
487.517	558.31
487.735	554.31
487.953	543.31
488.171	553.31
488.389	555.31
488.607	545.31
488.825	562.31
489.043	575.31
489.261	553.31
489.479	573.31
489.696	534.31
489.914	585.31
490.132	555.31
490.35	586.31
490.568	588.31
490.786	586.31
491.003	617.31
491.221	636.31
491.439	630.31
491.657	648.31
491.874	622.31
492.092	650.31
492.31	666.31
492.527	643.31
492.745	656.31
492.963	677.31
493.18	675.31
493.398	666.31
493.615	681.31
493.833	685.31
494.05	683.31
494.268	681.31
494.485	677.31
494.703	670.31
494.92	670.31
495.138	687.31
495.355	667.31
495.573	680.31
495.79	686.31
496.008	682.31
496.225	650.31
496.442	675.31
496.66	674.31
496.877	675.31
497.094	653.31
497.312	662.31
497.529	686.31
497.746	709.31
497.963	710.31
498.181	704.31
498.398	700.31
498.615	710.31
498.832	710.31
499.049	715.31
499.267	733.31
499.484	733.31
499.701	758.31
499.918	786.31
500.135	763.31
500.352	779.31
500.569	798.31
500.786	804.31
501.003	815.31
501.22	777.31
501.437	792.31
501.654	797.31
501.871	792.31
