Data from 1987.PennyLincolnUp.Lamp.En5.5.200Scan.071819.P2_HRD10591_17-16-18-971.txt Node
Date: Thu Jul 18 17:16:18 EDT 2019
User: cochatt
Spectrometer: HR+D1059
Trigger mode: 1
Integration Time (sec): 1.000000E-1
Scans to average: 1
Electric dark correction enabled: true
Nonlinearity correction enabled: false
Boxcar width: 0
XAxis mode: Wavelengths
Number of Pixels in Spectrum: 2048
>>>>>Begin Spectral Data<<<<<
223.165	-17.44
223.4	-17.44
223.635	-17.44
223.869	-21.44
224.104	-37.44
224.338	-18.44
224.573	2.56
224.808	-11.44
225.042	-7.44
225.277	-9.44
225.511	-6.44
225.746	15.56
225.98	8.56
226.215	12.56
226.449	10.56
226.683	34.56
226.918	23.56
227.152	21.56
227.387	41.56
227.621	36.56
227.856	37.56
228.09	45.56
228.324	36.56
228.559	63.56
228.793	54.56
229.027	106.56
229.262	112.56
229.496	125.56
229.73	148.56
229.964	162.56
230.199	157.56
230.433	133.56
230.667	125.56
230.901	115.56
231.136	116.56
231.37	126.56
231.604	118.56
231.838	122.56
232.072	128.56
232.306	119.56
232.541	106.56
232.775	108.56
233.009	111.56
233.243	102.56
233.477	109.56
233.711	116.56
233.945	126.56
234.179	115.56
234.413	123.56
234.647	109.56
234.881	111.56
235.115	117.56
235.349	112.56
235.583	126.56
235.817	127.56
236.051	133.56
236.285	134.56
236.519	135.56
236.753	121.56
236.987	158.56
237.221	204.56
237.455	246.56
237.689	206.56
237.922	148.56
238.156	147.56
238.39	142.56
238.624	150.56
238.858	136.56
239.091	127.56
239.325	131.56
239.559	125.56
239.793	130.56
240.027	124.56
240.26	144.56
240.494	160.56
240.728	159.56
240.961	136.56
241.195	150.56
241.429	141.56
241.662	137.56
241.896	124.56
242.13	132.56
242.363	150.56
242.597	128.56
242.83	125.56
243.064	144.56
243.298	140.56
243.531	136.56
243.765	131.56
243.998	140.56
244.232	128.56
244.465	148.56
244.699	148.56
244.932	130.56
245.166	142.56
245.399	151.56
245.633	148.56
245.866	148.56
246.099	138.56
246.333	134.56
246.566	145.56
246.8	156.56
247.033	154.56
247.266	155.56
247.5	143.56
247.733	161.56
247.966	167.56
248.2	180.56
248.433	160.56
248.666	155.56
248.899	175.56
249.133	215.56
249.366	208.56
249.599	194.56
249.832	189.56
250.066	176.56
250.299	171.56
250.532	179.56
250.765	174.56
250.998	226.56
251.231	237.56
251.465	212.56
251.698	195.56
251.931	205.56
252.164	198.56
252.397	198.56
252.63	186.56
252.863	188.56
253.096	207.56
253.329	222.56
253.562	232.56
253.795	223.56
254.028	227.56
254.261	219.56
254.494	222.56
254.727	265.56
254.96	298.56
255.193	294.56
255.426	269.56
255.659	242.56
255.892	217.56
256.124	221.56
256.357	228.56
256.59	217.56
256.823	207.56
257.056	199.56
257.289	204.56
257.521	224.56
257.754	207.56
257.987	209.56
258.22	188.56
258.452	194.56
258.685	203.56
258.918	210.56
259.151	198.56
259.383	200.56
259.616	214.56
259.849	205.56
260.081	245.56
260.314	233.56
260.547	262.56
260.779	237.56
261.012	212.56
261.244	223.56
261.477	212.56
261.71	206.56
261.942	208.56
262.175	234.56
262.407	230.56
262.64	215.56
262.872	201.56
263.105	198.56
263.337	207.56
263.57	194.56
263.802	188.56
264.035	198.56
264.267	200.56
264.499	196.56
264.732	195.56
264.964	183.56
265.197	206.56
265.429	209.56
265.661	191.56
265.894	190.56
266.126	197.56
266.358	205.56
266.591	200.56
266.823	200.56
267.055	219.56
267.287	212.56
267.52	198.56
267.752	194.56
267.984	205.56
268.216	214.56
268.448	223.56
268.681	208.56
268.913	219.56
269.145	235.56
269.377	266.56
269.609	258.56
269.841	249.56
270.073	270.56
270.306	265.56
270.538	323.56
270.77	324.56
271.002	278.56
271.234	294.56
271.466	296.56
271.698	292.56
271.93	317.56
272.162	311.56
272.394	312.56
272.626	289.56
272.858	284.56
273.09	271.56
273.322	276.56
273.553	251.56
273.785	260.56
274.017	254.56
274.249	233.56
274.481	258.56
274.713	242.56
274.945	244.56
275.176	246.56
275.408	250.56
275.64	239.56
275.872	228.56
276.104	246.56
276.335	247.56
276.567	243.56
276.799	243.56
277.031	294.56
277.262	299.56
277.494	285.56
277.726	292.56
277.957	278.56
278.189	264.56
278.421	253.56
278.652	256.56
278.884	249.56
279.115	243.56
279.347	239.56
279.579	228.56
279.81	224.56
280.042	229.56
280.273	216.56
280.505	212.56
280.736	234.56
280.968	229.56
281.199	232.56
281.431	227.56
281.662	226.56
281.894	235.56
282.125	258.56
282.356	239.56
282.588	301.56
282.819	298.56
283.051	246.56
283.282	227.56
283.513	229.56
283.745	252.56
283.976	235.56
284.207	235.56
284.439	238.56
284.67	232.56
284.901	227.56
285.132	225.56
285.364	223.56
285.595	234.56
285.826	232.56
286.057	232.56
286.288	227.56
286.52	225.56
286.751	230.56
286.982	241.56
287.213	246.56
287.444	236.56
287.675	222.56
287.906	229.56
288.138	260.56
288.369	261.56
288.6	268.56
288.831	247.56
289.062	247.56
289.293	244.56
289.524	238.56
289.755	228.56
289.986	236.56
290.217	232.56
290.448	228.56
290.679	248.56
290.91	236.56
291.141	234.56
291.371	237.56
291.602	229.56
291.833	243.56
292.064	245.56
292.295	246.56
292.526	243.56
292.757	221.56
292.987	229.56
293.218	225.56
293.449	212.56
293.68	238.56
293.91	233.56
294.141	232.56
294.372	233.56
294.603	249.56
294.833	243.56
295.064	246.56
295.295	229.56
295.525	233.56
295.756	236.56
295.987	264.56
296.217	293.56
296.448	331.56
296.679	284.56
296.909	256.56
297.14	243.56
297.37	226.56
297.601	259.56
297.831	239.56
298.062	248.56
298.292	231.56
298.523	246.56
298.753	252.56
298.984	279.56
299.214	255.56
299.445	231.56
299.675	244.56
299.905	264.56
300.136	260.56
300.366	252.56
300.597	271.56
300.827	254.56
301.057	268.56
301.288	276.56
301.518	282.56
301.748	286.56
301.979	258.56
302.209	240.56
302.439	276.56
302.669	273.56
302.9	270.56
303.13	269.56
303.36	264.56
303.59	258.56
303.82	282.56
304.051	283.56
304.281	284.56
304.511	259.56
304.741	267.56
304.971	267.56
305.201	285.56
305.431	268.56
305.661	274.56
305.891	268.56
306.121	280.56
306.352	299.56
306.582	303.56
306.812	291.56
307.042	288.56
307.272	276.56
307.502	272.56
307.731	293.56
307.961	280.56
308.191	284.56
308.421	281.56
308.651	283.56
308.881	288.56
309.111	289.56
309.341	286.56
309.571	319.56
309.8	342.56
310.03	336.56
310.26	339.56
310.49	350.56
310.72	376.56
310.949	374.56
311.179	388.56
311.409	375.56
311.639	346.56
311.868	353.56
312.098	338.56
312.328	336.56
312.557	372.56
312.787	404.56
313.017	405.56
313.246	350.56
313.476	343.56
313.706	311.56
313.935	347.56
314.165	362.56
314.394	378.56
314.624	374.56
314.853	374.56
315.083	327.56
315.312	320.56
315.542	321.56
315.771	338.56
316.001	341.56
316.23	347.56
316.46	315.56
316.689	325.56
316.919	325.56
317.148	355.56
317.377	360.56
317.607	347.56
317.836	370.56
318.065	332.56
318.295	336.56
318.524	306.56
318.753	316.56
318.983	343.56
319.212	351.56
319.441	347.56
319.67	342.56
319.9	336.56
320.129	348.56
320.358	354.56
320.587	350.56
320.816	341.56
321.046	374.56
321.275	354.56
321.504	367.56
321.733	375.56
321.962	387.56
322.191	401.56
322.42	446.56
322.649	448.56
322.878	455.56
323.108	480.56
323.337	498.56
323.566	538.56
323.795	603.56
324.024	683.56
324.253	831.56
324.482	1223.56
324.71	1903.56
324.939	2672.56
325.168	2340.56
325.397	1293.56
325.626	821.56
325.855	652.56
326.084	556.56
326.313	532.56
326.542	554.56
326.77	619.56
326.999	737.56
327.228	1036.56
327.457	1626.56
327.686	2006.56
327.914	1419.56
328.143	892.56
328.372	751.56
328.6	668.56
328.829	632.56
329.058	685.56
329.287	664.56
329.515	611.56
329.744	534.56
329.972	506.56
330.201	505.56
330.43	568.56
330.658	614.56
330.887	696.56
331.115	653.56
331.344	525.56
331.572	500.56
331.801	493.56
332.03	492.56
332.258	436.56
332.486	397.56
332.715	390.56
332.943	396.56
333.172	392.56
333.4	391.56
333.629	391.56
333.857	412.56
334.085	399.56
334.314	399.56
334.542	410.56
334.771	400.56
334.999	395.56
335.227	398.56
335.455	388.56
335.684	358.56
335.912	362.56
336.14	352.56
336.369	375.56
336.597	392.56
336.825	390.56
337.053	388.56
337.281	396.56
337.51	382.56
337.738	366.56
337.966	390.56
338.194	402.56
338.422	370.56
338.65	379.56
338.878	385.56
339.106	358.56
339.334	375.56
339.562	376.56
339.79	356.56
340.018	368.56
340.246	374.56
340.474	386.56
340.702	381.56
340.93	359.56
341.158	375.56
341.386	386.56
341.614	375.56
341.842	372.56
342.07	381.56
342.298	377.56
342.526	358.56
342.754	348.56
342.981	355.56
343.209	336.56
343.437	336.56
343.665	353.56
343.893	356.56
344.12	356.56
344.348	365.56
344.576	365.56
344.804	381.56
345.031	403.56
345.259	427.56
345.487	390.56
345.714	400.56
345.942	388.56
346.17	373.56
346.397	363.56
346.625	358.56
346.853	363.56
347.08	359.56
347.308	386.56
347.535	389.56
347.763	384.56
347.99	415.56
348.218	399.56
348.445	391.56
348.673	410.56
348.9	392.56
349.128	363.56
349.355	370.56
349.583	352.56
349.81	363.56
350.037	353.56
350.265	343.56
350.492	357.56
350.72	359.56
350.947	370.56
351.174	399.56
351.402	392.56
351.629	365.56
351.856	380.56
352.083	392.56
352.311	403.56
352.538	422.56
352.765	420.56
352.992	393.56
353.22	396.56
353.447	405.56
353.674	375.56
353.901	350.56
354.128	357.56
354.355	333.56
354.583	351.56
354.81	321.56
355.037	341.56
355.264	326.56
355.491	340.56
355.718	329.56
355.945	345.56
356.172	335.56
356.399	328.56
356.626	340.56
356.853	325.56
357.08	317.56
357.307	330.56
357.534	331.56
357.761	316.56
357.988	331.56
358.215	334.56
358.441	327.56
358.668	319.56
358.895	330.56
359.122	346.56
359.349	380.56
359.576	386.56
359.802	434.56
360.029	471.56
360.256	474.56
360.483	448.56
360.709	414.56
360.936	380.56
361.163	394.56
361.39	394.56
361.616	382.56
361.843	386.56
362.07	400.56
362.296	376.56
362.523	387.56
362.749	382.56
362.976	382.56
363.203	361.56
363.429	347.56
363.656	375.56
363.882	364.56
364.109	344.56
364.335	358.56
364.562	358.56
364.788	357.56
365.015	351.56
365.241	356.56
365.468	374.56
365.694	368.56
365.92	386.56
366.147	355.56
366.373	351.56
366.599	339.56
366.826	350.56
367.052	335.56
367.278	352.56
367.505	327.56
367.731	340.56
367.957	331.56
368.184	350.56
368.41	354.56
368.636	357.56
368.862	362.56
369.089	372.56
369.315	354.56
369.541	333.56
369.767	339.56
369.993	351.56
370.219	335.56
370.445	329.56
370.672	350.56
370.898	329.56
371.124	341.56
371.35	342.56
371.576	325.56
371.802	302.56
372.028	310.56
372.254	332.56
372.48	334.56
372.706	323.56
372.932	338.56
373.158	336.56
373.384	343.56
373.61	335.56
373.835	323.56
374.061	334.56
374.287	340.56
374.513	342.56
374.739	313.56
374.965	335.56
375.191	330.56
375.416	331.56
375.642	310.56
375.868	343.56
376.094	341.56
376.319	343.56
376.545	324.56
376.771	322.56
376.997	314.56
377.222	322.56
377.448	318.56
377.674	318.56
377.899	327.56
378.125	332.56
378.35	310.56
378.576	317.56
378.802	309.56
379.027	313.56
379.253	333.56
379.478	333.56
379.704	318.56
379.929	322.56
380.155	344.56
380.38	351.56
380.606	326.56
380.831	318.56
381.057	328.56
381.282	307.56
381.507	336.56
381.733	335.56
381.958	333.56
382.184	330.56
382.409	331.56
382.634	338.56
382.86	338.56
383.085	323.56
383.31	327.56
383.535	338.56
383.761	342.56
383.986	343.56
384.211	331.56
384.436	339.56
384.662	325.56
384.887	330.56
385.112	346.56
385.337	343.56
385.562	357.56
385.787	352.56
386.013	376.56
386.238	360.56
386.463	354.56
386.688	342.56
386.913	363.56
387.138	348.56
387.363	339.56
387.588	338.56
387.813	339.56
388.038	338.56
388.263	348.56
388.488	352.56
388.713	342.56
388.938	342.56
389.163	350.56
389.387	338.56
389.612	332.56
389.837	313.56
390.062	319.56
390.287	351.56
390.512	344.56
390.736	325.56
390.961	324.56
391.186	346.56
391.411	342.56
391.636	344.56
391.86	359.56
392.085	369.56
392.31	348.56
392.534	357.56
392.759	345.56
392.984	333.56
393.208	351.56
393.433	358.56
393.658	347.56
393.882	340.56
394.107	365.56
394.331	340.56
394.556	346.56
394.78	349.56
395.005	336.56
395.229	361.56
395.454	346.56
395.678	347.56
395.903	359.56
396.127	378.56
396.352	406.56
396.576	370.56
396.801	387.56
397.025	371.56
397.249	360.56
397.474	373.56
397.698	363.56
397.922	375.56
398.147	390.56
398.371	420.56
398.595	387.56
398.82	381.56
399.044	380.56
399.268	396.56
399.492	413.56
399.717	431.56
399.941	436.56
400.165	478.56
400.389	493.56
400.613	458.56
400.837	407.56
401.062	415.56
401.286	398.56
401.51	398.56
401.734	398.56
401.958	395.56
402.182	416.56
402.406	417.56
402.63	415.56
402.854	434.56
403.078	412.56
403.302	407.56
403.526	420.56
403.75	427.56
403.974	431.56
404.198	424.56
404.422	447.56
404.645	424.56
404.869	456.56
405.093	452.56
405.317	469.56
405.541	500.56
405.765	477.56
405.988	442.56
406.212	462.56
406.436	496.56
406.66	512.56
406.883	495.56
407.107	504.56
407.331	539.56
407.555	589.56
407.778	570.56
408.002	527.56
408.226	480.56
408.449	469.56
408.673	483.56
408.896	507.56
409.12	536.56
409.344	518.56
409.567	454.56
409.791	423.56
410.014	444.56
410.238	431.56
410.461	413.56
410.685	438.56
410.908	468.56
411.132	490.56
411.355	521.56
411.578	477.56
411.802	444.56
412.025	414.56
412.249	413.56
412.472	428.56
412.695	423.56
412.919	431.56
413.142	385.56
413.365	390.56
413.589	410.56
413.812	390.56
414.035	408.56
414.258	390.56
414.482	382.56
414.705	395.56
414.928	400.56
415.151	397.56
415.374	386.56
415.597	405.56
415.821	389.56
416.044	416.56
416.267	397.56
416.49	396.56
416.713	407.56
416.936	384.56
417.159	400.56
417.382	394.56
417.605	400.56
417.828	440.56
418.051	438.56
418.274	441.56
418.497	415.56
418.72	418.56
418.943	378.56
419.166	407.56
419.389	398.56
419.611	434.56
419.834	420.56
420.057	423.56
420.28	416.56
420.503	425.56
420.726	421.56
420.948	423.56
421.171	498.56
421.394	530.56
421.617	461.56
421.839	460.56
422.062	432.56
422.285	460.56
422.507	518.56
422.73	604.56
422.953	567.56
423.175	523.56
423.398	457.56
423.621	473.56
423.843	486.56
424.066	498.56
424.288	500.56
424.511	478.56
424.733	552.56
424.956	648.56
425.178	633.56
425.401	603.56
425.623	650.56
425.846	573.56
426.068	531.56
426.291	501.56
426.513	512.56
426.735	517.56
426.958	542.56
427.18	639.56
427.402	769.56
427.625	821.56
427.847	815.56
428.069	687.56
428.292	581.56
428.514	503.56
428.736	503.56
428.958	480.56
429.181	471.56
429.403	463.56
429.625	479.56
429.847	483.56
430.069	588.56
430.292	598.56
430.514	499.56
430.736	464.56
430.958	452.56
431.18	446.56
431.402	421.56
431.624	403.56
431.846	424.56
432.068	418.56
432.29	427.56
432.512	436.56
432.734	451.56
432.956	428.56
433.178	449.56
433.4	450.56
433.622	443.56
433.844	428.56
434.066	418.56
434.287	416.56
434.509	426.56
434.731	426.56
434.953	464.56
435.175	457.56
435.397	493.56
435.618	518.56
435.84	574.56
436.062	638.56
436.284	706.56
436.505	600.56
436.727	534.56
436.949	493.56
437.17	490.56
437.392	484.56
437.614	504.56
437.835	536.56
438.057	667.56
438.278	734.56
438.5	716.56
438.721	788.56
438.943	733.56
439.165	620.56
439.386	562.56
439.608	559.56
439.829	570.56
440.05	558.56
440.272	627.56
440.493	604.56
440.715	544.56
440.936	495.56
441.158	478.56
441.379	477.56
441.6	493.56
441.822	524.56
442.043	566.56
442.264	632.56
442.486	681.56
442.707	574.56
442.928	548.56
443.149	566.56
443.371	572.56
443.592	603.56
443.813	693.56
444.034	743.56
444.255	607.56
444.476	541.56
444.698	495.56
444.919	489.56
445.14	570.56
445.361	561.56
445.582	551.56
445.803	630.56
446.024	724.56
446.245	729.56
446.466	686.56
446.687	591.56
446.908	531.56
447.129	485.56
447.35	490.56
447.571	488.56
447.792	471.56
448.013	502.56
448.234	521.56
448.455	593.56
448.675	670.56
448.896	757.56
449.117	661.56
449.338	647.56
449.559	741.56
449.779	793.56
450	663.56
450.221	577.56
450.442	522.56
450.662	476.56
450.883	518.56
451.104	541.56
451.324	532.56
451.545	483.56
451.766	464.56
451.986	444.56
452.207	446.56
452.428	425.56
452.648	421.56
452.869	436.56
453.089	443.56
453.31	451.56
453.53	441.56
453.751	420.56
453.971	442.56
454.192	484.56
454.412	462.56
454.633	443.56
454.853	443.56
455.073	438.56
455.294	472.56
455.514	525.56
455.734	519.56
455.955	447.56
456.175	430.56
456.395	406.56
456.616	389.56
456.836	376.56
457.056	392.56
457.276	382.56
457.497	392.56
457.717	388.56
457.937	391.56
458.157	415.56
458.377	421.56
458.598	448.56
458.818	555.56
459.038	644.56
459.258	664.56
459.478	528.56
459.698	478.56
459.918	428.56
460.138	423.56
460.358	416.56
460.578	432.56
460.798	427.56
461.018	434.56
461.238	419.56
461.458	413.56
461.678	406.56
461.898	398.56
462.118	425.56
462.338	395.56
462.558	418.56
462.777	408.56
462.997	441.56
463.217	418.56
463.437	432.56
463.657	437.56
463.876	419.56
464.096	430.56
464.316	437.56
464.536	442.56
464.755	470.56
464.975	472.56
465.195	550.56
465.414	701.56
465.634	603.56
465.854	516.56
466.073	499.56
466.293	447.56
466.512	408.56
466.732	426.56
466.951	442.56
467.171	418.56
467.391	431.56
467.61	419.56
467.829	459.56
468.049	438.56
468.268	422.56
468.488	418.56
468.707	394.56
468.927	414.56
469.146	415.56
469.365	427.56
469.585	410.56
469.804	414.56
470.023	446.56
470.243	420.56
470.462	441.56
470.681	447.56
470.901	447.56
471.12	438.56
471.339	444.56
471.558	435.56
471.777	429.56
471.997	426.56
472.216	437.56
472.435	415.56
472.654	443.56
472.873	436.56
473.092	418.56
473.311	419.56
473.53	443.56
473.749	446.56
473.968	503.56
474.187	613.56
474.406	655.56
474.625	528.56
474.844	460.56
475.063	443.56
475.282	440.56
475.501	438.56
475.72	427.56
475.939	452.56
476.158	436.56
476.377	428.56
476.596	426.56
476.814	456.56
477.033	459.56
477.252	458.56
477.471	447.56
477.69	437.56
477.908	449.56
478.127	462.56
478.346	475.56
478.564	467.56
478.783	456.56
479.002	485.56
479.22	475.56
479.439	509.56
479.658	508.56
479.876	549.56
480.095	534.56
480.313	555.56
480.532	542.56
480.751	534.56
480.969	510.56
481.188	529.56
481.406	524.56
481.624	516.56
481.843	537.56
482.061	508.56
482.28	498.56
482.498	523.56
482.717	496.56
482.935	498.56
483.153	508.56
483.372	500.56
483.59	489.56
483.808	511.56
484.027	498.56
484.245	517.56
484.463	519.56
484.681	532.56
484.9	507.56
485.118	512.56
485.336	536.56
485.554	519.56
485.772	509.56
485.99	537.56
486.209	537.56
486.427	525.56
486.645	545.56
486.863	575.56
487.081	595.56
487.299	564.56
487.517	556.56
487.735	575.56
487.953	549.56
488.171	557.56
488.389	521.56
488.607	548.56
488.825	584.56
489.043	566.56
489.261	568.56
489.479	602.56
489.696	565.56
489.914	552.56
490.132	573.56
490.35	575.56
490.568	586.56
490.786	605.56
491.003	598.56
491.221	612.56
491.439	627.56
491.657	632.56
491.874	619.56
492.092	642.56
492.31	640.56
492.527	649.56
492.745	629.56
492.963	656.56
493.18	638.56
493.398	634.56
493.615	648.56
493.833	668.56
494.05	654.56
494.268	657.56
494.485	681.56
494.703	675.56
494.92	665.56
495.138	662.56
495.355	672.56
495.573	688.56
495.79	676.56
496.008	660.56
496.225	667.56
496.442	694.56
496.66	650.56
496.877	705.56
497.094	670.56
497.312	680.56
497.529	683.56
497.746	698.56
497.963	706.56
498.181	726.56
498.398	699.56
498.615	694.56
498.832	704.56
499.049	724.56
499.267	707.56
499.484	731.56
499.701	736.56
499.918	731.56
500.135	779.56
500.352	787.56
500.569	778.56
500.786	770.56
501.003	792.56
501.22	783.56
501.437	764.56
501.654	782.56
501.871	793.56
