Data from 1987.PennyLincolnUp.Lamp.En5.5.200Scan.071819.P2_HRD10591_17-14-45-971.txt Node
Date: Thu Jul 18 17:14:45 EDT 2019
User: cochatt
Spectrometer: HR+D1059
Trigger mode: 1
Integration Time (sec): 1.000000E-1
Scans to average: 1
Electric dark correction enabled: true
Nonlinearity correction enabled: false
Boxcar width: 0
XAxis mode: Wavelengths
Number of Pixels in Spectrum: 2048
>>>>>Begin Spectral Data<<<<<
223.165	-20.88
223.4	-20.88
223.635	-20.88
223.869	-7.88
224.104	-15.88
224.338	-8.88
224.573	-3.88
224.808	-4.88
225.042	-18.88
225.277	0.12
225.511	-0.88
225.746	10.12
225.98	8.12
226.215	5.12
226.449	8.12
226.683	6.12
226.918	14.12
227.152	30.12
227.387	35.12
227.621	33.12
227.856	43.12
228.09	30.12
228.324	48.12
228.559	44.12
228.793	69.12
229.027	108.12
229.262	122.12
229.496	120.12
229.73	140.12
229.964	168.12
230.199	137.12
230.433	128.12
230.667	118.12
230.901	138.12
231.136	104.12
231.37	102.12
231.604	122.12
231.838	112.12
232.072	119.12
232.306	115.12
232.541	121.12
232.775	116.12
233.009	119.12
233.243	109.12
233.477	115.12
233.711	104.12
233.945	117.12
234.179	101.12
234.413	121.12
234.647	121.12
234.881	125.12
235.115	110.12
235.349	115.12
235.583	111.12
235.817	121.12
236.051	126.12
236.285	137.12
236.519	134.12
236.753	123.12
236.987	167.12
237.221	193.12
237.455	254.12
237.689	201.12
237.922	141.12
238.156	137.12
238.39	135.12
238.624	136.12
238.858	130.12
239.091	127.12
239.325	124.12
239.559	123.12
239.793	139.12
240.027	128.12
240.26	151.12
240.494	169.12
240.728	158.12
240.961	146.12
241.195	137.12
241.429	142.12
241.662	132.12
241.896	129.12
242.13	135.12
242.363	131.12
242.597	119.12
242.83	137.12
243.064	127.12
243.298	125.12
243.531	121.12
243.765	160.12
243.998	135.12
244.232	149.12
244.465	140.12
244.699	139.12
244.932	146.12
245.166	132.12
245.399	127.12
245.633	157.12
245.866	141.12
246.099	141.12
246.333	149.12
246.566	133.12
246.8	143.12
247.033	156.12
247.266	158.12
247.5	149.12
247.733	156.12
247.966	160.12
248.2	162.12
248.433	151.12
248.666	155.12
248.899	175.12
249.133	201.12
249.366	228.12
249.599	198.12
249.832	201.12
250.066	172.12
250.299	174.12
250.532	183.12
250.765	187.12
250.998	214.12
251.231	199.12
251.465	208.12
251.698	194.12
251.931	187.12
252.164	208.12
252.397	185.12
252.63	195.12
252.863	204.12
253.096	213.12
253.329	215.12
253.562	219.12
253.795	207.12
254.028	220.12
254.261	212.12
254.494	208.12
254.727	235.12
254.96	280.12
255.193	275.12
255.426	247.12
255.659	225.12
255.892	234.12
256.124	214.12
256.357	205.12
256.59	188.12
256.823	192.12
257.056	197.12
257.289	184.12
257.521	192.12
257.754	195.12
257.987	177.12
258.22	196.12
258.452	196.12
258.685	204.12
258.918	199.12
259.151	209.12
259.383	199.12
259.616	208.12
259.849	213.12
260.081	222.12
260.314	237.12
260.547	246.12
260.779	235.12
261.012	203.12
261.244	206.12
261.477	210.12
261.71	205.12
261.942	210.12
262.175	232.12
262.407	223.12
262.64	209.12
262.872	205.12
263.105	206.12
263.337	198.12
263.57	198.12
263.802	199.12
264.035	188.12
264.267	185.12
264.499	199.12
264.732	181.12
264.964	182.12
265.197	187.12
265.429	203.12
265.661	192.12
265.894	183.12
266.126	182.12
266.358	197.12
266.591	198.12
266.823	211.12
267.055	204.12
267.287	208.12
267.52	184.12
267.752	204.12
267.984	195.12
268.216	195.12
268.448	197.12
268.681	217.12
268.913	211.12
269.145	227.12
269.377	251.12
269.609	267.12
269.841	251.12
270.073	239.12
270.306	249.12
270.538	295.12
270.77	279.12
271.002	295.12
271.234	268.12
271.466	291.12
271.698	293.12
271.93	302.12
272.162	299.12
272.394	304.12
272.626	290.12
272.858	296.12
273.09	279.12
273.322	255.12
273.553	235.12
273.785	241.12
274.017	239.12
274.249	229.12
274.481	237.12
274.713	231.12
274.945	231.12
275.176	234.12
275.408	220.12
275.64	230.12
275.872	234.12
276.104	247.12
276.335	244.12
276.567	227.12
276.799	261.12
277.031	297.12
277.262	281.12
277.494	289.12
277.726	263.12
277.957	264.12
278.189	250.12
278.421	243.12
278.652	229.12
278.884	238.12
279.115	237.12
279.347	236.12
279.579	236.12
279.81	239.12
280.042	230.12
280.273	230.12
280.505	219.12
280.736	228.12
280.968	215.12
281.199	222.12
281.431	222.12
281.662	217.12
281.894	223.12
282.125	231.12
282.356	261.12
282.588	283.12
282.819	289.12
283.051	227.12
283.282	219.12
283.513	233.12
283.745	224.12
283.976	232.12
284.207	244.12
284.439	228.12
284.67	232.12
284.901	245.12
285.132	205.12
285.364	233.12
285.595	235.12
285.826	224.12
286.057	236.12
286.288	226.12
286.52	237.12
286.751	237.12
286.982	217.12
287.213	227.12
287.444	219.12
287.675	247.12
287.906	243.12
288.138	247.12
288.369	231.12
288.6	253.12
288.831	247.12
289.062	238.12
289.293	236.12
289.524	241.12
289.755	240.12
289.986	228.12
290.217	232.12
290.448	238.12
290.679	237.12
290.91	225.12
291.141	220.12
291.371	232.12
291.602	211.12
291.833	217.12
292.064	232.12
292.295	243.12
292.526	235.12
292.757	218.12
292.987	238.12
293.218	224.12
293.449	227.12
293.68	232.12
293.91	229.12
294.141	229.12
294.372	245.12
294.603	237.12
294.833	223.12
295.064	234.12
295.295	217.12
295.525	247.12
295.756	255.12
295.987	257.12
296.217	277.12
296.448	304.12
296.679	252.12
296.909	223.12
297.14	228.12
297.37	223.12
297.601	247.12
297.831	230.12
298.062	242.12
298.292	244.12
298.523	254.12
298.753	246.12
298.984	250.12
299.214	250.12
299.445	248.12
299.675	237.12
299.905	271.12
300.136	252.12
300.366	241.12
300.597	251.12
300.827	251.12
301.057	284.12
301.288	284.12
301.518	271.12
301.748	259.12
301.979	248.12
302.209	264.12
302.439	272.12
302.669	268.12
302.9	269.12
303.13	280.12
303.36	249.12
303.59	266.12
303.82	283.12
304.051	282.12
304.281	265.12
304.511	266.12
304.741	268.12
304.971	257.12
305.201	262.12
305.431	253.12
305.661	264.12
305.891	257.12
306.121	271.12
306.352	284.12
306.582	271.12
306.812	274.12
307.042	269.12
307.272	261.12
307.502	265.12
307.731	277.12
307.961	271.12
308.191	273.12
308.421	273.12
308.651	282.12
308.881	272.12
309.111	281.12
309.341	303.12
309.571	322.12
309.8	315.12
310.03	333.12
310.26	340.12
310.49	334.12
310.72	330.12
310.949	371.12
311.179	370.12
311.409	345.12
311.639	349.12
311.868	363.12
312.098	337.12
312.328	327.12
312.557	363.12
312.787	385.12
313.017	371.12
313.246	343.12
313.476	325.12
313.706	343.12
313.935	337.12
314.165	355.12
314.394	357.12
314.624	367.12
314.853	352.12
315.083	335.12
315.312	328.12
315.542	316.12
315.771	314.12
316.001	320.12
316.23	320.12
316.46	326.12
316.689	333.12
316.919	327.12
317.148	334.12
317.377	346.12
317.607	344.12
317.836	340.12
318.065	327.12
318.295	327.12
318.524	328.12
318.753	333.12
318.983	318.12
319.212	307.12
319.441	349.12
319.67	345.12
319.9	333.12
320.129	330.12
320.358	317.12
320.587	340.12
320.816	345.12
321.046	360.12
321.275	365.12
321.504	358.12
321.733	368.12
321.962	358.12
322.191	378.12
322.42	417.12
322.649	426.12
322.878	443.12
323.108	446.12
323.337	493.12
323.566	519.12
323.795	553.12
324.024	629.12
324.253	779.12
324.482	1133.12
324.71	1767.12
324.939	2477.12
325.168	2184.12
325.397	1200.12
325.626	801.12
325.855	606.12
326.084	547.12
326.313	524.12
326.542	531.12
326.77	602.12
326.999	721.12
327.228	998.12
327.457	1515.12
327.686	1904.12
327.914	1303.12
328.143	816.12
328.372	695.12
328.6	606.12
328.829	611.12
329.058	607.12
329.287	636.12
329.515	574.12
329.744	509.12
329.972	487.12
330.201	492.12
330.43	536.12
330.658	567.12
330.887	627.12
331.115	620.12
331.344	525.12
331.572	483.12
331.801	456.12
332.03	467.12
332.258	437.12
332.486	395.12
332.715	373.12
332.943	393.12
333.172	383.12
333.4	381.12
333.629	378.12
333.857	415.12
334.085	386.12
334.314	379.12
334.542	395.12
334.771	409.12
334.999	385.12
335.227	382.12
335.455	391.12
335.684	372.12
335.912	363.12
336.14	350.12
336.369	386.12
336.597	383.12
336.825	377.12
337.053	366.12
337.281	371.12
337.51	364.12
337.738	366.12
337.966	366.12
338.194	386.12
338.422	389.12
338.65	361.12
338.878	370.12
339.106	369.12
339.334	373.12
339.562	348.12
339.79	344.12
340.018	371.12
340.246	356.12
340.474	360.12
340.702	354.12
340.93	351.12
341.158	371.12
341.386	347.12
341.614	385.12
341.842	373.12
342.07	353.12
342.298	371.12
342.526	348.12
342.754	345.12
342.981	331.12
343.209	334.12
343.437	349.12
343.665	339.12
343.893	338.12
344.12	362.12
344.348	363.12
344.576	347.12
344.804	379.12
345.031	391.12
345.259	403.12
345.487	373.12
345.714	375.12
345.942	384.12
346.17	348.12
346.397	364.12
346.625	364.12
346.853	375.12
347.08	373.12
347.308	358.12
347.535	341.12
347.763	388.12
347.99	397.12
348.218	375.12
348.445	383.12
348.673	413.12
348.9	380.12
349.128	346.12
349.355	336.12
349.583	331.12
349.81	342.12
350.037	332.12
350.265	355.12
350.492	341.12
350.72	343.12
350.947	365.12
351.174	371.12
351.402	396.12
351.629	394.12
351.856	380.12
352.083	399.12
352.311	384.12
352.538	402.12
352.765	400.12
352.992	391.12
353.22	375.12
353.447	362.12
353.674	346.12
353.901	333.12
354.128	346.12
354.355	335.12
354.583	341.12
354.81	323.12
355.037	346.12
355.264	335.12
355.491	331.12
355.718	310.12
355.945	331.12
356.172	345.12
356.399	325.12
356.626	341.12
356.853	330.12
357.08	336.12
357.307	302.12
357.534	321.12
357.761	325.12
357.988	335.12
358.215	332.12
358.441	334.12
358.668	323.12
358.895	336.12
359.122	351.12
359.349	377.12
359.576	377.12
359.802	399.12
360.029	447.12
360.256	455.12
360.483	426.12
360.709	387.12
360.936	361.12
361.163	367.12
361.39	376.12
361.616	385.12
361.843	360.12
362.07	363.12
362.296	374.12
362.523	382.12
362.749	369.12
362.976	353.12
363.203	377.12
363.429	358.12
363.656	367.12
363.882	366.12
364.109	338.12
364.335	356.12
364.562	333.12
364.788	337.12
365.015	335.12
365.241	362.12
365.468	356.12
365.694	337.12
365.92	366.12
366.147	346.12
366.373	333.12
366.599	334.12
366.826	320.12
367.052	347.12
367.278	339.12
367.505	336.12
367.731	337.12
367.957	340.12
368.184	343.12
368.41	356.12
368.636	357.12
368.862	363.12
369.089	338.12
369.315	341.12
369.541	325.12
369.767	339.12
369.993	331.12
370.219	329.12
370.445	322.12
370.672	336.12
370.898	317.12
371.124	348.12
371.35	338.12
371.576	327.12
371.802	319.12
372.028	325.12
372.254	327.12
372.48	323.12
372.706	321.12
372.932	311.12
373.158	316.12
373.384	328.12
373.61	336.12
373.835	316.12
374.061	318.12
374.287	327.12
374.513	341.12
374.739	338.12
374.965	333.12
375.191	325.12
375.416	325.12
375.642	347.12
375.868	318.12
376.094	326.12
376.319	330.12
376.545	316.12
376.771	320.12
376.997	325.12
377.222	329.12
377.448	333.12
377.674	319.12
377.899	322.12
378.125	307.12
378.35	292.12
378.576	329.12
378.802	312.12
379.027	318.12
379.253	327.12
379.478	321.12
379.704	335.12
379.929	311.12
380.155	321.12
380.38	342.12
380.606	338.12
380.831	341.12
381.057	339.12
381.282	327.12
381.507	330.12
381.733	348.12
381.958	327.12
382.184	327.12
382.409	345.12
382.634	330.12
382.86	337.12
383.085	320.12
383.31	339.12
383.535	326.12
383.761	329.12
383.986	311.12
384.211	339.12
384.436	341.12
384.662	344.12
384.887	330.12
385.112	332.12
385.337	348.12
385.562	328.12
385.787	335.12
386.013	348.12
386.238	361.12
386.463	351.12
386.688	373.12
386.913	364.12
387.138	360.12
387.363	347.12
387.588	332.12
387.813	337.12
388.038	332.12
388.263	342.12
388.488	360.12
388.713	359.12
388.938	342.12
389.163	344.12
389.387	360.12
389.612	347.12
389.837	335.12
390.062	354.12
390.287	352.12
390.512	360.12
390.736	345.12
390.961	344.12
391.186	361.12
391.411	355.12
391.636	330.12
391.86	310.12
392.085	361.12
392.31	349.12
392.534	321.12
392.759	339.12
392.984	354.12
393.208	359.12
393.433	359.12
393.658	361.12
393.882	345.12
394.107	346.12
394.331	342.12
394.556	352.12
394.78	363.12
395.005	350.12
395.229	353.12
395.454	363.12
395.678	344.12
395.903	352.12
396.127	390.12
396.352	403.12
396.576	365.12
396.801	351.12
397.025	359.12
397.249	365.12
397.474	384.12
397.698	380.12
397.922	390.12
398.147	385.12
398.371	391.12
398.595	374.12
398.82	383.12
399.044	398.12
399.268	382.12
399.492	401.12
399.717	408.12
399.941	428.12
400.165	480.12
400.389	454.12
400.613	453.12
400.837	420.12
401.062	405.12
401.286	413.12
401.51	400.12
401.734	398.12
401.958	404.12
402.182	403.12
402.406	404.12
402.63	419.12
402.854	419.12
403.078	420.12
403.302	401.12
403.526	425.12
403.75	411.12
403.974	407.12
404.198	421.12
404.422	419.12
404.645	409.12
404.869	413.12
405.093	447.12
405.317	451.12
405.541	480.12
405.765	462.12
405.988	451.12
406.212	451.12
406.436	506.12
406.66	515.12
406.883	478.12
407.107	488.12
407.331	508.12
407.555	581.12
407.778	579.12
408.002	494.12
408.226	477.12
408.449	474.12
408.673	452.12
408.896	483.12
409.12	500.12
409.344	491.12
409.567	449.12
409.791	416.12
410.014	421.12
410.238	415.12
410.461	439.12
410.685	432.12
410.908	468.12
411.132	478.12
411.355	515.12
411.578	488.12
411.802	448.12
412.025	434.12
412.249	401.12
412.472	423.12
412.695	417.12
412.919	432.12
413.142	420.12
413.365	403.12
413.589	402.12
413.812	400.12
414.035	402.12
414.258	395.12
414.482	389.12
414.705	394.12
414.928	381.12
415.151	381.12
415.374	400.12
415.597	402.12
415.821	384.12
416.044	392.12
416.267	409.12
416.49	421.12
416.713	382.12
416.936	401.12
417.159	410.12
417.382	396.12
417.605	416.12
417.828	420.12
418.051	435.12
418.274	443.12
418.497	412.12
418.72	407.12
418.943	395.12
419.166	409.12
419.389	425.12
419.611	426.12
419.834	429.12
420.057	404.12
420.28	429.12
420.503	408.12
420.726	416.12
420.948	446.12
421.171	492.12
421.394	527.12
421.617	454.12
421.839	455.12
422.062	444.12
422.285	445.12
422.507	487.12
422.73	571.12
422.953	558.12
423.175	490.12
423.398	474.12
423.621	449.12
423.843	486.12
424.066	475.12
424.288	470.12
424.511	520.12
424.733	560.12
424.956	639.12
425.178	625.12
425.401	614.12
425.623	630.12
425.846	556.12
426.068	519.12
426.291	496.12
426.513	487.12
426.735	521.12
426.958	536.12
427.18	629.12
427.402	733.12
427.625	831.12
427.847	775.12
428.069	646.12
428.292	581.12
428.514	533.12
428.736	527.12
428.958	484.12
429.181	469.12
429.403	469.12
429.625	483.12
429.847	497.12
430.069	574.12
430.292	578.12
430.514	477.12
430.736	469.12
430.958	447.12
431.18	454.12
431.402	404.12
431.624	421.12
431.846	432.12
432.068	421.12
432.29	420.12
432.512	426.12
432.734	427.12
432.956	448.12
433.178	431.12
433.4	428.12
433.622	447.12
433.844	419.12
434.066	428.12
434.287	416.12
434.509	398.12
434.731	447.12
434.953	433.12
435.175	456.12
435.397	506.12
435.618	499.12
435.84	548.12
436.062	630.12
436.284	659.12
436.505	600.12
436.727	522.12
436.949	485.12
437.17	484.12
437.392	477.12
437.614	476.12
437.835	541.12
438.057	643.12
438.278	743.12
438.5	725.12
438.721	755.12
438.943	718.12
439.165	619.12
439.386	557.12
439.608	517.12
439.829	545.12
440.05	580.12
440.272	611.12
440.493	571.12
440.715	529.12
440.936	474.12
441.158	497.12
441.379	463.12
441.6	491.12
441.822	515.12
442.043	549.12
442.264	629.12
442.486	668.12
442.707	542.12
442.928	533.12
443.149	557.12
443.371	540.12
443.592	575.12
443.813	683.12
444.034	705.12
444.255	613.12
444.476	513.12
444.698	518.12
444.919	509.12
445.14	601.12
445.361	562.12
445.582	559.12
445.803	620.12
446.024	705.12
446.245	705.12
446.466	664.12
446.687	591.12
446.908	539.12
447.129	472.12
447.35	493.12
447.571	455.12
447.792	468.12
448.013	486.12
448.234	501.12
448.455	555.12
448.675	647.12
448.896	731.12
449.117	676.12
449.338	621.12
449.559	704.12
449.779	769.12
450	651.12
450.221	543.12
450.442	479.12
450.662	480.12
450.883	497.12
451.104	513.12
451.324	525.12
451.545	462.12
451.766	465.12
451.986	423.12
452.207	431.12
452.428	425.12
452.648	417.12
452.869	429.12
453.089	417.12
453.31	464.12
453.53	448.12
453.751	430.12
453.971	449.12
454.192	470.12
454.412	464.12
454.633	442.12
454.853	423.12
455.073	441.12
455.294	464.12
455.514	534.12
455.734	506.12
455.955	439.12
456.175	400.12
456.395	392.12
456.616	384.12
456.836	390.12
457.056	381.12
457.276	370.12
457.497	397.12
457.717	395.12
457.937	396.12
458.157	395.12
458.377	422.12
458.598	437.12
458.818	517.12
459.038	624.12
459.258	625.12
459.478	523.12
459.698	451.12
459.918	423.12
460.138	425.12
460.358	415.12
460.578	414.12
460.798	422.12
461.018	427.12
461.238	397.12
461.458	425.12
461.678	397.12
461.898	414.12
462.118	423.12
462.338	420.12
462.558	418.12
462.777	402.12
462.997	431.12
463.217	418.12
463.437	427.12
463.657	435.12
463.876	422.12
464.096	433.12
464.316	419.12
464.536	435.12
464.755	447.12
464.975	473.12
465.195	535.12
465.414	673.12
465.634	575.12
465.854	491.12
466.073	461.12
466.293	444.12
466.512	427.12
466.732	409.12
466.951	409.12
467.171	420.12
467.391	411.12
467.61	433.12
467.829	462.12
468.049	455.12
468.268	420.12
468.488	405.12
468.707	391.12
468.927	405.12
469.146	387.12
469.365	400.12
469.585	412.12
469.804	425.12
470.023	431.12
470.243	425.12
470.462	444.12
470.681	467.12
470.901	453.12
471.12	415.12
471.339	426.12
471.558	438.12
471.777	422.12
471.997	414.12
472.216	423.12
472.435	395.12
472.654	411.12
472.873	388.12
473.092	409.12
473.311	410.12
473.53	419.12
473.749	426.12
473.968	481.12
474.187	588.12
474.406	613.12
474.625	476.12
474.844	443.12
475.063	431.12
475.282	439.12
475.501	444.12
475.72	447.12
475.939	418.12
476.158	427.12
476.377	433.12
476.596	424.12
476.814	436.12
477.033	440.12
477.252	442.12
477.471	443.12
477.69	462.12
477.908	444.12
478.127	455.12
478.346	459.12
478.564	457.12
478.783	461.12
479.002	467.12
479.22	466.12
479.439	482.12
479.658	530.12
479.876	534.12
480.095	508.12
480.313	555.12
480.532	525.12
480.751	506.12
480.969	522.12
481.188	530.12
481.406	515.12
481.624	524.12
481.843	496.12
482.061	478.12
482.28	499.12
482.498	496.12
482.717	515.12
482.935	506.12
483.153	488.12
483.372	501.12
483.59	529.12
483.808	506.12
484.027	478.12
484.245	516.12
484.463	505.12
484.681	529.12
484.9	503.12
485.118	505.12
485.336	520.12
485.554	527.12
485.772	523.12
485.99	513.12
486.209	515.12
486.427	524.12
486.645	537.12
486.863	563.12
487.081	550.12
487.299	559.12
487.517	536.12
487.735	566.12
487.953	536.12
488.171	546.12
488.389	560.12
488.607	551.12
488.825	537.12
489.043	559.12
489.261	537.12
489.479	547.12
489.696	548.12
489.914	550.12
490.132	547.12
490.35	579.12
490.568	567.12
490.786	594.12
491.003	585.12
491.221	594.12
491.439	599.12
491.657	616.12
491.874	637.12
492.092	636.12
492.31	639.12
492.527	621.12
492.745	634.12
492.963	624.12
493.18	641.12
493.398	647.12
493.615	644.12
493.833	671.12
494.05	634.12
494.268	633.12
494.485	627.12
494.703	649.12
494.92	671.12
495.138	663.12
495.355	673.12
495.573	661.12
495.79	663.12
496.008	673.12
496.225	633.12
496.442	643.12
496.66	696.12
496.877	649.12
497.094	663.12
497.312	669.12
497.529	694.12
497.746	675.12
497.963	684.12
498.181	706.12
498.398	698.12
498.615	707.12
498.832	702.12
499.049	716.12
499.267	725.12
499.484	742.12
499.701	735.12
499.918	746.12
500.135	745.12
500.352	771.12
500.569	773.12
500.786	777.12
501.003	776.12
501.22	770.12
501.437	782.12
501.654	803.12
501.871	789.12
