Data from 1987.PennyLincolnUp.Lamp.En5.5.200Scan.071819.P2_HRD10591_17-15-40-973.txt Node
Date: Thu Jul 18 17:15:40 EDT 2019
User: cochatt
Spectrometer: HR+D1059
Trigger mode: 1
Integration Time (sec): 1.000000E-1
Scans to average: 1
Electric dark correction enabled: true
Nonlinearity correction enabled: false
Boxcar width: 0
XAxis mode: Wavelengths
Number of Pixels in Spectrum: 2048
>>>>>Begin Spectral Data<<<<<
223.165	0.75
223.4	0.75
223.635	0.75
223.869	-29.25
224.104	-17.25
224.338	-11.25
224.573	-12.25
224.808	-10.25
225.042	-5.25
225.277	-3.25
225.511	-14.25
225.746	-3.25
225.98	6.75
226.215	0.75
226.449	19.75
226.683	29.75
226.918	29.75
227.152	18.75
227.387	33.75
227.621	43.75
227.856	37.75
228.09	39.75
228.324	57.75
228.559	48.75
228.793	78.75
229.027	104.75
229.262	97.75
229.496	125.75
229.73	149.75
229.964	171.75
230.199	135.75
230.433	117.75
230.667	120.75
230.901	124.75
231.136	108.75
231.37	105.75
231.604	108.75
231.838	107.75
232.072	129.75
232.306	92.75
232.541	111.75
232.775	120.75
233.009	109.75
233.243	112.75
233.477	102.75
233.711	124.75
233.945	101.75
234.179	122.75
234.413	112.75
234.647	111.75
234.881	122.75
235.115	116.75
235.349	117.75
235.583	113.75
235.817	121.75
236.051	143.75
236.285	128.75
236.519	130.75
236.753	141.75
236.987	143.75
237.221	195.75
237.455	261.75
237.689	188.75
237.922	139.75
238.156	154.75
238.39	126.75
238.624	117.75
238.858	108.75
239.091	111.75
239.325	118.75
239.559	129.75
239.793	113.75
240.027	136.75
240.26	156.75
240.494	160.75
240.728	167.75
240.961	152.75
241.195	150.75
241.429	130.75
241.662	115.75
241.896	118.75
242.13	139.75
242.363	129.75
242.597	127.75
242.83	130.75
243.064	137.75
243.298	121.75
243.531	136.75
243.765	132.75
243.998	124.75
244.232	122.75
244.465	144.75
244.699	143.75
244.932	138.75
245.166	136.75
245.399	138.75
245.633	134.75
245.866	135.75
246.099	145.75
246.333	138.75
246.566	136.75
246.8	147.75
247.033	147.75
247.266	152.75
247.5	160.75
247.733	175.75
247.966	164.75
248.2	157.75
248.433	161.75
248.666	183.75
248.899	184.75
249.133	189.75
249.366	221.75
249.599	198.75
249.832	197.75
250.066	181.75
250.299	169.75
250.532	184.75
250.765	198.75
250.998	218.75
251.231	231.75
251.465	198.75
251.698	204.75
251.931	182.75
252.164	213.75
252.397	180.75
252.63	193.75
252.863	205.75
253.096	223.75
253.329	214.75
253.562	236.75
253.795	216.75
254.028	225.75
254.261	227.75
254.494	214.75
254.727	272.75
254.96	280.75
255.193	265.75
255.426	253.75
255.659	211.75
255.892	226.75
256.124	230.75
256.357	212.75
256.59	201.75
256.823	194.75
257.056	184.75
257.289	194.75
257.521	203.75
257.754	199.75
257.987	180.75
258.22	218.75
258.452	179.75
258.685	183.75
258.918	200.75
259.151	193.75
259.383	203.75
259.616	210.75
259.849	212.75
260.081	209.75
260.314	235.75
260.547	249.75
260.779	223.75
261.012	230.75
261.244	223.75
261.477	210.75
261.71	208.75
261.942	208.75
262.175	247.75
262.407	230.75
262.64	202.75
262.872	204.75
263.105	202.75
263.337	184.75
263.57	198.75
263.802	206.75
264.035	196.75
264.267	196.75
264.499	189.75
264.732	193.75
264.964	194.75
265.197	178.75
265.429	193.75
265.661	202.75
265.894	178.75
266.126	194.75
266.358	180.75
266.591	175.75
266.823	197.75
267.055	191.75
267.287	197.75
267.52	208.75
267.752	201.75
267.984	199.75
268.216	202.75
268.448	210.75
268.681	206.75
268.913	208.75
269.145	230.75
269.377	244.75
269.609	268.75
269.841	242.75
270.073	248.75
270.306	270.75
270.538	289.75
270.77	306.75
271.002	276.75
271.234	272.75
271.466	308.75
271.698	315.75
271.93	284.75
272.162	323.75
272.394	303.75
272.626	297.75
272.858	270.75
273.09	277.75
273.322	256.75
273.553	244.75
273.785	244.75
274.017	234.75
274.249	248.75
274.481	238.75
274.713	250.75
274.945	227.75
275.176	240.75
275.408	233.75
275.64	228.75
275.872	228.75
276.104	238.75
276.335	226.75
276.567	250.75
276.799	279.75
277.031	287.75
277.262	293.75
277.494	296.75
277.726	264.75
277.957	260.75
278.189	252.75
278.421	240.75
278.652	254.75
278.884	214.75
279.115	223.75
279.347	227.75
279.579	221.75
279.81	219.75
280.042	216.75
280.273	224.75
280.505	225.75
280.736	216.75
280.968	212.75
281.199	231.75
281.431	224.75
281.662	240.75
281.894	232.75
282.125	237.75
282.356	249.75
282.588	301.75
282.819	287.75
283.051	247.75
283.282	225.75
283.513	236.75
283.745	237.75
283.976	221.75
284.207	241.75
284.439	228.75
284.67	218.75
284.901	226.75
285.132	222.75
285.364	237.75
285.595	236.75
285.826	227.75
286.057	230.75
286.288	238.75
286.52	214.75
286.751	236.75
286.982	219.75
287.213	238.75
287.444	212.75
287.675	223.75
287.906	234.75
288.138	251.75
288.369	254.75
288.6	249.75
288.831	248.75
289.062	220.75
289.293	256.75
289.524	251.75
289.755	248.75
289.986	235.75
290.217	217.75
290.448	236.75
290.679	216.75
290.91	243.75
291.141	225.75
291.371	228.75
291.602	236.75
291.833	229.75
292.064	227.75
292.295	223.75
292.526	258.75
292.757	253.75
292.987	228.75
293.218	246.75
293.449	218.75
293.68	223.75
293.91	246.75
294.141	228.75
294.372	237.75
294.603	240.75
294.833	223.75
295.064	235.75
295.295	240.75
295.525	258.75
295.756	252.75
295.987	245.75
296.217	276.75
296.448	305.75
296.679	262.75
296.909	231.75
297.14	225.75
297.37	262.75
297.601	243.75
297.831	245.75
298.062	234.75
298.292	245.75
298.523	248.75
298.753	237.75
298.984	249.75
299.214	224.75
299.445	233.75
299.675	245.75
299.905	258.75
300.136	243.75
300.366	266.75
300.597	254.75
300.827	253.75
301.057	263.75
301.288	266.75
301.518	272.75
301.748	266.75
301.979	268.75
302.209	264.75
302.439	270.75
302.669	252.75
302.9	281.75
303.13	268.75
303.36	271.75
303.59	255.75
303.82	275.75
304.051	272.75
304.281	272.75
304.511	259.75
304.741	247.75
304.971	256.75
305.201	279.75
305.431	264.75
305.661	280.75
305.891	267.75
306.121	262.75
306.352	264.75
306.582	278.75
306.812	279.75
307.042	258.75
307.272	276.75
307.502	288.75
307.731	276.75
307.961	289.75
308.191	263.75
308.421	275.75
308.651	281.75
308.881	267.75
309.111	292.75
309.341	280.75
309.571	296.75
309.8	316.75
310.03	336.75
310.26	334.75
310.49	330.75
310.72	350.75
310.949	384.75
311.179	389.75
311.409	354.75
311.639	340.75
311.868	332.75
312.098	341.75
312.328	345.75
312.557	400.75
312.787	407.75
313.017	382.75
313.246	353.75
313.476	341.75
313.706	324.75
313.935	347.75
314.165	359.75
314.394	361.75
314.624	367.75
314.853	340.75
315.083	348.75
315.312	324.75
315.542	329.75
315.771	317.75
316.001	314.75
316.23	319.75
316.46	317.75
316.689	317.75
316.919	321.75
317.148	358.75
317.377	335.75
317.607	339.75
317.836	351.75
318.065	318.75
318.295	305.75
318.524	341.75
318.753	316.75
318.983	316.75
319.212	327.75
319.441	341.75
319.67	357.75
319.9	326.75
320.129	300.75
320.358	318.75
320.587	320.75
320.816	348.75
321.046	376.75
321.275	358.75
321.504	357.75
321.733	353.75
321.962	385.75
322.191	394.75
322.42	427.75
322.649	440.75
322.878	444.75
323.108	449.75
323.337	506.75
323.566	547.75
323.795	600.75
324.024	677.75
324.253	854.75
324.482	1225.75
324.71	1907.75
324.939	2696.75
325.168	2384.75
325.397	1312.75
325.626	812.75
325.855	634.75
326.084	583.75
326.313	528.75
326.542	564.75
326.77	607.75
326.999	753.75
327.228	1065.75
327.457	1660.75
327.686	2070.75
327.914	1390.75
328.143	900.75
328.372	737.75
328.6	684.75
328.829	644.75
329.058	656.75
329.287	681.75
329.515	602.75
329.744	570.75
329.972	522.75
330.201	530.75
330.43	537.75
330.658	614.75
330.887	686.75
331.115	690.75
331.344	572.75
331.572	507.75
331.801	476.75
332.03	497.75
332.258	448.75
332.486	408.75
332.715	402.75
332.943	409.75
333.172	400.75
333.4	395.75
333.629	398.75
333.857	426.75
334.085	381.75
334.314	389.75
334.542	406.75
334.771	385.75
334.999	390.75
335.227	392.75
335.455	367.75
335.684	376.75
335.912	381.75
336.14	370.75
336.369	373.75
336.597	383.75
336.825	380.75
337.053	365.75
337.281	366.75
337.51	370.75
337.738	376.75
337.966	388.75
338.194	390.75
338.422	388.75
338.65	360.75
338.878	379.75
339.106	355.75
339.334	362.75
339.562	365.75
339.79	364.75
340.018	381.75
340.246	380.75
340.474	376.75
340.702	387.75
340.93	384.75
341.158	367.75
341.386	376.75
341.614	374.75
341.842	365.75
342.07	377.75
342.298	352.75
342.526	356.75
342.754	358.75
342.981	352.75
343.209	349.75
343.437	364.75
343.665	353.75
343.893	346.75
344.12	375.75
344.348	374.75
344.576	352.75
344.804	384.75
345.031	395.75
345.259	426.75
345.487	404.75
345.714	364.75
345.942	381.75
346.17	367.75
346.397	352.75
346.625	375.75
346.853	373.75
347.08	358.75
347.308	400.75
347.535	388.75
347.763	415.75
347.99	401.75
348.218	400.75
348.445	417.75
348.673	396.75
348.9	371.75
349.128	357.75
349.355	349.75
349.583	352.75
349.81	356.75
350.037	359.75
350.265	342.75
350.492	371.75
350.72	353.75
350.947	358.75
351.174	379.75
351.402	412.75
351.629	390.75
351.856	394.75
352.083	405.75
352.311	404.75
352.538	429.75
352.765	404.75
352.992	413.75
353.22	380.75
353.447	378.75
353.674	370.75
353.901	341.75
354.128	332.75
354.355	314.75
354.583	344.75
354.81	340.75
355.037	343.75
355.264	323.75
355.491	316.75
355.718	319.75
355.945	312.75
356.172	322.75
356.399	333.75
356.626	333.75
356.853	324.75
357.08	334.75
357.307	318.75
357.534	330.75
357.761	328.75
357.988	328.75
358.215	313.75
358.441	351.75
358.668	337.75
358.895	337.75
359.122	359.75
359.349	374.75
359.576	376.75
359.802	406.75
360.029	437.75
360.256	489.75
360.483	445.75
360.709	398.75
360.936	382.75
361.163	378.75
361.39	389.75
361.616	400.75
361.843	372.75
362.07	380.75
362.296	404.75
362.523	406.75
362.749	373.75
362.976	385.75
363.203	373.75
363.429	355.75
363.656	334.75
363.882	365.75
364.109	347.75
364.335	326.75
364.562	350.75
364.788	367.75
365.015	372.75
365.241	369.75
365.468	355.75
365.694	368.75
365.92	361.75
366.147	368.75
366.373	327.75
366.599	341.75
366.826	340.75
367.052	344.75
367.278	331.75
367.505	338.75
367.731	349.75
367.957	327.75
368.184	347.75
368.41	357.75
368.636	381.75
368.862	359.75
369.089	357.75
369.315	333.75
369.541	345.75
369.767	351.75
369.993	329.75
370.219	341.75
370.445	326.75
370.672	319.75
370.898	345.75
371.124	316.75
371.35	328.75
371.576	322.75
371.802	332.75
372.028	329.75
372.254	320.75
372.48	315.75
372.706	329.75
372.932	296.75
373.158	322.75
373.384	350.75
373.61	348.75
373.835	337.75
374.061	335.75
374.287	339.75
374.513	345.75
374.739	361.75
374.965	330.75
375.191	316.75
375.416	314.75
375.642	335.75
375.868	331.75
376.094	329.75
376.319	334.75
376.545	310.75
376.771	329.75
376.997	332.75
377.222	327.75
377.448	313.75
377.674	308.75
377.899	326.75
378.125	320.75
378.35	317.75
378.576	339.75
378.802	312.75
379.027	318.75
379.253	323.75
379.478	328.75
379.704	322.75
379.929	317.75
380.155	354.75
380.38	334.75
380.606	340.75
380.831	330.75
381.057	328.75
381.282	323.75
381.507	318.75
381.733	343.75
381.958	324.75
382.184	325.75
382.409	349.75
382.634	329.75
382.86	329.75
383.085	316.75
383.31	316.75
383.535	349.75
383.761	325.75
383.986	350.75
384.211	344.75
384.436	340.75
384.662	332.75
384.887	356.75
385.112	338.75
385.337	335.75
385.562	339.75
385.787	336.75
386.013	369.75
386.238	360.75
386.463	351.75
386.688	346.75
386.913	342.75
387.138	334.75
387.363	336.75
387.588	350.75
387.813	361.75
388.038	341.75
388.263	340.75
388.488	354.75
388.713	336.75
388.938	336.75
389.163	341.75
389.387	339.75
389.612	330.75
389.837	336.75
390.062	327.75
390.287	353.75
390.512	320.75
390.736	344.75
390.961	342.75
391.186	316.75
391.411	340.75
391.636	347.75
391.86	348.75
392.085	349.75
392.31	341.75
392.534	364.75
392.759	358.75
392.984	349.75
393.208	362.75
393.433	357.75
393.658	349.75
393.882	342.75
394.107	338.75
394.331	359.75
394.556	351.75
394.78	354.75
395.005	360.75
395.229	348.75
395.454	336.75
395.678	354.75
395.903	356.75
396.127	398.75
396.352	406.75
396.576	376.75
396.801	363.75
397.025	361.75
397.249	371.75
397.474	367.75
397.698	356.75
397.922	387.75
398.147	395.75
398.371	390.75
398.595	387.75
398.82	380.75
399.044	397.75
399.268	393.75
399.492	402.75
399.717	399.75
399.941	453.75
400.165	488.75
400.389	485.75
400.613	461.75
400.837	427.75
401.062	421.75
401.286	403.75
401.51	401.75
401.734	419.75
401.958	384.75
402.182	419.75
402.406	414.75
402.63	439.75
402.854	426.75
403.078	425.75
403.302	411.75
403.526	424.75
403.75	408.75
403.974	415.75
404.198	414.75
404.422	424.75
404.645	420.75
404.869	414.75
405.093	440.75
405.317	454.75
405.541	487.75
405.765	472.75
405.988	436.75
406.212	452.75
406.436	493.75
406.66	504.75
406.883	488.75
407.107	503.75
407.331	532.75
407.555	603.75
407.778	599.75
408.002	529.75
408.226	496.75
408.449	479.75
408.673	468.75
408.896	510.75
409.12	546.75
409.344	514.75
409.567	461.75
409.791	452.75
410.014	438.75
410.238	415.75
410.461	425.75
410.685	425.75
410.908	450.75
411.132	476.75
411.355	528.75
411.578	492.75
411.802	437.75
412.025	434.75
412.249	420.75
412.472	425.75
412.695	456.75
412.919	412.75
413.142	409.75
413.365	406.75
413.589	429.75
413.812	415.75
414.035	389.75
414.258	392.75
414.482	397.75
414.705	380.75
414.928	390.75
415.151	399.75
415.374	384.75
415.597	378.75
415.821	389.75
416.044	408.75
416.267	406.75
416.49	397.75
416.713	386.75
416.936	409.75
417.159	395.75
417.382	421.75
417.605	425.75
417.828	435.75
418.051	434.75
418.274	453.75
418.497	392.75
418.72	382.75
418.943	403.75
419.166	412.75
419.389	422.75
419.611	434.75
419.834	416.75
420.057	424.75
420.28	421.75
420.503	424.75
420.726	434.75
420.948	442.75
421.171	492.75
421.394	531.75
421.617	472.75
421.839	451.75
422.062	442.75
422.285	476.75
422.507	537.75
422.73	597.75
422.953	585.75
423.175	514.75
423.398	488.75
423.621	473.75
423.843	485.75
424.066	491.75
424.288	479.75
424.511	497.75
424.733	562.75
424.956	650.75
425.178	634.75
425.401	630.75
425.623	642.75
425.846	568.75
426.068	522.75
426.291	497.75
426.513	487.75
426.735	525.75
426.958	569.75
427.18	632.75
427.402	737.75
427.625	848.75
427.847	804.75
428.069	646.75
428.292	565.75
428.514	534.75
428.736	485.75
428.958	483.75
429.181	495.75
429.403	461.75
429.625	509.75
429.847	528.75
430.069	608.75
430.292	588.75
430.514	492.75
430.736	469.75
430.958	446.75
431.18	443.75
431.402	428.75
431.624	412.75
431.846	409.75
432.068	430.75
432.29	430.75
432.512	457.75
432.734	444.75
432.956	429.75
433.178	461.75
433.4	453.75
433.622	434.75
433.844	416.75
434.066	422.75
434.287	425.75
434.509	434.75
434.731	435.75
434.953	450.75
435.175	454.75
435.397	480.75
435.618	508.75
435.84	570.75
436.062	645.75
436.284	722.75
436.505	602.75
436.727	552.75
436.949	510.75
437.17	467.75
437.392	474.75
437.614	516.75
437.835	555.75
438.057	666.75
438.278	776.75
438.5	757.75
438.721	812.75
438.943	770.75
439.165	617.75
439.386	536.75
439.608	533.75
439.829	523.75
440.05	570.75
440.272	624.75
440.493	583.75
440.715	546.75
440.936	492.75
441.158	466.75
441.379	504.75
441.6	472.75
441.822	542.75
442.043	570.75
442.264	637.75
442.486	677.75
442.707	594.75
442.928	552.75
443.149	571.75
443.371	600.75
443.592	608.75
443.813	721.75
444.034	769.75
444.255	642.75
444.476	536.75
444.698	526.75
444.919	502.75
445.14	600.75
445.361	568.75
445.582	560.75
445.803	631.75
446.024	732.75
446.245	755.75
446.466	686.75
446.687	605.75
446.908	537.75
447.129	507.75
447.35	474.75
447.571	465.75
447.792	468.75
448.013	486.75
448.234	496.75
448.455	579.75
448.675	701.75
448.896	778.75
449.117	670.75
449.338	653.75
449.559	716.75
449.779	801.75
450	680.75
450.221	547.75
450.442	519.75
450.662	489.75
450.883	494.75
451.104	547.75
451.324	530.75
451.545	501.75
451.766	458.75
451.986	471.75
452.207	444.75
452.428	428.75
452.648	432.75
452.869	444.75
453.089	445.75
453.31	459.75
453.53	457.75
453.751	440.75
453.971	437.75
454.192	485.75
454.412	469.75
454.633	449.75
454.853	447.75
455.073	436.75
455.294	501.75
455.514	547.75
455.734	500.75
455.955	444.75
456.175	410.75
456.395	396.75
456.616	377.75
456.836	406.75
457.056	386.75
457.276	385.75
457.497	389.75
457.717	397.75
457.937	413.75
458.157	401.75
458.377	415.75
458.598	447.75
458.818	519.75
459.038	665.75
459.258	636.75
459.478	521.75
459.698	476.75
459.918	444.75
460.138	440.75
460.358	433.75
460.578	415.75
460.798	428.75
461.018	419.75
461.238	416.75
461.458	412.75
461.678	419.75
461.898	407.75
462.118	401.75
462.338	412.75
462.558	425.75
462.777	426.75
462.997	439.75
463.217	433.75
463.437	434.75
463.657	414.75
463.876	400.75
464.096	432.75
464.316	452.75
464.536	465.75
464.755	478.75
464.975	488.75
465.195	556.75
465.414	688.75
465.634	580.75
465.854	505.75
466.073	483.75
466.293	431.75
466.512	437.75
466.732	429.75
466.951	429.75
467.171	425.75
467.391	452.75
467.61	444.75
467.829	451.75
468.049	445.75
468.268	408.75
468.488	420.75
468.707	413.75
468.927	406.75
469.146	405.75
469.365	417.75
469.585	402.75
469.804	422.75
470.023	418.75
470.243	428.75
470.462	438.75
470.681	500.75
470.901	500.75
471.12	457.75
471.339	427.75
471.558	448.75
471.777	434.75
471.997	428.75
472.216	434.75
472.435	428.75
472.654	404.75
472.873	413.75
473.092	445.75
473.311	410.75
473.53	431.75
473.749	450.75
473.968	512.75
474.187	609.75
474.406	642.75
474.625	513.75
474.844	453.75
475.063	434.75
475.282	425.75
475.501	428.75
475.72	430.75
475.939	438.75
476.158	440.75
476.377	432.75
476.596	448.75
476.814	462.75
477.033	470.75
477.252	464.75
477.471	464.75
477.69	458.75
477.908	459.75
478.127	473.75
478.346	473.75
478.564	473.75
478.783	445.75
479.002	468.75
479.22	496.75
479.439	508.75
479.658	542.75
479.876	546.75
480.095	523.75
480.313	572.75
480.532	537.75
480.751	518.75
480.969	520.75
481.188	554.75
481.406	540.75
481.624	518.75
481.843	516.75
482.061	492.75
482.28	499.75
482.498	514.75
482.717	504.75
482.935	497.75
483.153	533.75
483.372	512.75
483.59	527.75
483.808	513.75
484.027	503.75
484.245	523.75
484.463	487.75
484.681	532.75
484.9	505.75
485.118	518.75
485.336	493.75
485.554	537.75
485.772	528.75
485.99	525.75
486.209	536.75
486.427	546.75
486.645	561.75
486.863	586.75
487.081	585.75
487.299	596.75
487.517	568.75
487.735	576.75
487.953	565.75
488.171	544.75
488.389	570.75
488.607	558.75
488.825	575.75
489.043	575.75
489.261	575.75
489.479	558.75
489.696	566.75
489.914	568.75
490.132	596.75
490.35	589.75
490.568	576.75
490.786	576.75
491.003	597.75
491.221	614.75
491.439	605.75
491.657	640.75
491.874	645.75
492.092	632.75
492.31	661.75
492.527	652.75
492.745	625.75
492.963	654.75
493.18	663.75
493.398	649.75
493.615	684.75
493.833	666.75
494.05	662.75
494.268	663.75
494.485	663.75
494.703	653.75
494.92	659.75
495.138	674.75
495.355	664.75
495.573	656.75
495.79	661.75
496.008	666.75
496.225	693.75
496.442	696.75
496.66	662.75
496.877	662.75
497.094	704.75
497.312	690.75
497.529	701.75
497.746	685.75
497.963	690.75
498.181	715.75
498.398	726.75
498.615	714.75
498.832	727.75
499.049	705.75
499.267	725.75
499.484	735.75
499.701	737.75
499.918	766.75
500.135	780.75
500.352	780.75
500.569	782.75
500.786	785.75
501.003	791.75
501.22	788.75
501.437	815.75
501.654	798.75
501.871	836.75
