Data from 1987.PennyLincolnUp.Lamp.En5.5.200Scan.071819.P2_HRD10591_17-15-10-971.txt Node
Date: Thu Jul 18 17:15:10 EDT 2019
User: cochatt
Spectrometer: HR+D1059
Trigger mode: 1
Integration Time (sec): 1.000000E-1
Scans to average: 1
Electric dark correction enabled: true
Nonlinearity correction enabled: false
Boxcar width: 0
XAxis mode: Wavelengths
Number of Pixels in Spectrum: 2048
>>>>>Begin Spectral Data<<<<<
223.165	-15.88
223.4	-15.88
223.635	-15.88
223.869	-25.88
224.104	-26.88
224.338	-11.88
224.573	-14.88
224.808	-9.88
225.042	-18.88
225.277	0.12
225.511	-4.88
225.746	7.12
225.98	17.12
226.215	21.12
226.449	10.12
226.683	16.12
226.918	32.12
227.152	25.12
227.387	28.12
227.621	40.12
227.856	42.12
228.09	38.12
228.324	62.12
228.559	61.12
228.793	76.12
229.027	97.12
229.262	122.12
229.496	118.12
229.73	162.12
229.964	167.12
230.199	139.12
230.433	124.12
230.667	124.12
230.901	117.12
231.136	124.12
231.37	110.12
231.604	99.12
231.838	96.12
232.072	95.12
232.306	106.12
232.541	118.12
232.775	114.12
233.009	99.12
233.243	119.12
233.477	113.12
233.711	103.12
233.945	118.12
234.179	121.12
234.413	119.12
234.647	123.12
234.881	116.12
235.115	124.12
235.349	132.12
235.583	120.12
235.817	111.12
236.051	134.12
236.285	138.12
236.519	125.12
236.753	131.12
236.987	136.12
237.221	207.12
237.455	250.12
237.689	198.12
237.922	166.12
238.156	146.12
238.39	117.12
238.624	129.12
238.858	131.12
239.091	130.12
239.325	123.12
239.559	110.12
239.793	142.12
240.027	151.12
240.26	146.12
240.494	170.12
240.728	145.12
240.961	162.12
241.195	150.12
241.429	131.12
241.662	142.12
241.896	128.12
242.13	127.12
242.363	131.12
242.597	138.12
242.83	132.12
243.064	128.12
243.298	134.12
243.531	127.12
243.765	143.12
243.998	142.12
244.232	123.12
244.465	139.12
244.699	142.12
244.932	134.12
245.166	132.12
245.399	147.12
245.633	152.12
245.866	136.12
246.099	134.12
246.333	120.12
246.566	146.12
246.8	144.12
247.033	140.12
247.266	147.12
247.5	154.12
247.733	152.12
247.966	168.12
248.2	157.12
248.433	162.12
248.666	162.12
248.899	181.12
249.133	189.12
249.366	201.12
249.599	203.12
249.832	186.12
250.066	174.12
250.299	176.12
250.532	182.12
250.765	174.12
250.998	208.12
251.231	213.12
251.465	201.12
251.698	194.12
251.931	200.12
252.164	201.12
252.397	197.12
252.63	197.12
252.863	197.12
253.096	218.12
253.329	224.12
253.562	192.12
253.795	217.12
254.028	221.12
254.261	239.12
254.494	233.12
254.727	259.12
254.96	264.12
255.193	272.12
255.426	251.12
255.659	226.12
255.892	237.12
256.124	234.12
256.357	216.12
256.59	208.12
256.823	208.12
257.056	208.12
257.289	197.12
257.521	184.12
257.754	195.12
257.987	191.12
258.22	211.12
258.452	198.12
258.685	190.12
258.918	183.12
259.151	201.12
259.383	206.12
259.616	197.12
259.849	195.12
260.081	213.12
260.314	243.12
260.547	245.12
260.779	226.12
261.012	224.12
261.244	221.12
261.477	204.12
261.71	211.12
261.942	242.12
262.175	243.12
262.407	239.12
262.64	195.12
262.872	200.12
263.105	207.12
263.337	221.12
263.57	182.12
263.802	197.12
264.035	186.12
264.267	196.12
264.499	198.12
264.732	187.12
264.964	199.12
265.197	188.12
265.429	182.12
265.661	195.12
265.894	190.12
266.126	187.12
266.358	192.12
266.591	197.12
266.823	199.12
267.055	199.12
267.287	204.12
267.52	192.12
267.752	204.12
267.984	212.12
268.216	214.12
268.448	222.12
268.681	198.12
268.913	216.12
269.145	237.12
269.377	256.12
269.609	242.12
269.841	262.12
270.073	252.12
270.306	258.12
270.538	286.12
270.77	290.12
271.002	285.12
271.234	278.12
271.466	281.12
271.698	293.12
271.93	301.12
272.162	296.12
272.394	297.12
272.626	278.12
272.858	278.12
273.09	270.12
273.322	264.12
273.553	229.12
273.785	248.12
274.017	231.12
274.249	243.12
274.481	239.12
274.713	234.12
274.945	245.12
275.176	261.12
275.408	250.12
275.64	251.12
275.872	247.12
276.104	220.12
276.335	237.12
276.567	236.12
276.799	257.12
277.031	310.12
277.262	308.12
277.494	295.12
277.726	266.12
277.957	273.12
278.189	272.12
278.421	233.12
278.652	235.12
278.884	228.12
279.115	214.12
279.347	227.12
279.579	227.12
279.81	242.12
280.042	238.12
280.273	233.12
280.505	237.12
280.736	234.12
280.968	236.12
281.199	229.12
281.431	220.12
281.662	221.12
281.894	214.12
282.125	226.12
282.356	267.12
282.588	278.12
282.819	282.12
283.051	245.12
283.282	216.12
283.513	226.12
283.745	228.12
283.976	221.12
284.207	235.12
284.439	239.12
284.67	219.12
284.901	220.12
285.132	234.12
285.364	244.12
285.595	226.12
285.826	221.12
286.057	228.12
286.288	222.12
286.52	230.12
286.751	237.12
286.982	222.12
287.213	236.12
287.444	224.12
287.675	246.12
287.906	251.12
288.138	262.12
288.369	274.12
288.6	256.12
288.831	242.12
289.062	246.12
289.293	242.12
289.524	225.12
289.755	249.12
289.986	247.12
290.217	248.12
290.448	224.12
290.679	224.12
290.91	228.12
291.141	244.12
291.371	234.12
291.602	227.12
291.833	231.12
292.064	235.12
292.295	254.12
292.526	233.12
292.757	250.12
292.987	236.12
293.218	221.12
293.449	234.12
293.68	234.12
293.91	214.12
294.141	227.12
294.372	223.12
294.603	233.12
294.833	238.12
295.064	248.12
295.295	256.12
295.525	239.12
295.756	233.12
295.987	243.12
296.217	293.12
296.448	292.12
296.679	263.12
296.909	239.12
297.14	250.12
297.37	234.12
297.601	227.12
297.831	237.12
298.062	232.12
298.292	247.12
298.523	233.12
298.753	248.12
298.984	238.12
299.214	250.12
299.445	256.12
299.675	249.12
299.905	248.12
300.136	260.12
300.366	243.12
300.597	246.12
300.827	250.12
301.057	269.12
301.288	283.12
301.518	286.12
301.748	258.12
301.979	246.12
302.209	273.12
302.439	280.12
302.669	249.12
302.9	262.12
303.13	267.12
303.36	274.12
303.59	283.12
303.82	285.12
304.051	287.12
304.281	259.12
304.511	267.12
304.741	275.12
304.971	270.12
305.201	266.12
305.431	253.12
305.661	262.12
305.891	263.12
306.121	286.12
306.352	292.12
306.582	279.12
306.812	262.12
307.042	293.12
307.272	252.12
307.502	267.12
307.731	294.12
307.961	280.12
308.191	274.12
308.421	267.12
308.651	271.12
308.881	285.12
309.111	297.12
309.341	306.12
309.571	299.12
309.8	317.12
310.03	346.12
310.26	344.12
310.49	363.12
310.72	357.12
310.949	374.12
311.179	363.12
311.409	342.12
311.639	350.12
311.868	335.12
312.098	342.12
312.328	351.12
312.557	367.12
312.787	380.12
313.017	388.12
313.246	379.12
313.476	325.12
313.706	331.12
313.935	356.12
314.165	368.12
314.394	375.12
314.624	356.12
314.853	340.12
315.083	330.12
315.312	314.12
315.542	330.12
315.771	330.12
316.001	323.12
316.23	331.12
316.46	320.12
316.689	328.12
316.919	338.12
317.148	346.12
317.377	339.12
317.607	339.12
317.836	356.12
318.065	338.12
318.295	322.12
318.524	312.12
318.753	326.12
318.983	332.12
319.212	331.12
319.441	350.12
319.67	360.12
319.9	343.12
320.129	329.12
320.358	346.12
320.587	315.12
320.816	364.12
321.046	363.12
321.275	357.12
321.504	358.12
321.733	372.12
321.962	378.12
322.191	375.12
322.42	418.12
322.649	432.12
322.878	434.12
323.108	475.12
323.337	479.12
323.566	528.12
323.795	580.12
324.024	646.12
324.253	796.12
324.482	1181.12
324.71	1802.12
324.939	2602.12
325.168	2272.12
325.397	1212.12
325.626	788.12
325.855	636.12
326.084	551.12
326.313	544.12
326.542	543.12
326.77	598.12
326.999	731.12
327.228	1014.12
327.457	1599.12
327.686	1910.12
327.914	1364.12
328.143	875.12
328.372	717.12
328.6	660.12
328.829	618.12
329.058	652.12
329.287	659.12
329.515	597.12
329.744	532.12
329.972	491.12
330.201	509.12
330.43	527.12
330.658	590.12
330.887	663.12
331.115	634.12
331.344	540.12
331.572	456.12
331.801	472.12
332.03	471.12
332.258	438.12
332.486	404.12
332.715	407.12
332.943	399.12
333.172	378.12
333.4	384.12
333.629	398.12
333.857	406.12
334.085	419.12
334.314	377.12
334.542	368.12
334.771	376.12
334.999	381.12
335.227	384.12
335.455	376.12
335.684	373.12
335.912	383.12
336.14	365.12
336.369	361.12
336.597	399.12
336.825	385.12
337.053	384.12
337.281	355.12
337.51	344.12
337.738	358.12
337.966	372.12
338.194	386.12
338.422	386.12
338.65	380.12
338.878	380.12
339.106	359.12
339.334	366.12
339.562	357.12
339.79	380.12
340.018	379.12
340.246	382.12
340.474	379.12
340.702	375.12
340.93	374.12
341.158	362.12
341.386	354.12
341.614	381.12
341.842	377.12
342.07	352.12
342.298	340.12
342.526	367.12
342.754	345.12
342.981	329.12
343.209	343.12
343.437	332.12
343.665	356.12
343.893	350.12
344.12	352.12
344.348	353.12
344.576	359.12
344.804	372.12
345.031	394.12
345.259	392.12
345.487	379.12
345.714	400.12
345.942	379.12
346.17	361.12
346.397	363.12
346.625	364.12
346.853	367.12
347.08	351.12
347.308	360.12
347.535	392.12
347.763	402.12
347.99	382.12
348.218	364.12
348.445	368.12
348.673	404.12
348.9	370.12
349.128	378.12
349.355	355.12
349.583	338.12
349.81	357.12
350.037	351.12
350.265	350.12
350.492	353.12
350.72	372.12
350.947	364.12
351.174	375.12
351.402	400.12
351.629	396.12
351.856	371.12
352.083	398.12
352.311	398.12
352.538	398.12
352.765	410.12
352.992	405.12
353.22	365.12
353.447	398.12
353.674	373.12
353.901	357.12
354.128	336.12
354.355	356.12
354.583	343.12
354.81	342.12
355.037	312.12
355.264	313.12
355.491	326.12
355.718	327.12
355.945	334.12
356.172	315.12
356.399	312.12
356.626	341.12
356.853	314.12
357.08	320.12
357.307	339.12
357.534	328.12
357.761	319.12
357.988	319.12
358.215	350.12
358.441	331.12
358.668	336.12
358.895	347.12
359.122	344.12
359.349	361.12
359.576	375.12
359.802	413.12
360.029	461.12
360.256	466.12
360.483	434.12
360.709	395.12
360.936	378.12
361.163	357.12
361.39	384.12
361.616	365.12
361.843	372.12
362.07	391.12
362.296	380.12
362.523	379.12
362.749	367.12
362.976	375.12
363.203	352.12
363.429	361.12
363.656	366.12
363.882	351.12
364.109	345.12
364.335	348.12
364.562	331.12
364.788	318.12
365.015	349.12
365.241	337.12
365.468	349.12
365.694	354.12
365.92	350.12
366.147	352.12
366.373	349.12
366.599	356.12
366.826	324.12
367.052	326.12
367.278	336.12
367.505	351.12
367.731	360.12
367.957	333.12
368.184	343.12
368.41	346.12
368.636	367.12
368.862	373.12
369.089	349.12
369.315	340.12
369.541	334.12
369.767	339.12
369.993	349.12
370.219	327.12
370.445	333.12
370.672	334.12
370.898	311.12
371.124	328.12
371.35	333.12
371.576	308.12
371.802	339.12
372.028	342.12
372.254	325.12
372.48	325.12
372.706	316.12
372.932	310.12
373.158	335.12
373.384	341.12
373.61	323.12
373.835	330.12
374.061	326.12
374.287	341.12
374.513	320.12
374.739	320.12
374.965	328.12
375.191	342.12
375.416	338.12
375.642	323.12
375.868	330.12
376.094	316.12
376.319	324.12
376.545	335.12
376.771	332.12
376.997	327.12
377.222	328.12
377.448	324.12
377.674	330.12
377.899	311.12
378.125	312.12
378.35	320.12
378.576	329.12
378.802	312.12
379.027	319.12
379.253	327.12
379.478	331.12
379.704	340.12
379.929	325.12
380.155	348.12
380.38	327.12
380.606	340.12
380.831	335.12
381.057	318.12
381.282	338.12
381.507	341.12
381.733	344.12
381.958	306.12
382.184	322.12
382.409	314.12
382.634	326.12
382.86	347.12
383.085	328.12
383.31	338.12
383.535	350.12
383.761	341.12
383.986	336.12
384.211	328.12
384.436	331.12
384.662	350.12
384.887	354.12
385.112	343.12
385.337	336.12
385.562	339.12
385.787	349.12
386.013	361.12
386.238	364.12
386.463	368.12
386.688	336.12
386.913	340.12
387.138	337.12
387.363	353.12
387.588	336.12
387.813	339.12
388.038	355.12
388.263	347.12
388.488	342.12
388.713	351.12
388.938	336.12
389.163	351.12
389.387	355.12
389.612	351.12
389.837	336.12
390.062	338.12
390.287	327.12
390.512	334.12
390.736	351.12
390.961	336.12
391.186	345.12
391.411	348.12
391.636	350.12
391.86	354.12
392.085	336.12
392.31	370.12
392.534	364.12
392.759	357.12
392.984	340.12
393.208	362.12
393.433	358.12
393.658	356.12
393.882	366.12
394.107	336.12
394.331	354.12
394.556	361.12
394.78	346.12
395.005	351.12
395.229	337.12
395.454	346.12
395.678	359.12
395.903	361.12
396.127	385.12
396.352	408.12
396.576	357.12
396.801	364.12
397.025	370.12
397.249	373.12
397.474	356.12
397.698	380.12
397.922	401.12
398.147	398.12
398.371	428.12
398.595	399.12
398.82	386.12
399.044	392.12
399.268	407.12
399.492	408.12
399.717	415.12
399.941	429.12
400.165	466.12
400.389	518.12
400.613	488.12
400.837	432.12
401.062	428.12
401.286	398.12
401.51	416.12
401.734	390.12
401.958	409.12
402.182	409.12
402.406	433.12
402.63	431.12
402.854	412.12
403.078	410.12
403.302	410.12
403.526	403.12
403.75	427.12
403.974	407.12
404.198	394.12
404.422	413.12
404.645	407.12
404.869	395.12
405.093	430.12
405.317	475.12
405.541	490.12
405.765	463.12
405.988	450.12
406.212	468.12
406.436	493.12
406.66	516.12
406.883	479.12
407.107	495.12
407.331	531.12
407.555	587.12
407.778	588.12
408.002	543.12
408.226	490.12
408.449	490.12
408.673	494.12
408.896	508.12
409.12	548.12
409.344	519.12
409.567	474.12
409.791	450.12
410.014	438.12
410.238	426.12
410.461	437.12
410.685	436.12
410.908	461.12
411.132	491.12
411.355	519.12
411.578	470.12
411.802	428.12
412.025	400.12
412.249	417.12
412.472	426.12
412.695	434.12
412.919	426.12
413.142	412.12
413.365	398.12
413.589	403.12
413.812	407.12
414.035	388.12
414.258	410.12
414.482	396.12
414.705	402.12
414.928	377.12
415.151	399.12
415.374	410.12
415.597	387.12
415.821	387.12
416.044	391.12
416.267	383.12
416.49	401.12
416.713	402.12
416.936	405.12
417.159	390.12
417.382	406.12
417.605	414.12
417.828	430.12
418.051	436.12
418.274	429.12
418.497	405.12
418.72	407.12
418.943	407.12
419.166	406.12
419.389	417.12
419.611	467.12
419.834	441.12
420.057	444.12
420.28	429.12
420.503	425.12
420.726	426.12
420.948	436.12
421.171	484.12
421.394	519.12
421.617	480.12
421.839	438.12
422.062	468.12
422.285	455.12
422.507	504.12
422.73	594.12
422.953	556.12
423.175	512.12
423.398	484.12
423.621	450.12
423.843	491.12
424.066	499.12
424.288	473.12
424.511	525.12
424.733	576.12
424.956	639.12
425.178	624.12
425.401	632.12
425.623	647.12
425.846	534.12
426.068	512.12
426.291	485.12
426.513	508.12
426.735	526.12
426.958	574.12
427.18	630.12
427.402	746.12
427.625	846.12
427.847	781.12
428.069	645.12
428.292	549.12
428.514	516.12
428.736	487.12
428.958	474.12
429.181	489.12
429.403	477.12
429.625	482.12
429.847	527.12
430.069	575.12
430.292	570.12
430.514	476.12
430.736	468.12
430.958	449.12
431.18	459.12
431.402	439.12
431.624	425.12
431.846	428.12
432.068	423.12
432.29	435.12
432.512	428.12
432.734	448.12
432.956	418.12
433.178	465.12
433.4	463.12
433.622	440.12
433.844	425.12
434.066	414.12
434.287	450.12
434.509	422.12
434.731	449.12
434.953	434.12
435.175	461.12
435.397	477.12
435.618	506.12
435.84	555.12
436.062	648.12
436.284	717.12
436.505	594.12
436.727	534.12
436.949	502.12
437.17	493.12
437.392	468.12
437.614	508.12
437.835	542.12
438.057	639.12
438.278	776.12
438.5	738.12
438.721	780.12
438.943	740.12
439.165	626.12
439.386	549.12
439.608	526.12
439.829	534.12
440.05	576.12
440.272	630.12
440.493	574.12
440.715	525.12
440.936	494.12
441.158	482.12
441.379	459.12
441.6	479.12
441.822	528.12
442.043	557.12
442.264	651.12
442.486	666.12
442.707	588.12
442.928	532.12
443.149	539.12
443.371	553.12
443.592	621.12
443.813	679.12
444.034	754.12
444.255	606.12
444.476	543.12
444.698	504.12
444.919	499.12
445.14	630.12
445.361	564.12
445.582	559.12
445.803	639.12
446.024	741.12
446.245	743.12
446.466	692.12
446.687	584.12
446.908	534.12
447.129	520.12
447.35	475.12
447.571	477.12
447.792	459.12
448.013	470.12
448.234	524.12
448.455	573.12
448.675	690.12
448.896	757.12
449.117	665.12
449.338	633.12
449.559	726.12
449.779	781.12
450	660.12
450.221	570.12
450.442	498.12
450.662	490.12
450.883	511.12
451.104	524.12
451.324	541.12
451.545	470.12
451.766	468.12
451.986	448.12
452.207	426.12
452.428	417.12
452.648	417.12
452.869	413.12
453.089	440.12
453.31	461.12
453.53	438.12
453.751	444.12
453.971	444.12
454.192	480.12
454.412	479.12
454.633	447.12
454.853	435.12
455.073	428.12
455.294	455.12
455.514	526.12
455.734	532.12
455.955	461.12
456.175	400.12
456.395	390.12
456.616	396.12
456.836	373.12
457.056	380.12
457.276	366.12
457.497	371.12
457.717	395.12
457.937	396.12
458.157	397.12
458.377	407.12
458.598	450.12
458.818	530.12
459.038	644.12
459.258	623.12
459.478	518.12
459.698	458.12
459.918	429.12
460.138	444.12
460.358	448.12
460.578	421.12
460.798	429.12
461.018	438.12
461.238	452.12
461.458	418.12
461.678	413.12
461.898	432.12
462.118	399.12
462.338	420.12
462.558	409.12
462.777	418.12
462.997	426.12
463.217	431.12
463.437	439.12
463.657	444.12
463.876	419.12
464.096	432.12
464.316	432.12
464.536	448.12
464.755	456.12
464.975	482.12
465.195	534.12
465.414	661.12
465.634	581.12
465.854	511.12
466.073	459.12
466.293	457.12
466.512	440.12
466.732	440.12
466.951	437.12
467.171	432.12
467.391	435.12
467.61	451.12
467.829	459.12
468.049	458.12
468.268	434.12
468.488	412.12
468.707	412.12
468.927	402.12
469.146	417.12
469.365	399.12
469.585	400.12
469.804	410.12
470.023	438.12
470.243	420.12
470.462	448.12
470.681	469.12
470.901	475.12
471.12	433.12
471.339	436.12
471.558	437.12
471.777	438.12
471.997	421.12
472.216	424.12
472.435	401.12
472.654	417.12
472.873	415.12
473.092	417.12
473.311	430.12
473.53	421.12
473.749	417.12
473.968	488.12
474.187	606.12
474.406	622.12
474.625	508.12
474.844	469.12
475.063	440.12
475.282	436.12
475.501	435.12
475.72	434.12
475.939	442.12
476.158	439.12
476.377	432.12
476.596	431.12
476.814	439.12
477.033	462.12
477.252	471.12
477.471	442.12
477.69	464.12
477.908	477.12
478.127	465.12
478.346	460.12
478.564	464.12
478.783	448.12
479.002	472.12
479.22	508.12
479.439	509.12
479.658	537.12
479.876	535.12
480.095	532.12
480.313	555.12
480.532	554.12
480.751	521.12
480.969	505.12
481.188	544.12
481.406	540.12
481.624	522.12
481.843	508.12
482.061	531.12
482.28	495.12
482.498	517.12
482.717	512.12
482.935	502.12
483.153	517.12
483.372	504.12
483.59	516.12
483.808	513.12
484.027	504.12
484.245	518.12
484.463	501.12
484.681	514.12
484.9	503.12
485.118	547.12
485.336	506.12
485.554	520.12
485.772	532.12
485.99	512.12
486.209	520.12
486.427	523.12
486.645	563.12
486.863	583.12
487.081	558.12
487.299	568.12
487.517	567.12
487.735	564.12
487.953	562.12
488.171	583.12
488.389	544.12
488.607	570.12
488.825	583.12
489.043	564.12
489.261	590.12
489.479	557.12
489.696	570.12
489.914	580.12
490.132	572.12
490.35	575.12
490.568	583.12
490.786	578.12
491.003	601.12
491.221	589.12
491.439	647.12
491.657	603.12
491.874	635.12
492.092	614.12
492.31	640.12
492.527	634.12
492.745	646.12
492.963	634.12
493.18	652.12
493.398	655.12
493.615	653.12
493.833	648.12
494.05	670.12
494.268	666.12
494.485	657.12
494.703	674.12
494.92	650.12
495.138	659.12
495.355	691.12
495.573	678.12
495.79	640.12
496.008	671.12
496.225	662.12
496.442	678.12
496.66	668.12
496.877	669.12
497.094	670.12
497.312	670.12
497.529	683.12
497.746	686.12
497.963	697.12
498.181	703.12
498.398	703.12
498.615	711.12
498.832	703.12
499.049	737.12
499.267	740.12
499.484	741.12
499.701	748.12
499.918	774.12
500.135	784.12
500.352	756.12
500.569	790.12
500.786	788.12
501.003	794.12
501.22	783.12
501.437	751.12
501.654	798.12
501.871	823.12
