Data from 1987.PennyLincolnUp.Lamp.En5.5.200Scan.071819.P2_HRD10591_17-16-22-971.txt Node
Date: Thu Jul 18 17:16:22 EDT 2019
User: cochatt
Spectrometer: HR+D1059
Trigger mode: 1
Integration Time (sec): 1.000000E-1
Scans to average: 1
Electric dark correction enabled: true
Nonlinearity correction enabled: false
Boxcar width: 0
XAxis mode: Wavelengths
Number of Pixels in Spectrum: 2048
>>>>>Begin Spectral Data<<<<<
223.165	-25.81
223.4	-25.81
223.635	-25.81
223.869	-22.81
224.104	-18.81
224.338	-6.81
224.573	-10.81
224.808	-1.81
225.042	-6.81
225.277	-1.81
225.511	4.19
225.746	-10.81
225.98	8.19
226.215	12.19
226.449	7.19
226.683	26.19
226.918	19.19
227.152	29.19
227.387	31.19
227.621	41.19
227.856	40.19
228.09	60.19
228.324	52.19
228.559	59.19
228.793	76.19
229.027	101.19
229.262	112.19
229.496	132.19
229.73	162.19
229.964	179.19
230.199	158.19
230.433	121.19
230.667	121.19
230.901	138.19
231.136	132.19
231.37	136.19
231.604	133.19
231.838	106.19
232.072	104.19
232.306	116.19
232.541	124.19
232.775	107.19
233.009	120.19
233.243	126.19
233.477	106.19
233.711	111.19
233.945	116.19
234.179	139.19
234.413	131.19
234.647	121.19
234.881	121.19
235.115	119.19
235.349	127.19
235.583	148.19
235.817	116.19
236.051	133.19
236.285	124.19
236.519	125.19
236.753	143.19
236.987	171.19
237.221	199.19
237.455	268.19
237.689	213.19
237.922	160.19
238.156	159.19
238.39	136.19
238.624	119.19
238.858	135.19
239.091	113.19
239.325	127.19
239.559	136.19
239.793	133.19
240.027	141.19
240.26	167.19
240.494	177.19
240.728	151.19
240.961	149.19
241.195	146.19
241.429	143.19
241.662	141.19
241.896	129.19
242.13	142.19
242.363	136.19
242.597	125.19
242.83	145.19
243.064	132.19
243.298	135.19
243.531	152.19
243.765	146.19
243.998	141.19
244.232	147.19
244.465	139.19
244.699	158.19
244.932	135.19
245.166	137.19
245.399	137.19
245.633	148.19
245.866	144.19
246.099	144.19
246.333	160.19
246.566	144.19
246.8	154.19
247.033	146.19
247.266	141.19
247.5	172.19
247.733	174.19
247.966	174.19
248.2	174.19
248.433	166.19
248.666	177.19
248.899	177.19
249.133	202.19
249.366	213.19
249.599	205.19
249.832	190.19
250.066	207.19
250.299	199.19
250.532	188.19
250.765	200.19
250.998	213.19
251.231	226.19
251.465	211.19
251.698	217.19
251.931	215.19
252.164	215.19
252.397	212.19
252.63	215.19
252.863	202.19
253.096	220.19
253.329	237.19
253.562	256.19
253.795	235.19
254.028	234.19
254.261	210.19
254.494	232.19
254.727	260.19
254.96	325.19
255.193	296.19
255.426	260.19
255.659	236.19
255.892	220.19
256.124	229.19
256.357	220.19
256.59	224.19
256.823	192.19
257.056	210.19
257.289	200.19
257.521	203.19
257.754	205.19
257.987	225.19
258.22	193.19
258.452	213.19
258.685	200.19
258.918	204.19
259.151	206.19
259.383	215.19
259.616	225.19
259.849	235.19
260.081	235.19
260.314	255.19
260.547	253.19
260.779	245.19
261.012	230.19
261.244	232.19
261.477	226.19
261.71	201.19
261.942	228.19
262.175	249.19
262.407	257.19
262.64	215.19
262.872	208.19
263.105	227.19
263.337	201.19
263.57	205.19
263.802	196.19
264.035	205.19
264.267	196.19
264.499	218.19
264.732	206.19
264.964	206.19
265.197	196.19
265.429	199.19
265.661	206.19
265.894	200.19
266.126	206.19
266.358	191.19
266.591	202.19
266.823	219.19
267.055	207.19
267.287	209.19
267.52	214.19
267.752	215.19
267.984	219.19
268.216	226.19
268.448	229.19
268.681	221.19
268.913	243.19
269.145	239.19
269.377	254.19
269.609	273.19
269.841	259.19
270.073	264.19
270.306	302.19
270.538	328.19
270.77	332.19
271.002	312.19
271.234	288.19
271.466	297.19
271.698	312.19
271.93	299.19
272.162	336.19
272.394	316.19
272.626	303.19
272.858	298.19
273.09	285.19
273.322	285.19
273.553	255.19
273.785	268.19
274.017	237.19
274.249	260.19
274.481	240.19
274.713	240.19
274.945	246.19
275.176	253.19
275.408	277.19
275.64	262.19
275.872	239.19
276.104	236.19
276.335	260.19
276.567	261.19
276.799	272.19
277.031	292.19
277.262	321.19
277.494	330.19
277.726	301.19
277.957	274.19
278.189	275.19
278.421	261.19
278.652	247.19
278.884	239.19
279.115	244.19
279.347	243.19
279.579	238.19
279.81	231.19
280.042	247.19
280.273	244.19
280.505	221.19
280.736	236.19
280.968	243.19
281.199	223.19
281.431	235.19
281.662	244.19
281.894	257.19
282.125	249.19
282.356	276.19
282.588	301.19
282.819	322.19
283.051	245.19
283.282	227.19
283.513	227.19
283.745	234.19
283.976	247.19
284.207	233.19
284.439	249.19
284.67	253.19
284.901	246.19
285.132	246.19
285.364	232.19
285.595	235.19
285.826	253.19
286.057	249.19
286.288	237.19
286.52	241.19
286.751	237.19
286.982	229.19
287.213	245.19
287.444	253.19
287.675	269.19
287.906	254.19
288.138	260.19
288.369	275.19
288.6	269.19
288.831	252.19
289.062	246.19
289.293	243.19
289.524	243.19
289.755	244.19
289.986	247.19
290.217	247.19
290.448	247.19
290.679	247.19
290.91	224.19
291.141	236.19
291.371	246.19
291.602	239.19
291.833	267.19
292.064	262.19
292.295	257.19
292.526	250.19
292.757	255.19
292.987	248.19
293.218	255.19
293.449	260.19
293.68	255.19
293.91	239.19
294.141	245.19
294.372	243.19
294.603	246.19
294.833	233.19
295.064	236.19
295.295	259.19
295.525	263.19
295.756	273.19
295.987	278.19
296.217	313.19
296.448	327.19
296.679	294.19
296.909	252.19
297.14	263.19
297.37	262.19
297.601	254.19
297.831	256.19
298.062	252.19
298.292	269.19
298.523	266.19
298.753	274.19
298.984	269.19
299.214	266.19
299.445	258.19
299.675	265.19
299.905	282.19
300.136	264.19
300.366	290.19
300.597	254.19
300.827	262.19
301.057	254.19
301.288	278.19
301.518	293.19
301.748	283.19
301.979	282.19
302.209	280.19
302.439	267.19
302.669	279.19
302.9	259.19
303.13	292.19
303.36	300.19
303.59	295.19
303.82	311.19
304.051	291.19
304.281	298.19
304.511	281.19
304.741	270.19
304.971	278.19
305.201	247.19
305.431	280.19
305.661	278.19
305.891	268.19
306.121	310.19
306.352	299.19
306.582	317.19
306.812	299.19
307.042	282.19
307.272	278.19
307.502	305.19
307.731	298.19
307.961	295.19
308.191	313.19
308.421	298.19
308.651	299.19
308.881	303.19
309.111	311.19
309.341	327.19
309.571	334.19
309.8	338.19
310.03	343.19
310.26	358.19
310.49	355.19
310.72	395.19
310.949	395.19
311.179	392.19
311.409	367.19
311.639	360.19
311.868	356.19
312.098	334.19
312.328	386.19
312.557	405.19
312.787	409.19
313.017	402.19
313.246	384.19
313.476	333.19
313.706	355.19
313.935	360.19
314.165	385.19
314.394	403.19
314.624	382.19
314.853	361.19
315.083	360.19
315.312	344.19
315.542	334.19
315.771	348.19
316.001	327.19
316.23	329.19
316.46	336.19
316.689	352.19
316.919	367.19
317.148	362.19
317.377	360.19
317.607	341.19
317.836	371.19
318.065	345.19
318.295	336.19
318.524	340.19
318.753	341.19
318.983	332.19
319.212	347.19
319.441	372.19
319.67	372.19
319.9	356.19
320.129	365.19
320.358	366.19
320.587	356.19
320.816	371.19
321.046	384.19
321.275	392.19
321.504	382.19
321.733	387.19
321.962	411.19
322.191	407.19
322.42	436.19
322.649	453.19
322.878	494.19
323.108	494.19
323.337	544.19
323.566	587.19
323.795	639.19
324.024	722.19
324.253	919.19
324.482	1303.19
324.71	2001.19
324.939	2857.19
325.168	2513.19
325.397	1371.19
325.626	863.19
325.855	669.19
326.084	604.19
326.313	583.19
326.542	589.19
326.77	660.19
326.999	825.19
327.228	1126.19
327.457	1776.19
327.686	2149.19
327.914	1503.19
328.143	971.19
328.372	797.19
328.6	716.19
328.829	691.19
329.058	696.19
329.287	707.19
329.515	623.19
329.744	566.19
329.972	529.19
330.201	545.19
330.43	555.19
330.658	639.19
330.887	716.19
331.115	702.19
331.344	585.19
331.572	525.19
331.801	544.19
332.03	517.19
332.258	488.19
332.486	426.19
332.715	415.19
332.943	420.19
333.172	391.19
333.4	416.19
333.629	442.19
333.857	414.19
334.085	411.19
334.314	419.19
334.542	408.19
334.771	408.19
334.999	439.19
335.227	425.19
335.455	396.19
335.684	389.19
335.912	380.19
336.14	388.19
336.369	386.19
336.597	416.19
336.825	446.19
337.053	415.19
337.281	380.19
337.51	381.19
337.738	395.19
337.966	406.19
338.194	406.19
338.422	406.19
338.65	410.19
338.878	392.19
339.106	383.19
339.334	387.19
339.562	370.19
339.79	376.19
340.018	398.19
340.246	400.19
340.474	409.19
340.702	407.19
340.93	375.19
341.158	398.19
341.386	391.19
341.614	399.19
341.842	380.19
342.07	360.19
342.298	375.19
342.526	360.19
342.754	372.19
342.981	343.19
343.209	347.19
343.437	360.19
343.665	349.19
343.893	380.19
344.12	368.19
344.348	373.19
344.576	385.19
344.804	388.19
345.031	444.19
345.259	440.19
345.487	420.19
345.714	390.19
345.942	393.19
346.17	383.19
346.397	384.19
346.625	380.19
346.853	387.19
347.08	391.19
347.308	397.19
347.535	399.19
347.763	424.19
347.99	406.19
348.218	413.19
348.445	416.19
348.673	413.19
348.9	408.19
349.128	389.19
349.355	386.19
349.583	359.19
349.81	378.19
350.037	364.19
350.265	375.19
350.492	372.19
350.72	374.19
350.947	397.19
351.174	412.19
351.402	405.19
351.629	411.19
351.856	392.19
352.083	413.19
352.311	438.19
352.538	435.19
352.765	440.19
352.992	416.19
353.22	410.19
353.447	390.19
353.674	381.19
353.901	374.19
354.128	349.19
354.355	366.19
354.583	379.19
354.81	343.19
355.037	349.19
355.264	323.19
355.491	340.19
355.718	325.19
355.945	334.19
356.172	329.19
356.399	333.19
356.626	337.19
356.853	338.19
357.08	361.19
357.307	329.19
357.534	338.19
357.761	349.19
357.988	348.19
358.215	340.19
358.441	326.19
358.668	356.19
358.895	374.19
359.122	369.19
359.349	398.19
359.576	397.19
359.802	447.19
360.029	484.19
360.256	509.19
360.483	488.19
360.709	431.19
360.936	398.19
361.163	412.19
361.39	404.19
361.616	411.19
361.843	391.19
362.07	392.19
362.296	412.19
362.523	384.19
362.749	383.19
362.976	390.19
363.203	372.19
363.429	360.19
363.656	393.19
363.882	365.19
364.109	357.19
364.335	361.19
364.562	353.19
364.788	365.19
365.015	372.19
365.241	355.19
365.468	359.19
365.694	397.19
365.92	387.19
366.147	380.19
366.373	365.19
366.599	364.19
366.826	354.19
367.052	357.19
367.278	354.19
367.505	363.19
367.731	372.19
367.957	339.19
368.184	357.19
368.41	394.19
368.636	385.19
368.862	367.19
369.089	362.19
369.315	367.19
369.541	363.19
369.767	349.19
369.993	354.19
370.219	354.19
370.445	350.19
370.672	328.19
370.898	344.19
371.124	352.19
371.35	359.19
371.576	340.19
371.802	315.19
372.028	332.19
372.254	328.19
372.48	325.19
372.706	341.19
372.932	335.19
373.158	334.19
373.384	343.19
373.61	336.19
373.835	344.19
374.061	356.19
374.287	340.19
374.513	357.19
374.739	344.19
374.965	346.19
375.191	356.19
375.416	349.19
375.642	332.19
375.868	348.19
376.094	348.19
376.319	343.19
376.545	335.19
376.771	328.19
376.997	330.19
377.222	338.19
377.448	357.19
377.674	345.19
377.899	323.19
378.125	339.19
378.35	331.19
378.576	325.19
378.802	327.19
379.027	321.19
379.253	339.19
379.478	344.19
379.704	337.19
379.929	365.19
380.155	351.19
380.38	321.19
380.606	366.19
380.831	343.19
381.057	348.19
381.282	334.19
381.507	342.19
381.733	342.19
381.958	347.19
382.184	339.19
382.409	353.19
382.634	357.19
382.86	327.19
383.085	353.19
383.31	331.19
383.535	360.19
383.761	333.19
383.986	348.19
384.211	340.19
384.436	355.19
384.662	345.19
384.887	320.19
385.112	343.19
385.337	337.19
385.562	342.19
385.787	349.19
386.013	367.19
386.238	383.19
386.463	375.19
386.688	361.19
386.913	364.19
387.138	353.19
387.363	346.19
387.588	358.19
387.813	358.19
388.038	361.19
388.263	354.19
388.488	360.19
388.713	369.19
388.938	366.19
389.163	359.19
389.387	348.19
389.612	357.19
389.837	352.19
390.062	360.19
390.287	374.19
390.512	357.19
390.736	364.19
390.961	359.19
391.186	353.19
391.411	371.19
391.636	371.19
391.86	358.19
392.085	367.19
392.31	356.19
392.534	364.19
392.759	351.19
392.984	365.19
393.208	357.19
393.433	371.19
393.658	364.19
393.882	383.19
394.107	347.19
394.331	368.19
394.556	357.19
394.78	366.19
395.005	365.19
395.229	360.19
395.454	353.19
395.678	366.19
395.903	393.19
396.127	399.19
396.352	391.19
396.576	373.19
396.801	383.19
397.025	379.19
397.249	365.19
397.474	383.19
397.698	380.19
397.922	400.19
398.147	409.19
398.371	443.19
398.595	380.19
398.82	384.19
399.044	406.19
399.268	411.19
399.492	417.19
399.717	449.19
399.941	450.19
400.165	485.19
400.389	508.19
400.613	471.19
400.837	427.19
401.062	432.19
401.286	423.19
401.51	414.19
401.734	401.19
401.958	422.19
402.182	427.19
402.406	448.19
402.63	423.19
402.854	433.19
403.078	415.19
403.302	431.19
403.526	443.19
403.75	448.19
403.974	428.19
404.198	417.19
404.422	459.19
404.645	446.19
404.869	444.19
405.093	449.19
405.317	486.19
405.541	497.19
405.765	487.19
405.988	461.19
406.212	520.19
406.436	515.19
406.66	544.19
406.883	489.19
407.107	517.19
407.331	548.19
407.555	638.19
407.778	616.19
408.002	533.19
408.226	509.19
408.449	489.19
408.673	515.19
408.896	539.19
409.12	556.19
409.344	535.19
409.567	469.19
409.791	461.19
410.014	465.19
410.238	461.19
410.461	445.19
410.685	461.19
410.908	465.19
411.132	496.19
411.355	545.19
411.578	512.19
411.802	468.19
412.025	467.19
412.249	443.19
412.472	458.19
412.695	469.19
412.919	467.19
413.142	412.19
413.365	400.19
413.589	419.19
413.812	427.19
414.035	406.19
414.258	403.19
414.482	408.19
414.705	410.19
414.928	430.19
415.151	419.19
415.374	413.19
415.597	394.19
415.821	413.19
416.044	417.19
416.267	420.19
416.49	406.19
416.713	407.19
416.936	422.19
417.159	433.19
417.382	421.19
417.605	440.19
417.828	451.19
418.051	456.19
418.274	455.19
418.497	427.19
418.72	425.19
418.943	415.19
419.166	448.19
419.389	443.19
419.611	426.19
419.834	439.19
420.057	427.19
420.28	449.19
420.503	452.19
420.726	437.19
420.948	469.19
421.171	515.19
421.394	557.19
421.617	477.19
421.839	482.19
422.062	445.19
422.285	470.19
422.507	543.19
422.73	607.19
422.953	610.19
423.175	533.19
423.398	503.19
423.621	513.19
423.843	502.19
424.066	499.19
424.288	491.19
424.511	547.19
424.733	577.19
424.956	670.19
425.178	649.19
425.401	641.19
425.623	669.19
425.846	580.19
426.068	547.19
426.291	517.19
426.513	550.19
426.735	550.19
426.958	585.19
427.18	648.19
427.402	761.19
427.625	917.19
427.847	842.19
428.069	683.19
428.292	593.19
428.514	551.19
428.736	531.19
428.958	520.19
429.181	501.19
429.403	507.19
429.625	497.19
429.847	549.19
430.069	615.19
430.292	609.19
430.514	527.19
430.736	489.19
430.958	476.19
431.18	473.19
431.402	463.19
431.624	442.19
431.846	443.19
432.068	464.19
432.29	424.19
432.512	439.19
432.734	457.19
432.956	444.19
433.178	449.19
433.4	478.19
433.622	453.19
433.844	441.19
434.066	421.19
434.287	461.19
434.509	463.19
434.731	455.19
434.953	458.19
435.175	485.19
435.397	514.19
435.618	510.19
435.84	586.19
436.062	651.19
436.284	727.19
436.505	641.19
436.727	565.19
436.949	515.19
437.17	497.19
437.392	504.19
437.614	508.19
437.835	559.19
438.057	717.19
438.278	797.19
438.5	785.19
438.721	809.19
438.943	797.19
439.165	644.19
439.386	581.19
439.608	594.19
439.829	572.19
440.05	607.19
440.272	633.19
440.493	607.19
440.715	541.19
440.936	528.19
441.158	497.19
441.379	500.19
441.6	524.19
441.822	540.19
442.043	606.19
442.264	672.19
442.486	710.19
442.707	610.19
442.928	548.19
443.149	555.19
443.371	614.19
443.592	656.19
443.813	723.19
444.034	777.19
444.255	639.19
444.476	556.19
444.698	530.19
444.919	512.19
445.14	620.19
445.361	606.19
445.582	588.19
445.803	677.19
446.024	761.19
446.245	791.19
446.466	719.19
446.687	606.19
446.908	563.19
447.129	537.19
447.35	522.19
447.571	489.19
447.792	500.19
448.013	490.19
448.234	539.19
448.455	592.19
448.675	716.19
448.896	823.19
449.117	722.19
449.338	651.19
449.559	752.19
449.779	820.19
450	681.19
450.221	595.19
450.442	553.19
450.662	527.19
450.883	544.19
451.104	551.19
451.324	560.19
451.545	511.19
451.766	480.19
451.986	480.19
452.207	441.19
452.428	457.19
452.648	452.19
452.869	446.19
453.089	469.19
453.31	484.19
453.53	457.19
453.751	455.19
453.971	460.19
454.192	461.19
454.412	492.19
454.633	447.19
454.853	453.19
455.073	451.19
455.294	486.19
455.514	556.19
455.734	532.19
455.955	451.19
456.175	425.19
456.395	407.19
456.616	418.19
456.836	420.19
457.056	409.19
457.276	406.19
457.497	410.19
457.717	408.19
457.937	451.19
458.157	441.19
458.377	437.19
458.598	452.19
458.818	562.19
459.038	680.19
459.258	678.19
459.478	538.19
459.698	476.19
459.918	459.19
460.138	432.19
460.358	451.19
460.578	439.19
460.798	429.19
461.018	445.19
461.238	438.19
461.458	421.19
461.678	421.19
461.898	428.19
462.118	420.19
462.338	432.19
462.558	428.19
462.777	423.19
462.997	445.19
463.217	444.19
463.437	465.19
463.657	453.19
463.876	435.19
464.096	440.19
464.316	456.19
464.536	483.19
464.755	471.19
464.975	502.19
465.195	583.19
465.414	732.19
465.634	585.19
465.854	521.19
466.073	475.19
466.293	486.19
466.512	462.19
466.732	457.19
466.951	442.19
467.171	441.19
467.391	435.19
467.61	470.19
467.829	494.19
468.049	466.19
468.268	467.19
468.488	428.19
468.707	423.19
468.927	416.19
469.146	420.19
469.365	456.19
469.585	426.19
469.804	445.19
470.023	448.19
470.243	445.19
470.462	479.19
470.681	490.19
470.901	495.19
471.12	459.19
471.339	456.19
471.558	437.19
471.777	448.19
471.997	441.19
472.216	433.19
472.435	438.19
472.654	454.19
472.873	435.19
473.092	437.19
473.311	444.19
473.53	467.19
473.749	445.19
473.968	512.19
474.187	638.19
474.406	661.19
474.625	549.19
474.844	467.19
475.063	467.19
475.282	442.19
475.501	458.19
475.72	462.19
475.939	455.19
476.158	464.19
476.377	477.19
476.596	431.19
476.814	478.19
477.033	497.19
477.252	496.19
477.471	480.19
477.69	472.19
477.908	466.19
478.127	488.19
478.346	456.19
478.564	498.19
478.783	487.19
479.002	491.19
479.22	501.19
479.439	535.19
479.658	555.19
479.876	556.19
480.095	535.19
480.313	566.19
480.532	570.19
480.751	545.19
480.969	539.19
481.188	574.19
481.406	575.19
481.624	553.19
481.843	547.19
482.061	560.19
482.28	532.19
482.498	528.19
482.717	520.19
482.935	510.19
483.153	520.19
483.372	518.19
483.59	551.19
483.808	554.19
484.027	516.19
484.245	528.19
484.463	536.19
484.681	548.19
484.9	539.19
485.118	543.19
485.336	534.19
485.554	538.19
485.772	560.19
485.99	551.19
486.209	559.19
486.427	566.19
486.645	594.19
486.863	604.19
487.081	600.19
487.299	585.19
487.517	579.19
487.735	577.19
487.953	575.19
488.171	582.19
488.389	572.19
488.607	595.19
488.825	593.19
489.043	592.19
489.261	588.19
489.479	593.19
489.696	578.19
489.914	609.19
490.132	588.19
490.35	590.19
490.568	631.19
490.786	611.19
491.003	655.19
491.221	637.19
491.439	668.19
491.657	654.19
491.874	675.19
492.092	649.19
492.31	652.19
492.527	705.19
492.745	667.19
492.963	670.19
493.18	679.19
493.398	692.19
493.615	675.19
493.833	683.19
494.05	695.19
494.268	688.19
494.485	685.19
494.703	683.19
494.92	719.19
495.138	689.19
495.355	716.19
495.573	720.19
495.79	727.19
496.008	712.19
496.225	709.19
496.442	678.19
496.66	707.19
496.877	699.19
497.094	730.19
497.312	720.19
497.529	731.19
497.746	713.19
497.963	724.19
498.181	757.19
498.398	732.19
498.615	737.19
498.832	752.19
499.049	725.19
499.267	752.19
499.484	751.19
499.701	767.19
499.918	805.19
500.135	796.19
500.352	791.19
500.569	823.19
500.786	802.19
501.003	813.19
501.22	799.19
501.437	820.19
501.654	829.19
501.871	847.19
