Data from 1987.PennyLincolnUp.Lamp.En5.5.200Scan.071819.P2_HRD10591_17-15-00-971.txt Node
Date: Thu Jul 18 17:15:00 EDT 2019
User: cochatt
Spectrometer: HR+D1059
Trigger mode: 1
Integration Time (sec): 1.000000E-1
Scans to average: 1
Electric dark correction enabled: true
Nonlinearity correction enabled: false
Boxcar width: 0
XAxis mode: Wavelengths
Number of Pixels in Spectrum: 2048
>>>>>Begin Spectral Data<<<<<
223.165	-23.19
223.4	-23.19
223.635	-23.19
223.869	-17.19
224.104	-15.19
224.338	-26.19
224.573	-17.19
224.808	-17.19
225.042	-12.19
225.277	-16.19
225.511	1.81
225.746	7.81
225.98	10.81
226.215	22.81
226.449	18.81
226.683	27.81
226.918	35.81
227.152	18.81
227.387	34.81
227.621	33.81
227.856	35.81
228.09	45.81
228.324	53.81
228.559	59.81
228.793	66.81
229.027	108.81
229.262	109.81
229.496	139.81
229.73	131.81
229.964	169.81
230.199	146.81
230.433	118.81
230.667	118.81
230.901	131.81
231.136	105.81
231.37	115.81
231.604	110.81
231.838	101.81
232.072	103.81
232.306	115.81
232.541	110.81
232.775	107.81
233.009	115.81
233.243	123.81
233.477	108.81
233.711	119.81
233.945	109.81
234.179	116.81
234.413	106.81
234.647	115.81
234.881	115.81
235.115	116.81
235.349	109.81
235.583	133.81
235.817	123.81
236.051	142.81
236.285	136.81
236.519	131.81
236.753	135.81
236.987	150.81
237.221	199.81
237.455	267.81
237.689	201.81
237.922	159.81
238.156	135.81
238.39	131.81
238.624	142.81
238.858	131.81
239.091	131.81
239.325	106.81
239.559	110.81
239.793	134.81
240.027	136.81
240.26	141.81
240.494	158.81
240.728	150.81
240.961	144.81
241.195	161.81
241.429	151.81
241.662	138.81
241.896	134.81
242.13	132.81
242.363	141.81
242.597	125.81
242.83	126.81
243.064	128.81
243.298	138.81
243.531	126.81
243.765	124.81
243.998	136.81
244.232	132.81
244.465	133.81
244.699	134.81
244.932	143.81
245.166	134.81
245.399	141.81
245.633	143.81
245.866	124.81
246.099	131.81
246.333	145.81
246.566	142.81
246.8	142.81
247.033	140.81
247.266	148.81
247.5	168.81
247.733	174.81
247.966	145.81
248.2	169.81
248.433	161.81
248.666	182.81
248.899	193.81
249.133	199.81
249.366	234.81
249.599	219.81
249.832	191.81
250.066	167.81
250.299	164.81
250.532	173.81
250.765	188.81
250.998	215.81
251.231	203.81
251.465	200.81
251.698	195.81
251.931	207.81
252.164	184.81
252.397	198.81
252.63	184.81
252.863	184.81
253.096	212.81
253.329	223.81
253.562	227.81
253.795	226.81
254.028	220.81
254.261	211.81
254.494	232.81
254.727	253.81
254.96	283.81
255.193	276.81
255.426	243.81
255.659	250.81
255.892	238.81
256.124	206.81
256.357	211.81
256.59	207.81
256.823	179.81
257.056	197.81
257.289	195.81
257.521	181.81
257.754	203.81
257.987	189.81
258.22	199.81
258.452	201.81
258.685	193.81
258.918	193.81
259.151	189.81
259.383	193.81
259.616	194.81
259.849	220.81
260.081	224.81
260.314	243.81
260.547	237.81
260.779	222.81
261.012	240.81
261.244	206.81
261.477	213.81
261.71	224.81
261.942	224.81
262.175	240.81
262.407	222.81
262.64	203.81
262.872	190.81
263.105	200.81
263.337	208.81
263.57	202.81
263.802	192.81
264.035	185.81
264.267	193.81
264.499	206.81
264.732	187.81
264.964	175.81
265.197	205.81
265.429	190.81
265.661	191.81
265.894	203.81
266.126	187.81
266.358	196.81
266.591	186.81
266.823	182.81
267.055	213.81
267.287	192.81
267.52	219.81
267.752	213.81
267.984	190.81
268.216	217.81
268.448	211.81
268.681	209.81
268.913	219.81
269.145	222.81
269.377	246.81
269.609	240.81
269.841	243.81
270.073	263.81
270.306	281.81
270.538	289.81
270.77	295.81
271.002	281.81
271.234	280.81
271.466	265.81
271.698	285.81
271.93	295.81
272.162	308.81
272.394	293.81
272.626	287.81
272.858	290.81
273.09	257.81
273.322	255.81
273.553	249.81
273.785	247.81
274.017	221.81
274.249	245.81
274.481	235.81
274.713	239.81
274.945	233.81
275.176	233.81
275.408	225.81
275.64	254.81
275.872	235.81
276.104	245.81
276.335	261.81
276.567	259.81
276.799	264.81
277.031	294.81
277.262	293.81
277.494	271.81
277.726	282.81
277.957	247.81
278.189	243.81
278.421	225.81
278.652	253.81
278.884	227.81
279.115	237.81
279.347	240.81
279.579	243.81
279.81	236.81
280.042	231.81
280.273	231.81
280.505	216.81
280.736	235.81
280.968	228.81
281.199	222.81
281.431	221.81
281.662	234.81
281.894	230.81
282.125	233.81
282.356	246.81
282.588	283.81
282.819	287.81
283.051	250.81
283.282	230.81
283.513	232.81
283.745	231.81
283.976	228.81
284.207	237.81
284.439	230.81
284.67	231.81
284.901	220.81
285.132	243.81
285.364	225.81
285.595	237.81
285.826	224.81
286.057	231.81
286.288	243.81
286.52	235.81
286.751	237.81
286.982	234.81
287.213	223.81
287.444	249.81
287.675	246.81
287.906	250.81
288.138	243.81
288.369	253.81
288.6	269.81
288.831	239.81
289.062	248.81
289.293	233.81
289.524	247.81
289.755	257.81
289.986	247.81
290.217	247.81
290.448	233.81
290.679	248.81
290.91	221.81
291.141	210.81
291.371	232.81
291.602	249.81
291.833	231.81
292.064	246.81
292.295	228.81
292.526	228.81
292.757	240.81
292.987	231.81
293.218	249.81
293.449	237.81
293.68	234.81
293.91	233.81
294.141	230.81
294.372	254.81
294.603	233.81
294.833	245.81
295.064	219.81
295.295	256.81
295.525	235.81
295.756	245.81
295.987	239.81
296.217	281.81
296.448	280.81
296.679	253.81
296.909	237.81
297.14	229.81
297.37	229.81
297.601	246.81
297.831	244.81
298.062	246.81
298.292	259.81
298.523	224.81
298.753	249.81
298.984	235.81
299.214	243.81
299.445	236.81
299.675	254.81
299.905	262.81
300.136	278.81
300.366	265.81
300.597	251.81
300.827	271.81
301.057	254.81
301.288	263.81
301.518	264.81
301.748	275.81
301.979	248.81
302.209	265.81
302.439	273.81
302.669	264.81
302.9	270.81
303.13	273.81
303.36	271.81
303.59	267.81
303.82	270.81
304.051	292.81
304.281	274.81
304.511	275.81
304.741	263.81
304.971	240.81
305.201	261.81
305.431	272.81
305.661	263.81
305.891	251.81
306.121	265.81
306.352	275.81
306.582	276.81
306.812	272.81
307.042	269.81
307.272	271.81
307.502	262.81
307.731	271.81
307.961	281.81
308.191	264.81
308.421	269.81
308.651	294.81
308.881	282.81
309.111	288.81
309.341	290.81
309.571	302.81
309.8	300.81
310.03	339.81
310.26	341.81
310.49	338.81
310.72	343.81
310.949	365.81
311.179	363.81
311.409	338.81
311.639	336.81
311.868	339.81
312.098	318.81
312.328	345.81
312.557	381.81
312.787	367.81
313.017	368.81
313.246	348.81
313.476	328.81
313.706	339.81
313.935	342.81
314.165	367.81
314.394	358.81
314.624	378.81
314.853	328.81
315.083	343.81
315.312	325.81
315.542	331.81
315.771	313.81
316.001	323.81
316.23	327.81
316.46	310.81
316.689	324.81
316.919	343.81
317.148	335.81
317.377	336.81
317.607	343.81
317.836	326.81
318.065	315.81
318.295	318.81
318.524	326.81
318.753	323.81
318.983	314.81
319.212	335.81
319.441	329.81
319.67	345.81
319.9	327.81
320.129	336.81
320.358	324.81
320.587	347.81
320.816	339.81
321.046	348.81
321.275	371.81
321.504	357.81
321.733	346.81
321.962	376.81
322.191	395.81
322.42	419.81
322.649	428.81
322.878	454.81
323.108	471.81
323.337	492.81
323.566	511.81
323.795	570.81
324.024	614.81
324.253	799.81
324.482	1147.81
324.71	1789.81
324.939	2501.81
325.168	2155.81
325.397	1173.81
325.626	771.81
325.855	608.81
326.084	536.81
326.313	516.81
326.542	513.81
326.77	559.81
326.999	706.81
327.228	963.81
327.457	1524.81
327.686	1877.81
327.914	1275.81
328.143	808.81
328.372	695.81
328.6	628.81
328.829	601.81
329.058	637.81
329.287	613.81
329.515	540.81
329.744	489.81
329.972	492.81
330.201	478.81
330.43	521.81
330.658	581.81
330.887	648.81
331.115	658.81
331.344	530.81
331.572	467.81
331.801	473.81
332.03	436.81
332.258	432.81
332.486	404.81
332.715	381.81
332.943	401.81
333.172	386.81
333.4	390.81
333.629	374.81
333.857	380.81
334.085	393.81
334.314	375.81
334.542	392.81
334.771	391.81
334.999	367.81
335.227	407.81
335.455	383.81
335.684	356.81
335.912	341.81
336.14	365.81
336.369	379.81
336.597	389.81
336.825	375.81
337.053	369.81
337.281	379.81
337.51	355.81
337.738	364.81
337.966	378.81
338.194	376.81
338.422	381.81
338.65	374.81
338.878	357.81
339.106	339.81
339.334	366.81
339.562	356.81
339.79	349.81
340.018	348.81
340.246	384.81
340.474	391.81
340.702	364.81
340.93	363.81
341.158	347.81
341.386	372.81
341.614	368.81
341.842	354.81
342.07	358.81
342.298	357.81
342.526	354.81
342.754	339.81
342.981	352.81
343.209	344.81
343.437	344.81
343.665	335.81
343.893	328.81
344.12	347.81
344.348	359.81
344.576	374.81
344.804	383.81
345.031	386.81
345.259	395.81
345.487	389.81
345.714	361.81
345.942	364.81
346.17	357.81
346.397	350.81
346.625	349.81
346.853	358.81
347.08	344.81
347.308	360.81
347.535	372.81
347.763	379.81
347.99	374.81
348.218	392.81
348.445	407.81
348.673	393.81
348.9	375.81
349.128	369.81
349.355	334.81
349.583	328.81
349.81	364.81
350.037	366.81
350.265	337.81
350.492	342.81
350.72	338.81
350.947	372.81
351.174	373.81
351.402	392.81
351.629	381.81
351.856	389.81
352.083	389.81
352.311	379.81
352.538	393.81
352.765	403.81
352.992	380.81
353.22	372.81
353.447	355.81
353.674	346.81
353.901	356.81
354.128	344.81
354.355	343.81
354.583	320.81
354.81	341.81
355.037	345.81
355.264	333.81
355.491	342.81
355.718	309.81
355.945	330.81
356.172	321.81
356.399	319.81
356.626	326.81
356.853	325.81
357.08	334.81
357.307	315.81
357.534	326.81
357.761	303.81
357.988	337.81
358.215	332.81
358.441	336.81
358.668	305.81
358.895	347.81
359.122	329.81
359.349	350.81
359.576	375.81
359.802	415.81
360.029	457.81
360.256	459.81
360.483	424.81
360.709	392.81
360.936	377.81
361.163	360.81
361.39	353.81
361.616	378.81
361.843	365.81
362.07	368.81
362.296	374.81
362.523	364.81
362.749	364.81
362.976	359.81
363.203	365.81
363.429	342.81
363.656	335.81
363.882	340.81
364.109	344.81
364.335	341.81
364.562	346.81
364.788	332.81
365.015	335.81
365.241	360.81
365.468	379.81
365.694	358.81
365.92	347.81
366.147	353.81
366.373	340.81
366.599	336.81
366.826	329.81
367.052	342.81
367.278	349.81
367.505	348.81
367.731	347.81
367.957	352.81
368.184	344.81
368.41	356.81
368.636	356.81
368.862	364.81
369.089	359.81
369.315	323.81
369.541	340.81
369.767	342.81
369.993	350.81
370.219	341.81
370.445	327.81
370.672	329.81
370.898	332.81
371.124	329.81
371.35	323.81
371.576	335.81
371.802	324.81
372.028	304.81
372.254	311.81
372.48	288.81
372.706	337.81
372.932	344.81
373.158	336.81
373.384	322.81
373.61	347.81
373.835	339.81
374.061	330.81
374.287	332.81
374.513	334.81
374.739	350.81
374.965	337.81
375.191	335.81
375.416	330.81
375.642	329.81
375.868	340.81
376.094	321.81
376.319	312.81
376.545	352.81
376.771	342.81
376.997	318.81
377.222	326.81
377.448	340.81
377.674	336.81
377.899	331.81
378.125	335.81
378.35	319.81
378.576	313.81
378.802	340.81
379.027	314.81
379.253	340.81
379.478	335.81
379.704	297.81
379.929	345.81
380.155	334.81
380.38	333.81
380.606	344.81
380.831	334.81
381.057	348.81
381.282	336.81
381.507	333.81
381.733	342.81
381.958	333.81
382.184	343.81
382.409	326.81
382.634	333.81
382.86	330.81
383.085	324.81
383.31	320.81
383.535	337.81
383.761	345.81
383.986	345.81
384.211	344.81
384.436	343.81
384.662	351.81
384.887	333.81
385.112	336.81
385.337	334.81
385.562	345.81
385.787	343.81
386.013	370.81
386.238	367.81
386.463	343.81
386.688	352.81
386.913	346.81
387.138	328.81
387.363	349.81
387.588	355.81
387.813	345.81
388.038	337.81
388.263	348.81
388.488	352.81
388.713	350.81
388.938	347.81
389.163	358.81
389.387	363.81
389.612	343.81
389.837	340.81
390.062	351.81
390.287	369.81
390.512	360.81
390.736	353.81
390.961	328.81
391.186	345.81
391.411	345.81
391.636	348.81
391.86	352.81
392.085	359.81
392.31	363.81
392.534	350.81
392.759	346.81
392.984	349.81
393.208	337.81
393.433	347.81
393.658	367.81
393.882	363.81
394.107	334.81
394.331	335.81
394.556	336.81
394.78	354.81
395.005	354.81
395.229	337.81
395.454	358.81
395.678	363.81
395.903	360.81
396.127	377.81
396.352	403.81
396.576	372.81
396.801	359.81
397.025	360.81
397.249	363.81
397.474	384.81
397.698	364.81
397.922	383.81
398.147	395.81
398.371	405.81
398.595	382.81
398.82	390.81
399.044	401.81
399.268	407.81
399.492	389.81
399.717	420.81
399.941	448.81
400.165	478.81
400.389	490.81
400.613	444.81
400.837	431.81
401.062	419.81
401.286	407.81
401.51	423.81
401.734	412.81
401.958	397.81
402.182	423.81
402.406	429.81
402.63	419.81
402.854	418.81
403.078	436.81
403.302	425.81
403.526	411.81
403.75	424.81
403.974	425.81
404.198	408.81
404.422	417.81
404.645	416.81
404.869	415.81
405.093	436.81
405.317	447.81
405.541	496.81
405.765	449.81
405.988	449.81
406.212	447.81
406.436	496.81
406.66	522.81
406.883	479.81
407.107	475.81
407.331	506.81
407.555	571.81
407.778	575.81
408.002	522.81
408.226	467.81
408.449	473.81
408.673	459.81
408.896	492.81
409.12	548.81
409.344	496.81
409.567	466.81
409.791	449.81
410.014	427.81
410.238	425.81
410.461	427.81
410.685	433.81
410.908	445.81
411.132	482.81
411.355	531.81
411.578	493.81
411.802	453.81
412.025	442.81
412.249	415.81
412.472	431.81
412.695	438.81
412.919	430.81
413.142	408.81
413.365	395.81
413.589	411.81
413.812	398.81
414.035	406.81
414.258	398.81
414.482	407.81
414.705	386.81
414.928	398.81
415.151	393.81
415.374	388.81
415.597	379.81
415.821	396.81
416.044	398.81
416.267	396.81
416.49	395.81
416.713	419.81
416.936	405.81
417.159	391.81
417.382	425.81
417.605	428.81
417.828	403.81
418.051	422.81
418.274	440.81
418.497	431.81
418.72	409.81
418.943	408.81
419.166	441.81
419.389	423.81
419.611	432.81
419.834	438.81
420.057	417.81
420.28	438.81
420.503	415.81
420.726	444.81
420.948	454.81
421.171	516.81
421.394	532.81
421.617	454.81
421.839	455.81
422.062	441.81
422.285	448.81
422.507	522.81
422.73	587.81
422.953	549.81
423.175	497.81
423.398	480.81
423.621	457.81
423.843	497.81
424.066	486.81
424.288	475.81
424.511	492.81
424.733	575.81
424.956	645.81
425.178	620.81
425.401	615.81
425.623	625.81
425.846	540.81
426.068	519.81
426.291	506.81
426.513	480.81
426.735	515.81
426.958	549.81
427.18	638.81
427.402	742.81
427.625	840.81
427.847	772.81
428.069	630.81
428.292	567.81
428.514	524.81
428.736	498.81
428.958	477.81
429.181	477.81
429.403	470.81
429.625	477.81
429.847	523.81
430.069	580.81
430.292	564.81
430.514	488.81
430.736	468.81
430.958	440.81
431.18	441.81
431.402	434.81
431.624	418.81
431.846	446.81
432.068	427.81
432.29	417.81
432.512	458.81
432.734	429.81
432.956	438.81
433.178	456.81
433.4	452.81
433.622	446.81
433.844	437.81
434.066	440.81
434.287	422.81
434.509	433.81
434.731	429.81
434.953	439.81
435.175	480.81
435.397	506.81
435.618	515.81
435.84	541.81
436.062	648.81
436.284	703.81
436.505	605.81
436.727	521.81
436.949	506.81
437.17	465.81
437.392	484.81
437.614	490.81
437.835	536.81
438.057	643.81
438.278	731.81
438.5	716.81
438.721	773.81
438.943	735.81
439.165	599.81
439.386	551.81
439.608	526.81
439.829	530.81
440.05	565.81
440.272	612.81
440.493	563.81
440.715	505.81
440.936	488.81
441.158	477.81
441.379	498.81
441.6	501.81
441.822	510.81
442.043	537.81
442.264	626.81
442.486	675.81
442.707	589.81
442.928	547.81
443.149	533.81
443.371	556.81
443.592	599.81
443.813	684.81
444.034	715.81
444.255	604.81
444.476	541.81
444.698	524.81
444.919	496.81
445.14	617.81
445.361	579.81
445.582	541.81
445.803	614.81
446.024	711.81
446.245	724.81
446.466	677.81
446.687	593.81
446.908	525.81
447.129	503.81
447.35	492.81
447.571	487.81
447.792	467.81
448.013	481.81
448.234	510.81
448.455	529.81
448.675	688.81
448.896	773.81
449.117	659.81
449.338	639.81
449.559	726.81
449.779	793.81
450	640.81
450.221	563.81
450.442	500.81
450.662	503.81
450.883	508.81
451.104	522.81
451.324	508.81
451.545	463.81
451.766	458.81
451.986	451.81
452.207	425.81
452.428	444.81
452.648	431.81
452.869	421.81
453.089	456.81
453.31	451.81
453.53	414.81
453.751	439.81
453.971	453.81
454.192	468.81
454.412	457.81
454.633	430.81
454.853	443.81
455.073	441.81
455.294	445.81
455.514	535.81
455.734	520.81
455.955	433.81
456.175	417.81
456.395	388.81
456.616	377.81
456.836	398.81
457.056	389.81
457.276	381.81
457.497	387.81
457.717	389.81
457.937	387.81
458.157	392.81
458.377	420.81
458.598	457.81
458.818	539.81
459.038	638.81
459.258	621.81
459.478	501.81
459.698	473.81
459.918	423.81
460.138	422.81
460.358	426.81
460.578	416.81
460.798	401.81
461.018	437.81
461.238	429.81
461.458	424.81
461.678	412.81
461.898	413.81
462.118	420.81
462.338	422.81
462.558	411.81
462.777	413.81
462.997	423.81
463.217	442.81
463.437	412.81
463.657	444.81
463.876	419.81
464.096	444.81
464.316	458.81
464.536	456.81
464.755	462.81
464.975	477.81
465.195	552.81
465.414	679.81
465.634	560.81
465.854	496.81
466.073	448.81
466.293	451.81
466.512	425.81
466.732	410.81
466.951	415.81
467.171	408.81
467.391	420.81
467.61	436.81
467.829	454.81
468.049	433.81
468.268	429.81
468.488	428.81
468.707	392.81
468.927	418.81
469.146	406.81
469.365	427.81
469.585	412.81
469.804	424.81
470.023	439.81
470.243	437.81
470.462	424.81
470.681	465.81
470.901	466.81
471.12	431.81
471.339	432.81
471.558	428.81
471.777	426.81
471.997	432.81
472.216	418.81
472.435	429.81
472.654	419.81
472.873	413.81
473.092	403.81
473.311	430.81
473.53	415.81
473.749	438.81
473.968	501.81
474.187	581.81
474.406	623.81
474.625	512.81
474.844	457.81
475.063	452.81
475.282	429.81
475.501	427.81
475.72	437.81
475.939	442.81
476.158	441.81
476.377	438.81
476.596	444.81
476.814	447.81
477.033	486.81
477.252	456.81
477.471	454.81
477.69	459.81
477.908	461.81
478.127	462.81
478.346	461.81
478.564	457.81
478.783	474.81
479.002	480.81
479.22	474.81
479.439	503.81
479.658	523.81
479.876	518.81
480.095	526.81
480.313	542.81
480.532	512.81
480.751	507.81
480.969	512.81
481.188	524.81
481.406	536.81
481.624	524.81
481.843	520.81
482.061	505.81
482.28	490.81
482.498	507.81
482.717	493.81
482.935	491.81
483.153	519.81
483.372	521.81
483.59	488.81
483.808	481.81
484.027	514.81
484.245	501.81
484.463	508.81
484.681	508.81
484.9	533.81
485.118	525.81
485.336	507.81
485.554	523.81
485.772	547.81
485.99	527.81
486.209	526.81
486.427	516.81
486.645	558.81
486.863	587.81
487.081	559.81
487.299	563.81
487.517	561.81
487.735	540.81
487.953	574.81
488.171	547.81
488.389	565.81
488.607	543.81
488.825	541.81
489.043	542.81
489.261	556.81
489.479	554.81
489.696	536.81
489.914	583.81
490.132	580.81
490.35	563.81
490.568	568.81
490.786	594.81
491.003	594.81
491.221	612.81
491.439	616.81
491.657	618.81
491.874	633.81
492.092	631.81
492.31	636.81
492.527	650.81
492.745	651.81
492.963	656.81
493.18	639.81
493.398	646.81
493.615	653.81
493.833	693.81
494.05	655.81
494.268	693.81
494.485	641.81
494.703	664.81
494.92	680.81
495.138	665.81
495.355	683.81
495.573	666.81
495.79	679.81
496.008	672.81
496.225	657.81
496.442	660.81
496.66	647.81
496.877	675.81
497.094	677.81
497.312	684.81
497.529	657.81
497.746	686.81
497.963	689.81
498.181	713.81
498.398	705.81
498.615	719.81
498.832	714.81
499.049	699.81
499.267	725.81
499.484	728.81
499.701	733.81
499.918	734.81
500.135	765.81
500.352	783.81
500.569	798.81
500.786	777.81
501.003	803.81
501.22	785.81
501.437	796.81
501.654	764.81
501.871	821.81
