Data from 1987.PennyLincolnUp.Lamp.En5.5.200Scan.071819.P2_HRD10591_17-14-09-973.txt Node
Date: Thu Jul 18 17:14:09 EDT 2019
User: cochatt
Spectrometer: HR+D1059
Trigger mode: 1
Integration Time (sec): 1.000000E-1
Scans to average: 1
Electric dark correction enabled: true
Nonlinearity correction enabled: false
Boxcar width: 0
XAxis mode: Wavelengths
Number of Pixels in Spectrum: 2048
>>>>>Begin Spectral Data<<<<<
223.165	-9.69
223.4	-9.69
223.635	-9.69
223.869	-10.69
224.104	-21.69
224.338	-0.69
224.573	-18.69
224.808	-8.69
225.042	-8.69
225.277	-1.69
225.511	-4.69
225.746	-3.69
225.98	-9.69
226.215	4.31
226.449	16.31
226.683	35.31
226.918	16.31
227.152	26.31
227.387	46.31
227.621	43.31
227.856	39.31
228.09	45.31
228.324	53.31
228.559	49.31
228.793	68.31
229.027	94.31
229.262	113.31
229.496	107.31
229.73	139.31
229.964	143.31
230.199	128.31
230.433	131.31
230.667	129.31
230.901	107.31
231.136	120.31
231.37	106.31
231.604	108.31
231.838	118.31
232.072	102.31
232.306	101.31
232.541	110.31
232.775	105.31
233.009	101.31
233.243	106.31
233.477	105.31
233.711	109.31
233.945	116.31
234.179	101.31
234.413	111.31
234.647	120.31
234.881	116.31
235.115	99.31
235.349	115.31
235.583	119.31
235.817	118.31
236.051	116.31
236.285	119.31
236.519	132.31
236.753	131.31
236.987	142.31
237.221	183.31
237.455	211.31
237.689	180.31
237.922	143.31
238.156	133.31
238.39	134.31
238.624	103.31
238.858	123.31
239.091	129.31
239.325	101.31
239.559	107.31
239.793	125.31
240.027	133.31
240.26	147.31
240.494	151.31
240.728	144.31
240.961	152.31
241.195	111.31
241.429	112.31
241.662	141.31
241.896	129.31
242.13	116.31
242.363	131.31
242.597	119.31
242.83	120.31
243.064	127.31
243.298	129.31
243.531	134.31
243.765	126.31
243.998	126.31
244.232	137.31
244.465	141.31
244.699	140.31
244.932	129.31
245.166	141.31
245.399	129.31
245.633	136.31
245.866	133.31
246.099	134.31
246.333	133.31
246.566	137.31
246.8	131.31
247.033	140.31
247.266	137.31
247.5	151.31
247.733	158.31
247.966	168.31
248.2	157.31
248.433	164.31
248.666	158.31
248.899	170.31
249.133	199.31
249.366	197.31
249.599	181.31
249.832	174.31
250.066	164.31
250.299	171.31
250.532	161.31
250.765	185.31
250.998	192.31
251.231	197.31
251.465	195.31
251.698	189.31
251.931	195.31
252.164	181.31
252.397	191.31
252.63	192.31
252.863	197.31
253.096	187.31
253.329	200.31
253.562	218.31
253.795	193.31
254.028	200.31
254.261	193.31
254.494	191.31
254.727	227.31
254.96	256.31
255.193	261.31
255.426	224.31
255.659	215.31
255.892	215.31
256.124	205.31
256.357	191.31
256.59	195.31
256.823	187.31
257.056	181.31
257.289	179.31
257.521	186.31
257.754	172.31
257.987	189.31
258.22	184.31
258.452	174.31
258.685	181.31
258.918	181.31
259.151	186.31
259.383	193.31
259.616	201.31
259.849	196.31
260.081	212.31
260.314	207.31
260.547	236.31
260.779	225.31
261.012	233.31
261.244	183.31
261.477	204.31
261.71	195.31
261.942	189.31
262.175	206.31
262.407	217.31
262.64	181.31
262.872	193.31
263.105	172.31
263.337	177.31
263.57	182.31
263.802	178.31
264.035	188.31
264.267	166.31
264.499	183.31
264.732	165.31
264.964	181.31
265.197	182.31
265.429	174.31
265.661	170.31
265.894	184.31
266.126	171.31
266.358	188.31
266.591	169.31
266.823	181.31
267.055	198.31
267.287	175.31
267.52	186.31
267.752	183.31
267.984	183.31
268.216	198.31
268.448	192.31
268.681	219.31
268.913	205.31
269.145	204.31
269.377	214.31
269.609	234.31
269.841	230.31
270.073	223.31
270.306	249.31
270.538	263.31
270.77	263.31
271.002	252.31
271.234	265.31
271.466	265.31
271.698	261.31
271.93	282.31
272.162	275.31
272.394	286.31
272.626	256.31
272.858	261.31
273.09	243.31
273.322	249.31
273.553	233.31
273.785	236.31
274.017	213.31
274.249	228.31
274.481	227.31
274.713	206.31
274.945	209.31
275.176	231.31
275.408	221.31
275.64	214.31
275.872	203.31
276.104	224.31
276.335	236.31
276.567	220.31
276.799	228.31
277.031	261.31
277.262	263.31
277.494	248.31
277.726	249.31
277.957	243.31
278.189	228.31
278.421	202.31
278.652	229.31
278.884	205.31
279.115	198.31
279.347	215.31
279.579	204.31
279.81	222.31
280.042	195.31
280.273	212.31
280.505	209.31
280.736	213.31
280.968	211.31
281.199	196.31
281.431	218.31
281.662	204.31
281.894	191.31
282.125	222.31
282.356	228.31
282.588	246.31
282.819	256.31
283.051	223.31
283.282	217.31
283.513	214.31
283.745	198.31
283.976	214.31
284.207	215.31
284.439	214.31
284.67	213.31
284.901	212.31
285.132	219.31
285.364	213.31
285.595	231.31
285.826	215.31
286.057	231.31
286.288	205.31
286.52	200.31
286.751	211.31
286.982	222.31
287.213	220.31
287.444	206.31
287.675	216.31
287.906	212.31
288.138	238.31
288.369	234.31
288.6	235.31
288.831	232.31
289.062	225.31
289.293	236.31
289.524	234.31
289.755	210.31
289.986	229.31
290.217	227.31
290.448	214.31
290.679	212.31
290.91	218.31
291.141	207.31
291.371	189.31
291.602	201.31
291.833	211.31
292.064	226.31
292.295	218.31
292.526	211.31
292.757	216.31
292.987	215.31
293.218	222.31
293.449	212.31
293.68	218.31
293.91	227.31
294.141	211.31
294.372	230.31
294.603	211.31
294.833	230.31
295.064	213.31
295.295	215.31
295.525	236.31
295.756	217.31
295.987	246.31
296.217	268.31
296.448	263.31
296.679	238.31
296.909	232.31
297.14	210.31
297.37	219.31
297.601	222.31
297.831	214.31
298.062	229.31
298.292	223.31
298.523	215.31
298.753	218.31
298.984	224.31
299.214	221.31
299.445	228.31
299.675	215.31
299.905	241.31
300.136	227.31
300.366	226.31
300.597	237.31
300.827	246.31
301.057	238.31
301.288	241.31
301.518	234.31
301.748	235.31
301.979	250.31
302.209	237.31
302.439	257.31
302.669	242.31
302.9	232.31
303.13	222.31
303.36	255.31
303.59	247.31
303.82	255.31
304.051	261.31
304.281	238.31
304.511	234.31
304.741	245.31
304.971	239.31
305.201	229.31
305.431	269.31
305.661	238.31
305.891	226.31
306.121	243.31
306.352	261.31
306.582	261.31
306.812	258.31
307.042	265.31
307.272	249.31
307.502	261.31
307.731	247.31
307.961	248.31
308.191	255.31
308.421	244.31
308.651	254.31
308.881	264.31
309.111	255.31
309.341	274.31
309.571	280.31
309.8	290.31
310.03	290.31
310.26	301.31
310.49	279.31
310.72	300.31
310.949	318.31
311.179	334.31
311.409	288.31
311.639	293.31
311.868	303.31
312.098	296.31
312.328	303.31
312.557	325.31
312.787	330.31
313.017	324.31
313.246	298.31
313.476	293.31
313.706	297.31
313.935	289.31
314.165	323.31
314.394	307.31
314.624	343.31
314.853	305.31
315.083	312.31
315.312	290.31
315.542	282.31
315.771	290.31
316.001	285.31
316.23	293.31
316.46	288.31
316.689	283.31
316.919	275.31
317.148	311.31
317.377	312.31
317.607	289.31
317.836	306.31
318.065	284.31
318.295	295.31
318.524	285.31
318.753	288.31
318.983	293.31
319.212	297.31
319.441	295.31
319.67	310.31
319.9	286.31
320.129	295.31
320.358	306.31
320.587	302.31
320.816	317.31
321.046	312.31
321.275	314.31
321.504	316.31
321.733	323.31
321.962	317.31
322.191	334.31
322.42	360.31
322.649	345.31
322.878	381.31
323.108	403.31
323.337	411.31
323.566	467.31
323.795	490.31
324.024	536.31
324.253	657.31
324.482	934.31
324.71	1467.31
324.939	2001.31
325.168	1773.31
325.397	972.31
325.626	630.31
325.855	506.31
326.084	455.31
326.313	463.31
326.542	447.31
326.77	496.31
326.999	551.31
327.228	820.31
327.457	1244.31
327.686	1531.31
327.914	1081.31
328.143	706.31
328.372	587.31
328.6	539.31
328.829	495.31
329.058	507.31
329.287	513.31
329.515	469.31
329.744	441.31
329.972	406.31
330.201	428.31
330.43	446.31
330.658	480.31
330.887	524.31
331.115	504.31
331.344	435.31
331.572	421.31
331.801	404.31
332.03	404.31
332.258	370.31
332.486	345.31
332.715	328.31
332.943	323.31
333.172	338.31
333.4	326.31
333.629	359.31
333.857	349.31
334.085	332.31
334.314	342.31
334.542	335.31
334.771	356.31
334.999	358.31
335.227	360.31
335.455	323.31
335.684	346.31
335.912	327.31
336.14	341.31
336.369	305.31
336.597	329.31
336.825	336.31
337.053	332.31
337.281	338.31
337.51	337.31
337.738	329.31
337.966	330.31
338.194	337.31
338.422	357.31
338.65	345.31
338.878	308.31
339.106	319.31
339.334	333.31
339.562	338.31
339.79	320.31
340.018	335.31
340.246	326.31
340.474	321.31
340.702	356.31
340.93	317.31
341.158	320.31
341.386	330.31
341.614	347.31
341.842	330.31
342.07	329.31
342.298	321.31
342.526	332.31
342.754	305.31
342.981	309.31
343.209	304.31
343.437	299.31
343.665	334.31
343.893	325.31
344.12	323.31
344.348	311.31
344.576	309.31
344.804	346.31
345.031	329.31
345.259	357.31
345.487	350.31
345.714	329.31
345.942	339.31
346.17	323.31
346.397	312.31
346.625	311.31
346.853	322.31
347.08	333.31
347.308	332.31
347.535	334.31
347.763	361.31
347.99	359.31
348.218	342.31
348.445	346.31
348.673	342.31
348.9	337.31
349.128	317.31
349.355	319.31
349.583	322.31
349.81	340.31
350.037	318.31
350.265	315.31
350.492	331.31
350.72	301.31
350.947	323.31
351.174	342.31
351.402	342.31
351.629	331.31
351.856	347.31
352.083	335.31
352.311	352.31
352.538	359.31
352.765	348.31
352.992	354.31
353.22	337.31
353.447	337.31
353.674	301.31
353.901	298.31
354.128	319.31
354.355	301.31
354.583	322.31
354.81	269.31
355.037	309.31
355.264	301.31
355.491	291.31
355.718	291.31
355.945	306.31
356.172	296.31
356.399	292.31
356.626	290.31
356.853	282.31
357.08	287.31
357.307	302.31
357.534	277.31
357.761	297.31
357.988	299.31
358.215	301.31
358.441	311.31
358.668	298.31
358.895	301.31
359.122	307.31
359.349	327.31
359.576	337.31
359.802	370.31
360.029	403.31
360.256	388.31
360.483	371.31
360.709	344.31
360.936	345.31
361.163	333.31
361.39	356.31
361.616	352.31
361.843	342.31
362.07	320.31
362.296	338.31
362.523	316.31
362.749	339.31
362.976	309.31
363.203	317.31
363.429	321.31
363.656	299.31
363.882	331.31
364.109	327.31
364.335	313.31
364.562	303.31
364.788	315.31
365.015	297.31
365.241	301.31
365.468	311.31
365.694	316.31
365.92	321.31
366.147	325.31
366.373	297.31
366.599	314.31
366.826	325.31
367.052	300.31
367.278	292.31
367.505	307.31
367.731	306.31
367.957	301.31
368.184	315.31
368.41	318.31
368.636	339.31
368.862	341.31
369.089	336.31
369.315	296.31
369.541	310.31
369.767	309.31
369.993	313.31
370.219	319.31
370.445	319.31
370.672	318.31
370.898	297.31
371.124	312.31
371.35	292.31
371.576	294.31
371.802	302.31
372.028	310.31
372.254	295.31
372.48	294.31
372.706	286.31
372.932	304.31
373.158	292.31
373.384	316.31
373.61	327.31
373.835	307.31
374.061	304.31
374.287	308.31
374.513	309.31
374.739	325.31
374.965	314.31
375.191	324.31
375.416	318.31
375.642	300.31
375.868	302.31
376.094	310.31
376.319	299.31
376.545	310.31
376.771	309.31
376.997	305.31
377.222	296.31
377.448	303.31
377.674	317.31
377.899	328.31
378.125	317.31
378.35	291.31
378.576	304.31
378.802	302.31
379.027	315.31
379.253	283.31
379.478	308.31
379.704	303.31
379.929	317.31
380.155	293.31
380.38	296.31
380.606	315.31
380.831	314.31
381.057	309.31
381.282	297.31
381.507	317.31
381.733	322.31
381.958	307.31
382.184	303.31
382.409	315.31
382.634	312.31
382.86	307.31
383.085	325.31
383.31	328.31
383.535	313.31
383.761	330.31
383.986	335.31
384.211	333.31
384.436	315.31
384.662	317.31
384.887	308.31
385.112	311.31
385.337	317.31
385.562	318.31
385.787	314.31
386.013	327.31
386.238	302.31
386.463	345.31
386.688	323.31
386.913	302.31
387.138	314.31
387.363	313.31
387.588	338.31
387.813	330.31
388.038	332.31
388.263	312.31
388.488	331.31
388.713	310.31
388.938	331.31
389.163	339.31
389.387	354.31
389.612	345.31
389.837	318.31
390.062	319.31
390.287	323.31
390.512	338.31
390.736	319.31
390.961	323.31
391.186	311.31
391.411	328.31
391.636	309.31
391.86	334.31
392.085	341.31
392.31	347.31
392.534	341.31
392.759	335.31
392.984	337.31
393.208	348.31
393.433	334.31
393.658	354.31
393.882	336.31
394.107	348.31
394.331	341.31
394.556	332.31
394.78	321.31
395.005	331.31
395.229	328.31
395.454	330.31
395.678	346.31
395.903	329.31
396.127	346.31
396.352	382.31
396.576	349.31
396.801	358.31
397.025	372.31
397.249	350.31
397.474	347.31
397.698	352.31
397.922	357.31
398.147	362.31
398.371	367.31
398.595	372.31
398.82	347.31
399.044	375.31
399.268	369.31
399.492	379.31
399.717	406.31
399.941	432.31
400.165	427.31
400.389	441.31
400.613	420.31
400.837	389.31
401.062	392.31
401.286	373.31
401.51	377.31
401.734	353.31
401.958	360.31
402.182	380.31
402.406	399.31
402.63	387.31
402.854	365.31
403.078	380.31
403.302	385.31
403.526	388.31
403.75	366.31
403.974	366.31
404.198	373.31
404.422	387.31
404.645	390.31
404.869	377.31
405.093	377.31
405.317	430.31
405.541	441.31
405.765	409.31
405.988	400.31
406.212	417.31
406.436	443.31
406.66	485.31
406.883	457.31
407.107	433.31
407.331	476.31
407.555	538.31
407.778	540.31
408.002	491.31
408.226	459.31
408.449	442.31
408.673	447.31
408.896	450.31
409.12	477.31
409.344	473.31
409.567	415.31
409.791	409.31
410.014	414.31
410.238	388.31
410.461	382.31
410.685	398.31
410.908	413.31
411.132	448.31
411.355	444.31
411.578	450.31
411.802	403.31
412.025	374.31
412.249	396.31
412.472	407.31
412.695	404.31
412.919	405.31
413.142	359.31
413.365	372.31
413.589	366.31
413.812	372.31
414.035	377.31
414.258	370.31
414.482	366.31
414.705	364.31
414.928	367.31
415.151	364.31
415.374	377.31
415.597	366.31
415.821	353.31
416.044	367.31
416.267	378.31
416.49	355.31
416.713	370.31
416.936	383.31
417.159	387.31
417.382	415.31
417.605	389.31
417.828	388.31
418.051	399.31
418.274	383.31
418.497	378.31
418.72	373.31
418.943	380.31
419.166	385.31
419.389	409.31
419.611	403.31
419.834	387.31
420.057	412.31
420.28	417.31
420.503	404.31
420.726	394.31
420.948	432.31
421.171	451.31
421.394	472.31
421.617	435.31
421.839	414.31
422.062	407.31
422.285	418.31
422.507	495.31
422.73	523.31
422.953	523.31
423.175	436.31
423.398	421.31
423.621	421.31
423.843	450.31
424.066	454.31
424.288	444.31
424.511	468.31
424.733	518.31
424.956	586.31
425.178	585.31
425.401	590.31
425.623	573.31
425.846	502.31
426.068	469.31
426.291	475.31
426.513	477.31
426.735	475.31
426.958	513.31
427.18	571.31
427.402	695.31
427.625	790.31
427.847	691.31
428.069	564.31
428.292	502.31
428.514	458.31
428.736	458.31
428.958	449.31
429.181	416.31
429.403	449.31
429.625	437.31
429.847	489.31
430.069	531.31
430.292	539.31
430.514	462.31
430.736	427.31
430.958	433.31
431.18	400.31
431.402	407.31
431.624	403.31
431.846	389.31
432.068	393.31
432.29	400.31
432.512	382.31
432.734	408.31
432.956	407.31
433.178	385.31
433.4	410.31
433.622	399.31
433.844	387.31
434.066	370.31
434.287	398.31
434.509	400.31
434.731	403.31
434.953	404.31
435.175	414.31
435.397	441.31
435.618	457.31
435.84	516.31
436.062	581.31
436.284	661.31
436.505	527.31
436.727	487.31
436.949	441.31
437.17	436.31
437.392	435.31
437.614	449.31
437.835	500.31
438.057	585.31
438.278	670.31
438.5	663.31
438.721	731.31
438.943	687.31
439.165	580.31
439.386	488.31
439.608	497.31
439.829	481.31
440.05	509.31
440.272	527.31
440.493	520.31
440.715	457.31
440.936	470.31
441.158	408.31
441.379	433.31
441.6	446.31
441.822	475.31
442.043	509.31
442.264	572.31
442.486	613.31
442.707	547.31
442.928	494.31
443.149	503.31
443.371	505.31
443.592	551.31
443.813	609.31
444.034	655.31
444.255	522.31
444.476	481.31
444.698	458.31
444.919	458.31
445.14	541.31
445.361	522.31
445.582	491.31
445.803	551.31
446.024	642.31
446.245	664.31
446.466	588.31
446.687	534.31
446.908	466.31
447.129	453.31
447.35	450.31
447.571	449.31
447.792	439.31
448.013	461.31
448.234	466.31
448.455	514.31
448.675	596.31
448.896	674.31
449.117	600.31
449.338	585.31
449.559	658.31
449.779	722.31
450	621.31
450.221	523.31
450.442	482.31
450.662	445.31
450.883	447.31
451.104	462.31
451.324	453.31
451.545	425.31
451.766	407.31
451.986	383.31
452.207	401.31
452.428	389.31
452.648	381.31
452.869	394.31
453.089	406.31
453.31	411.31
453.53	405.31
453.751	393.31
453.971	387.31
454.192	421.31
454.412	408.31
454.633	399.31
454.853	381.31
455.073	382.31
455.294	400.31
455.514	467.31
455.734	470.31
455.955	391.31
456.175	385.31
456.395	359.31
456.616	370.31
456.836	377.31
457.056	364.31
457.276	341.31
457.497	361.31
457.717	350.31
457.937	353.31
458.157	379.31
458.377	379.31
458.598	377.31
458.818	468.31
459.038	551.31
459.258	563.31
459.478	470.31
459.698	401.31
459.918	405.31
460.138	406.31
460.358	388.31
460.578	379.31
460.798	375.31
461.018	402.31
461.238	399.31
461.458	376.31
461.678	385.31
461.898	374.31
462.118	378.31
462.338	381.31
462.558	379.31
462.777	396.31
462.997	395.31
463.217	399.31
463.437	403.31
463.657	389.31
463.876	390.31
464.096	389.31
464.316	399.31
464.536	388.31
464.755	415.31
464.975	422.31
465.195	479.31
465.414	578.31
465.634	501.31
465.854	437.31
466.073	412.31
466.293	414.31
466.512	385.31
466.732	366.31
466.951	381.31
467.171	387.31
467.391	402.31
467.61	382.31
467.829	400.31
468.049	383.31
468.268	390.31
468.488	402.31
468.707	355.31
468.927	365.31
469.146	343.31
469.365	378.31
469.585	387.31
469.804	382.31
470.023	406.31
470.243	380.31
470.462	406.31
470.681	433.31
470.901	424.31
471.12	387.31
471.339	393.31
471.558	385.31
471.777	390.31
471.997	383.31
472.216	376.31
472.435	394.31
472.654	388.31
472.873	388.31
473.092	393.31
473.311	374.31
473.53	395.31
473.749	400.31
473.968	437.31
474.187	544.31
474.406	550.31
474.625	447.31
474.844	415.31
475.063	394.31
475.282	387.31
475.501	398.31
475.72	383.31
475.939	412.31
476.158	403.31
476.377	401.31
476.596	407.31
476.814	417.31
477.033	422.31
477.252	426.31
477.471	427.31
477.69	422.31
477.908	406.31
478.127	416.31
478.346	426.31
478.564	422.31
478.783	418.31
479.002	436.31
479.22	447.31
479.439	454.31
479.658	454.31
479.876	480.31
480.095	490.31
480.313	498.31
480.532	487.31
480.751	477.31
480.969	478.31
481.188	498.31
481.406	488.31
481.624	463.31
481.843	460.31
482.061	450.31
482.28	436.31
482.498	445.31
482.717	468.31
482.935	481.31
483.153	447.31
483.372	478.31
483.59	456.31
483.808	460.31
484.027	470.31
484.245	473.31
484.463	481.31
484.681	475.31
484.9	478.31
485.118	461.31
485.336	483.31
485.554	473.31
485.772	490.31
485.99	486.31
486.209	485.31
486.427	516.31
486.645	515.31
486.863	535.31
487.081	518.31
487.299	522.31
487.517	525.31
487.735	533.31
487.953	493.31
488.171	513.31
488.389	505.31
488.607	511.31
488.825	507.31
489.043	521.31
489.261	514.31
489.479	525.31
489.696	519.31
489.914	537.31
490.132	534.31
490.35	552.31
490.568	555.31
490.786	537.31
491.003	545.31
491.221	564.31
491.439	552.31
491.657	581.31
491.874	574.31
492.092	578.31
492.31	616.31
492.527	597.31
492.745	603.31
492.963	590.31
493.18	584.31
493.398	586.31
493.615	604.31
493.833	609.31
494.05	586.31
494.268	594.31
494.485	615.31
494.703	598.31
494.92	608.31
495.138	628.31
495.355	620.31
495.573	626.31
495.79	608.31
496.008	625.31
496.225	593.31
496.442	610.31
496.66	602.31
496.877	634.31
497.094	611.31
497.312	635.31
497.529	615.31
497.746	629.31
497.963	620.31
498.181	669.31
498.398	654.31
498.615	641.31
498.832	655.31
499.049	636.31
499.267	665.31
499.484	694.31
499.701	692.31
499.918	705.31
500.135	714.31
500.352	734.31
500.569	717.31
500.786	728.31
501.003	737.31
501.22	725.31
501.437	702.31
501.654	712.31
501.871	733.31
502.088	709.31
