Data from 1987.PennyLincolnUp.Lamp.En5.5.200Scan.071819.P2_HRD10591_17-15-50-970.txt Node
Date: Thu Jul 18 17:15:50 EDT 2019
User: cochatt
Spectrometer: HR+D1059
Trigger mode: 1
Integration Time (sec): 1.000000E-1
Scans to average: 1
Electric dark correction enabled: true
Nonlinearity correction enabled: false
Boxcar width: 0
XAxis mode: Wavelengths
Number of Pixels in Spectrum: 2048
>>>>>Begin Spectral Data<<<<<
223.165	-9.06
223.4	-9.06
223.635	-9.06
223.869	-9.06
224.104	-28.06
224.338	-8.06
224.573	-25.06
224.808	-13.06
225.042	-7.06
225.277	0.94
225.511	-13.06
225.746	2.94
225.98	-7.06
226.215	8.94
226.449	19.94
226.683	14.94
226.918	23.94
227.152	47.94
227.387	25.94
227.621	34.94
227.856	42.94
228.09	42.94
228.324	49.94
228.559	70.94
228.793	71.94
229.027	105.94
229.262	116.94
229.496	122.94
229.73	135.94
229.964	190.94
230.199	134.94
230.433	127.94
230.667	110.94
230.901	134.94
231.136	111.94
231.37	136.94
231.604	110.94
231.838	114.94
232.072	114.94
232.306	119.94
232.541	122.94
232.775	119.94
233.009	123.94
233.243	126.94
233.477	119.94
233.711	120.94
233.945	117.94
234.179	107.94
234.413	122.94
234.647	114.94
234.881	114.94
235.115	138.94
235.349	132.94
235.583	108.94
235.817	127.94
236.051	128.94
236.285	132.94
236.519	119.94
236.753	127.94
236.987	142.94
237.221	201.94
237.455	245.94
237.689	202.94
237.922	148.94
238.156	130.94
238.39	132.94
238.624	126.94
238.858	118.94
239.091	125.94
239.325	131.94
239.559	110.94
239.793	138.94
240.027	131.94
240.26	136.94
240.494	159.94
240.728	145.94
240.961	147.94
241.195	145.94
241.429	140.94
241.662	127.94
241.896	142.94
242.13	134.94
242.363	130.94
242.597	147.94
242.83	122.94
243.064	138.94
243.298	137.94
243.531	139.94
243.765	126.94
243.998	136.94
244.232	128.94
244.465	137.94
244.699	129.94
244.932	147.94
245.166	139.94
245.399	136.94
245.633	128.94
245.866	139.94
246.099	150.94
246.333	132.94
246.566	134.94
246.8	142.94
247.033	155.94
247.266	159.94
247.5	156.94
247.733	165.94
247.966	171.94
248.2	160.94
248.433	148.94
248.666	164.94
248.899	183.94
249.133	210.94
249.366	227.94
249.599	206.94
249.832	199.94
250.066	185.94
250.299	175.94
250.532	182.94
250.765	192.94
250.998	219.94
251.231	220.94
251.465	210.94
251.698	207.94
251.931	213.94
252.164	193.94
252.397	214.94
252.63	184.94
252.863	207.94
253.096	207.94
253.329	234.94
253.562	214.94
253.795	217.94
254.028	217.94
254.261	214.94
254.494	231.94
254.727	258.94
254.96	298.94
255.193	280.94
255.426	259.94
255.659	230.94
255.892	231.94
256.124	206.94
256.357	206.94
256.59	214.94
256.823	211.94
257.056	205.94
257.289	212.94
257.521	207.94
257.754	198.94
257.987	212.94
258.22	196.94
258.452	192.94
258.685	195.94
258.918	197.94
259.151	205.94
259.383	211.94
259.616	196.94
259.849	238.94
260.081	236.94
260.314	256.94
260.547	258.94
260.779	243.94
261.012	220.94
261.244	233.94
261.477	221.94
261.71	202.94
261.942	220.94
262.175	245.94
262.407	233.94
262.64	225.94
262.872	213.94
263.105	195.94
263.337	213.94
263.57	190.94
263.802	186.94
264.035	188.94
264.267	204.94
264.499	195.94
264.732	202.94
264.964	199.94
265.197	188.94
265.429	210.94
265.661	204.94
265.894	187.94
266.126	207.94
266.358	167.94
266.591	200.94
266.823	212.94
267.055	206.94
267.287	207.94
267.52	210.94
267.752	214.94
267.984	212.94
268.216	191.94
268.448	189.94
268.681	201.94
268.913	230.94
269.145	242.94
269.377	258.94
269.609	266.94
269.841	271.94
270.073	259.94
270.306	298.94
270.538	294.94
270.77	315.94
271.002	300.94
271.234	288.94
271.466	306.94
271.698	305.94
271.93	312.94
272.162	322.94
272.394	304.94
272.626	301.94
272.858	284.94
273.09	272.94
273.322	269.94
273.553	264.94
273.785	251.94
274.017	230.94
274.249	237.94
274.481	239.94
274.713	258.94
274.945	252.94
275.176	244.94
275.408	242.94
275.64	226.94
275.872	234.94
276.104	250.94
276.335	254.94
276.567	246.94
276.799	256.94
277.031	297.94
277.262	309.94
277.494	296.94
277.726	281.94
277.957	263.94
278.189	260.94
278.421	256.94
278.652	245.94
278.884	242.94
279.115	233.94
279.347	237.94
279.579	238.94
279.81	214.94
280.042	222.94
280.273	240.94
280.505	246.94
280.736	242.94
280.968	238.94
281.199	229.94
281.431	218.94
281.662	224.94
281.894	243.94
282.125	235.94
282.356	246.94
282.588	279.94
282.819	295.94
283.051	242.94
283.282	228.94
283.513	229.94
283.745	241.94
283.976	232.94
284.207	226.94
284.439	228.94
284.67	218.94
284.901	245.94
285.132	233.94
285.364	216.94
285.595	214.94
285.826	239.94
286.057	237.94
286.288	246.94
286.52	227.94
286.751	249.94
286.982	237.94
287.213	230.94
287.444	236.94
287.675	252.94
287.906	246.94
288.138	250.94
288.369	261.94
288.6	246.94
288.831	252.94
289.062	241.94
289.293	258.94
289.524	238.94
289.755	259.94
289.986	258.94
290.217	234.94
290.448	235.94
290.679	222.94
290.91	238.94
291.141	246.94
291.371	245.94
291.602	237.94
291.833	220.94
292.064	237.94
292.295	238.94
292.526	237.94
292.757	247.94
292.987	244.94
293.218	235.94
293.449	239.94
293.68	237.94
293.91	259.94
294.141	237.94
294.372	246.94
294.603	237.94
294.833	230.94
295.064	236.94
295.295	242.94
295.525	239.94
295.756	244.94
295.987	260.94
296.217	308.94
296.448	301.94
296.679	252.94
296.909	249.94
297.14	242.94
297.37	246.94
297.601	247.94
297.831	255.94
298.062	237.94
298.292	242.94
298.523	242.94
298.753	248.94
298.984	270.94
299.214	246.94
299.445	238.94
299.675	249.94
299.905	264.94
300.136	279.94
300.366	259.94
300.597	246.94
300.827	257.94
301.057	286.94
301.288	281.94
301.518	272.94
301.748	278.94
301.979	266.94
302.209	266.94
302.439	255.94
302.669	278.94
302.9	270.94
303.13	267.94
303.36	253.94
303.59	269.94
303.82	288.94
304.051	310.94
304.281	283.94
304.511	268.94
304.741	256.94
304.971	288.94
305.201	270.94
305.431	265.94
305.661	266.94
305.891	263.94
306.121	283.94
306.352	282.94
306.582	298.94
306.812	284.94
307.042	265.94
307.272	281.94
307.502	272.94
307.731	287.94
307.961	291.94
308.191	273.94
308.421	294.94
308.651	282.94
308.881	287.94
309.111	303.94
309.341	304.94
309.571	302.94
309.8	330.94
310.03	341.94
310.26	346.94
310.49	332.94
310.72	349.94
310.949	379.94
311.179	376.94
311.409	376.94
311.639	351.94
311.868	332.94
312.098	354.94
312.328	360.94
312.557	374.94
312.787	386.94
313.017	393.94
313.246	358.94
313.476	355.94
313.706	326.94
313.935	356.94
314.165	372.94
314.394	376.94
314.624	372.94
314.853	365.94
315.083	347.94
315.312	358.94
315.542	318.94
315.771	324.94
316.001	329.94
316.23	336.94
316.46	313.94
316.689	328.94
316.919	335.94
317.148	359.94
317.377	344.94
317.607	340.94
317.836	335.94
318.065	322.94
318.295	316.94
318.524	348.94
318.753	311.94
318.983	316.94
319.212	344.94
319.441	353.94
319.67	371.94
319.9	351.94
320.129	332.94
320.358	348.94
320.587	343.94
320.816	357.94
321.046	375.94
321.275	384.94
321.504	388.94
321.733	375.94
321.962	385.94
322.191	398.94
322.42	414.94
322.649	458.94
322.878	482.94
323.108	466.94
323.337	498.94
323.566	550.94
323.795	602.94
324.024	677.94
324.253	856.94
324.482	1287.94
324.71	1928.94
324.939	2705.94
325.168	2407.94
325.397	1297.94
325.626	845.94
325.855	654.94
326.084	603.94
326.313	552.94
326.542	532.94
326.77	603.94
326.999	776.94
327.228	1105.94
327.457	1662.94
327.686	2036.94
327.914	1413.94
328.143	911.94
328.372	749.94
328.6	692.94
328.829	636.94
329.058	655.94
329.287	682.94
329.515	631.94
329.744	524.94
329.972	520.94
330.201	512.94
330.43	550.94
330.658	614.94
330.887	692.94
331.115	696.94
331.344	538.94
331.572	512.94
331.801	504.94
332.03	475.94
332.258	449.94
332.486	414.94
332.715	419.94
332.943	386.94
333.172	397.94
333.4	398.94
333.629	388.94
333.857	411.94
334.085	403.94
334.314	404.94
334.542	371.94
334.771	421.94
334.999	399.94
335.227	395.94
335.455	388.94
335.684	387.94
335.912	380.94
336.14	378.94
336.369	377.94
336.597	416.94
336.825	381.94
337.053	394.94
337.281	384.94
337.51	371.94
337.738	374.94
337.966	403.94
338.194	396.94
338.422	416.94
338.65	390.94
338.878	398.94
339.106	362.94
339.334	370.94
339.562	367.94
339.79	380.94
340.018	369.94
340.246	385.94
340.474	380.94
340.702	389.94
340.93	381.94
341.158	370.94
341.386	373.94
341.614	400.94
341.842	376.94
342.07	368.94
342.298	364.94
342.526	365.94
342.754	354.94
342.981	340.94
343.209	345.94
343.437	349.94
343.665	339.94
343.893	359.94
344.12	378.94
344.348	372.94
344.576	379.94
344.804	373.94
345.031	387.94
345.259	425.94
345.487	409.94
345.714	387.94
345.942	394.94
346.17	377.94
346.397	378.94
346.625	357.94
346.853	362.94
347.08	388.94
347.308	372.94
347.535	407.94
347.763	412.94
347.99	408.94
348.218	384.94
348.445	401.94
348.673	410.94
348.9	382.94
349.128	371.94
349.355	365.94
349.583	372.94
349.81	359.94
350.037	357.94
350.265	351.94
350.492	335.94
350.72	368.94
350.947	381.94
351.174	370.94
351.402	410.94
351.629	382.94
351.856	406.94
352.083	406.94
352.311	415.94
352.538	412.94
352.765	403.94
352.992	387.94
353.22	410.94
353.447	395.94
353.674	361.94
353.901	349.94
354.128	338.94
354.355	344.94
354.583	346.94
354.81	340.94
355.037	318.94
355.264	319.94
355.491	308.94
355.718	320.94
355.945	321.94
356.172	326.94
356.399	329.94
356.626	323.94
356.853	342.94
357.08	350.94
357.307	323.94
357.534	332.94
357.761	328.94
357.988	334.94
358.215	326.94
358.441	346.94
358.668	333.94
358.895	336.94
359.122	355.94
359.349	365.94
359.576	379.94
359.802	420.94
360.029	456.94
360.256	492.94
360.483	469.94
360.709	413.94
360.936	393.94
361.163	379.94
361.39	377.94
361.616	408.94
361.843	377.94
362.07	370.94
362.296	402.94
362.523	394.94
362.749	380.94
362.976	382.94
363.203	373.94
363.429	356.94
363.656	356.94
363.882	352.94
364.109	346.94
364.335	336.94
364.562	349.94
364.788	350.94
365.015	361.94
365.241	353.94
365.468	362.94
365.694	368.94
365.92	355.94
366.147	353.94
366.373	332.94
366.599	337.94
366.826	345.94
367.052	341.94
367.278	340.94
367.505	339.94
367.731	365.94
367.957	333.94
368.184	363.94
368.41	350.94
368.636	364.94
368.862	372.94
369.089	355.94
369.315	346.94
369.541	366.94
369.767	326.94
369.993	331.94
370.219	346.94
370.445	326.94
370.672	326.94
370.898	323.94
371.124	333.94
371.35	333.94
371.576	318.94
371.802	318.94
372.028	312.94
372.254	335.94
372.48	325.94
372.706	339.94
372.932	332.94
373.158	326.94
373.384	339.94
373.61	330.94
373.835	325.94
374.061	336.94
374.287	316.94
374.513	332.94
374.739	334.94
374.965	330.94
375.191	324.94
375.416	326.94
375.642	310.94
375.868	343.94
376.094	335.94
376.319	344.94
376.545	308.94
376.771	325.94
376.997	312.94
377.222	345.94
377.448	333.94
377.674	320.94
377.899	331.94
378.125	332.94
378.35	337.94
378.576	347.94
378.802	337.94
379.027	328.94
379.253	302.94
379.478	298.94
379.704	336.94
379.929	324.94
380.155	328.94
380.38	334.94
380.606	325.94
380.831	346.94
381.057	337.94
381.282	346.94
381.507	339.94
381.733	330.94
381.958	313.94
382.184	320.94
382.409	350.94
382.634	346.94
382.86	343.94
383.085	327.94
383.31	351.94
383.535	333.94
383.761	346.94
383.986	342.94
384.211	313.94
384.436	354.94
384.662	325.94
384.887	340.94
385.112	328.94
385.337	349.94
385.562	346.94
385.787	359.94
386.013	346.94
386.238	361.94
386.463	359.94
386.688	356.94
386.913	340.94
387.138	346.94
387.363	337.94
387.588	363.94
387.813	332.94
388.038	346.94
388.263	335.94
388.488	352.94
388.713	343.94
388.938	363.94
389.163	371.94
389.387	349.94
389.612	357.94
389.837	360.94
390.062	349.94
390.287	350.94
390.512	339.94
390.736	333.94
390.961	341.94
391.186	347.94
391.411	337.94
391.636	352.94
391.86	346.94
392.085	339.94
392.31	350.94
392.534	358.94
392.759	350.94
392.984	339.94
393.208	352.94
393.433	346.94
393.658	346.94
393.882	360.94
394.107	347.94
394.331	346.94
394.556	342.94
394.78	340.94
395.005	336.94
395.229	341.94
395.454	354.94
395.678	364.94
395.903	372.94
396.127	393.94
396.352	410.94
396.576	375.94
396.801	375.94
397.025	357.94
397.249	371.94
397.474	380.94
397.698	361.94
397.922	401.94
398.147	419.94
398.371	411.94
398.595	382.94
398.82	367.94
399.044	390.94
399.268	380.94
399.492	398.94
399.717	429.94
399.941	456.94
400.165	486.94
400.389	503.94
400.613	473.94
400.837	419.94
401.062	401.94
401.286	408.94
401.51	416.94
401.734	395.94
401.958	396.94
402.182	419.94
402.406	424.94
402.63	427.94
402.854	426.94
403.078	411.94
403.302	401.94
403.526	416.94
403.75	447.94
403.974	440.94
404.198	422.94
404.422	437.94
404.645	406.94
404.869	427.94
405.093	449.94
405.317	450.94
405.541	504.94
405.765	447.94
405.988	450.94
406.212	450.94
406.436	503.94
406.66	495.94
406.883	476.94
407.107	508.94
407.331	527.94
407.555	607.94
407.778	603.94
408.002	514.94
408.226	495.94
408.449	458.94
408.673	472.94
408.896	502.94
409.12	547.94
409.344	528.94
409.567	440.94
409.791	437.94
410.014	425.94
410.238	414.94
410.461	418.94
410.685	442.94
410.908	457.94
411.132	480.94
411.355	523.94
411.578	491.94
411.802	446.94
412.025	431.94
412.249	426.94
412.472	430.94
412.695	443.94
412.919	434.94
413.142	405.94
413.365	416.94
413.589	412.94
413.812	408.94
414.035	387.94
414.258	394.94
414.482	421.94
414.705	393.94
414.928	383.94
415.151	396.94
415.374	386.94
415.597	392.94
415.821	387.94
416.044	397.94
416.267	413.94
416.49	399.94
416.713	418.94
416.936	399.94
417.159	423.94
417.382	406.94
417.605	415.94
417.828	422.94
418.051	459.94
418.274	445.94
418.497	413.94
418.72	417.94
418.943	394.94
419.166	398.94
419.389	435.94
419.611	420.94
419.834	430.94
420.057	434.94
420.28	422.94
420.503	413.94
420.726	438.94
420.948	470.94
421.171	487.94
421.394	513.94
421.617	455.94
421.839	440.94
422.062	451.94
422.285	483.94
422.507	531.94
422.73	582.94
422.953	588.94
423.175	495.94
423.398	480.94
423.621	484.94
423.843	487.94
424.066	510.94
424.288	486.94
424.511	524.94
424.733	574.94
424.956	652.94
425.178	640.94
425.401	618.94
425.623	630.94
425.846	549.94
426.068	484.94
426.291	504.94
426.513	475.94
426.735	566.94
426.958	586.94
427.18	652.94
427.402	772.94
427.625	892.94
427.847	835.94
428.069	642.94
428.292	593.94
428.514	524.94
428.736	526.94
428.958	505.94
429.181	482.94
429.403	463.94
429.625	468.94
429.847	534.94
430.069	589.94
430.292	574.94
430.514	502.94
430.736	480.94
430.958	479.94
431.18	439.94
431.402	436.94
431.624	399.94
431.846	410.94
432.068	431.94
432.29	429.94
432.512	432.94
432.734	448.94
432.956	435.94
433.178	452.94
433.4	451.94
433.622	438.94
433.844	447.94
434.066	415.94
434.287	419.94
434.509	407.94
434.731	434.94
434.953	468.94
435.175	472.94
435.397	480.94
435.618	491.94
435.84	564.94
436.062	654.94
436.284	725.94
436.505	603.94
436.727	539.94
436.949	490.94
437.17	488.94
437.392	490.94
437.614	511.94
437.835	542.94
438.057	662.94
438.278	758.94
438.5	749.94
438.721	782.94
438.943	749.94
439.165	597.94
439.386	573.94
439.608	532.94
439.829	575.94
440.05	608.94
440.272	630.94
440.493	600.94
440.715	548.94
440.936	518.94
441.158	487.94
441.379	492.94
441.6	481.94
441.822	520.94
442.043	548.94
442.264	638.94
442.486	712.94
442.707	637.94
442.928	541.94
443.149	561.94
443.371	575.94
443.592	640.94
443.813	692.94
444.034	747.94
444.255	619.94
444.476	556.94
444.698	550.94
444.919	520.94
445.14	591.94
445.361	559.94
445.582	547.94
445.803	644.94
446.024	716.94
446.245	723.94
446.466	687.94
446.687	588.94
446.908	550.94
447.129	511.94
447.35	502.94
447.571	482.94
447.792	470.94
448.013	508.94
448.234	536.94
448.455	579.94
448.675	692.94
448.896	780.94
449.117	692.94
449.338	628.94
449.559	726.94
449.779	811.94
450	664.94
450.221	558.94
450.442	534.94
450.662	515.94
450.883	522.94
451.104	548.94
451.324	528.94
451.545	490.94
451.766	478.94
451.986	456.94
452.207	453.94
452.428	433.94
452.648	416.94
452.869	452.94
453.089	464.94
453.31	468.94
453.53	455.94
453.751	424.94
453.971	457.94
454.192	494.94
454.412	491.94
454.633	434.94
454.853	433.94
455.073	432.94
455.294	491.94
455.514	528.94
455.734	556.94
455.955	435.94
456.175	415.94
456.395	397.94
456.616	399.94
456.836	414.94
457.056	405.94
457.276	386.94
457.497	396.94
457.717	399.94
457.937	426.94
458.157	420.94
458.377	417.94
458.598	450.94
458.818	543.94
459.038	651.94
459.258	687.94
459.478	516.94
459.698	478.94
459.918	452.94
460.138	453.94
460.358	413.94
460.578	435.94
460.798	428.94
461.018	441.94
461.238	429.94
461.458	396.94
461.678	416.94
461.898	418.94
462.118	403.94
462.338	425.94
462.558	424.94
462.777	414.94
462.997	406.94
463.217	429.94
463.437	442.94
463.657	428.94
463.876	427.94
464.096	447.94
464.316	439.94
464.536	453.94
464.755	467.94
464.975	479.94
465.195	559.94
465.414	721.94
465.634	572.94
465.854	498.94
466.073	486.94
466.293	453.94
466.512	439.94
466.732	448.94
466.951	430.94
467.171	424.94
467.391	441.94
467.61	439.94
467.829	474.94
468.049	454.94
468.268	437.94
468.488	421.94
468.707	426.94
468.927	392.94
469.146	403.94
469.365	421.94
469.585	403.94
469.804	425.94
470.023	454.94
470.243	432.94
470.462	454.94
470.681	475.94
470.901	473.94
471.12	450.94
471.339	429.94
471.558	426.94
471.777	428.94
471.997	416.94
472.216	412.94
472.435	404.94
472.654	411.94
472.873	421.94
473.092	414.94
473.311	410.94
473.53	438.94
473.749	436.94
473.968	520.94
474.187	613.94
474.406	652.94
474.625	522.94
474.844	454.94
475.063	438.94
475.282	415.94
475.501	414.94
475.72	437.94
475.939	423.94
476.158	444.94
476.377	450.94
476.596	454.94
476.814	453.94
477.033	448.94
477.252	463.94
477.471	459.94
477.69	478.94
477.908	453.94
478.127	467.94
478.346	470.94
478.564	491.94
478.783	483.94
479.002	470.94
479.22	498.94
479.439	514.94
479.658	533.94
479.876	544.94
480.095	545.94
480.313	542.94
480.532	517.94
480.751	550.94
480.969	523.94
481.188	547.94
481.406	542.94
481.624	528.94
481.843	531.94
482.061	516.94
482.28	515.94
482.498	503.94
482.717	514.94
482.935	488.94
483.153	488.94
483.372	493.94
483.59	504.94
483.808	518.94
484.027	520.94
484.245	510.94
484.463	551.94
484.681	532.94
484.9	523.94
485.118	528.94
485.336	533.94
485.554	528.94
485.772	542.94
485.99	515.94
486.209	546.94
486.427	555.94
486.645	551.94
486.863	564.94
487.081	576.94
487.299	562.94
487.517	563.94
487.735	565.94
487.953	556.94
488.171	558.94
488.389	578.94
488.607	568.94
488.825	560.94
489.043	570.94
489.261	562.94
489.479	575.94
489.696	574.94
489.914	569.94
490.132	580.94
490.35	591.94
490.568	569.94
490.786	606.94
491.003	593.94
491.221	614.94
491.439	610.94
491.657	652.94
491.874	655.94
492.092	653.94
492.31	654.94
492.527	639.94
492.745	663.94
492.963	664.94
493.18	672.94
493.398	641.94
493.615	677.94
493.833	650.94
494.05	676.94
494.268	674.94
494.485	677.94
494.703	684.94
494.92	676.94
495.138	662.94
495.355	644.94
495.573	672.94
495.79	683.94
496.008	680.94
496.225	711.94
496.442	673.94
496.66	674.94
496.877	681.94
497.094	692.94
497.312	664.94
497.529	668.94
497.746	703.94
497.963	708.94
498.181	713.94
498.398	716.94
498.615	742.94
498.832	761.94
499.049	723.94
499.267	724.94
499.484	733.94
499.701	734.94
499.918	762.94
500.135	759.94
500.352	804.94
500.569	786.94
500.786	769.94
501.003	798.94
501.22	799.94
501.437	806.94
501.654	793.94
501.871	842.94
