Data from 1987.PennyLincolnUp.Lamp.En5.5.200Scan.071819.P2_HRD10591_17-15-18-971.txt Node
Date: Thu Jul 18 17:15:18 EDT 2019
User: cochatt
Spectrometer: HR+D1059
Trigger mode: 1
Integration Time (sec): 1.000000E-1
Scans to average: 1
Electric dark correction enabled: true
Nonlinearity correction enabled: false
Boxcar width: 0
XAxis mode: Wavelengths
Number of Pixels in Spectrum: 2048
>>>>>Begin Spectral Data<<<<<
223.165	-18.38
223.4	-18.38
223.635	-18.38
223.869	-12.38
224.104	-15.38
224.338	-14.38
224.573	-24.38
224.808	0.62
225.042	-12.38
225.277	-7.38
225.511	-13.38
225.746	15.62
225.98	9.62
226.215	-1.38
226.449	15.62
226.683	30.62
226.918	26.62
227.152	20.62
227.387	50.62
227.621	44.62
227.856	51.62
228.09	47.62
228.324	49.62
228.559	49.62
228.793	71.62
229.027	115.62
229.262	116.62
229.496	119.62
229.73	128.62
229.964	159.62
230.199	153.62
230.433	124.62
230.667	108.62
230.901	131.62
231.136	113.62
231.37	115.62
231.604	105.62
231.838	119.62
232.072	120.62
232.306	127.62
232.541	107.62
232.775	113.62
233.009	120.62
233.243	115.62
233.477	116.62
233.711	113.62
233.945	107.62
234.179	124.62
234.413	124.62
234.647	106.62
234.881	107.62
235.115	119.62
235.349	120.62
235.583	117.62
235.817	124.62
236.051	129.62
236.285	129.62
236.519	116.62
236.753	134.62
236.987	164.62
237.221	189.62
237.455	265.62
237.689	185.62
237.922	161.62
238.156	135.62
238.39	114.62
238.624	133.62
238.858	128.62
239.091	102.62
239.325	110.62
239.559	142.62
239.793	128.62
240.027	161.62
240.26	146.62
240.494	162.62
240.728	143.62
240.961	145.62
241.195	150.62
241.429	141.62
241.662	129.62
241.896	130.62
242.13	117.62
242.363	125.62
242.597	139.62
242.83	123.62
243.064	130.62
243.298	133.62
243.531	141.62
243.765	137.62
243.998	135.62
244.232	135.62
244.465	136.62
244.699	118.62
244.932	139.62
245.166	144.62
245.399	141.62
245.633	131.62
245.866	124.62
246.099	123.62
246.333	145.62
246.566	143.62
246.8	157.62
247.033	161.62
247.266	149.62
247.5	137.62
247.733	163.62
247.966	169.62
248.2	176.62
248.433	161.62
248.666	152.62
248.899	184.62
249.133	195.62
249.366	211.62
249.599	206.62
249.832	188.62
250.066	177.62
250.299	193.62
250.532	161.62
250.765	204.62
250.998	215.62
251.231	211.62
251.465	207.62
251.698	204.62
251.931	203.62
252.164	198.62
252.397	195.62
252.63	191.62
252.863	200.62
253.096	209.62
253.329	209.62
253.562	229.62
253.795	218.62
254.028	199.62
254.261	228.62
254.494	230.62
254.727	243.62
254.96	277.62
255.193	273.62
255.426	250.62
255.659	227.62
255.892	230.62
256.124	205.62
256.357	218.62
256.59	188.62
256.823	203.62
257.056	206.62
257.289	208.62
257.521	202.62
257.754	201.62
257.987	189.62
258.22	189.62
258.452	210.62
258.685	201.62
258.918	191.62
259.151	204.62
259.383	212.62
259.616	213.62
259.849	228.62
260.081	228.62
260.314	244.62
260.547	246.62
260.779	231.62
261.012	235.62
261.244	237.62
261.477	228.62
261.71	193.62
261.942	209.62
262.175	229.62
262.407	236.62
262.64	210.62
262.872	210.62
263.105	221.62
263.337	187.62
263.57	196.62
263.802	194.62
264.035	187.62
264.267	191.62
264.499	203.62
264.732	188.62
264.964	198.62
265.197	172.62
265.429	188.62
265.661	187.62
265.894	190.62
266.126	166.62
266.358	199.62
266.591	204.62
266.823	204.62
267.055	215.62
267.287	219.62
267.52	197.62
267.752	204.62
267.984	217.62
268.216	214.62
268.448	215.62
268.681	198.62
268.913	212.62
269.145	243.62
269.377	267.62
269.609	250.62
269.841	239.62
270.073	256.62
270.306	274.62
270.538	297.62
270.77	296.62
271.002	281.62
271.234	294.62
271.466	284.62
271.698	289.62
271.93	317.62
272.162	308.62
272.394	299.62
272.626	289.62
272.858	276.62
273.09	259.62
273.322	263.62
273.553	250.62
273.785	249.62
274.017	227.62
274.249	229.62
274.481	234.62
274.713	252.62
274.945	252.62
275.176	228.62
275.408	257.62
275.64	237.62
275.872	232.62
276.104	238.62
276.335	257.62
276.567	251.62
276.799	268.62
277.031	286.62
277.262	292.62
277.494	296.62
277.726	274.62
277.957	272.62
278.189	242.62
278.421	252.62
278.652	219.62
278.884	233.62
279.115	245.62
279.347	236.62
279.579	236.62
279.81	229.62
280.042	226.62
280.273	242.62
280.505	223.62
280.736	213.62
280.968	208.62
281.199	233.62
281.431	233.62
281.662	234.62
281.894	222.62
282.125	226.62
282.356	254.62
282.588	289.62
282.819	291.62
283.051	241.62
283.282	229.62
283.513	235.62
283.745	238.62
283.976	237.62
284.207	222.62
284.439	247.62
284.67	224.62
284.901	241.62
285.132	228.62
285.364	226.62
285.595	243.62
285.826	229.62
286.057	242.62
286.288	228.62
286.52	241.62
286.751	224.62
286.982	233.62
287.213	230.62
287.444	248.62
287.675	238.62
287.906	236.62
288.138	261.62
288.369	253.62
288.6	250.62
288.831	245.62
289.062	240.62
289.293	261.62
289.524	239.62
289.755	234.62
289.986	229.62
290.217	223.62
290.448	227.62
290.679	258.62
290.91	232.62
291.141	230.62
291.371	214.62
291.602	230.62
291.833	242.62
292.064	232.62
292.295	242.62
292.526	232.62
292.757	233.62
292.987	233.62
293.218	235.62
293.449	233.62
293.68	234.62
293.91	234.62
294.141	238.62
294.372	228.62
294.603	242.62
294.833	259.62
295.064	252.62
295.295	243.62
295.525	237.62
295.756	245.62
295.987	263.62
296.217	287.62
296.448	284.62
296.679	258.62
296.909	237.62
297.14	227.62
297.37	243.62
297.601	219.62
297.831	243.62
298.062	241.62
298.292	253.62
298.523	253.62
298.753	233.62
298.984	257.62
299.214	250.62
299.445	250.62
299.675	260.62
299.905	238.62
300.136	265.62
300.366	253.62
300.597	270.62
300.827	281.62
301.057	267.62
301.288	288.62
301.518	272.62
301.748	268.62
301.979	266.62
302.209	261.62
302.439	263.62
302.669	265.62
302.9	277.62
303.13	259.62
303.36	262.62
303.59	271.62
303.82	275.62
304.051	282.62
304.281	261.62
304.511	267.62
304.741	263.62
304.971	254.62
305.201	257.62
305.431	275.62
305.661	270.62
305.891	272.62
306.121	289.62
306.352	278.62
306.582	297.62
306.812	291.62
307.042	264.62
307.272	258.62
307.502	277.62
307.731	261.62
307.961	286.62
308.191	283.62
308.421	283.62
308.651	279.62
308.881	283.62
309.111	292.62
309.341	292.62
309.571	307.62
309.8	343.62
310.03	342.62
310.26	316.62
310.49	347.62
310.72	350.62
310.949	403.62
311.179	384.62
311.409	362.62
311.639	326.62
311.868	349.62
312.098	339.62
312.328	343.62
312.557	366.62
312.787	402.62
313.017	395.62
313.246	360.62
313.476	339.62
313.706	336.62
313.935	354.62
314.165	357.62
314.394	381.62
314.624	385.62
314.853	354.62
315.083	343.62
315.312	337.62
315.542	305.62
315.771	323.62
316.001	335.62
316.23	329.62
316.46	314.62
316.689	357.62
316.919	331.62
317.148	356.62
317.377	349.62
317.607	327.62
317.836	330.62
318.065	321.62
318.295	331.62
318.524	317.62
318.753	326.62
318.983	335.62
319.212	324.62
319.441	356.62
319.67	358.62
319.9	343.62
320.129	327.62
320.358	337.62
320.587	334.62
320.816	363.62
321.046	377.62
321.275	359.62
321.504	380.62
321.733	356.62
321.962	369.62
322.191	399.62
322.42	426.62
322.649	437.62
322.878	449.62
323.108	471.62
323.337	486.62
323.566	550.62
323.795	564.62
324.024	637.62
324.253	824.62
324.482	1210.62
324.71	1875.62
324.939	2606.62
325.168	2295.62
325.397	1249.62
325.626	793.62
325.855	634.62
326.084	566.62
326.313	520.62
326.542	545.62
326.77	627.62
326.999	740.62
327.228	1051.62
327.457	1611.62
327.686	1973.62
327.914	1348.62
328.143	846.62
328.372	706.62
328.6	671.62
328.829	615.62
329.058	626.62
329.287	663.62
329.515	573.62
329.744	519.62
329.972	503.62
330.201	505.62
330.43	515.62
330.658	601.62
330.887	642.62
331.115	671.62
331.344	523.62
331.572	492.62
331.801	486.62
332.03	497.62
332.258	441.62
332.486	397.62
332.715	365.62
332.943	382.62
333.172	391.62
333.4	386.62
333.629	383.62
333.857	379.62
334.085	397.62
334.314	393.62
334.542	379.62
334.771	399.62
334.999	389.62
335.227	399.62
335.455	386.62
335.684	395.62
335.912	388.62
336.14	351.62
336.369	373.62
336.597	366.62
336.825	389.62
337.053	387.62
337.281	356.62
337.51	354.62
337.738	355.62
337.966	373.62
338.194	384.62
338.422	393.62
338.65	378.62
338.878	350.62
339.106	355.62
339.334	360.62
339.562	344.62
339.79	371.62
340.018	357.62
340.246	376.62
340.474	393.62
340.702	387.62
340.93	369.62
341.158	362.62
341.386	366.62
341.614	384.62
341.842	387.62
342.07	372.62
342.298	378.62
342.526	355.62
342.754	363.62
342.981	332.62
343.209	332.62
343.437	371.62
343.665	371.62
343.893	352.62
344.12	359.62
344.348	366.62
344.576	375.62
344.804	382.62
345.031	381.62
345.259	397.62
345.487	393.62
345.714	388.62
345.942	345.62
346.17	373.62
346.397	353.62
346.625	350.62
346.853	364.62
347.08	366.62
347.308	382.62
347.535	378.62
347.763	380.62
347.99	400.62
348.218	392.62
348.445	387.62
348.673	383.62
348.9	378.62
349.128	358.62
349.355	343.62
349.583	362.62
349.81	352.62
350.037	328.62
350.265	356.62
350.492	359.62
350.72	363.62
350.947	354.62
351.174	380.62
351.402	377.62
351.629	391.62
351.856	369.62
352.083	397.62
352.311	423.62
352.538	407.62
352.765	389.62
352.992	411.62
353.22	395.62
353.447	373.62
353.674	368.62
353.901	351.62
354.128	354.62
354.355	330.62
354.583	347.62
354.81	331.62
355.037	330.62
355.264	335.62
355.491	323.62
355.718	302.62
355.945	314.62
356.172	340.62
356.399	331.62
356.626	329.62
356.853	326.62
357.08	328.62
357.307	349.62
357.534	348.62
357.761	307.62
357.988	319.62
358.215	313.62
358.441	319.62
358.668	346.62
358.895	353.62
359.122	363.62
359.349	363.62
359.576	405.62
359.802	418.62
360.029	461.62
360.256	483.62
360.483	423.62
360.709	394.62
360.936	374.62
361.163	393.62
361.39	377.62
361.616	399.62
361.843	370.62
362.07	395.62
362.296	393.62
362.523	388.62
362.749	366.62
362.976	357.62
363.203	347.62
363.429	334.62
363.656	364.62
363.882	351.62
364.109	346.62
364.335	344.62
364.562	353.62
364.788	352.62
365.015	347.62
365.241	339.62
365.468	373.62
365.694	361.62
365.92	351.62
366.147	359.62
366.373	366.62
366.599	342.62
366.826	333.62
367.052	337.62
367.278	334.62
367.505	349.62
367.731	345.62
367.957	343.62
368.184	332.62
368.41	347.62
368.636	347.62
368.862	347.62
369.089	347.62
369.315	359.62
369.541	333.62
369.767	337.62
369.993	327.62
370.219	330.62
370.445	348.62
370.672	334.62
370.898	319.62
371.124	335.62
371.35	328.62
371.576	326.62
371.802	319.62
372.028	313.62
372.254	328.62
372.48	338.62
372.706	346.62
372.932	323.62
373.158	330.62
373.384	322.62
373.61	338.62
373.835	353.62
374.061	332.62
374.287	337.62
374.513	344.62
374.739	337.62
374.965	326.62
375.191	334.62
375.416	333.62
375.642	342.62
375.868	341.62
376.094	330.62
376.319	339.62
376.545	320.62
376.771	325.62
376.997	341.62
377.222	359.62
377.448	338.62
377.674	335.62
377.899	308.62
378.125	332.62
378.35	324.62
378.576	317.62
378.802	309.62
379.027	313.62
379.253	314.62
379.478	312.62
379.704	321.62
379.929	341.62
380.155	329.62
380.38	332.62
380.606	316.62
380.831	325.62
381.057	347.62
381.282	317.62
381.507	336.62
381.733	343.62
381.958	342.62
382.184	351.62
382.409	342.62
382.634	339.62
382.86	329.62
383.085	350.62
383.31	339.62
383.535	335.62
383.761	335.62
383.986	328.62
384.211	341.62
384.436	371.62
384.662	358.62
384.887	326.62
385.112	339.62
385.337	363.62
385.562	352.62
385.787	350.62
386.013	365.62
386.238	357.62
386.463	344.62
386.688	381.62
386.913	321.62
387.138	342.62
387.363	360.62
387.588	369.62
387.813	342.62
388.038	365.62
388.263	359.62
388.488	358.62
388.713	343.62
388.938	358.62
389.163	336.62
389.387	341.62
389.612	337.62
389.837	353.62
390.062	343.62
390.287	371.62
390.512	343.62
390.736	339.62
390.961	339.62
391.186	346.62
391.411	339.62
391.636	340.62
391.86	332.62
392.085	357.62
392.31	355.62
392.534	340.62
392.759	354.62
392.984	357.62
393.208	349.62
393.433	353.62
393.658	370.62
393.882	335.62
394.107	353.62
394.331	339.62
394.556	344.62
394.78	352.62
395.005	358.62
395.229	343.62
395.454	358.62
395.678	379.62
395.903	375.62
396.127	396.62
396.352	389.62
396.576	372.62
396.801	376.62
397.025	367.62
397.249	352.62
397.474	362.62
397.698	362.62
397.922	379.62
398.147	377.62
398.371	394.62
398.595	394.62
398.82	392.62
399.044	385.62
399.268	382.62
399.492	422.62
399.717	407.62
399.941	433.62
400.165	474.62
400.389	516.62
400.613	470.62
400.837	422.62
401.062	423.62
401.286	400.62
401.51	415.62
401.734	411.62
401.958	403.62
402.182	391.62
402.406	411.62
402.63	420.62
402.854	418.62
403.078	414.62
403.302	431.62
403.526	415.62
403.75	413.62
403.974	407.62
404.198	414.62
404.422	414.62
404.645	427.62
404.869	418.62
405.093	445.62
405.317	473.62
405.541	489.62
405.765	469.62
405.988	452.62
406.212	461.62
406.436	492.62
406.66	518.62
406.883	493.62
407.107	482.62
407.331	507.62
407.555	601.62
407.778	590.62
408.002	521.62
408.226	497.62
408.449	504.62
408.673	469.62
408.896	504.62
409.12	570.62
409.344	509.62
409.567	463.62
409.791	448.62
410.014	423.62
410.238	437.62
410.461	458.62
410.685	436.62
410.908	457.62
411.132	498.62
411.355	531.62
411.578	485.62
411.802	426.62
412.025	425.62
412.249	433.62
412.472	435.62
412.695	430.62
412.919	439.62
413.142	407.62
413.365	403.62
413.589	402.62
413.812	396.62
414.035	395.62
414.258	413.62
414.482	374.62
414.705	394.62
414.928	408.62
415.151	395.62
415.374	411.62
415.597	393.62
415.821	393.62
416.044	407.62
416.267	389.62
416.49	385.62
416.713	380.62
416.936	404.62
417.159	405.62
417.382	406.62
417.605	415.62
417.828	440.62
418.051	439.62
418.274	420.62
418.497	410.62
418.72	399.62
418.943	417.62
419.166	407.62
419.389	451.62
419.611	421.62
419.834	418.62
420.057	436.62
420.28	433.62
420.503	412.62
420.726	425.62
420.948	448.62
421.171	497.62
421.394	542.62
421.617	476.62
421.839	424.62
422.062	434.62
422.285	458.62
422.507	538.62
422.73	590.62
422.953	573.62
423.175	522.62
423.398	473.62
423.621	464.62
423.843	462.62
424.066	489.62
424.288	497.62
424.511	509.62
424.733	553.62
424.956	657.62
425.178	651.62
425.401	627.62
425.623	665.62
425.846	574.62
426.068	515.62
426.291	500.62
426.513	526.62
426.735	519.62
426.958	551.62
427.18	645.62
427.402	738.62
427.625	834.62
427.847	818.62
428.069	656.62
428.292	578.62
428.514	519.62
428.736	507.62
428.958	497.62
429.181	490.62
429.403	487.62
429.625	488.62
429.847	523.62
430.069	583.62
430.292	591.62
430.514	513.62
430.736	453.62
430.958	441.62
431.18	433.62
431.402	418.62
431.624	425.62
431.846	441.62
432.068	426.62
432.29	440.62
432.512	426.62
432.734	447.62
432.956	457.62
433.178	441.62
433.4	448.62
433.622	455.62
433.844	441.62
434.066	431.62
434.287	435.62
434.509	426.62
434.731	441.62
434.953	425.62
435.175	462.62
435.397	511.62
435.618	490.62
435.84	535.62
436.062	645.62
436.284	709.62
436.505	617.62
436.727	541.62
436.949	510.62
437.17	497.62
437.392	503.62
437.614	490.62
437.835	538.62
438.057	649.62
438.278	761.62
438.5	757.62
438.721	791.62
438.943	737.62
439.165	610.62
439.386	555.62
439.608	518.62
439.829	538.62
440.05	565.62
440.272	619.62
440.493	574.62
440.715	558.62
440.936	521.62
441.158	505.62
441.379	481.62
441.6	484.62
441.822	538.62
442.043	557.62
442.264	653.62
442.486	674.62
442.707	581.62
442.928	557.62
443.149	550.62
443.371	571.62
443.592	614.62
443.813	690.62
444.034	737.62
444.255	638.62
444.476	549.62
444.698	527.62
444.919	498.62
445.14	599.62
445.361	565.62
445.582	549.62
445.803	654.62
446.024	732.62
446.245	723.62
446.466	701.62
446.687	585.62
446.908	503.62
447.129	488.62
447.35	483.62
447.571	481.62
447.792	477.62
448.013	497.62
448.234	517.62
448.455	587.62
448.675	675.62
448.896	759.62
449.117	658.62
449.338	654.62
449.559	705.62
449.779	786.62
450	691.62
450.221	563.62
450.442	502.62
450.662	502.62
450.883	525.62
451.104	526.62
451.324	517.62
451.545	472.62
451.766	468.62
451.986	455.62
452.207	435.62
452.428	426.62
452.648	458.62
452.869	442.62
453.089	460.62
453.31	478.62
453.53	470.62
453.751	468.62
453.971	459.62
454.192	479.62
454.412	478.62
454.633	473.62
454.853	441.62
455.073	433.62
455.294	460.62
455.514	541.62
455.734	520.62
455.955	436.62
456.175	425.62
456.395	406.62
456.616	395.62
456.836	387.62
457.056	405.62
457.276	381.62
457.497	388.62
457.717	391.62
457.937	400.62
458.157	414.62
458.377	413.62
458.598	443.62
458.818	553.62
459.038	655.62
459.258	630.62
459.478	520.62
459.698	465.62
459.918	437.62
460.138	444.62
460.358	436.62
460.578	428.62
460.798	411.62
461.018	420.62
461.238	426.62
461.458	407.62
461.678	414.62
461.898	413.62
462.118	420.62
462.338	437.62
462.558	433.62
462.777	407.62
462.997	423.62
463.217	448.62
463.437	433.62
463.657	442.62
463.876	464.62
464.096	437.62
464.316	444.62
464.536	449.62
464.755	455.62
464.975	487.62
465.195	564.62
465.414	711.62
465.634	603.62
465.854	500.62
466.073	477.62
466.293	464.62
466.512	436.62
466.732	443.62
466.951	420.62
467.171	407.62
467.391	441.62
467.61	455.62
467.829	469.62
468.049	425.62
468.268	445.62
468.488	437.62
468.707	406.62
468.927	405.62
469.146	412.62
469.365	418.62
469.585	394.62
469.804	413.62
470.023	454.62
470.243	470.62
470.462	446.62
470.681	473.62
470.901	472.62
471.12	435.62
471.339	414.62
471.558	437.62
471.777	439.62
471.997	430.62
472.216	420.62
472.435	415.62
472.654	426.62
472.873	410.62
473.092	414.62
473.311	428.62
473.53	435.62
473.749	448.62
473.968	492.62
474.187	592.62
474.406	625.62
474.625	515.62
474.844	463.62
475.063	459.62
475.282	428.62
475.501	429.62
475.72	441.62
475.939	435.62
476.158	447.62
476.377	449.62
476.596	461.62
476.814	453.62
477.033	463.62
477.252	462.62
477.471	458.62
477.69	466.62
477.908	477.62
478.127	473.62
478.346	467.62
478.564	471.62
478.783	494.62
479.002	481.62
479.22	500.62
479.439	512.62
479.658	536.62
479.876	526.62
480.095	544.62
480.313	567.62
480.532	554.62
480.751	521.62
480.969	527.62
481.188	536.62
481.406	549.62
481.624	524.62
481.843	505.62
482.061	507.62
482.28	517.62
482.498	513.62
482.717	514.62
482.935	508.62
483.153	514.62
483.372	494.62
483.59	509.62
483.808	505.62
484.027	533.62
484.245	520.62
484.463	537.62
484.681	540.62
484.9	524.62
485.118	528.62
485.336	503.62
485.554	527.62
485.772	523.62
485.99	540.62
486.209	527.62
486.427	551.62
486.645	550.62
486.863	566.62
487.081	579.62
487.299	557.62
487.517	565.62
487.735	534.62
487.953	576.62
488.171	564.62
488.389	556.62
488.607	568.62
488.825	585.62
489.043	585.62
489.261	584.62
489.479	555.62
489.696	587.62
489.914	567.62
490.132	576.62
490.35	583.62
490.568	599.62
490.786	599.62
491.003	578.62
491.221	606.62
491.439	612.62
491.657	634.62
491.874	643.62
492.092	657.62
492.31	662.62
492.527	636.62
492.745	667.62
492.963	639.62
493.18	652.62
493.398	660.62
493.615	673.62
493.833	659.62
494.05	659.62
494.268	690.62
494.485	677.62
494.703	677.62
494.92	691.62
495.138	680.62
495.355	695.62
495.573	687.62
495.79	685.62
496.008	687.62
496.225	652.62
496.442	691.62
496.66	659.62
496.877	664.62
497.094	696.62
497.312	680.62
497.529	699.62
497.746	682.62
497.963	713.62
498.181	735.62
498.398	711.62
498.615	722.62
498.832	736.62
499.049	701.62
499.267	733.62
499.484	732.62
499.701	743.62
499.918	732.62
500.135	791.62
500.352	792.62
500.569	781.62
500.786	789.62
501.003	801.62
501.22	797.62
501.437	775.62
501.654	799.62
501.871	812.62
