Data from 1987.PennyLincolnUp.Lamp.En5.5.200Scan.071819.P2_HRD10591_17-14-11-977.txt Node
Date: Thu Jul 18 17:14:11 EDT 2019
User: cochatt
Spectrometer: HR+D1059
Trigger mode: 1
Integration Time (sec): 1.000000E-1
Scans to average: 1
Electric dark correction enabled: true
Nonlinearity correction enabled: false
Boxcar width: 0
XAxis mode: Wavelengths
Number of Pixels in Spectrum: 2048
>>>>>Begin Spectral Data<<<<<
223.165	-3.31
223.4	-3.31
223.635	-3.31
223.869	-21.31
224.104	-14.31
224.338	-20.31
224.573	-2.31
224.808	-4.31
225.042	-4.31
225.277	-2.31
225.511	-4.31
225.746	-4.31
225.98	-9.31
226.215	16.69
226.449	8.69
226.683	11.69
226.918	19.69
227.152	33.69
227.387	29.69
227.621	43.69
227.856	37.69
228.09	34.69
228.324	56.69
228.559	59.69
228.793	64.69
229.027	100.69
229.262	120.69
229.496	115.69
229.73	136.69
229.964	145.69
230.199	129.69
230.433	118.69
230.667	111.69
230.901	113.69
231.136	121.69
231.37	116.69
231.604	107.69
231.838	113.69
232.072	117.69
232.306	106.69
232.541	99.69
232.775	102.69
233.009	102.69
233.243	95.69
233.477	96.69
233.711	113.69
233.945	106.69
234.179	104.69
234.413	120.69
234.647	103.69
234.881	111.69
235.115	110.69
235.349	112.69
235.583	108.69
235.817	113.69
236.051	129.69
236.285	118.69
236.519	116.69
236.753	119.69
236.987	152.69
237.221	180.69
237.455	229.69
237.689	191.69
237.922	141.69
238.156	117.69
238.39	117.69
238.624	115.69
238.858	106.69
239.091	128.69
239.325	105.69
239.559	123.69
239.793	117.69
240.027	107.69
240.26	139.69
240.494	148.69
240.728	146.69
240.961	148.69
241.195	137.69
241.429	125.69
241.662	116.69
241.896	117.69
242.13	128.69
242.363	121.69
242.597	124.69
242.83	127.69
243.064	121.69
243.298	130.69
243.531	114.69
243.765	127.69
243.998	121.69
244.232	127.69
244.465	121.69
244.699	146.69
244.932	135.69
245.166	131.69
245.399	116.69
245.633	118.69
245.866	120.69
246.099	122.69
246.333	142.69
246.566	133.69
246.8	139.69
247.033	138.69
247.266	143.69
247.5	139.69
247.733	152.69
247.966	154.69
248.2	147.69
248.433	146.69
248.666	151.69
248.899	165.69
249.133	167.69
249.366	193.69
249.599	187.69
249.832	167.69
250.066	164.69
250.299	154.69
250.532	180.69
250.765	176.69
250.998	193.69
251.231	195.69
251.465	197.69
251.698	182.69
251.931	183.69
252.164	182.69
252.397	181.69
252.63	181.69
252.863	182.69
253.096	196.69
253.329	191.69
253.562	211.69
253.795	193.69
254.028	195.69
254.261	200.69
254.494	213.69
254.727	216.69
254.96	251.69
255.193	247.69
255.426	223.69
255.659	213.69
255.892	199.69
256.124	212.69
256.357	205.69
256.59	199.69
256.823	172.69
257.056	184.69
257.289	176.69
257.521	196.69
257.754	203.69
257.987	183.69
258.22	184.69
258.452	184.69
258.685	199.69
258.918	191.69
259.151	196.69
259.383	193.69
259.616	206.69
259.849	211.69
260.081	192.69
260.314	206.69
260.547	241.69
260.779	217.69
261.012	193.69
261.244	203.69
261.477	208.69
261.71	196.69
261.942	205.69
262.175	204.69
262.407	208.69
262.64	183.69
262.872	184.69
263.105	195.69
263.337	188.69
263.57	185.69
263.802	170.69
264.035	166.69
264.267	183.69
264.499	165.69
264.732	181.69
264.964	182.69
265.197	184.69
265.429	179.69
265.661	183.69
265.894	179.69
266.126	168.69
266.358	183.69
266.591	164.69
266.823	181.69
267.055	196.69
267.287	198.69
267.52	183.69
267.752	189.69
267.984	184.69
268.216	191.69
268.448	201.69
268.681	188.69
268.913	199.69
269.145	218.69
269.377	234.69
269.609	233.69
269.841	229.69
270.073	229.69
270.306	237.69
270.538	271.69
270.77	273.69
271.002	265.69
271.234	249.69
271.466	247.69
271.698	279.69
271.93	292.69
272.162	275.69
272.394	253.69
272.626	268.69
272.858	239.69
273.09	245.69
273.322	244.69
273.553	216.69
273.785	241.69
274.017	210.69
274.249	212.69
274.481	213.69
274.713	213.69
274.945	221.69
275.176	211.69
275.408	224.69
275.64	215.69
275.872	199.69
276.104	221.69
276.335	228.69
276.567	220.69
276.799	233.69
277.031	245.69
277.262	263.69
277.494	234.69
277.726	243.69
277.957	241.69
278.189	232.69
278.421	228.69
278.652	211.69
278.884	212.69
279.115	218.69
279.347	202.69
279.579	226.69
279.81	242.69
280.042	215.69
280.273	201.69
280.505	207.69
280.736	191.69
280.968	204.69
281.199	203.69
281.431	205.69
281.662	218.69
281.894	204.69
282.125	215.69
282.356	239.69
282.588	254.69
282.819	261.69
283.051	215.69
283.282	203.69
283.513	228.69
283.745	213.69
283.976	211.69
284.207	231.69
284.439	215.69
284.67	214.69
284.901	192.69
285.132	219.69
285.364	209.69
285.595	193.69
285.826	192.69
286.057	214.69
286.288	225.69
286.52	208.69
286.751	199.69
286.982	216.69
287.213	226.69
287.444	206.69
287.675	205.69
287.906	234.69
288.138	233.69
288.369	208.69
288.6	236.69
288.831	235.69
289.062	230.69
289.293	209.69
289.524	220.69
289.755	230.69
289.986	207.69
290.217	190.69
290.448	202.69
290.679	211.69
290.91	211.69
291.141	204.69
291.371	211.69
291.602	205.69
291.833	212.69
292.064	203.69
292.295	199.69
292.526	224.69
292.757	212.69
292.987	215.69
293.218	213.69
293.449	202.69
293.68	217.69
293.91	217.69
294.141	217.69
294.372	209.69
294.603	225.69
294.833	213.69
295.064	215.69
295.295	209.69
295.525	218.69
295.756	227.69
295.987	235.69
296.217	261.69
296.448	265.69
296.679	241.69
296.909	224.69
297.14	225.69
297.37	224.69
297.601	226.69
297.831	216.69
298.062	215.69
298.292	247.69
298.523	223.69
298.753	222.69
298.984	229.69
299.214	229.69
299.445	238.69
299.675	239.69
299.905	245.69
300.136	227.69
300.366	224.69
300.597	232.69
300.827	239.69
301.057	251.69
301.288	263.69
301.518	241.69
301.748	243.69
301.979	240.69
302.209	225.69
302.439	245.69
302.669	235.69
302.9	251.69
303.13	239.69
303.36	243.69
303.59	243.69
303.82	263.69
304.051	244.69
304.281	251.69
304.511	240.69
304.741	247.69
304.971	245.69
305.201	243.69
305.431	251.69
305.661	232.69
305.891	233.69
306.121	228.69
306.352	257.69
306.582	243.69
306.812	253.69
307.042	255.69
307.272	247.69
307.502	233.69
307.731	242.69
307.961	249.69
308.191	257.69
308.421	258.69
308.651	244.69
308.881	260.69
309.111	286.69
309.341	266.69
309.571	282.69
309.8	286.69
310.03	304.69
310.26	293.69
310.49	287.69
310.72	322.69
310.949	325.69
311.179	338.69
311.409	308.69
311.639	296.69
311.868	322.69
312.098	281.69
312.328	308.69
312.557	322.69
312.787	330.69
313.017	337.69
313.246	323.69
313.476	311.69
313.706	286.69
313.935	304.69
314.165	328.69
314.394	332.69
314.624	315.69
314.853	307.69
315.083	297.69
315.312	293.69
315.542	283.69
315.771	274.69
316.001	277.69
316.23	282.69
316.46	291.69
316.689	310.69
316.919	309.69
317.148	301.69
317.377	308.69
317.607	287.69
317.836	303.69
318.065	293.69
318.295	291.69
318.524	292.69
318.753	284.69
318.983	289.69
319.212	297.69
319.441	297.69
319.67	331.69
319.9	298.69
320.129	299.69
320.358	293.69
320.587	293.69
320.816	307.69
321.046	311.69
321.275	318.69
321.504	324.69
321.733	324.69
321.962	329.69
322.191	354.69
322.42	364.69
322.649	383.69
322.878	380.69
323.108	379.69
323.337	415.69
323.566	462.69
323.795	448.69
324.024	564.69
324.253	665.69
324.482	934.69
324.71	1477.69
324.939	2081.69
325.168	1831.69
325.397	999.69
325.626	647.69
325.855	537.69
326.084	481.69
326.313	446.69
326.542	459.69
326.77	497.69
326.999	596.69
327.228	847.69
327.457	1281.69
327.686	1519.69
327.914	1103.69
328.143	713.69
328.372	603.69
328.6	535.69
328.829	518.69
329.058	513.69
329.287	526.69
329.515	495.69
329.744	453.69
329.972	411.69
330.201	438.69
330.43	458.69
330.658	505.69
330.887	576.69
331.115	551.69
331.344	449.69
331.572	383.69
331.801	414.69
332.03	407.69
332.258	379.69
332.486	361.69
332.715	346.69
332.943	347.69
333.172	363.69
333.4	339.69
333.629	336.69
333.857	361.69
334.085	357.69
334.314	336.69
334.542	365.69
334.771	372.69
334.999	347.69
335.227	354.69
335.455	359.69
335.684	338.69
335.912	336.69
336.14	331.69
336.369	332.69
336.597	333.69
336.825	333.69
337.053	335.69
337.281	330.69
337.51	341.69
337.738	336.69
337.966	327.69
338.194	344.69
338.422	340.69
338.65	322.69
338.878	326.69
339.106	313.69
339.334	322.69
339.562	327.69
339.79	345.69
340.018	309.69
340.246	332.69
340.474	341.69
340.702	341.69
340.93	327.69
341.158	345.69
341.386	341.69
341.614	329.69
341.842	339.69
342.07	329.69
342.298	324.69
342.526	325.69
342.754	329.69
342.981	310.69
343.209	335.69
343.437	316.69
343.665	311.69
343.893	315.69
344.12	321.69
344.348	330.69
344.576	333.69
344.804	353.69
345.031	354.69
345.259	368.69
345.487	371.69
345.714	352.69
345.942	339.69
346.17	318.69
346.397	328.69
346.625	306.69
346.853	333.69
347.08	323.69
347.308	330.69
347.535	345.69
347.763	351.69
347.99	341.69
348.218	356.69
348.445	338.69
348.673	361.69
348.9	343.69
349.128	319.69
349.355	312.69
349.583	323.69
349.81	309.69
350.037	316.69
350.265	306.69
350.492	336.69
350.72	323.69
350.947	331.69
351.174	343.69
351.402	356.69
351.629	353.69
351.856	330.69
352.083	354.69
352.311	342.69
352.538	353.69
352.765	372.69
352.992	339.69
353.22	341.69
353.447	354.69
353.674	346.69
353.901	325.69
354.128	304.69
354.355	309.69
354.583	308.69
354.81	311.69
355.037	297.69
355.264	291.69
355.491	287.69
355.718	286.69
355.945	292.69
356.172	297.69
356.399	288.69
356.626	282.69
356.853	316.69
357.08	299.69
357.307	319.69
357.534	292.69
357.761	295.69
357.988	297.69
358.215	310.69
358.441	313.69
358.668	309.69
358.895	288.69
359.122	326.69
359.349	323.69
359.576	323.69
359.802	357.69
360.029	425.69
360.256	421.69
360.483	386.69
360.709	347.69
360.936	369.69
361.163	335.69
361.39	352.69
361.616	353.69
361.843	330.69
362.07	337.69
362.296	354.69
362.523	354.69
362.749	343.69
362.976	338.69
363.203	324.69
363.429	316.69
363.656	347.69
363.882	335.69
364.109	310.69
364.335	312.69
364.562	322.69
364.788	316.69
365.015	313.69
365.241	297.69
365.468	312.69
365.694	316.69
365.92	348.69
366.147	310.69
366.373	304.69
366.599	330.69
366.826	314.69
367.052	311.69
367.278	311.69
367.505	297.69
367.731	307.69
367.957	310.69
368.184	307.69
368.41	323.69
368.636	333.69
368.862	337.69
369.089	326.69
369.315	301.69
369.541	305.69
369.767	323.69
369.993	326.69
370.219	332.69
370.445	339.69
370.672	303.69
370.898	291.69
371.124	309.69
371.35	300.69
371.576	292.69
371.802	319.69
372.028	311.69
372.254	304.69
372.48	312.69
372.706	313.69
372.932	298.69
373.158	316.69
373.384	320.69
373.61	307.69
373.835	299.69
374.061	301.69
374.287	317.69
374.513	315.69
374.739	317.69
374.965	305.69
375.191	316.69
375.416	311.69
375.642	301.69
375.868	308.69
376.094	312.69
376.319	297.69
376.545	316.69
376.771	317.69
376.997	310.69
377.222	300.69
377.448	311.69
377.674	290.69
377.899	279.69
378.125	302.69
378.35	301.69
378.576	311.69
378.802	308.69
379.027	314.69
379.253	292.69
379.478	309.69
379.704	296.69
379.929	315.69
380.155	328.69
380.38	316.69
380.606	304.69
380.831	309.69
381.057	288.69
381.282	314.69
381.507	318.69
381.733	312.69
381.958	303.69
382.184	322.69
382.409	300.69
382.634	300.69
382.86	307.69
383.085	303.69
383.31	323.69
383.535	303.69
383.761	326.69
383.986	309.69
384.211	322.69
384.436	332.69
384.662	318.69
384.887	313.69
385.112	320.69
385.337	323.69
385.562	339.69
385.787	324.69
386.013	353.69
386.238	324.69
386.463	341.69
386.688	348.69
386.913	304.69
387.138	321.69
387.363	322.69
387.588	316.69
387.813	337.69
388.038	330.69
388.263	340.69
388.488	341.69
388.713	315.69
388.938	345.69
389.163	325.69
389.387	310.69
389.612	331.69
389.837	327.69
390.062	320.69
390.287	331.69
390.512	307.69
390.736	337.69
390.961	328.69
391.186	326.69
391.411	330.69
391.636	327.69
391.86	330.69
392.085	332.69
392.31	315.69
392.534	332.69
392.759	330.69
392.984	321.69
393.208	333.69
393.433	352.69
393.658	359.69
393.882	332.69
394.107	336.69
394.331	327.69
394.556	327.69
394.78	320.69
395.005	337.69
395.229	332.69
395.454	321.69
395.678	345.69
395.903	354.69
396.127	367.69
396.352	378.69
396.576	352.69
396.801	356.69
397.025	339.69
397.249	360.69
397.474	363.69
397.698	363.69
397.922	373.69
398.147	398.69
398.371	377.69
398.595	363.69
398.82	364.69
399.044	361.69
399.268	386.69
399.492	393.69
399.717	387.69
399.941	436.69
400.165	444.69
400.389	467.69
400.613	432.69
400.837	405.69
401.062	399.69
401.286	365.69
401.51	395.69
401.734	375.69
401.958	379.69
402.182	377.69
402.406	404.69
402.63	393.69
402.854	395.69
403.078	388.69
403.302	379.69
403.526	405.69
403.75	389.69
403.974	393.69
404.198	385.69
404.422	371.69
404.645	397.69
404.869	411.69
405.093	405.69
405.317	450.69
405.541	458.69
405.765	426.69
405.988	416.69
406.212	426.69
406.436	446.69
406.66	445.69
406.883	453.69
407.107	483.69
407.331	481.69
407.555	544.69
407.778	541.69
408.002	475.69
408.226	447.69
408.449	451.69
408.673	446.69
408.896	469.69
409.12	505.69
409.344	474.69
409.567	403.69
409.791	409.69
410.014	396.69
410.238	399.69
410.461	403.69
410.685	403.69
410.908	427.69
411.132	461.69
411.355	479.69
411.578	465.69
411.802	435.69
412.025	413.69
412.249	397.69
412.472	385.69
412.695	415.69
412.919	393.69
413.142	389.69
413.365	378.69
413.589	375.69
413.812	377.69
414.035	377.69
414.258	385.69
414.482	369.69
414.705	392.69
414.928	368.69
415.151	360.69
415.374	364.69
415.597	381.69
415.821	375.69
416.044	372.69
416.267	377.69
416.49	369.69
416.713	387.69
416.936	365.69
417.159	378.69
417.382	381.69
417.605	415.69
417.828	388.69
418.051	413.69
418.274	398.69
418.497	391.69
418.72	388.69
418.943	358.69
419.166	379.69
419.389	406.69
419.611	403.69
419.834	396.69
420.057	412.69
420.28	400.69
420.503	396.69
420.726	413.69
420.948	433.69
421.171	461.69
421.394	496.69
421.617	440.69
421.839	427.69
422.062	412.69
422.285	423.69
422.507	500.69
422.73	538.69
422.953	554.69
423.175	438.69
423.398	450.69
423.621	423.69
423.843	455.69
424.066	455.69
424.288	450.69
424.511	457.69
424.733	515.69
424.956	592.69
425.178	565.69
425.401	571.69
425.623	589.69
425.846	510.69
426.068	471.69
426.291	465.69
426.513	467.69
426.735	484.69
426.958	523.69
427.18	588.69
427.402	697.69
427.625	770.69
427.847	691.69
428.069	596.69
428.292	530.69
428.514	511.69
428.736	448.69
428.958	482.69
429.181	447.69
429.403	436.69
429.625	443.69
429.847	471.69
430.069	549.69
430.292	541.69
430.514	450.69
430.736	413.69
430.958	421.69
431.18	414.69
431.402	409.69
431.624	395.69
431.846	395.69
432.068	392.69
432.29	398.69
432.512	427.69
432.734	408.69
432.956	379.69
433.178	409.69
433.4	403.69
433.622	405.69
433.844	403.69
434.066	398.69
434.287	380.69
434.509	427.69
434.731	396.69
434.953	405.69
435.175	431.69
435.397	477.69
435.618	469.69
435.84	507.69
436.062	589.69
436.284	629.69
436.505	548.69
436.727	491.69
436.949	437.69
437.17	433.69
437.392	451.69
437.614	458.69
437.835	516.69
438.057	590.69
438.278	660.69
438.5	685.69
438.721	732.69
438.943	682.69
439.165	563.69
439.386	509.69
439.608	506.69
439.829	493.69
440.05	518.69
440.272	559.69
440.493	535.69
440.715	489.69
440.936	477.69
441.158	460.69
441.379	448.69
441.6	456.69
441.822	479.69
442.043	506.69
442.264	603.69
442.486	637.69
442.707	548.69
442.928	509.69
443.149	507.69
443.371	521.69
443.592	563.69
443.813	639.69
444.034	683.69
444.255	548.69
444.476	470.69
444.698	475.69
444.919	467.69
445.14	568.69
445.361	533.69
445.582	515.69
445.803	563.69
446.024	692.69
446.245	682.69
446.466	625.69
446.687	529.69
446.908	481.69
447.129	456.69
447.35	437.69
447.571	437.69
447.792	440.69
448.013	444.69
448.234	473.69
448.455	535.69
448.675	648.69
448.896	718.69
449.117	626.69
449.338	584.69
449.559	664.69
449.779	738.69
450	615.69
450.221	528.69
450.442	456.69
450.662	434.69
450.883	441.69
451.104	477.69
451.324	474.69
451.545	426.69
451.766	410.69
451.986	411.69
452.207	418.69
452.428	381.69
452.648	389.69
452.869	380.69
453.089	412.69
453.31	415.69
453.53	411.69
453.751	395.69
453.971	422.69
454.192	426.69
454.412	417.69
454.633	409.69
454.853	414.69
455.073	391.69
455.294	428.69
455.514	475.69
455.734	478.69
455.955	426.69
456.175	383.69
456.395	359.69
456.616	358.69
456.836	383.69
457.056	373.69
457.276	362.69
457.497	363.69
457.717	378.69
457.937	379.69
458.157	372.69
458.377	383.69
458.598	413.69
458.818	472.69
459.038	563.69
459.258	563.69
459.478	463.69
459.698	412.69
459.918	394.69
460.138	420.69
460.358	404.69
460.578	394.69
460.798	390.69
461.018	389.69
461.238	403.69
461.458	392.69
461.678	385.69
461.898	401.69
462.118	377.69
462.338	399.69
462.558	410.69
462.777	381.69
462.997	391.69
463.217	428.69
463.437	398.69
463.657	398.69
463.876	389.69
464.096	413.69
464.316	390.69
464.536	425.69
464.755	409.69
464.975	436.69
465.195	498.69
465.414	571.69
465.634	488.69
465.854	453.69
466.073	444.69
466.293	406.69
466.512	389.69
466.732	395.69
466.951	385.69
467.171	383.69
467.391	395.69
467.61	420.69
467.829	421.69
468.049	383.69
468.268	390.69
468.488	373.69
468.707	393.69
468.927	390.69
469.146	402.69
469.365	380.69
469.585	384.69
469.804	382.69
470.023	400.69
470.243	406.69
470.462	383.69
470.681	418.69
470.901	424.69
471.12	402.69
471.339	394.69
471.558	397.69
471.777	400.69
471.997	397.69
472.216	393.69
472.435	409.69
472.654	388.69
472.873	396.69
473.092	412.69
473.311	391.69
473.53	394.69
473.749	402.69
473.968	456.69
474.187	547.69
474.406	567.69
474.625	460.69
474.844	423.69
475.063	423.69
475.282	407.69
475.501	392.69
475.72	397.69
475.939	402.69
476.158	407.69
476.377	407.69
476.596	407.69
476.814	432.69
477.033	427.69
477.252	412.69
477.471	416.69
477.69	436.69
477.908	434.69
478.127	441.69
478.346	437.69
478.564	436.69
478.783	447.69
479.002	426.69
479.22	448.69
479.439	457.69
479.658	482.69
479.876	471.69
480.095	506.69
480.313	520.69
480.532	493.69
480.751	479.69
480.969	478.69
481.188	486.69
481.406	527.69
481.624	488.69
481.843	461.69
482.061	474.69
482.28	473.69
482.498	479.69
482.717	451.69
482.935	488.69
483.153	470.69
483.372	457.69
483.59	481.69
483.808	465.69
484.027	480.69
484.245	490.69
484.463	472.69
484.681	489.69
484.9	496.69
485.118	505.69
485.336	475.69
485.554	472.69
485.772	485.69
485.99	495.69
486.209	499.69
486.427	510.69
486.645	526.69
486.863	551.69
487.081	528.69
487.299	518.69
487.517	531.69
487.735	535.69
487.953	521.69
488.171	503.69
488.389	521.69
488.607	517.69
488.825	530.69
489.043	524.69
489.261	530.69
489.479	505.69
489.696	521.69
489.914	520.69
490.132	514.69
490.35	541.69
490.568	536.69
490.786	548.69
491.003	563.69
491.221	587.69
491.439	569.69
491.657	598.69
491.874	593.69
492.092	576.69
492.31	603.69
492.527	595.69
492.745	592.69
492.963	606.69
493.18	616.69
493.398	610.69
493.615	617.69
493.833	599.69
494.05	608.69
494.268	590.69
494.485	622.69
494.703	635.69
494.92	636.69
495.138	617.69
495.355	627.69
495.573	627.69
495.79	643.69
496.008	632.69
496.225	615.69
496.442	620.69
496.66	647.69
496.877	613.69
497.094	624.69
497.312	631.69
497.529	634.69
497.746	643.69
497.963	645.69
498.181	655.69
498.398	655.69
498.615	646.69
498.832	681.69
499.049	684.69
499.267	663.69
499.484	708.69
499.701	696.69
499.918	724.69
500.135	765.69
500.352	778.69
500.569	757.69
500.786	746.69
501.003	725.69
501.22	769.69
501.437	755.69
501.654	742.69
501.871	743.69
502.088	732.69
