Data from 1987.PennyLincolnUp.Lamp.En5.5.200Scan.071819.P2_HRD10591_17-15-49-971.txt Node
Date: Thu Jul 18 17:15:49 EDT 2019
User: cochatt
Spectrometer: HR+D1059
Trigger mode: 1
Integration Time (sec): 1.000000E-1
Scans to average: 1
Electric dark correction enabled: true
Nonlinearity correction enabled: false
Boxcar width: 0
XAxis mode: Wavelengths
Number of Pixels in Spectrum: 2048
>>>>>Begin Spectral Data<<<<<
223.165	-10.56
223.4	-10.56
223.635	-10.56
223.869	-9.56
224.104	-10.56
224.338	-1.56
224.573	-10.56
224.808	-8.56
225.042	-12.56
225.277	-4.56
225.511	-20.56
225.746	-7.56
225.98	12.44
226.215	2.44
226.449	28.44
226.683	-0.56
226.918	28.44
227.152	25.44
227.387	33.44
227.621	39.44
227.856	45.44
228.09	39.44
228.324	51.44
228.559	43.44
228.793	66.44
229.027	103.44
229.262	111.44
229.496	106.44
229.73	149.44
229.964	170.44
230.199	133.44
230.433	128.44
230.667	119.44
230.901	112.44
231.136	97.44
231.37	120.44
231.604	106.44
231.838	112.44
232.072	119.44
232.306	122.44
232.541	122.44
232.775	108.44
233.009	107.44
233.243	96.44
233.477	98.44
233.711	117.44
233.945	113.44
234.179	116.44
234.413	113.44
234.647	106.44
234.881	111.44
235.115	115.44
235.349	117.44
235.583	109.44
235.817	127.44
236.051	117.44
236.285	127.44
236.519	120.44
236.753	127.44
236.987	156.44
237.221	209.44
237.455	252.44
237.689	213.44
237.922	141.44
238.156	138.44
238.39	125.44
238.624	121.44
238.858	132.44
239.091	124.44
239.325	116.44
239.559	116.44
239.793	123.44
240.027	138.44
240.26	146.44
240.494	156.44
240.728	153.44
240.961	153.44
241.195	145.44
241.429	127.44
241.662	136.44
241.896	134.44
242.13	138.44
242.363	137.44
242.597	129.44
242.83	121.44
243.064	123.44
243.298	136.44
243.531	139.44
243.765	131.44
243.998	127.44
244.232	126.44
244.465	126.44
244.699	149.44
244.932	137.44
245.166	129.44
245.399	134.44
245.633	151.44
245.866	136.44
246.099	139.44
246.333	152.44
246.566	141.44
246.8	141.44
247.033	138.44
247.266	147.44
247.5	146.44
247.733	142.44
247.966	193.44
248.2	158.44
248.433	170.44
248.666	149.44
248.899	176.44
249.133	184.44
249.366	208.44
249.599	196.44
249.832	169.44
250.066	184.44
250.299	177.44
250.532	163.44
250.765	193.44
250.998	207.44
251.231	229.44
251.465	215.44
251.698	195.44
251.931	199.44
252.164	178.44
252.397	192.44
252.63	189.44
252.863	193.44
253.096	212.44
253.329	214.44
253.562	230.44
253.795	212.44
254.028	215.44
254.261	225.44
254.494	227.44
254.727	261.44
254.96	296.44
255.193	287.44
255.426	260.44
255.659	219.44
255.892	223.44
256.124	213.44
256.357	221.44
256.59	206.44
256.823	200.44
257.056	188.44
257.289	199.44
257.521	194.44
257.754	205.44
257.987	197.44
258.22	204.44
258.452	193.44
258.685	193.44
258.918	190.44
259.151	202.44
259.383	205.44
259.616	202.44
259.849	213.44
260.081	227.44
260.314	250.44
260.547	264.44
260.779	238.44
261.012	223.44
261.244	234.44
261.477	197.44
261.71	216.44
261.942	212.44
262.175	241.44
262.407	233.44
262.64	219.44
262.872	204.44
263.105	195.44
263.337	199.44
263.57	202.44
263.802	196.44
264.035	186.44
264.267	199.44
264.499	183.44
264.732	204.44
264.964	195.44
265.197	193.44
265.429	205.44
265.661	199.44
265.894	212.44
266.126	179.44
266.358	195.44
266.591	188.44
266.823	194.44
267.055	218.44
267.287	199.44
267.52	201.44
267.752	213.44
267.984	209.44
268.216	184.44
268.448	211.44
268.681	205.44
268.913	214.44
269.145	236.44
269.377	261.44
269.609	257.44
269.841	254.44
270.073	242.44
270.306	275.44
270.538	297.44
270.77	304.44
271.002	291.44
271.234	267.44
271.466	256.44
271.698	310.44
271.93	307.44
272.162	303.44
272.394	300.44
272.626	291.44
272.858	273.44
273.09	268.44
273.322	240.44
273.553	241.44
273.785	269.44
274.017	247.44
274.249	242.44
274.481	233.44
274.713	248.44
274.945	233.44
275.176	234.44
275.408	259.44
275.64	239.44
275.872	241.44
276.104	233.44
276.335	235.44
276.567	245.44
276.799	256.44
277.031	293.44
277.262	296.44
277.494	285.44
277.726	281.44
277.957	264.44
278.189	244.44
278.421	247.44
278.652	239.44
278.884	232.44
279.115	258.44
279.347	255.44
279.579	246.44
279.81	236.44
280.042	231.44
280.273	217.44
280.505	227.44
280.736	244.44
280.968	221.44
281.199	218.44
281.431	226.44
281.662	231.44
281.894	220.44
282.125	226.44
282.356	243.44
282.588	277.44
282.819	275.44
283.051	242.44
283.282	247.44
283.513	233.44
283.745	232.44
283.976	234.44
284.207	236.44
284.439	243.44
284.67	227.44
284.901	246.44
285.132	229.44
285.364	225.44
285.595	224.44
285.826	229.44
286.057	248.44
286.288	228.44
286.52	217.44
286.751	209.44
286.982	232.44
287.213	222.44
287.444	231.44
287.675	247.44
287.906	246.44
288.138	260.44
288.369	240.44
288.6	262.44
288.831	247.44
289.062	247.44
289.293	246.44
289.524	256.44
289.755	249.44
289.986	252.44
290.217	240.44
290.448	238.44
290.679	225.44
290.91	236.44
291.141	224.44
291.371	242.44
291.602	239.44
291.833	225.44
292.064	242.44
292.295	241.44
292.526	218.44
292.757	234.44
292.987	231.44
293.218	240.44
293.449	219.44
293.68	252.44
293.91	242.44
294.141	224.44
294.372	235.44
294.603	237.44
294.833	234.44
295.064	248.44
295.295	249.44
295.525	250.44
295.756	246.44
295.987	262.44
296.217	293.44
296.448	294.44
296.679	258.44
296.909	249.44
297.14	233.44
297.37	246.44
297.601	243.44
297.831	257.44
298.062	264.44
298.292	247.44
298.523	256.44
298.753	250.44
298.984	238.44
299.214	252.44
299.445	267.44
299.675	257.44
299.905	259.44
300.136	268.44
300.366	264.44
300.597	251.44
300.827	263.44
301.057	258.44
301.288	283.44
301.518	284.44
301.748	263.44
301.979	258.44
302.209	275.44
302.439	267.44
302.669	275.44
302.9	249.44
303.13	264.44
303.36	261.44
303.59	283.44
303.82	274.44
304.051	287.44
304.281	259.44
304.511	264.44
304.741	268.44
304.971	269.44
305.201	280.44
305.431	262.44
305.661	270.44
305.891	272.44
306.121	269.44
306.352	284.44
306.582	295.44
306.812	292.44
307.042	279.44
307.272	275.44
307.502	272.44
307.731	264.44
307.961	274.44
308.191	269.44
308.421	283.44
308.651	274.44
308.881	282.44
309.111	286.44
309.341	281.44
309.571	297.44
309.8	309.44
310.03	333.44
310.26	350.44
310.49	359.44
310.72	359.44
310.949	380.44
311.179	369.44
311.409	334.44
311.639	335.44
311.868	330.44
312.098	354.44
312.328	356.44
312.557	368.44
312.787	379.44
313.017	398.44
313.246	362.44
313.476	349.44
313.706	355.44
313.935	361.44
314.165	365.44
314.394	392.44
314.624	367.44
314.853	364.44
315.083	349.44
315.312	325.44
315.542	312.44
315.771	306.44
316.001	306.44
316.23	316.44
316.46	324.44
316.689	327.44
316.919	346.44
317.148	334.44
317.377	325.44
317.607	353.44
317.836	338.44
318.065	330.44
318.295	347.44
318.524	319.44
318.753	323.44
318.983	314.44
319.212	343.44
319.441	348.44
319.67	356.44
319.9	336.44
320.129	344.44
320.358	319.44
320.587	352.44
320.816	358.44
321.046	367.44
321.275	377.44
321.504	364.44
321.733	374.44
321.962	369.44
322.191	388.44
322.42	435.44
322.649	440.44
322.878	447.44
323.108	479.44
323.337	520.44
323.566	541.44
323.795	591.44
324.024	665.44
324.253	832.44
324.482	1228.44
324.71	1890.44
324.939	2670.44
325.168	2291.44
325.397	1245.44
325.626	802.44
325.855	607.44
326.084	562.44
326.313	544.44
326.542	537.44
326.77	606.44
326.999	732.44
327.228	1055.44
327.457	1647.44
327.686	1989.44
327.914	1352.44
328.143	884.44
328.372	726.44
328.6	687.44
328.829	631.44
329.058	627.44
329.287	675.44
329.515	573.44
329.744	553.44
329.972	506.44
330.201	514.44
330.43	545.44
330.658	593.44
330.887	673.44
331.115	665.44
331.344	552.44
331.572	504.44
331.801	473.44
332.03	475.44
332.258	449.44
332.486	406.44
332.715	409.44
332.943	401.44
333.172	381.44
333.4	387.44
333.629	396.44
333.857	393.44
334.085	385.44
334.314	376.44
334.542	385.44
334.771	396.44
334.999	395.44
335.227	395.44
335.455	383.44
335.684	361.44
335.912	375.44
336.14	385.44
336.369	377.44
336.597	389.44
336.825	408.44
337.053	379.44
337.281	364.44
337.51	364.44
337.738	386.44
337.966	385.44
338.194	385.44
338.422	387.44
338.65	376.44
338.878	361.44
339.106	375.44
339.334	382.44
339.562	369.44
339.79	369.44
340.018	365.44
340.246	365.44
340.474	392.44
340.702	390.44
340.93	372.44
341.158	370.44
341.386	388.44
341.614	374.44
341.842	372.44
342.07	365.44
342.298	363.44
342.526	372.44
342.754	350.44
342.981	351.44
343.209	361.44
343.437	333.44
343.665	357.44
343.893	356.44
344.12	361.44
344.348	379.44
344.576	365.44
344.804	389.44
345.031	398.44
345.259	422.44
345.487	402.44
345.714	389.44
345.942	373.44
346.17	374.44
346.397	364.44
346.625	357.44
346.853	368.44
347.08	388.44
347.308	378.44
347.535	381.44
347.763	393.44
347.99	387.44
348.218	385.44
348.445	395.44
348.673	404.44
348.9	395.44
349.128	375.44
349.355	356.44
349.583	361.44
349.81	354.44
350.037	340.44
350.265	352.44
350.492	345.44
350.72	348.44
350.947	377.44
351.174	393.44
351.402	379.44
351.629	409.44
351.856	380.44
352.083	399.44
352.311	391.44
352.538	410.44
352.765	417.44
352.992	385.44
353.22	398.44
353.447	381.44
353.674	364.44
353.901	371.44
354.128	348.44
354.355	326.44
354.583	347.44
354.81	354.44
355.037	345.44
355.264	331.44
355.491	328.44
355.718	330.44
355.945	332.44
356.172	320.44
356.399	315.44
356.626	301.44
356.853	339.44
357.08	343.44
357.307	314.44
357.534	319.44
357.761	323.44
357.988	340.44
358.215	333.44
358.441	339.44
358.668	349.44
358.895	338.44
359.122	360.44
359.349	376.44
359.576	371.44
359.802	412.44
360.029	449.44
360.256	474.44
360.483	449.44
360.709	392.44
360.936	389.44
361.163	399.44
361.39	384.44
361.616	389.44
361.843	391.44
362.07	386.44
362.296	393.44
362.523	383.44
362.749	375.44
362.976	373.44
363.203	369.44
363.429	349.44
363.656	359.44
363.882	343.44
364.109	365.44
364.335	344.44
364.562	346.44
364.788	349.44
365.015	359.44
365.241	345.44
365.468	347.44
365.694	360.44
365.92	379.44
366.147	375.44
366.373	348.44
366.599	351.44
366.826	342.44
367.052	332.44
367.278	352.44
367.505	347.44
367.731	352.44
367.957	356.44
368.184	359.44
368.41	341.44
368.636	358.44
368.862	367.44
369.089	337.44
369.315	368.44
369.541	346.44
369.767	351.44
369.993	339.44
370.219	354.44
370.445	341.44
370.672	331.44
370.898	316.44
371.124	337.44
371.35	337.44
371.576	347.44
371.802	352.44
372.028	333.44
372.254	332.44
372.48	324.44
372.706	336.44
372.932	324.44
373.158	325.44
373.384	325.44
373.61	344.44
373.835	330.44
374.061	326.44
374.287	333.44
374.513	341.44
374.739	348.44
374.965	337.44
375.191	324.44
375.416	347.44
375.642	344.44
375.868	343.44
376.094	346.44
376.319	320.44
376.545	323.44
376.771	327.44
376.997	325.44
377.222	330.44
377.448	329.44
377.674	341.44
377.899	332.44
378.125	325.44
378.35	326.44
378.576	315.44
378.802	323.44
379.027	333.44
379.253	346.44
379.478	345.44
379.704	341.44
379.929	333.44
380.155	339.44
380.38	342.44
380.606	329.44
380.831	333.44
381.057	347.44
381.282	333.44
381.507	324.44
381.733	352.44
381.958	317.44
382.184	330.44
382.409	331.44
382.634	324.44
382.86	336.44
383.085	342.44
383.31	323.44
383.535	337.44
383.761	348.44
383.986	349.44
384.211	344.44
384.436	352.44
384.662	332.44
384.887	326.44
385.112	333.44
385.337	331.44
385.562	358.44
385.787	333.44
386.013	359.44
386.238	377.44
386.463	360.44
386.688	359.44
386.913	357.44
387.138	341.44
387.363	347.44
387.588	363.44
387.813	329.44
388.038	353.44
388.263	358.44
388.488	349.44
388.713	362.44
388.938	363.44
389.163	349.44
389.387	353.44
389.612	356.44
389.837	354.44
390.062	348.44
390.287	359.44
390.512	353.44
390.736	367.44
390.961	334.44
391.186	335.44
391.411	343.44
391.636	371.44
391.86	375.44
392.085	343.44
392.31	367.44
392.534	357.44
392.759	351.44
392.984	353.44
393.208	358.44
393.433	347.44
393.658	353.44
393.882	358.44
394.107	343.44
394.331	356.44
394.556	344.44
394.78	349.44
395.005	367.44
395.229	359.44
395.454	351.44
395.678	370.44
395.903	371.44
396.127	389.44
396.352	378.44
396.576	382.44
396.801	379.44
397.025	383.44
397.249	377.44
397.474	366.44
397.698	384.44
397.922	386.44
398.147	402.44
398.371	419.44
398.595	391.44
398.82	408.44
399.044	390.44
399.268	407.44
399.492	411.44
399.717	431.44
399.941	443.44
400.165	489.44
400.389	499.44
400.613	461.44
400.837	433.44
401.062	410.44
401.286	419.44
401.51	407.44
401.734	409.44
401.958	418.44
402.182	441.44
402.406	441.44
402.63	436.44
402.854	413.44
403.078	420.44
403.302	415.44
403.526	409.44
403.75	436.44
403.974	443.44
404.198	411.44
404.422	427.44
404.645	419.44
404.869	422.44
405.093	450.44
405.317	466.44
405.541	513.44
405.765	469.44
405.988	450.44
406.212	485.44
406.436	489.44
406.66	536.44
406.883	469.44
407.107	511.44
407.331	546.44
407.555	598.44
407.778	593.44
408.002	552.44
408.226	492.44
408.449	482.44
408.673	499.44
408.896	524.44
409.12	543.44
409.344	510.44
409.567	453.44
409.791	470.44
410.014	432.44
410.238	427.44
410.461	436.44
410.685	431.44
410.908	436.44
411.132	484.44
411.355	523.44
411.578	493.44
411.802	447.44
412.025	422.44
412.249	432.44
412.472	455.44
412.695	449.44
412.919	426.44
413.142	433.44
413.365	409.44
413.589	404.44
413.812	385.44
414.035	423.44
414.258	398.44
414.482	401.44
414.705	418.44
414.928	382.44
415.151	396.44
415.374	396.44
415.597	402.44
415.821	391.44
416.044	400.44
416.267	400.44
416.49	416.44
416.713	387.44
416.936	407.44
417.159	419.44
417.382	403.44
417.605	424.44
417.828	431.44
418.051	435.44
418.274	453.44
418.497	419.44
418.72	420.44
418.943	413.44
419.166	425.44
419.389	414.44
419.611	426.44
419.834	425.44
420.057	426.44
420.28	441.44
420.503	444.44
420.726	435.44
420.948	457.44
421.171	479.44
421.394	530.44
421.617	466.44
421.839	438.44
422.062	456.44
422.285	483.44
422.507	517.44
422.73	608.44
422.953	591.44
423.175	527.44
423.398	484.44
423.621	482.44
423.843	493.44
424.066	476.44
424.288	500.44
424.511	541.44
424.733	567.44
424.956	645.44
425.178	619.44
425.401	624.44
425.623	629.44
425.846	549.44
426.068	508.44
426.291	497.44
426.513	526.44
426.735	537.44
426.958	580.44
427.18	650.44
427.402	764.44
427.625	863.44
427.847	797.44
428.069	660.44
428.292	576.44
428.514	517.44
428.736	521.44
428.958	504.44
429.181	482.44
429.403	472.44
429.625	488.44
429.847	512.44
430.069	587.44
430.292	571.44
430.514	511.44
430.736	466.44
430.958	449.44
431.18	434.44
431.402	439.44
431.624	421.44
431.846	451.44
432.068	411.44
432.29	426.44
432.512	440.44
432.734	450.44
432.956	442.44
433.178	455.44
433.4	468.44
433.622	455.44
433.844	445.44
434.066	418.44
434.287	436.44
434.509	432.44
434.731	436.44
434.953	450.44
435.175	465.44
435.397	499.44
435.618	522.44
435.84	556.44
436.062	661.44
436.284	703.44
436.505	615.44
436.727	546.44
436.949	499.44
437.17	479.44
437.392	487.44
437.614	505.44
437.835	560.44
438.057	648.44
438.278	771.44
438.5	760.44
438.721	779.44
438.943	753.44
439.165	616.44
439.386	527.44
439.608	545.44
439.829	563.44
440.05	580.44
440.272	612.44
440.493	592.44
440.715	548.44
440.936	500.44
441.158	490.44
441.379	496.44
441.6	494.44
441.822	537.44
442.043	555.44
442.264	660.44
442.486	677.44
442.707	580.44
442.928	519.44
443.149	549.44
443.371	560.44
443.592	615.44
443.813	702.44
444.034	760.44
444.255	617.44
444.476	553.44
444.698	502.44
444.919	501.44
445.14	593.44
445.361	532.44
445.582	587.44
445.803	643.44
446.024	732.44
446.245	764.44
446.466	703.44
446.687	589.44
446.908	511.44
447.129	496.44
447.35	504.44
447.571	506.44
447.792	492.44
448.013	511.44
448.234	523.44
448.455	584.44
448.675	678.44
448.896	753.44
449.117	675.44
449.338	630.44
449.559	717.44
449.779	796.44
450	684.44
450.221	584.44
450.442	515.44
450.662	503.44
450.883	495.44
451.104	547.44
451.324	512.44
451.545	473.44
451.766	455.44
451.986	440.44
452.207	418.44
452.428	420.44
452.648	445.44
452.869	431.44
453.089	437.44
453.31	486.44
453.53	456.44
453.751	444.44
453.971	441.44
454.192	466.44
454.412	465.44
454.633	435.44
454.853	424.44
455.073	447.44
455.294	492.44
455.514	553.44
455.734	549.44
455.955	441.44
456.175	420.44
456.395	391.44
456.616	396.44
456.836	409.44
457.056	389.44
457.276	401.44
457.497	413.44
457.717	391.44
457.937	416.44
458.157	406.44
458.377	408.44
458.598	428.44
458.818	528.44
459.038	624.44
459.258	657.44
459.478	537.44
459.698	471.44
459.918	424.44
460.138	439.44
460.358	439.44
460.578	420.44
460.798	418.44
461.018	431.44
461.238	412.44
461.458	420.44
461.678	424.44
461.898	413.44
462.118	431.44
462.338	399.44
462.558	423.44
462.777	423.44
462.997	421.44
463.217	427.44
463.437	449.44
463.657	439.44
463.876	424.44
464.096	429.44
464.316	448.44
464.536	456.44
464.755	447.44
464.975	458.44
465.195	569.44
465.414	671.44
465.634	570.44
465.854	501.44
466.073	473.44
466.293	456.44
466.512	446.44
466.732	437.44
466.951	421.44
467.171	423.44
467.391	433.44
467.61	426.44
467.829	450.44
468.049	426.44
468.268	427.44
468.488	411.44
468.707	405.44
468.927	416.44
469.146	422.44
469.365	421.44
469.585	421.44
469.804	430.44
470.023	437.44
470.243	436.44
470.462	449.44
470.681	473.44
470.901	491.44
471.12	466.44
471.339	436.44
471.558	458.44
471.777	449.44
471.997	401.44
472.216	414.44
472.435	412.44
472.654	437.44
472.873	406.44
473.092	429.44
473.311	442.44
473.53	437.44
473.749	435.44
473.968	528.44
474.187	614.44
474.406	619.44
474.625	521.44
474.844	472.44
475.063	440.44
475.282	455.44
475.501	446.44
475.72	446.44
475.939	429.44
476.158	445.44
476.377	444.44
476.596	452.44
476.814	467.44
477.033	460.44
477.252	444.44
477.471	466.44
477.69	465.44
477.908	482.44
478.127	466.44
478.346	474.44
478.564	485.44
478.783	484.44
479.002	491.44
479.22	505.44
479.439	485.44
479.658	542.44
479.876	535.44
480.095	526.44
480.313	571.44
480.532	535.44
480.751	521.44
480.969	521.44
481.188	523.44
481.406	538.44
481.624	540.44
481.843	507.44
482.061	520.44
482.28	498.44
482.498	524.44
482.717	504.44
482.935	507.44
483.153	529.44
483.372	502.44
483.59	499.44
483.808	496.44
484.027	516.44
484.245	555.44
484.463	507.44
484.681	514.44
484.9	528.44
485.118	522.44
485.336	511.44
485.554	544.44
485.772	540.44
485.99	552.44
486.209	535.44
486.427	539.44
486.645	561.44
486.863	597.44
487.081	579.44
487.299	570.44
487.517	568.44
487.735	567.44
487.953	560.44
488.171	567.44
488.389	537.44
488.607	567.44
488.825	568.44
489.043	559.44
489.261	571.44
489.479	568.44
489.696	568.44
489.914	592.44
490.132	566.44
490.35	571.44
490.568	582.44
490.786	611.44
491.003	633.44
491.221	629.44
491.439	637.44
491.657	623.44
491.874	616.44
492.092	628.44
492.31	658.44
492.527	665.44
492.745	650.44
492.963	659.44
493.18	652.44
493.398	653.44
493.615	671.44
493.833	658.44
494.05	643.44
494.268	684.44
494.485	673.44
494.703	671.44
494.92	698.44
495.138	680.44
495.355	687.44
495.573	691.44
495.79	671.44
496.008	705.44
496.225	680.44
496.442	669.44
496.66	689.44
496.877	689.44
497.094	694.44
497.312	679.44
497.529	703.44
497.746	694.44
497.963	682.44
498.181	729.44
498.398	713.44
498.615	715.44
498.832	736.44
499.049	721.44
499.267	738.44
499.484	747.44
499.701	773.44
499.918	775.44
500.135	779.44
500.352	785.44
500.569	793.44
500.786	833.44
501.003	807.44
501.22	810.44
501.437	765.44
501.654	794.44
501.871	837.44
