Data from 1987.PennyLincolnUp.Lamp.En5.5.200Scan.071819.P2_HRD10591_17-14-53-971.txt Node
Date: Thu Jul 18 17:14:53 EDT 2019
User: cochatt
Spectrometer: HR+D1059
Trigger mode: 1
Integration Time (sec): 1.000000E-1
Scans to average: 1
Electric dark correction enabled: true
Nonlinearity correction enabled: false
Boxcar width: 0
XAxis mode: Wavelengths
Number of Pixels in Spectrum: 2048
>>>>>Begin Spectral Data<<<<<
223.165	-10.12
223.4	-10.12
223.635	-10.12
223.869	-14.12
224.104	-27.12
224.338	-16.12
224.573	-26.12
224.808	-12.12
225.042	-7.12
225.277	-7.12
225.511	8.88
225.746	-7.12
225.98	-7.12
226.215	0.88
226.449	18.88
226.683	30.88
226.918	34.88
227.152	39.88
227.387	24.88
227.621	24.88
227.856	39.88
228.09	33.88
228.324	44.88
228.559	41.88
228.793	71.88
229.027	103.88
229.262	123.88
229.496	108.88
229.73	145.88
229.964	167.88
230.199	149.88
230.433	111.88
230.667	122.88
230.901	122.88
231.136	100.88
231.37	119.88
231.604	122.88
231.838	112.88
232.072	111.88
232.306	97.88
232.541	104.88
232.775	118.88
233.009	108.88
233.243	113.88
233.477	117.88
233.711	123.88
233.945	115.88
234.179	115.88
234.413	118.88
234.647	132.88
234.881	124.88
235.115	114.88
235.349	109.88
235.583	134.88
235.817	128.88
236.051	124.88
236.285	128.88
236.519	112.88
236.753	127.88
236.987	150.88
237.221	185.88
237.455	242.88
237.689	197.88
237.922	153.88
238.156	134.88
238.39	136.88
238.624	132.88
238.858	112.88
239.091	123.88
239.325	121.88
239.559	132.88
239.793	124.88
240.027	133.88
240.26	145.88
240.494	147.88
240.728	148.88
240.961	137.88
241.195	138.88
241.429	132.88
241.662	123.88
241.896	131.88
242.13	140.88
242.363	123.88
242.597	124.88
242.83	121.88
243.064	127.88
243.298	118.88
243.531	127.88
243.765	141.88
243.998	114.88
244.232	127.88
244.465	139.88
244.699	146.88
244.932	143.88
245.166	121.88
245.399	138.88
245.633	123.88
245.866	140.88
246.099	139.88
246.333	151.88
246.566	145.88
246.8	153.88
247.033	139.88
247.266	153.88
247.5	150.88
247.733	146.88
247.966	162.88
248.2	141.88
248.433	168.88
248.666	168.88
248.899	181.88
249.133	181.88
249.366	209.88
249.599	193.88
249.832	171.88
250.066	185.88
250.299	157.88
250.532	175.88
250.765	183.88
250.998	213.88
251.231	208.88
251.465	198.88
251.698	202.88
251.931	199.88
252.164	181.88
252.397	183.88
252.63	195.88
252.863	205.88
253.096	200.88
253.329	217.88
253.562	216.88
253.795	220.88
254.028	195.88
254.261	223.88
254.494	219.88
254.727	243.88
254.96	275.88
255.193	268.88
255.426	244.88
255.659	221.88
255.892	214.88
256.124	197.88
256.357	206.88
256.59	207.88
256.823	197.88
257.056	193.88
257.289	178.88
257.521	191.88
257.754	198.88
257.987	202.88
258.22	187.88
258.452	181.88
258.685	176.88
258.918	177.88
259.151	207.88
259.383	201.88
259.616	203.88
259.849	202.88
260.081	233.88
260.314	232.88
260.547	235.88
260.779	233.88
261.012	209.88
261.244	212.88
261.477	219.88
261.71	218.88
261.942	212.88
262.175	219.88
262.407	212.88
262.64	199.88
262.872	199.88
263.105	196.88
263.337	199.88
263.57	199.88
263.802	183.88
264.035	175.88
264.267	187.88
264.499	182.88
264.732	189.88
264.964	184.88
265.197	187.88
265.429	179.88
265.661	201.88
265.894	183.88
266.126	181.88
266.358	200.88
266.591	208.88
266.823	199.88
267.055	200.88
267.287	195.88
267.52	196.88
267.752	189.88
267.984	189.88
268.216	192.88
268.448	217.88
268.681	205.88
268.913	227.88
269.145	229.88
269.377	236.88
269.609	255.88
269.841	240.88
270.073	241.88
270.306	259.88
270.538	296.88
270.77	282.88
271.002	292.88
271.234	276.88
271.466	279.88
271.698	299.88
271.93	300.88
272.162	285.88
272.394	300.88
272.626	289.88
272.858	291.88
273.09	264.88
273.322	258.88
273.553	231.88
273.785	235.88
274.017	223.88
274.249	229.88
274.481	224.88
274.713	240.88
274.945	244.88
275.176	233.88
275.408	232.88
275.64	211.88
275.872	231.88
276.104	240.88
276.335	232.88
276.567	225.88
276.799	258.88
277.031	281.88
277.262	293.88
277.494	281.88
277.726	281.88
277.957	246.88
278.189	241.88
278.421	225.88
278.652	224.88
278.884	243.88
279.115	251.88
279.347	224.88
279.579	228.88
279.81	216.88
280.042	233.88
280.273	223.88
280.505	204.88
280.736	221.88
280.968	232.88
281.199	203.88
281.431	200.88
281.662	231.88
281.894	220.88
282.125	213.88
282.356	236.88
282.588	288.88
282.819	277.88
283.051	230.88
283.282	213.88
283.513	217.88
283.745	220.88
283.976	228.88
284.207	237.88
284.439	223.88
284.67	240.88
284.901	230.88
285.132	230.88
285.364	229.88
285.595	235.88
285.826	234.88
286.057	251.88
286.288	223.88
286.52	220.88
286.751	227.88
286.982	232.88
287.213	232.88
287.444	218.88
287.675	219.88
287.906	229.88
288.138	257.88
288.369	235.88
288.6	257.88
288.831	244.88
289.062	237.88
289.293	220.88
289.524	254.88
289.755	247.88
289.986	232.88
290.217	257.88
290.448	237.88
290.679	230.88
290.91	221.88
291.141	222.88
291.371	220.88
291.602	239.88
291.833	239.88
292.064	221.88
292.295	243.88
292.526	240.88
292.757	223.88
292.987	256.88
293.218	248.88
293.449	242.88
293.68	233.88
293.91	251.88
294.141	243.88
294.372	225.88
294.603	233.88
294.833	231.88
295.064	236.88
295.295	241.88
295.525	230.88
295.756	241.88
295.987	236.88
296.217	275.88
296.448	309.88
296.679	254.88
296.909	237.88
297.14	226.88
297.37	234.88
297.601	245.88
297.831	244.88
298.062	225.88
298.292	234.88
298.523	233.88
298.753	246.88
298.984	257.88
299.214	235.88
299.445	243.88
299.675	247.88
299.905	259.88
300.136	262.88
300.366	264.88
300.597	249.88
300.827	244.88
301.057	263.88
301.288	255.88
301.518	277.88
301.748	262.88
301.979	255.88
302.209	275.88
302.439	266.88
302.669	264.88
302.9	284.88
303.13	257.88
303.36	261.88
303.59	273.88
303.82	284.88
304.051	292.88
304.281	287.88
304.511	277.88
304.741	255.88
304.971	257.88
305.201	273.88
305.431	258.88
305.661	262.88
305.891	262.88
306.121	252.88
306.352	289.88
306.582	293.88
306.812	267.88
307.042	285.88
307.272	257.88
307.502	278.88
307.731	283.88
307.961	279.88
308.191	272.88
308.421	279.88
308.651	261.88
308.881	275.88
309.111	288.88
309.341	295.88
309.571	297.88
309.8	304.88
310.03	313.88
310.26	348.88
310.49	333.88
310.72	352.88
310.949	371.88
311.179	367.88
311.409	333.88
311.639	325.88
311.868	335.88
312.098	336.88
312.328	339.88
312.557	362.88
312.787	373.88
313.017	363.88
313.246	357.88
313.476	322.88
313.706	328.88
313.935	329.88
314.165	348.88
314.394	359.88
314.624	367.88
314.853	340.88
315.083	330.88
315.312	316.88
315.542	292.88
315.771	307.88
316.001	324.88
316.23	303.88
316.46	316.88
316.689	327.88
316.919	332.88
317.148	342.88
317.377	340.88
317.607	340.88
317.836	331.88
318.065	317.88
318.295	304.88
318.524	312.88
318.753	311.88
318.983	316.88
319.212	329.88
319.441	317.88
319.67	345.88
319.9	321.88
320.129	329.88
320.358	339.88
320.587	326.88
320.816	335.88
321.046	374.88
321.275	360.88
321.504	341.88
321.733	345.88
321.962	355.88
322.191	374.88
322.42	395.88
322.649	405.88
322.878	434.88
323.108	444.88
323.337	500.88
323.566	504.88
323.795	572.88
324.024	641.88
324.253	788.88
324.482	1167.88
324.71	1798.88
324.939	2474.88
325.168	2164.88
325.397	1205.88
325.626	782.88
325.855	613.88
326.084	571.88
326.313	522.88
326.542	543.88
326.77	577.88
326.999	697.88
327.228	996.88
327.457	1525.88
327.686	1873.88
327.914	1331.88
328.143	850.88
328.372	701.88
328.6	632.88
328.829	604.88
329.058	623.88
329.287	615.88
329.515	556.88
329.744	493.88
329.972	491.88
330.201	493.88
330.43	519.88
330.658	559.88
330.887	629.88
331.115	640.88
331.344	529.88
331.572	462.88
331.801	457.88
332.03	462.88
332.258	429.88
332.486	383.88
332.715	361.88
332.943	387.88
333.172	376.88
333.4	372.88
333.629	392.88
333.857	387.88
334.085	386.88
334.314	382.88
334.542	384.88
334.771	390.88
334.999	385.88
335.227	387.88
335.455	377.88
335.684	371.88
335.912	372.88
336.14	373.88
336.369	369.88
336.597	372.88
336.825	378.88
337.053	382.88
337.281	351.88
337.51	369.88
337.738	359.88
337.966	365.88
338.194	365.88
338.422	380.88
338.65	373.88
338.878	375.88
339.106	343.88
339.334	354.88
339.562	359.88
339.79	351.88
340.018	356.88
340.246	352.88
340.474	355.88
340.702	359.88
340.93	345.88
341.158	342.88
341.386	365.88
341.614	377.88
341.842	380.88
342.07	366.88
342.298	352.88
342.526	324.88
342.754	349.88
342.981	334.88
343.209	344.88
343.437	339.88
343.665	338.88
343.893	372.88
344.12	355.88
344.348	339.88
344.576	358.88
344.804	364.88
345.031	397.88
345.259	394.88
345.487	387.88
345.714	373.88
345.942	367.88
346.17	387.88
346.397	353.88
346.625	357.88
346.853	361.88
347.08	372.88
347.308	359.88
347.535	389.88
347.763	391.88
347.99	363.88
348.218	381.88
348.445	387.88
348.673	396.88
348.9	359.88
349.128	369.88
349.355	343.88
349.583	351.88
349.81	329.88
350.037	342.88
350.265	325.88
350.492	344.88
350.72	340.88
350.947	372.88
351.174	386.88
351.402	393.88
351.629	391.88
351.856	373.88
352.083	382.88
352.311	393.88
352.538	385.88
352.765	417.88
352.992	373.88
353.22	368.88
353.447	364.88
353.674	339.88
353.901	336.88
354.128	338.88
354.355	327.88
354.583	319.88
354.81	341.88
355.037	323.88
355.264	317.88
355.491	316.88
355.718	317.88
355.945	325.88
356.172	316.88
356.399	297.88
356.626	312.88
356.853	313.88
357.08	331.88
357.307	330.88
357.534	317.88
357.761	312.88
357.988	322.88
358.215	333.88
358.441	341.88
358.668	327.88
358.895	329.88
359.122	335.88
359.349	340.88
359.576	370.88
359.802	395.88
360.029	443.88
360.256	461.88
360.483	414.88
360.709	378.88
360.936	361.88
361.163	359.88
361.39	382.88
361.616	376.88
361.843	361.88
362.07	331.88
362.296	396.88
362.523	377.88
362.749	382.88
362.976	355.88
363.203	359.88
363.429	332.88
363.656	356.88
363.882	362.88
364.109	332.88
364.335	342.88
364.562	351.88
364.788	336.88
365.015	351.88
365.241	348.88
365.468	341.88
365.694	361.88
365.92	385.88
366.147	346.88
366.373	332.88
366.599	349.88
366.826	336.88
367.052	327.88
367.278	348.88
367.505	316.88
367.731	338.88
367.957	335.88
368.184	345.88
368.41	334.88
368.636	347.88
368.862	355.88
369.089	341.88
369.315	340.88
369.541	332.88
369.767	338.88
369.993	329.88
370.219	331.88
370.445	341.88
370.672	329.88
370.898	339.88
371.124	315.88
371.35	336.88
371.576	348.88
371.802	304.88
372.028	311.88
372.254	331.88
372.48	323.88
372.706	316.88
372.932	313.88
373.158	336.88
373.384	341.88
373.61	339.88
373.835	331.88
374.061	331.88
374.287	341.88
374.513	328.88
374.739	307.88
374.965	341.88
375.191	320.88
375.416	310.88
375.642	323.88
375.868	320.88
376.094	338.88
376.319	331.88
376.545	325.88
376.771	338.88
376.997	311.88
377.222	324.88
377.448	333.88
377.674	331.88
377.899	315.88
378.125	319.88
378.35	307.88
378.576	313.88
378.802	309.88
379.027	323.88
379.253	329.88
379.478	313.88
379.704	322.88
379.929	317.88
380.155	332.88
380.38	358.88
380.606	344.88
380.831	328.88
381.057	324.88
381.282	320.88
381.507	339.88
381.733	315.88
381.958	337.88
382.184	331.88
382.409	333.88
382.634	331.88
382.86	324.88
383.085	315.88
383.31	347.88
383.535	322.88
383.761	329.88
383.986	344.88
384.211	334.88
384.436	342.88
384.662	330.88
384.887	341.88
385.112	335.88
385.337	331.88
385.562	330.88
385.787	334.88
386.013	349.88
386.238	357.88
386.463	352.88
386.688	339.88
386.913	327.88
387.138	327.88
387.363	345.88
387.588	357.88
387.813	344.88
388.038	360.88
388.263	338.88
388.488	339.88
388.713	339.88
388.938	352.88
389.163	350.88
389.387	354.88
389.612	337.88
389.837	357.88
390.062	332.88
390.287	342.88
390.512	333.88
390.736	345.88
390.961	352.88
391.186	316.88
391.411	331.88
391.636	333.88
391.86	338.88
392.085	355.88
392.31	361.88
392.534	365.88
392.759	347.88
392.984	347.88
393.208	362.88
393.433	331.88
393.658	352.88
393.882	333.88
394.107	341.88
394.331	346.88
394.556	344.88
394.78	356.88
395.005	349.88
395.229	352.88
395.454	353.88
395.678	349.88
395.903	354.88
396.127	378.88
396.352	379.88
396.576	373.88
396.801	374.88
397.025	359.88
397.249	361.88
397.474	348.88
397.698	360.88
397.922	384.88
398.147	407.88
398.371	419.88
398.595	371.88
398.82	379.88
399.044	396.88
399.268	390.88
399.492	425.88
399.717	412.88
399.941	426.88
400.165	469.88
400.389	480.88
400.613	459.88
400.837	439.88
401.062	403.88
401.286	391.88
401.51	388.88
401.734	401.88
401.958	388.88
402.182	407.88
402.406	405.88
402.63	407.88
402.854	415.88
403.078	412.88
403.302	405.88
403.526	416.88
403.75	411.88
403.974	415.88
404.198	396.88
404.422	428.88
404.645	430.88
404.869	418.88
405.093	423.88
405.317	459.88
405.541	482.88
405.765	481.88
405.988	467.88
406.212	451.88
406.436	480.88
406.66	503.88
406.883	479.88
407.107	505.88
407.331	516.88
407.555	575.88
407.778	600.88
408.002	531.88
408.226	492.88
408.449	491.88
408.673	483.88
408.896	502.88
409.12	541.88
409.344	491.88
409.567	466.88
409.791	459.88
410.014	431.88
410.238	391.88
410.461	430.88
410.685	420.88
410.908	431.88
411.132	484.88
411.355	536.88
411.578	492.88
411.802	433.88
412.025	433.88
412.249	419.88
412.472	416.88
412.695	453.88
412.919	418.88
413.142	425.88
413.365	401.88
413.589	402.88
413.812	393.88
414.035	393.88
414.258	396.88
414.482	399.88
414.705	389.88
414.928	415.88
415.151	397.88
415.374	397.88
415.597	375.88
415.821	373.88
416.044	381.88
416.267	388.88
416.49	394.88
416.713	407.88
416.936	408.88
417.159	401.88
417.382	394.88
417.605	389.88
417.828	408.88
418.051	441.88
418.274	438.88
418.497	396.88
418.72	417.88
418.943	403.88
419.166	402.88
419.389	428.88
419.611	429.88
419.834	416.88
420.057	414.88
420.28	404.88
420.503	417.88
420.726	441.88
420.948	459.88
421.171	485.88
421.394	495.88
421.617	461.88
421.839	448.88
422.062	443.88
422.285	458.88
422.507	524.88
422.73	578.88
422.953	583.88
423.175	509.88
423.398	479.88
423.621	468.88
423.843	469.88
424.066	481.88
424.288	501.88
424.511	515.88
424.733	573.88
424.956	625.88
425.178	598.88
425.401	621.88
425.623	634.88
425.846	543.88
426.068	525.88
426.291	496.88
426.513	513.88
426.735	523.88
426.958	573.88
427.18	637.88
427.402	738.88
427.625	842.88
427.847	780.88
428.069	662.88
428.292	579.88
428.514	541.88
428.736	504.88
428.958	495.88
429.181	476.88
429.403	467.88
429.625	465.88
429.847	519.88
430.069	568.88
430.292	558.88
430.514	489.88
430.736	455.88
430.958	446.88
431.18	433.88
431.402	433.88
431.624	420.88
431.846	429.88
432.068	435.88
432.29	442.88
432.512	427.88
432.734	444.88
432.956	427.88
433.178	442.88
433.4	445.88
433.622	405.88
433.844	423.88
434.066	413.88
434.287	420.88
434.509	433.88
434.731	422.88
434.953	448.88
435.175	465.88
435.397	497.88
435.618	514.88
435.84	554.88
436.062	641.88
436.284	708.88
436.505	613.88
436.727	536.88
436.949	491.88
437.17	502.88
437.392	474.88
437.614	501.88
437.835	551.88
438.057	671.88
438.278	732.88
438.5	722.88
438.721	786.88
438.943	739.88
439.165	624.88
439.386	555.88
439.608	543.88
439.829	542.88
440.05	561.88
440.272	585.88
440.493	595.88
440.715	516.88
440.936	488.88
441.158	469.88
441.379	471.88
441.6	495.88
441.822	522.88
442.043	556.88
442.264	635.88
442.486	661.88
442.707	571.88
442.928	541.88
443.149	546.88
443.371	570.88
443.592	592.88
443.813	683.88
444.034	729.88
444.255	619.88
444.476	531.88
444.698	500.88
444.919	484.88
445.14	579.88
445.361	573.88
445.582	565.88
445.803	621.88
446.024	714.88
446.245	736.88
446.466	655.88
446.687	559.88
446.908	530.88
447.129	503.88
447.35	493.88
447.571	487.88
447.792	478.88
448.013	475.88
448.234	534.88
448.455	574.88
448.675	631.88
448.896	767.88
449.117	683.88
449.338	643.88
449.559	708.88
449.779	797.88
450	649.88
450.221	561.88
450.442	524.88
450.662	481.88
450.883	486.88
451.104	532.88
451.324	515.88
451.545	477.88
451.766	431.88
451.986	447.88
452.207	438.88
452.428	432.88
452.648	439.88
452.869	429.88
453.089	448.88
453.31	453.88
453.53	422.88
453.751	434.88
453.971	438.88
454.192	473.88
454.412	450.88
454.633	439.88
454.853	426.88
455.073	404.88
455.294	453.88
455.514	541.88
455.734	515.88
455.955	420.88
456.175	407.88
456.395	409.88
456.616	381.88
456.836	376.88
457.056	395.88
457.276	382.88
457.497	395.88
457.717	384.88
457.937	411.88
458.157	393.88
458.377	431.88
458.598	427.88
458.818	534.88
459.038	627.88
459.258	615.88
459.478	511.88
459.698	472.88
459.918	448.88
460.138	415.88
460.358	430.88
460.578	404.88
460.798	426.88
461.018	428.88
461.238	408.88
461.458	427.88
461.678	399.88
461.898	405.88
462.118	405.88
462.338	413.88
462.558	423.88
462.777	423.88
462.997	421.88
463.217	412.88
463.437	421.88
463.657	415.88
463.876	441.88
464.096	435.88
464.316	431.88
464.536	461.88
464.755	456.88
464.975	451.88
465.195	546.88
465.414	668.88
465.634	557.88
465.854	495.88
466.073	478.88
466.293	441.88
466.512	436.88
466.732	406.88
466.951	412.88
467.171	417.88
467.391	425.88
467.61	433.88
467.829	449.88
468.049	436.88
468.268	427.88
468.488	416.88
468.707	401.88
468.927	396.88
469.146	397.88
469.365	406.88
469.585	393.88
469.804	429.88
470.023	446.88
470.243	435.88
470.462	456.88
470.681	468.88
470.901	449.88
471.12	419.88
471.339	416.88
471.558	429.88
471.777	434.88
471.997	417.88
472.216	403.88
472.435	425.88
472.654	404.88
472.873	416.88
473.092	403.88
473.311	428.88
473.53	430.88
473.749	445.88
473.968	467.88
474.187	597.88
474.406	615.88
474.625	483.88
474.844	443.88
475.063	439.88
475.282	434.88
475.501	441.88
475.72	437.88
475.939	447.88
476.158	417.88
476.377	441.88
476.596	441.88
476.814	438.88
477.033	455.88
477.252	469.88
477.471	464.88
477.69	453.88
477.908	469.88
478.127	444.88
478.346	445.88
478.564	454.88
478.783	468.88
479.002	473.88
479.22	495.88
479.439	495.88
479.658	506.88
479.876	515.88
480.095	540.88
480.313	530.88
480.532	509.88
480.751	513.88
480.969	533.88
481.188	514.88
481.406	523.88
481.624	526.88
481.843	490.88
482.061	497.88
482.28	492.88
482.498	510.88
482.717	507.88
482.935	487.88
483.153	488.88
483.372	480.88
483.59	491.88
483.808	492.88
484.027	519.88
484.245	486.88
484.463	500.88
484.681	517.88
484.9	507.88
485.118	504.88
485.336	511.88
485.554	531.88
485.772	533.88
485.99	521.88
486.209	516.88
486.427	518.88
486.645	559.88
486.863	573.88
487.081	557.88
487.299	568.88
487.517	559.88
487.735	545.88
487.953	551.88
488.171	559.88
488.389	564.88
488.607	549.88
488.825	568.88
489.043	559.88
489.261	579.88
489.479	553.88
489.696	557.88
489.914	564.88
490.132	591.88
490.35	592.88
490.568	583.88
490.786	575.88
491.003	608.88
491.221	615.88
491.439	604.88
491.657	633.88
491.874	639.88
492.092	641.88
492.31	642.88
492.527	636.88
492.745	638.88
492.963	633.88
493.18	632.88
493.398	657.88
493.615	649.88
493.833	647.88
494.05	648.88
494.268	645.88
494.485	662.88
494.703	651.88
494.92	653.88
495.138	646.88
495.355	667.88
495.573	675.88
495.79	644.88
496.008	671.88
496.225	669.88
496.442	674.88
496.66	671.88
496.877	665.88
497.094	689.88
497.312	682.88
497.529	659.88
497.746	675.88
497.963	701.88
498.181	699.88
498.398	681.88
498.615	745.88
498.832	731.88
499.049	721.88
499.267	711.88
499.484	737.88
499.701	727.88
499.918	761.88
500.135	766.88
500.352	773.88
500.569	780.88
500.786	779.88
501.003	767.88
501.22	779.88
501.437	781.88
501.654	792.88
501.871	783.88
