Data from 1987.PennyLincolnUp.Lamp.En5.5.200Scan.071819.P2_HRD10591_17-16-48-971.txt Node
Date: Thu Jul 18 17:16:48 EDT 2019
User: cochatt
Spectrometer: HR+D1059
Trigger mode: 1
Integration Time (sec): 1.000000E-1
Scans to average: 1
Electric dark correction enabled: true
Nonlinearity correction enabled: false
Boxcar width: 0
XAxis mode: Wavelengths
Number of Pixels in Spectrum: 2048
>>>>>Begin Spectral Data<<<<<
223.165	-8.25
223.4	-8.25
223.635	-8.25
223.869	-17.25
224.104	-0.25
224.338	-14.25
224.573	-18.25
224.808	-11.25
225.042	-27.25
225.277	-5.25
225.511	-19.25
225.746	13.75
225.98	12.75
226.215	8.75
226.449	22.75
226.683	14.75
226.918	31.75
227.152	16.75
227.387	33.75
227.621	45.75
227.856	43.75
228.09	35.75
228.324	51.75
228.559	62.75
228.793	75.75
229.027	118.75
229.262	113.75
229.496	134.75
229.73	155.75
229.964	179.75
230.199	143.75
230.433	128.75
230.667	122.75
230.901	115.75
231.136	123.75
231.37	112.75
231.604	109.75
231.838	97.75
232.072	115.75
232.306	109.75
232.541	119.75
232.775	117.75
233.009	98.75
233.243	109.75
233.477	120.75
233.711	124.75
233.945	124.75
234.179	124.75
234.413	111.75
234.647	109.75
234.881	121.75
235.115	123.75
235.349	133.75
235.583	118.75
235.817	119.75
236.051	139.75
236.285	138.75
236.519	122.75
236.753	118.75
236.987	167.75
237.221	203.75
237.455	269.75
237.689	208.75
237.922	151.75
238.156	140.75
238.39	146.75
238.624	146.75
238.858	102.75
239.091	112.75
239.325	111.75
239.559	128.75
239.793	136.75
240.027	135.75
240.26	142.75
240.494	170.75
240.728	156.75
240.961	166.75
241.195	142.75
241.429	146.75
241.662	140.75
241.896	133.75
242.13	145.75
242.363	130.75
242.597	128.75
242.83	138.75
243.064	122.75
243.298	130.75
243.531	143.75
243.765	130.75
243.998	142.75
244.232	119.75
244.465	145.75
244.699	151.75
244.932	142.75
245.166	136.75
245.399	135.75
245.633	143.75
245.866	138.75
246.099	138.75
246.333	137.75
246.566	151.75
246.8	150.75
247.033	137.75
247.266	153.75
247.5	155.75
247.733	168.75
247.966	176.75
248.2	171.75
248.433	176.75
248.666	186.75
248.899	181.75
249.133	209.75
249.366	227.75
249.599	225.75
249.832	183.75
250.066	181.75
250.299	174.75
250.532	184.75
250.765	206.75
250.998	228.75
251.231	230.75
251.465	206.75
251.698	204.75
251.931	200.75
252.164	195.75
252.397	218.75
252.63	208.75
252.863	202.75
253.096	224.75
253.329	229.75
253.562	222.75
253.795	232.75
254.028	215.75
254.261	204.75
254.494	244.75
254.727	269.75
254.96	288.75
255.193	278.75
255.426	262.75
255.659	236.75
255.892	232.75
256.124	233.75
256.357	228.75
256.59	213.75
256.823	194.75
257.056	206.75
257.289	209.75
257.521	203.75
257.754	199.75
257.987	203.75
258.22	202.75
258.452	191.75
258.685	202.75
258.918	216.75
259.151	223.75
259.383	201.75
259.616	218.75
259.849	209.75
260.081	219.75
260.314	239.75
260.547	257.75
260.779	237.75
261.012	234.75
261.244	219.75
261.477	222.75
261.71	226.75
261.942	226.75
262.175	235.75
262.407	251.75
262.64	229.75
262.872	210.75
263.105	200.75
263.337	215.75
263.57	203.75
263.802	208.75
264.035	197.75
264.267	196.75
264.499	191.75
264.732	194.75
264.964	211.75
265.197	195.75
265.429	202.75
265.661	194.75
265.894	205.75
266.126	210.75
266.358	195.75
266.591	194.75
266.823	195.75
267.055	203.75
267.287	203.75
267.52	220.75
267.752	229.75
267.984	213.75
268.216	220.75
268.448	216.75
268.681	217.75
268.913	226.75
269.145	246.75
269.377	271.75
269.609	268.75
269.841	270.75
270.073	267.75
270.306	300.75
270.538	308.75
270.77	308.75
271.002	314.75
271.234	297.75
271.466	300.75
271.698	312.75
271.93	300.75
272.162	342.75
272.394	323.75
272.626	297.75
272.858	297.75
273.09	277.75
273.322	280.75
273.553	269.75
273.785	262.75
274.017	239.75
274.249	245.75
274.481	244.75
274.713	243.75
274.945	251.75
275.176	263.75
275.408	243.75
275.64	229.75
275.872	244.75
276.104	268.75
276.335	242.75
276.567	265.75
276.799	281.75
277.031	300.75
277.262	300.75
277.494	303.75
277.726	268.75
277.957	285.75
278.189	251.75
278.421	263.75
278.652	253.75
278.884	234.75
279.115	238.75
279.347	235.75
279.579	251.75
279.81	248.75
280.042	229.75
280.273	239.75
280.505	242.75
280.736	239.75
280.968	245.75
281.199	234.75
281.431	222.75
281.662	227.75
281.894	222.75
282.125	235.75
282.356	242.75
282.588	293.75
282.819	279.75
283.051	239.75
283.282	229.75
283.513	239.75
283.745	220.75
283.976	238.75
284.207	245.75
284.439	226.75
284.67	232.75
284.901	251.75
285.132	237.75
285.364	223.75
285.595	231.75
285.826	244.75
286.057	244.75
286.288	237.75
286.52	250.75
286.751	236.75
286.982	235.75
287.213	227.75
287.444	240.75
287.675	255.75
287.906	243.75
288.138	266.75
288.369	258.75
288.6	279.75
288.831	258.75
289.062	244.75
289.293	249.75
289.524	254.75
289.755	241.75
289.986	240.75
290.217	242.75
290.448	242.75
290.679	230.75
290.91	224.75
291.141	239.75
291.371	242.75
291.602	243.75
291.833	212.75
292.064	244.75
292.295	254.75
292.526	260.75
292.757	245.75
292.987	230.75
293.218	247.75
293.449	244.75
293.68	250.75
293.91	224.75
294.141	235.75
294.372	227.75
294.603	244.75
294.833	251.75
295.064	243.75
295.295	255.75
295.525	254.75
295.756	241.75
295.987	248.75
296.217	294.75
296.448	315.75
296.679	258.75
296.909	265.75
297.14	243.75
297.37	260.75
297.601	252.75
297.831	245.75
298.062	245.75
298.292	264.75
298.523	258.75
298.753	260.75
298.984	245.75
299.214	242.75
299.445	265.75
299.675	269.75
299.905	256.75
300.136	260.75
300.366	262.75
300.597	262.75
300.827	272.75
301.057	279.75
301.288	294.75
301.518	294.75
301.748	270.75
301.979	247.75
302.209	278.75
302.439	261.75
302.669	268.75
302.9	270.75
303.13	279.75
303.36	292.75
303.59	281.75
303.82	272.75
304.051	271.75
304.281	277.75
304.511	273.75
304.741	263.75
304.971	244.75
305.201	263.75
305.431	287.75
305.661	263.75
305.891	271.75
306.121	256.75
306.352	303.75
306.582	286.75
306.812	279.75
307.042	270.75
307.272	283.75
307.502	302.75
307.731	266.75
307.961	292.75
308.191	291.75
308.421	277.75
308.651	295.75
308.881	298.75
309.111	297.75
309.341	293.75
309.571	323.75
309.8	326.75
310.03	350.75
310.26	353.75
310.49	336.75
310.72	340.75
310.949	395.75
311.179	388.75
311.409	365.75
311.639	344.75
311.868	346.75
312.098	361.75
312.328	363.75
312.557	369.75
312.787	416.75
313.017	401.75
313.246	367.75
313.476	351.75
313.706	359.75
313.935	354.75
314.165	373.75
314.394	396.75
314.624	378.75
314.853	361.75
315.083	366.75
315.312	340.75
315.542	325.75
315.771	333.75
316.001	315.75
316.23	332.75
316.46	339.75
316.689	339.75
316.919	340.75
317.148	351.75
317.377	354.75
317.607	349.75
317.836	360.75
318.065	355.75
318.295	334.75
318.524	330.75
318.753	326.75
318.983	332.75
319.212	330.75
319.441	356.75
319.67	367.75
319.9	334.75
320.129	339.75
320.358	333.75
320.587	363.75
320.816	350.75
321.046	370.75
321.275	372.75
321.504	360.75
321.733	378.75
321.962	385.75
322.191	400.75
322.42	426.75
322.649	448.75
322.878	464.75
323.108	478.75
323.337	523.75
323.566	547.75
323.795	591.75
324.024	686.75
324.253	893.75
324.482	1297.75
324.71	1957.75
324.939	2718.75
325.168	2402.75
325.397	1341.75
325.626	846.75
325.855	684.75
326.084	598.75
326.313	564.75
326.542	567.75
326.77	635.75
326.999	772.75
327.228	1100.75
327.457	1726.75
327.686	2106.75
327.914	1428.75
328.143	926.75
328.372	790.75
328.6	704.75
328.829	666.75
329.058	691.75
329.287	683.75
329.515	635.75
329.744	559.75
329.972	518.75
330.201	532.75
330.43	565.75
330.658	637.75
330.887	688.75
331.115	662.75
331.344	552.75
331.572	509.75
331.801	518.75
332.03	493.75
332.258	467.75
332.486	414.75
332.715	383.75
332.943	401.75
333.172	392.75
333.4	381.75
333.629	401.75
333.857	436.75
334.085	415.75
334.314	410.75
334.542	391.75
334.771	414.75
334.999	391.75
335.227	398.75
335.455	375.75
335.684	380.75
335.912	391.75
336.14	380.75
336.369	374.75
336.597	401.75
336.825	392.75
337.053	396.75
337.281	379.75
337.51	387.75
337.738	384.75
337.966	383.75
338.194	380.75
338.422	379.75
338.65	395.75
338.878	378.75
339.106	382.75
339.334	360.75
339.562	355.75
339.79	355.75
340.018	387.75
340.246	382.75
340.474	384.75
340.702	388.75
340.93	406.75
341.158	374.75
341.386	374.75
341.614	387.75
341.842	387.75
342.07	371.75
342.298	384.75
342.526	381.75
342.754	358.75
342.981	359.75
343.209	356.75
343.437	342.75
343.665	365.75
343.893	366.75
344.12	355.75
344.348	379.75
344.576	390.75
344.804	390.75
345.031	393.75
345.259	424.75
345.487	412.75
345.714	398.75
345.942	376.75
346.17	367.75
346.397	386.75
346.625	388.75
346.853	365.75
347.08	386.75
347.308	372.75
347.535	386.75
347.763	416.75
347.99	391.75
348.218	389.75
348.445	417.75
348.673	418.75
348.9	381.75
349.128	362.75
349.355	346.75
349.583	356.75
349.81	355.75
350.037	362.75
350.265	347.75
350.492	359.75
350.72	373.75
350.947	361.75
351.174	363.75
351.402	425.75
351.629	393.75
351.856	396.75
352.083	405.75
352.311	427.75
352.538	425.75
352.765	416.75
352.992	406.75
353.22	415.75
353.447	379.75
353.674	370.75
353.901	374.75
354.128	351.75
354.355	346.75
354.583	340.75
354.81	354.75
355.037	335.75
355.264	310.75
355.491	320.75
355.718	309.75
355.945	318.75
356.172	318.75
356.399	333.75
356.626	329.75
356.853	328.75
357.08	318.75
357.307	333.75
357.534	329.75
357.761	328.75
357.988	333.75
358.215	340.75
358.441	335.75
358.668	347.75
358.895	343.75
359.122	346.75
359.349	352.75
359.576	393.75
359.802	416.75
360.029	484.75
360.256	488.75
360.483	448.75
360.709	400.75
360.936	403.75
361.163	409.75
361.39	383.75
361.616	412.75
361.843	387.75
362.07	363.75
362.296	393.75
362.523	406.75
362.749	390.75
362.976	364.75
363.203	363.75
363.429	361.75
363.656	364.75
363.882	342.75
364.109	342.75
364.335	345.75
364.562	370.75
364.788	356.75
365.015	348.75
365.241	352.75
365.468	372.75
365.694	359.75
365.92	384.75
366.147	372.75
366.373	331.75
366.599	352.75
366.826	351.75
367.052	334.75
367.278	317.75
367.505	349.75
367.731	336.75
367.957	345.75
368.184	357.75
368.41	347.75
368.636	365.75
368.862	371.75
369.089	376.75
369.315	355.75
369.541	328.75
369.767	355.75
369.993	357.75
370.219	340.75
370.445	354.75
370.672	331.75
370.898	328.75
371.124	319.75
371.35	328.75
371.576	312.75
371.802	340.75
372.028	318.75
372.254	321.75
372.48	330.75
372.706	322.75
372.932	312.75
373.158	341.75
373.384	330.75
373.61	330.75
373.835	324.75
374.061	315.75
374.287	343.75
374.513	330.75
374.739	342.75
374.965	344.75
375.191	338.75
375.416	330.75
375.642	339.75
375.868	329.75
376.094	328.75
376.319	334.75
376.545	334.75
376.771	314.75
376.997	332.75
377.222	345.75
377.448	336.75
377.674	347.75
377.899	315.75
378.125	320.75
378.35	316.75
378.576	322.75
378.802	313.75
379.027	336.75
379.253	341.75
379.478	325.75
379.704	340.75
379.929	340.75
380.155	324.75
380.38	349.75
380.606	330.75
380.831	325.75
381.057	346.75
381.282	333.75
381.507	326.75
381.733	328.75
381.958	333.75
382.184	335.75
382.409	342.75
382.634	352.75
382.86	341.75
383.085	338.75
383.31	340.75
383.535	327.75
383.761	352.75
383.986	340.75
384.211	347.75
384.436	338.75
384.662	331.75
384.887	346.75
385.112	349.75
385.337	350.75
385.562	365.75
385.787	349.75
386.013	363.75
386.238	365.75
386.463	373.75
386.688	363.75
386.913	341.75
387.138	367.75
387.363	343.75
387.588	353.75
387.813	341.75
388.038	363.75
388.263	347.75
388.488	359.75
388.713	343.75
388.938	350.75
389.163	358.75
389.387	341.75
389.612	341.75
389.837	343.75
390.062	338.75
390.287	360.75
390.512	350.75
390.736	346.75
390.961	350.75
391.186	352.75
391.411	361.75
391.636	344.75
391.86	337.75
392.085	335.75
392.31	346.75
392.534	337.75
392.759	338.75
392.984	366.75
393.208	349.75
393.433	357.75
393.658	339.75
393.882	344.75
394.107	358.75
394.331	355.75
394.556	330.75
394.78	341.75
395.005	360.75
395.229	360.75
395.454	356.75
395.678	336.75
395.903	371.75
396.127	392.75
396.352	389.75
396.576	392.75
396.801	380.75
397.025	372.75
397.249	364.75
397.474	362.75
397.698	370.75
397.922	385.75
398.147	409.75
398.371	392.75
398.595	374.75
398.82	381.75
399.044	396.75
399.268	398.75
399.492	421.75
399.717	419.75
399.941	451.75
400.165	484.75
400.389	500.75
400.613	467.75
400.837	422.75
401.062	416.75
401.286	413.75
401.51	399.75
401.734	399.75
401.958	403.75
402.182	409.75
402.406	424.75
402.63	436.75
402.854	420.75
403.078	420.75
403.302	440.75
403.526	437.75
403.75	432.75
403.974	414.75
404.198	428.75
404.422	407.75
404.645	426.75
404.869	432.75
405.093	440.75
405.317	489.75
405.541	516.75
405.765	470.75
405.988	438.75
406.212	464.75
406.436	500.75
406.66	476.75
406.883	485.75
407.107	492.75
407.331	540.75
407.555	596.75
407.778	606.75
408.002	546.75
408.226	514.75
408.449	470.75
408.673	485.75
408.896	511.75
409.12	549.75
409.344	520.75
409.567	462.75
409.791	450.75
410.014	428.75
410.238	423.75
410.461	430.75
410.685	446.75
410.908	464.75
411.132	472.75
411.355	532.75
411.578	480.75
411.802	437.75
412.025	422.75
412.249	437.75
412.472	436.75
412.695	443.75
412.919	451.75
413.142	428.75
413.365	406.75
413.589	407.75
413.812	403.75
414.035	406.75
414.258	382.75
414.482	398.75
414.705	379.75
414.928	359.75
415.151	393.75
415.374	400.75
415.597	382.75
415.821	364.75
416.044	390.75
416.267	414.75
416.49	397.75
416.713	410.75
416.936	416.75
417.159	393.75
417.382	420.75
417.605	397.75
417.828	407.75
418.051	428.75
418.274	438.75
418.497	428.75
418.72	427.75
418.943	420.75
419.166	405.75
419.389	444.75
419.611	419.75
419.834	423.75
420.057	450.75
420.28	436.75
420.503	426.75
420.726	445.75
420.948	448.75
421.171	469.75
421.394	516.75
421.617	488.75
421.839	450.75
422.062	452.75
422.285	462.75
422.507	525.75
422.73	622.75
422.953	586.75
423.175	504.75
423.398	474.75
423.621	483.75
423.843	487.75
424.066	506.75
424.288	488.75
424.511	518.75
424.733	570.75
424.956	656.75
425.178	640.75
425.401	636.75
425.623	667.75
425.846	567.75
426.068	538.75
426.291	507.75
426.513	527.75
426.735	523.75
426.958	581.75
427.18	664.75
427.402	786.75
427.625	887.75
427.847	834.75
428.069	691.75
428.292	576.75
428.514	535.75
428.736	532.75
428.958	493.75
429.181	472.75
429.403	482.75
429.625	487.75
429.847	530.75
430.069	618.75
430.292	586.75
430.514	505.75
430.736	473.75
430.958	458.75
431.18	433.75
431.402	428.75
431.624	418.75
431.846	430.75
432.068	424.75
432.29	441.75
432.512	449.75
432.734	464.75
432.956	453.75
433.178	452.75
433.4	452.75
433.622	456.75
433.844	428.75
434.066	422.75
434.287	422.75
434.509	427.75
434.731	458.75
434.953	465.75
435.175	451.75
435.397	504.75
435.618	517.75
435.84	587.75
436.062	656.75
436.284	712.75
436.505	612.75
436.727	554.75
436.949	494.75
437.17	477.75
437.392	462.75
437.614	532.75
437.835	559.75
438.057	669.75
438.278	755.75
438.5	758.75
438.721	782.75
438.943	746.75
439.165	635.75
439.386	578.75
439.608	559.75
439.829	558.75
440.05	587.75
440.272	630.75
440.493	594.75
440.715	532.75
440.936	518.75
441.158	507.75
441.379	504.75
441.6	498.75
441.822	548.75
442.043	558.75
442.264	639.75
442.486	678.75
442.707	598.75
442.928	553.75
443.149	548.75
443.371	574.75
443.592	636.75
443.813	684.75
444.034	734.75
444.255	617.75
444.476	555.75
444.698	503.75
444.919	517.75
445.14	604.75
445.361	563.75
445.582	575.75
445.803	620.75
446.024	737.75
446.245	754.75
446.466	693.75
446.687	599.75
446.908	536.75
447.129	501.75
447.35	487.75
447.571	462.75
447.792	495.75
448.013	517.75
448.234	524.75
448.455	603.75
448.675	661.75
448.896	739.75
449.117	661.75
449.338	638.75
449.559	716.75
449.779	788.75
450	678.75
450.221	552.75
450.442	532.75
450.662	510.75
450.883	501.75
451.104	544.75
451.324	536.75
451.545	484.75
451.766	477.75
451.986	442.75
452.207	439.75
452.428	439.75
452.648	445.75
452.869	460.75
453.089	444.75
453.31	477.75
453.53	462.75
453.751	435.75
453.971	453.75
454.192	478.75
454.412	500.75
454.633	465.75
454.853	436.75
455.073	445.75
455.294	488.75
455.514	562.75
455.734	530.75
455.955	461.75
456.175	421.75
456.395	404.75
456.616	400.75
456.836	409.75
457.056	404.75
457.276	401.75
457.497	379.75
457.717	395.75
457.937	409.75
458.157	419.75
458.377	426.75
458.598	451.75
458.818	548.75
459.038	655.75
459.258	652.75
459.478	540.75
459.698	470.75
459.918	440.75
460.138	444.75
460.358	451.75
460.578	429.75
460.798	454.75
461.018	440.75
461.238	414.75
461.458	428.75
461.678	406.75
461.898	411.75
462.118	420.75
462.338	422.75
462.558	426.75
462.777	412.75
462.997	422.75
463.217	425.75
463.437	410.75
463.657	437.75
463.876	438.75
464.096	432.75
464.316	427.75
464.536	460.75
464.755	457.75
464.975	474.75
465.195	568.75
465.414	704.75
465.634	601.75
465.854	498.75
466.073	471.75
466.293	479.75
466.512	446.75
466.732	434.75
466.951	428.75
467.171	425.75
467.391	421.75
467.61	450.75
467.829	464.75
468.049	445.75
468.268	430.75
468.488	413.75
468.707	413.75
468.927	414.75
469.146	409.75
469.365	407.75
469.585	416.75
469.804	417.75
470.023	423.75
470.243	438.75
470.462	437.75
470.681	471.75
470.901	476.75
471.12	428.75
471.339	445.75
471.558	431.75
471.777	441.75
471.997	433.75
472.216	423.75
472.435	420.75
472.654	440.75
472.873	434.75
473.092	424.75
473.311	416.75
473.53	428.75
473.749	458.75
473.968	489.75
474.187	627.75
474.406	641.75
474.625	533.75
474.844	448.75
475.063	444.75
475.282	414.75
475.501	431.75
475.72	456.75
475.939	467.75
476.158	439.75
476.377	443.75
476.596	425.75
476.814	472.75
477.033	466.75
477.252	459.75
477.471	455.75
477.69	462.75
477.908	468.75
478.127	478.75
478.346	473.75
478.564	490.75
478.783	478.75
479.002	502.75
479.22	488.75
479.439	505.75
479.658	537.75
479.876	542.75
480.095	547.75
480.313	554.75
480.532	554.75
480.751	526.75
480.969	520.75
481.188	549.75
481.406	544.75
481.624	542.75
481.843	515.75
482.061	512.75
482.28	506.75
482.498	498.75
482.717	502.75
482.935	519.75
483.153	519.75
483.372	515.75
483.59	518.75
483.808	518.75
484.027	524.75
484.245	518.75
484.463	502.75
484.681	520.75
484.9	523.75
485.118	540.75
485.336	537.75
485.554	543.75
485.772	522.75
485.99	541.75
486.209	524.75
486.427	558.75
486.645	548.75
486.863	597.75
487.081	564.75
487.299	582.75
487.517	569.75
487.735	578.75
487.953	567.75
488.171	564.75
488.389	554.75
488.607	587.75
488.825	583.75
489.043	592.75
489.261	574.75
489.479	568.75
489.696	578.75
489.914	587.75
490.132	564.75
490.35	599.75
490.568	591.75
490.786	602.75
491.003	622.75
491.221	627.75
491.439	618.75
491.657	638.75
491.874	626.75
492.092	668.75
492.31	650.75
492.527	659.75
492.745	649.75
492.963	679.75
493.18	661.75
493.398	655.75
493.615	668.75
493.833	642.75
494.05	671.75
494.268	657.75
494.485	676.75
494.703	676.75
494.92	694.75
495.138	669.75
495.355	672.75
495.573	703.75
495.79	710.75
496.008	680.75
496.225	704.75
496.442	676.75
496.66	668.75
496.877	679.75
497.094	670.75
497.312	700.75
497.529	702.75
497.746	696.75
497.963	703.75
498.181	731.75
498.398	716.75
498.615	725.75
498.832	712.75
499.049	718.75
499.267	700.75
499.484	732.75
499.701	768.75
499.918	770.75
500.135	759.75
500.352	771.75
500.569	770.75
500.786	800.75
501.003	816.75
501.22	805.75
501.437	808.75
501.654	797.75
501.871	807.75
