Data from 1987.PennyLincolnUp.Lamp.En5.5.200Scan.071819.P2_HRD10591_17-13-53-975.txt Node
Date: Thu Jul 18 17:13:53 EDT 2019
User: cochatt
Spectrometer: HR+D1059
Trigger mode: 1
Integration Time (sec): 1.000000E-1
Scans to average: 1
Electric dark correction enabled: true
Nonlinearity correction enabled: false
Boxcar width: 0
XAxis mode: Wavelengths
Number of Pixels in Spectrum: 2048
>>>>>Begin Spectral Data<<<<<
223.165	-16.56
223.4	-16.56
223.635	-16.56
223.869	-18.56
224.104	-3.56
224.338	-12.56
224.573	-15.56
224.808	-15.56
225.042	-5.56
225.277	-10.56
225.511	1.44
225.746	7.44
225.98	1.44
226.215	4.44
226.449	5.44
226.683	11.44
226.918	32.44
227.152	34.44
227.387	23.44
227.621	34.44
227.856	45.44
228.09	54.44
228.324	42.44
228.559	59.44
228.793	72.44
229.027	94.44
229.262	108.44
229.496	110.44
229.73	116.44
229.964	140.44
230.199	118.44
230.433	115.44
230.667	110.44
230.901	94.44
231.136	112.44
231.37	93.44
231.604	116.44
231.838	107.44
232.072	98.44
232.306	85.44
232.541	96.44
232.775	98.44
233.009	95.44
233.243	99.44
233.477	100.44
233.711	112.44
233.945	102.44
234.179	103.44
234.413	105.44
234.647	107.44
234.881	101.44
235.115	106.44
235.349	104.44
235.583	104.44
235.817	103.44
236.051	101.44
236.285	121.44
236.519	117.44
236.753	133.44
236.987	140.44
237.221	152.44
237.455	188.44
237.689	178.44
237.922	127.44
238.156	114.44
238.39	104.44
238.624	108.44
238.858	108.44
239.091	119.44
239.325	112.44
239.559	110.44
239.793	106.44
240.027	112.44
240.26	127.44
240.494	135.44
240.728	118.44
240.961	137.44
241.195	131.44
241.429	132.44
241.662	104.44
241.896	114.44
242.13	107.44
242.363	120.44
242.597	118.44
242.83	116.44
243.064	128.44
243.298	104.44
243.531	117.44
243.765	129.44
243.998	121.44
244.232	109.44
244.465	109.44
244.699	108.44
244.932	125.44
245.166	111.44
245.399	137.44
245.633	127.44
245.866	125.44
246.099	114.44
246.333	127.44
246.566	123.44
246.8	124.44
247.033	127.44
247.266	126.44
247.5	142.44
247.733	132.44
247.966	133.44
248.2	131.44
248.433	137.44
248.666	168.44
248.899	153.44
249.133	159.44
249.366	161.44
249.599	179.44
249.832	146.44
250.066	137.44
250.299	139.44
250.532	150.44
250.765	151.44
250.998	157.44
251.231	176.44
251.465	158.44
251.698	169.44
251.931	162.44
252.164	168.44
252.397	172.44
252.63	163.44
252.863	167.44
253.096	166.44
253.329	179.44
253.562	181.44
253.795	189.44
254.028	158.44
254.261	173.44
254.494	183.44
254.727	211.44
254.96	203.44
255.193	203.44
255.426	168.44
255.659	176.44
255.892	193.44
256.124	185.44
256.357	191.44
256.59	174.44
256.823	173.44
257.056	173.44
257.289	171.44
257.521	162.44
257.754	159.44
257.987	147.44
258.22	159.44
258.452	166.44
258.685	167.44
258.918	171.44
259.151	167.44
259.383	181.44
259.616	154.44
259.849	165.44
260.081	183.44
260.314	191.44
260.547	186.44
260.779	181.44
261.012	188.44
261.244	189.44
261.477	166.44
261.71	173.44
261.942	174.44
262.175	186.44
262.407	171.44
262.64	161.44
262.872	160.44
263.105	174.44
263.337	155.44
263.57	159.44
263.802	148.44
264.035	170.44
264.267	165.44
264.499	152.44
264.732	159.44
264.964	167.44
265.197	169.44
265.429	160.44
265.661	152.44
265.894	154.44
266.126	159.44
266.358	143.44
266.591	145.44
266.823	162.44
267.055	154.44
267.287	163.44
267.52	172.44
267.752	172.44
267.984	169.44
268.216	165.44
268.448	177.44
268.681	163.44
268.913	181.44
269.145	175.44
269.377	191.44
269.609	173.44
269.841	191.44
270.073	193.44
270.306	197.44
270.538	225.44
270.77	226.44
271.002	226.44
271.234	206.44
271.466	207.44
271.698	216.44
271.93	232.44
272.162	208.44
272.394	216.44
272.626	222.44
272.858	211.44
273.09	207.44
273.322	211.44
273.553	193.44
273.785	187.44
274.017	181.44
274.249	190.44
274.481	183.44
274.713	185.44
274.945	203.44
275.176	187.44
275.408	195.44
275.64	191.44
275.872	174.44
276.104	185.44
276.335	181.44
276.567	187.44
276.799	192.44
277.031	218.44
277.262	210.44
277.494	232.44
277.726	220.44
277.957	190.44
278.189	191.44
278.421	192.44
278.652	168.44
278.884	185.44
279.115	193.44
279.347	190.44
279.579	189.44
279.81	181.44
280.042	185.44
280.273	181.44
280.505	196.44
280.736	184.44
280.968	191.44
281.199	169.44
281.431	193.44
281.662	185.44
281.894	184.44
282.125	190.44
282.356	200.44
282.588	223.44
282.819	216.44
283.051	206.44
283.282	179.44
283.513	169.44
283.745	200.44
283.976	180.44
284.207	206.44
284.439	191.44
284.67	181.44
284.901	183.44
285.132	186.44
285.364	186.44
285.595	191.44
285.826	183.44
286.057	188.44
286.288	176.44
286.52	187.44
286.751	192.44
286.982	187.44
287.213	204.44
287.444	173.44
287.675	206.44
287.906	203.44
288.138	190.44
288.369	197.44
288.6	202.44
288.831	186.44
289.062	209.44
289.293	192.44
289.524	198.44
289.755	200.44
289.986	194.44
290.217	188.44
290.448	196.44
290.679	193.44
290.91	199.44
291.141	180.44
291.371	193.44
291.602	189.44
291.833	175.44
292.064	185.44
292.295	189.44
292.526	187.44
292.757	171.44
292.987	193.44
293.218	197.44
293.449	180.44
293.68	185.44
293.91	188.44
294.141	183.44
294.372	201.44
294.603	209.44
294.833	203.44
295.064	203.44
295.295	187.44
295.525	196.44
295.756	195.44
295.987	214.44
296.217	216.44
296.448	228.44
296.679	179.44
296.909	214.44
297.14	184.44
297.37	207.44
297.601	187.44
297.831	190.44
298.062	195.44
298.292	191.44
298.523	211.44
298.753	200.44
298.984	191.44
299.214	198.44
299.445	190.44
299.675	197.44
299.905	191.44
300.136	213.44
300.366	197.44
300.597	197.44
300.827	204.44
301.057	194.44
301.288	215.44
301.518	196.44
301.748	203.44
301.979	199.44
302.209	193.44
302.439	216.44
302.669	216.44
302.9	218.44
303.13	202.44
303.36	209.44
303.59	204.44
303.82	216.44
304.051	221.44
304.281	222.44
304.511	221.44
304.741	226.44
304.971	222.44
305.201	208.44
305.431	224.44
305.661	224.44
305.891	219.44
306.121	219.44
306.352	209.44
306.582	233.44
306.812	225.44
307.042	203.44
307.272	209.44
307.502	220.44
307.731	213.44
307.961	208.44
308.191	191.44
308.421	229.44
308.651	208.44
308.881	234.44
309.111	231.44
309.341	229.44
309.571	227.44
309.8	243.44
310.03	233.44
310.26	235.44
310.49	252.44
310.72	260.44
310.949	270.44
311.179	264.44
311.409	231.44
311.639	239.44
311.868	253.44
312.098	246.44
312.328	246.44
312.557	246.44
312.787	276.44
313.017	277.44
313.246	265.44
313.476	250.44
313.706	249.44
313.935	247.44
314.165	263.44
314.394	268.44
314.624	253.44
314.853	254.44
315.083	245.44
315.312	247.44
315.542	231.44
315.771	223.44
316.001	246.44
316.23	236.44
316.46	242.44
316.689	245.44
316.919	248.44
317.148	253.44
317.377	271.44
317.607	255.44
317.836	257.44
318.065	250.44
318.295	259.44
318.524	263.44
318.753	244.44
318.983	252.44
319.212	238.44
319.441	255.44
319.67	263.44
319.9	252.44
320.129	248.44
320.358	243.44
320.587	245.44
320.816	251.44
321.046	257.44
321.275	252.44
321.504	256.44
321.733	292.44
321.962	255.44
322.191	277.44
322.42	265.44
322.649	282.44
322.878	315.44
323.108	307.44
323.337	346.44
323.566	357.44
323.795	382.44
324.024	413.44
324.253	497.44
324.482	694.44
324.71	1047.44
324.939	1469.44
325.168	1303.44
325.397	726.44
325.626	481.44
325.855	400.44
326.084	359.44
326.313	354.44
326.542	336.44
326.77	372.44
326.999	453.44
327.228	600.44
327.457	901.44
327.686	1111.44
327.914	758.44
328.143	506.44
328.372	447.44
328.6	396.44
328.829	391.44
329.058	399.44
329.287	395.44
329.515	384.44
329.744	355.44
329.972	359.44
330.201	345.44
330.43	373.44
330.658	383.44
330.887	418.44
331.115	408.44
331.344	349.44
331.572	341.44
331.801	326.44
332.03	337.44
332.258	301.44
332.486	294.44
332.715	313.44
332.943	283.44
333.172	291.44
333.4	282.44
333.629	298.44
333.857	281.44
334.085	300.44
334.314	289.44
334.542	293.44
334.771	290.44
334.999	288.44
335.227	291.44
335.455	282.44
335.684	271.44
335.912	285.44
336.14	267.44
336.369	289.44
336.597	281.44
336.825	281.44
337.053	288.44
337.281	287.44
337.51	281.44
337.738	287.44
337.966	299.44
338.194	292.44
338.422	308.44
338.65	283.44
338.878	278.44
339.106	265.44
339.334	285.44
339.562	270.44
339.79	276.44
340.018	289.44
340.246	301.44
340.474	281.44
340.702	286.44
340.93	263.44
341.158	267.44
341.386	293.44
341.614	278.44
341.842	267.44
342.07	277.44
342.298	263.44
342.526	284.44
342.754	272.44
342.981	271.44
343.209	279.44
343.437	273.44
343.665	271.44
343.893	260.44
344.12	281.44
344.348	268.44
344.576	285.44
344.804	291.44
345.031	291.44
345.259	305.44
345.487	300.44
345.714	297.44
345.942	279.44
346.17	258.44
346.397	263.44
346.625	277.44
346.853	281.44
347.08	272.44
347.308	270.44
347.535	292.44
347.763	282.44
347.99	300.44
348.218	303.44
348.445	295.44
348.673	290.44
348.9	286.44
349.128	278.44
349.355	259.44
349.583	270.44
349.81	269.44
350.037	259.44
350.265	280.44
350.492	261.44
350.72	260.44
350.947	278.44
351.174	287.44
351.402	292.44
351.629	296.44
351.856	294.44
352.083	289.44
352.311	289.44
352.538	286.44
352.765	303.44
352.992	303.44
353.22	288.44
353.447	277.44
353.674	278.44
353.901	272.44
354.128	256.44
354.355	262.44
354.583	253.44
354.81	260.44
355.037	269.44
355.264	257.44
355.491	266.44
355.718	230.44
355.945	261.44
356.172	255.44
356.399	256.44
356.626	257.44
356.853	248.44
357.08	247.44
357.307	259.44
357.534	252.44
357.761	255.44
357.988	252.44
358.215	274.44
358.441	246.44
358.668	266.44
358.895	264.44
359.122	264.44
359.349	259.44
359.576	290.44
359.802	312.44
360.029	317.44
360.256	324.44
360.483	323.44
360.709	294.44
360.936	289.44
361.163	295.44
361.39	304.44
361.616	304.44
361.843	270.44
362.07	289.44
362.296	282.44
362.523	284.44
362.749	283.44
362.976	282.44
363.203	289.44
363.429	285.44
363.656	298.44
363.882	280.44
364.109	278.44
364.335	287.44
364.562	269.44
364.788	283.44
365.015	271.44
365.241	271.44
365.468	263.44
365.694	292.44
365.92	283.44
366.147	261.44
366.373	263.44
366.599	276.44
366.826	271.44
367.052	280.44
367.278	286.44
367.505	255.44
367.731	283.44
367.957	274.44
368.184	273.44
368.41	272.44
368.636	273.44
368.862	274.44
369.089	283.44
369.315	288.44
369.541	276.44
369.767	281.44
369.993	267.44
370.219	279.44
370.445	263.44
370.672	266.44
370.898	272.44
371.124	267.44
371.35	267.44
371.576	269.44
371.802	262.44
372.028	263.44
372.254	267.44
372.48	271.44
372.706	280.44
372.932	283.44
373.158	266.44
373.384	275.44
373.61	275.44
373.835	278.44
374.061	283.44
374.287	284.44
374.513	268.44
374.739	276.44
374.965	273.44
375.191	259.44
375.416	270.44
375.642	271.44
375.868	284.44
376.094	268.44
376.319	273.44
376.545	274.44
376.771	273.44
376.997	287.44
377.222	277.44
377.448	273.44
377.674	261.44
377.899	256.44
378.125	272.44
378.35	268.44
378.576	268.44
378.802	272.44
379.027	281.44
379.253	279.44
379.478	270.44
379.704	273.44
379.929	267.44
380.155	266.44
380.38	272.44
380.606	285.44
380.831	279.44
381.057	278.44
381.282	290.44
381.507	271.44
381.733	260.44
381.958	271.44
382.184	269.44
382.409	268.44
382.634	280.44
382.86	271.44
383.085	288.44
383.31	279.44
383.535	291.44
383.761	263.44
383.986	272.44
384.211	302.44
384.436	250.44
384.662	287.44
384.887	299.44
385.112	303.44
385.337	298.44
385.562	287.44
385.787	296.44
386.013	294.44
386.238	280.44
386.463	304.44
386.688	284.44
386.913	289.44
387.138	302.44
387.363	310.44
387.588	301.44
387.813	285.44
388.038	294.44
388.263	287.44
388.488	269.44
388.713	312.44
388.938	291.44
389.163	310.44
389.387	285.44
389.612	303.44
389.837	283.44
390.062	284.44
390.287	289.44
390.512	287.44
390.736	285.44
390.961	289.44
391.186	279.44
391.411	312.44
391.636	298.44
391.86	297.44
392.085	286.44
392.31	304.44
392.534	293.44
392.759	295.44
392.984	304.44
393.208	319.44
393.433	359.44
393.658	360.44
393.882	332.44
394.107	278.44
394.331	292.44
394.556	298.44
394.78	307.44
395.005	303.44
395.229	295.44
395.454	280.44
395.678	293.44
395.903	298.44
396.127	313.44
396.352	341.44
396.576	328.44
396.801	328.44
397.025	330.44
397.249	327.44
397.474	320.44
397.698	298.44
397.922	325.44
398.147	326.44
398.371	349.44
398.595	326.44
398.82	337.44
399.044	336.44
399.268	332.44
399.492	342.44
399.717	356.44
399.941	382.44
400.165	399.44
400.389	413.44
400.613	375.44
400.837	355.44
401.062	344.44
401.286	335.44
401.51	342.44
401.734	325.44
401.958	327.44
402.182	329.44
402.406	361.44
402.63	343.44
402.854	340.44
403.078	359.44
403.302	331.44
403.526	343.44
403.75	348.44
403.974	327.44
404.198	366.44
404.422	345.44
404.645	333.44
404.869	352.44
405.093	349.44
405.317	364.44
405.541	413.44
405.765	366.44
405.988	385.44
406.212	357.44
406.436	377.44
406.66	397.44
406.883	373.44
407.107	388.44
407.331	425.44
407.555	457.44
407.778	464.44
408.002	404.44
408.226	384.44
408.449	379.44
408.673	383.44
408.896	409.44
409.12	435.44
409.344	433.44
409.567	371.44
409.791	371.44
410.014	366.44
410.238	339.44
410.461	364.44
410.685	358.44
410.908	361.44
411.132	383.44
411.355	414.44
411.578	424.44
411.802	353.44
412.025	351.44
412.249	344.44
412.472	347.44
412.695	362.44
412.919	360.44
413.142	340.44
413.365	351.44
413.589	338.44
413.812	322.44
414.035	324.44
414.258	338.44
414.482	346.44
414.705	326.44
414.928	326.44
415.151	330.44
415.374	319.44
415.597	333.44
415.821	318.44
416.044	328.44
416.267	330.44
416.49	337.44
416.713	313.44
416.936	345.44
417.159	329.44
417.382	341.44
417.605	333.44
417.828	337.44
418.051	348.44
418.274	335.44
418.497	338.44
418.72	343.44
418.943	331.44
419.166	326.44
419.389	342.44
419.611	335.44
419.834	357.44
420.057	355.44
420.28	353.44
420.503	349.44
420.726	335.44
420.948	361.44
421.171	405.44
421.394	424.44
421.617	380.44
421.839	346.44
422.062	366.44
422.285	365.44
422.507	401.44
422.73	483.44
422.953	475.44
423.175	420.44
423.398	368.44
423.621	393.44
423.843	389.44
424.066	393.44
424.288	397.44
424.511	408.44
424.733	422.44
424.956	499.44
425.178	488.44
425.401	486.44
425.623	480.44
425.846	428.44
426.068	408.44
426.291	393.44
426.513	401.44
426.735	411.44
426.958	441.44
427.18	511.44
427.402	578.44
427.625	629.44
427.847	573.44
428.069	477.44
428.292	453.44
428.514	401.44
428.736	390.44
428.958	389.44
429.181	385.44
429.403	393.44
429.625	401.44
429.847	425.44
430.069	468.44
430.292	447.44
430.514	389.44
430.736	385.44
430.958	380.44
431.18	372.44
431.402	369.44
431.624	356.44
431.846	343.44
432.068	351.44
432.29	350.44
432.512	353.44
432.734	349.44
432.956	364.44
433.178	360.44
433.4	352.44
433.622	365.44
433.844	348.44
434.066	342.44
434.287	355.44
434.509	342.44
434.731	350.44
434.953	349.44
435.175	367.44
435.397	383.44
435.618	395.44
435.84	429.44
436.062	508.44
436.284	534.44
436.505	486.44
436.727	435.44
436.949	373.44
437.17	374.44
437.392	369.44
437.614	399.44
437.835	419.44
438.057	480.44
438.278	557.44
438.5	577.44
438.721	613.44
438.943	583.44
439.165	467.44
439.386	445.44
439.608	405.44
439.829	431.44
440.05	431.44
440.272	463.44
440.493	460.44
440.715	399.44
440.936	395.44
441.158	397.44
441.379	381.44
441.6	392.44
441.822	415.44
442.043	435.44
442.264	474.44
442.486	526.44
442.707	457.44
442.928	434.44
443.149	444.44
443.371	427.44
443.592	462.44
443.813	532.44
444.034	574.44
444.255	475.44
444.476	415.44
444.698	407.44
444.919	416.44
445.14	489.44
445.361	459.44
445.582	423.44
445.803	476.44
446.024	571.44
446.245	557.44
446.466	517.44
446.687	429.44
446.908	423.44
447.129	370.44
447.35	374.44
447.571	381.44
447.792	368.44
448.013	398.44
448.234	409.44
448.455	447.44
448.675	517.44
448.896	597.44
449.117	525.44
449.338	488.44
449.559	561.44
449.779	604.44
450	536.44
450.221	421.44
450.442	409.44
450.662	386.44
450.883	387.44
451.104	378.44
451.324	382.44
451.545	374.44
451.766	359.44
451.986	348.44
452.207	337.44
452.428	347.44
452.648	313.44
452.869	350.44
453.089	339.44
453.31	349.44
453.53	358.44
453.751	337.44
453.971	328.44
454.192	349.44
454.412	337.44
454.633	325.44
454.853	309.44
455.073	342.44
455.294	358.44
455.514	427.44
455.734	383.44
455.955	334.44
456.175	316.44
456.395	323.44
456.616	343.44
456.836	330.44
457.056	336.44
457.276	291.44
457.497	321.44
457.717	311.44
457.937	333.44
458.157	342.44
458.377	333.44
458.598	334.44
458.818	387.44
459.038	453.44
459.258	465.44
459.478	403.44
459.698	365.44
459.918	331.44
460.138	343.44
460.358	335.44
460.578	321.44
460.798	363.44
461.018	371.44
461.238	355.44
461.458	335.44
461.678	348.44
461.898	355.44
462.118	336.44
462.338	353.44
462.558	370.44
462.777	366.44
462.997	358.44
463.217	351.44
463.437	362.44
463.657	364.44
463.876	352.44
464.096	359.44
464.316	374.44
464.536	359.44
464.755	389.44
464.975	385.44
465.195	405.44
465.414	483.44
465.634	405.44
465.854	365.44
466.073	357.44
466.293	350.44
466.512	343.44
466.732	360.44
466.951	345.44
467.171	336.44
467.391	321.44
467.61	343.44
467.829	361.44
468.049	317.44
468.268	340.44
468.488	368.44
468.707	342.44
468.927	340.44
469.146	323.44
469.365	329.44
469.585	324.44
469.804	327.44
470.023	328.44
470.243	346.44
470.462	362.44
470.681	349.44
470.901	380.44
471.12	357.44
471.339	347.44
471.558	341.44
471.777	337.44
471.997	333.44
472.216	338.44
472.435	352.44
472.654	331.44
472.873	318.44
473.092	339.44
473.311	352.44
473.53	343.44
473.749	344.44
473.968	387.44
474.187	467.44
474.406	489.44
474.625	415.44
474.844	381.44
475.063	368.44
475.282	362.44
475.501	349.44
475.72	345.44
475.939	359.44
476.158	353.44
476.377	327.44
476.596	341.44
476.814	376.44
477.033	381.44
477.252	366.44
477.471	377.44
477.69	375.44
477.908	348.44
478.127	371.44
478.346	351.44
478.564	377.44
478.783	385.44
479.002	384.44
479.22	360.44
479.439	411.44
479.658	407.44
479.876	423.44
480.095	422.44
480.313	416.44
480.532	444.44
480.751	407.44
480.969	411.44
481.188	439.44
481.406	447.44
481.624	415.44
481.843	405.44
482.061	407.44
482.28	417.44
482.498	398.44
482.717	417.44
482.935	405.44
483.153	394.44
483.372	411.44
483.59	425.44
483.808	417.44
484.027	411.44
484.245	412.44
484.463	427.44
484.681	423.44
484.9	420.44
485.118	436.44
485.336	420.44
485.554	406.44
485.772	415.44
485.99	421.44
486.209	402.44
486.427	409.44
486.645	458.44
486.863	457.44
487.081	445.44
487.299	448.44
487.517	442.44
487.735	437.44
487.953	467.44
488.171	448.44
488.389	470.44
488.607	453.44
488.825	437.44
489.043	433.44
489.261	445.44
489.479	450.44
489.696	464.44
489.914	443.44
490.132	475.44
490.35	472.44
490.568	464.44
490.786	475.44
491.003	469.44
491.221	496.44
491.439	506.44
491.657	485.44
491.874	487.44
492.092	497.44
492.31	506.44
492.527	508.44
492.745	521.44
492.963	553.44
493.18	515.44
493.398	522.44
493.615	537.44
493.833	521.44
494.05	517.44
494.268	526.44
494.485	511.44
494.703	502.44
494.92	524.44
495.138	528.44
495.355	543.44
495.573	522.44
495.79	529.44
496.008	537.44
496.225	524.44
496.442	527.44
496.66	548.44
496.877	545.44
497.094	555.44
497.312	533.44
497.529	542.44
497.746	546.44
497.963	550.44
498.181	577.44
498.398	569.44
498.615	570.44
498.832	589.44
499.049	601.44
499.267	596.44
499.484	579.44
499.701	593.44
499.918	650.44
500.135	622.44
500.352	649.44
500.569	643.44
500.786	678.44
501.003	662.44
501.22	641.44
501.437	641.44
501.654	669.44
501.871	628.44
502.088	642.44
