Data from 1987.PennyLincolnUp.Lamp.En5.5.200Scan.071819.P2_HRD10591_17-15-09-970.txt Node
Date: Thu Jul 18 17:15:09 EDT 2019
User: cochatt
Spectrometer: HR+D1059
Trigger mode: 1
Integration Time (sec): 1.000000E-1
Scans to average: 1
Electric dark correction enabled: true
Nonlinearity correction enabled: false
Boxcar width: 0
XAxis mode: Wavelengths
Number of Pixels in Spectrum: 2048
>>>>>Begin Spectral Data<<<<<
223.165	-14.88
223.4	-14.88
223.635	-14.88
223.869	-25.88
224.104	-14.88
224.338	-7.88
224.573	-12.88
224.808	-6.88
225.042	-11.88
225.277	-9.88
225.511	0.12
225.746	8.12
225.98	-0.88
226.215	6.12
226.449	-5.88
226.683	33.12
226.918	31.12
227.152	33.12
227.387	22.12
227.621	36.12
227.856	52.12
228.09	41.12
228.324	49.12
228.559	53.12
228.793	69.12
229.027	111.12
229.262	124.12
229.496	134.12
229.73	147.12
229.964	185.12
230.199	149.12
230.433	131.12
230.667	117.12
230.901	113.12
231.136	105.12
231.37	101.12
231.604	111.12
231.838	127.12
232.072	111.12
232.306	118.12
232.541	122.12
232.775	112.12
233.009	116.12
233.243	122.12
233.477	116.12
233.711	117.12
233.945	120.12
234.179	126.12
234.413	125.12
234.647	103.12
234.881	112.12
235.115	129.12
235.349	125.12
235.583	114.12
235.817	134.12
236.051	127.12
236.285	140.12
236.519	133.12
236.753	120.12
236.987	161.12
237.221	188.12
237.455	248.12
237.689	204.12
237.922	140.12
238.156	146.12
238.39	133.12
238.624	129.12
238.858	129.12
239.091	139.12
239.325	131.12
239.559	124.12
239.793	135.12
240.027	134.12
240.26	149.12
240.494	178.12
240.728	167.12
240.961	136.12
241.195	154.12
241.429	150.12
241.662	144.12
241.896	130.12
242.13	146.12
242.363	126.12
242.597	114.12
242.83	133.12
243.064	150.12
243.298	133.12
243.531	133.12
243.765	113.12
243.998	124.12
244.232	136.12
244.465	148.12
244.699	137.12
244.932	150.12
245.166	134.12
245.399	126.12
245.633	133.12
245.866	143.12
246.099	146.12
246.333	133.12
246.566	144.12
246.8	142.12
247.033	152.12
247.266	163.12
247.5	156.12
247.733	166.12
247.966	169.12
248.2	174.12
248.433	186.12
248.666	183.12
248.899	192.12
249.133	196.12
249.366	228.12
249.599	198.12
249.832	178.12
250.066	177.12
250.299	175.12
250.532	180.12
250.765	200.12
250.998	228.12
251.231	231.12
251.465	212.12
251.698	210.12
251.931	214.12
252.164	198.12
252.397	180.12
252.63	192.12
252.863	200.12
253.096	205.12
253.329	219.12
253.562	221.12
253.795	225.12
254.028	228.12
254.261	215.12
254.494	242.12
254.727	245.12
254.96	272.12
255.193	284.12
255.426	270.12
255.659	232.12
255.892	234.12
256.124	231.12
256.357	220.12
256.59	229.12
256.823	204.12
257.056	200.12
257.289	200.12
257.521	188.12
257.754	194.12
257.987	205.12
258.22	207.12
258.452	221.12
258.685	201.12
258.918	185.12
259.151	217.12
259.383	220.12
259.616	221.12
259.849	213.12
260.081	226.12
260.314	234.12
260.547	254.12
260.779	245.12
261.012	228.12
261.244	212.12
261.477	205.12
261.71	228.12
261.942	236.12
262.175	246.12
262.407	232.12
262.64	222.12
262.872	208.12
263.105	204.12
263.337	186.12
263.57	205.12
263.802	209.12
264.035	203.12
264.267	177.12
264.499	197.12
264.732	188.12
264.964	184.12
265.197	183.12
265.429	184.12
265.661	197.12
265.894	189.12
266.126	200.12
266.358	202.12
266.591	189.12
266.823	200.12
267.055	204.12
267.287	205.12
267.52	210.12
267.752	225.12
267.984	196.12
268.216	188.12
268.448	212.12
268.681	221.12
268.913	223.12
269.145	238.12
269.377	270.12
269.609	259.12
269.841	243.12
270.073	269.12
270.306	265.12
270.538	302.12
270.77	292.12
271.002	292.12
271.234	268.12
271.466	300.12
271.698	309.12
271.93	301.12
272.162	296.12
272.394	312.12
272.626	284.12
272.858	274.12
273.09	282.12
273.322	265.12
273.553	244.12
273.785	263.12
274.017	229.12
274.249	242.12
274.481	250.12
274.713	259.12
274.945	258.12
275.176	248.12
275.408	249.12
275.64	244.12
275.872	246.12
276.104	234.12
276.335	237.12
276.567	261.12
276.799	266.12
277.031	267.12
277.262	292.12
277.494	303.12
277.726	281.12
277.957	249.12
278.189	256.12
278.421	267.12
278.652	237.12
278.884	254.12
279.115	231.12
279.347	233.12
279.579	232.12
279.81	238.12
280.042	223.12
280.273	218.12
280.505	218.12
280.736	231.12
280.968	224.12
281.199	236.12
281.431	223.12
281.662	216.12
281.894	219.12
282.125	232.12
282.356	251.12
282.588	295.12
282.819	284.12
283.051	250.12
283.282	255.12
283.513	220.12
283.745	240.12
283.976	244.12
284.207	236.12
284.439	225.12
284.67	236.12
284.901	245.12
285.132	242.12
285.364	226.12
285.595	230.12
285.826	226.12
286.057	244.12
286.288	240.12
286.52	236.12
286.751	226.12
286.982	253.12
287.213	226.12
287.444	251.12
287.675	246.12
287.906	247.12
288.138	243.12
288.369	262.12
288.6	280.12
288.831	284.12
289.062	236.12
289.293	233.12
289.524	239.12
289.755	233.12
289.986	246.12
290.217	249.12
290.448	227.12
290.679	249.12
290.91	252.12
291.141	241.12
291.371	238.12
291.602	230.12
291.833	245.12
292.064	235.12
292.295	246.12
292.526	249.12
292.757	221.12
292.987	222.12
293.218	248.12
293.449	255.12
293.68	235.12
293.91	222.12
294.141	252.12
294.372	258.12
294.603	233.12
294.833	232.12
295.064	251.12
295.295	226.12
295.525	239.12
295.756	241.12
295.987	254.12
296.217	274.12
296.448	302.12
296.679	275.12
296.909	237.12
297.14	246.12
297.37	242.12
297.601	256.12
297.831	237.12
298.062	250.12
298.292	240.12
298.523	260.12
298.753	248.12
298.984	264.12
299.214	258.12
299.445	252.12
299.675	288.12
299.905	256.12
300.136	256.12
300.366	255.12
300.597	253.12
300.827	262.12
301.057	275.12
301.288	273.12
301.518	277.12
301.748	273.12
301.979	263.12
302.209	259.12
302.439	279.12
302.669	262.12
302.9	273.12
303.13	262.12
303.36	270.12
303.59	258.12
303.82	295.12
304.051	280.12
304.281	284.12
304.511	253.12
304.741	254.12
304.971	272.12
305.201	263.12
305.431	275.12
305.661	266.12
305.891	265.12
306.121	281.12
306.352	294.12
306.582	288.12
306.812	279.12
307.042	284.12
307.272	279.12
307.502	272.12
307.731	291.12
307.961	258.12
308.191	290.12
308.421	271.12
308.651	274.12
308.881	295.12
309.111	303.12
309.341	301.12
309.571	309.12
309.8	325.12
310.03	356.12
310.26	353.12
310.49	346.12
310.72	361.12
310.949	361.12
311.179	387.12
311.409	342.12
311.639	336.12
311.868	345.12
312.098	356.12
312.328	357.12
312.557	362.12
312.787	395.12
313.017	392.12
313.246	376.12
313.476	331.12
313.706	332.12
313.935	356.12
314.165	377.12
314.394	389.12
314.624	355.12
314.853	361.12
315.083	354.12
315.312	336.12
315.542	303.12
315.771	325.12
316.001	316.12
316.23	319.12
316.46	328.12
316.689	332.12
316.919	329.12
317.148	342.12
317.377	338.12
317.607	332.12
317.836	350.12
318.065	359.12
318.295	322.12
318.524	316.12
318.753	311.12
318.983	327.12
319.212	336.12
319.441	321.12
319.67	345.12
319.9	345.12
320.129	333.12
320.358	322.12
320.587	333.12
320.816	359.12
321.046	356.12
321.275	379.12
321.504	345.12
321.733	378.12
321.962	388.12
322.191	387.12
322.42	430.12
322.649	438.12
322.878	446.12
323.108	470.12
323.337	512.12
323.566	542.12
323.795	587.12
324.024	666.12
324.253	832.12
324.482	1217.12
324.71	1842.12
324.939	2568.12
325.168	2232.12
325.397	1234.12
325.626	776.12
325.855	624.12
326.084	570.12
326.313	567.12
326.542	559.12
326.77	608.12
326.999	729.12
327.228	1040.12
327.457	1613.12
327.686	1953.12
327.914	1356.12
328.143	879.12
328.372	744.12
328.6	664.12
328.829	615.12
329.058	660.12
329.287	676.12
329.515	588.12
329.744	511.12
329.972	508.12
330.201	522.12
330.43	528.12
330.658	607.12
330.887	694.12
331.115	667.12
331.344	540.12
331.572	497.12
331.801	507.12
332.03	488.12
332.258	440.12
332.486	409.12
332.715	418.12
332.943	383.12
333.172	398.12
333.4	398.12
333.629	395.12
333.857	400.12
334.085	403.12
334.314	397.12
334.542	395.12
334.771	392.12
334.999	401.12
335.227	384.12
335.455	382.12
335.684	390.12
335.912	368.12
336.14	364.12
336.369	381.12
336.597	392.12
336.825	372.12
337.053	376.12
337.281	373.12
337.51	366.12
337.738	382.12
337.966	386.12
338.194	384.12
338.422	374.12
338.65	391.12
338.878	387.12
339.106	356.12
339.334	357.12
339.562	360.12
339.79	359.12
340.018	364.12
340.246	404.12
340.474	377.12
340.702	378.12
340.93	360.12
341.158	386.12
341.386	365.12
341.614	380.12
341.842	370.12
342.07	381.12
342.298	352.12
342.526	370.12
342.754	355.12
342.981	322.12
343.209	345.12
343.437	352.12
343.665	356.12
343.893	350.12
344.12	356.12
344.348	333.12
344.576	372.12
344.804	364.12
345.031	388.12
345.259	412.12
345.487	392.12
345.714	381.12
345.942	365.12
346.17	351.12
346.397	365.12
346.625	359.12
346.853	376.12
347.08	376.12
347.308	372.12
347.535	392.12
347.763	410.12
347.99	392.12
348.218	385.12
348.445	396.12
348.673	398.12
348.9	374.12
349.128	378.12
349.355	362.12
349.583	358.12
349.81	347.12
350.037	365.12
350.265	342.12
350.492	361.12
350.72	360.12
350.947	355.12
351.174	382.12
351.402	384.12
351.629	392.12
351.856	394.12
352.083	391.12
352.311	399.12
352.538	429.12
352.765	402.12
352.992	410.12
353.22	380.12
353.447	385.12
353.674	370.12
353.901	352.12
354.128	346.12
354.355	336.12
354.583	350.12
354.81	355.12
355.037	322.12
355.264	329.12
355.491	319.12
355.718	321.12
355.945	318.12
356.172	322.12
356.399	322.12
356.626	323.12
356.853	328.12
357.08	322.12
357.307	348.12
357.534	326.12
357.761	342.12
357.988	340.12
358.215	337.12
358.441	369.12
358.668	336.12
358.895	336.12
359.122	349.12
359.349	351.12
359.576	401.12
359.802	424.12
360.029	478.12
360.256	484.12
360.483	444.12
360.709	394.12
360.936	384.12
361.163	375.12
361.39	377.12
361.616	391.12
361.843	368.12
362.07	390.12
362.296	383.12
362.523	375.12
362.749	360.12
362.976	361.12
363.203	364.12
363.429	360.12
363.656	346.12
363.882	359.12
364.109	352.12
364.335	346.12
364.562	325.12
364.788	330.12
365.015	360.12
365.241	355.12
365.468	376.12
365.694	360.12
365.92	352.12
366.147	335.12
366.373	345.12
366.599	356.12
366.826	338.12
367.052	343.12
367.278	342.12
367.505	357.12
367.731	338.12
367.957	346.12
368.184	344.12
368.41	356.12
368.636	357.12
368.862	344.12
369.089	352.12
369.315	345.12
369.541	329.12
369.767	341.12
369.993	335.12
370.219	349.12
370.445	340.12
370.672	344.12
370.898	322.12
371.124	334.12
371.35	334.12
371.576	329.12
371.802	318.12
372.028	305.12
372.254	302.12
372.48	329.12
372.706	334.12
372.932	312.12
373.158	326.12
373.384	324.12
373.61	333.12
373.835	334.12
374.061	317.12
374.287	342.12
374.513	337.12
374.739	323.12
374.965	328.12
375.191	355.12
375.416	330.12
375.642	329.12
375.868	322.12
376.094	321.12
376.319	326.12
376.545	331.12
376.771	348.12
376.997	321.12
377.222	346.12
377.448	311.12
377.674	323.12
377.899	330.12
378.125	317.12
378.35	330.12
378.576	334.12
378.802	319.12
379.027	315.12
379.253	320.12
379.478	322.12
379.704	314.12
379.929	333.12
380.155	315.12
380.38	338.12
380.606	308.12
380.831	333.12
381.057	341.12
381.282	319.12
381.507	330.12
381.733	329.12
381.958	332.12
382.184	334.12
382.409	326.12
382.634	352.12
382.86	351.12
383.085	335.12
383.31	329.12
383.535	340.12
383.761	322.12
383.986	347.12
384.211	326.12
384.436	346.12
384.662	332.12
384.887	334.12
385.112	316.12
385.337	341.12
385.562	344.12
385.787	349.12
386.013	357.12
386.238	356.12
386.463	359.12
386.688	347.12
386.913	359.12
387.138	357.12
387.363	327.12
387.588	335.12
387.813	341.12
388.038	339.12
388.263	362.12
388.488	362.12
388.713	336.12
388.938	348.12
389.163	356.12
389.387	363.12
389.612	356.12
389.837	341.12
390.062	358.12
390.287	349.12
390.512	364.12
390.736	345.12
390.961	349.12
391.186	354.12
391.411	349.12
391.636	337.12
391.86	360.12
392.085	351.12
392.31	354.12
392.534	353.12
392.759	348.12
392.984	342.12
393.208	366.12
393.433	360.12
393.658	360.12
393.882	349.12
394.107	348.12
394.331	351.12
394.556	337.12
394.78	329.12
395.005	360.12
395.229	354.12
395.454	353.12
395.678	358.12
395.903	373.12
396.127	402.12
396.352	401.12
396.576	378.12
396.801	369.12
397.025	354.12
397.249	372.12
397.474	361.12
397.698	360.12
397.922	369.12
398.147	394.12
398.371	384.12
398.595	407.12
398.82	384.12
399.044	396.12
399.268	398.12
399.492	391.12
399.717	415.12
399.941	463.12
400.165	480.12
400.389	501.12
400.613	447.12
400.837	411.12
401.062	416.12
401.286	406.12
401.51	410.12
401.734	395.12
401.958	409.12
402.182	394.12
402.406	408.12
402.63	412.12
402.854	413.12
403.078	395.12
403.302	430.12
403.526	416.12
403.75	410.12
403.974	426.12
404.198	403.12
404.422	438.12
404.645	399.12
404.869	410.12
405.093	444.12
405.317	483.12
405.541	492.12
405.765	446.12
405.988	455.12
406.212	468.12
406.436	506.12
406.66	521.12
406.883	460.12
407.107	501.12
407.331	514.12
407.555	586.12
407.778	585.12
408.002	531.12
408.226	481.12
408.449	468.12
408.673	460.12
408.896	525.12
409.12	537.12
409.344	502.12
409.567	458.12
409.791	424.12
410.014	445.12
410.238	439.12
410.461	417.12
410.685	442.12
410.908	434.12
411.132	484.12
411.355	511.12
411.578	470.12
411.802	441.12
412.025	431.12
412.249	420.12
412.472	425.12
412.695	441.12
412.919	430.12
413.142	411.12
413.365	392.12
413.589	412.12
413.812	390.12
414.035	411.12
414.258	404.12
414.482	398.12
414.705	388.12
414.928	387.12
415.151	381.12
415.374	398.12
415.597	389.12
415.821	396.12
416.044	392.12
416.267	406.12
416.49	411.12
416.713	381.12
416.936	384.12
417.159	400.12
417.382	400.12
417.605	412.12
417.828	424.12
418.051	461.12
418.274	430.12
418.497	390.12
418.72	414.12
418.943	408.12
419.166	399.12
419.389	414.12
419.611	419.12
419.834	432.12
420.057	448.12
420.28	425.12
420.503	446.12
420.726	426.12
420.948	466.12
421.171	504.12
421.394	505.12
421.617	474.12
421.839	446.12
422.062	425.12
422.285	468.12
422.507	502.12
422.73	573.12
422.953	564.12
423.175	503.12
423.398	488.12
423.621	465.12
423.843	473.12
424.066	494.12
424.288	490.12
424.511	504.12
424.733	557.12
424.956	644.12
425.178	630.12
425.401	632.12
425.623	640.12
425.846	525.12
426.068	507.12
426.291	510.12
426.513	517.12
426.735	532.12
426.958	551.12
427.18	651.12
427.402	750.12
427.625	837.12
427.847	813.12
428.069	666.12
428.292	580.12
428.514	544.12
428.736	520.12
428.958	499.12
429.181	471.12
429.403	451.12
429.625	479.12
429.847	521.12
430.069	562.12
430.292	586.12
430.514	502.12
430.736	457.12
430.958	476.12
431.18	430.12
431.402	424.12
431.624	410.12
431.846	425.12
432.068	434.12
432.29	451.12
432.512	453.12
432.734	439.12
432.956	453.12
433.178	458.12
433.4	454.12
433.622	445.12
433.844	450.12
434.066	420.12
434.287	426.12
434.509	432.12
434.731	448.12
434.953	445.12
435.175	463.12
435.397	472.12
435.618	505.12
435.84	559.12
436.062	645.12
436.284	697.12
436.505	582.12
436.727	543.12
436.949	479.12
437.17	480.12
437.392	487.12
437.614	512.12
437.835	531.12
438.057	646.12
438.278	757.12
438.5	721.12
438.721	804.12
438.943	741.12
439.165	615.12
439.386	556.12
439.608	555.12
439.829	544.12
440.05	566.12
440.272	596.12
440.493	578.12
440.715	537.12
440.936	523.12
441.158	478.12
441.379	477.12
441.6	505.12
441.822	508.12
442.043	592.12
442.264	639.12
442.486	672.12
442.707	576.12
442.928	542.12
443.149	540.12
443.371	588.12
443.592	596.12
443.813	668.12
444.034	734.12
444.255	626.12
444.476	545.12
444.698	522.12
444.919	482.12
445.14	587.12
445.361	566.12
445.582	549.12
445.803	624.12
446.024	735.12
446.245	721.12
446.466	683.12
446.687	586.12
446.908	540.12
447.129	481.12
447.35	484.12
447.571	478.12
447.792	460.12
448.013	485.12
448.234	500.12
448.455	566.12
448.675	678.12
448.896	760.12
449.117	646.12
449.338	642.12
449.559	728.12
449.779	801.12
450	680.12
450.221	560.12
450.442	510.12
450.662	494.12
450.883	512.12
451.104	536.12
451.324	552.12
451.545	491.12
451.766	441.12
451.986	443.12
452.207	432.12
452.428	432.12
452.648	432.12
452.869	453.12
453.089	464.12
453.31	434.12
453.53	447.12
453.751	426.12
453.971	462.12
454.192	490.12
454.412	478.12
454.633	466.12
454.853	451.12
455.073	429.12
455.294	448.12
455.514	540.12
455.734	510.12
455.955	450.12
456.175	415.12
456.395	415.12
456.616	410.12
456.836	393.12
457.056	402.12
457.276	380.12
457.497	392.12
457.717	400.12
457.937	393.12
458.157	395.12
458.377	413.12
458.598	440.12
458.818	548.12
459.038	635.12
459.258	645.12
459.478	531.12
459.698	482.12
459.918	442.12
460.138	429.12
460.358	424.12
460.578	423.12
460.798	434.12
461.018	427.12
461.238	412.12
461.458	417.12
461.678	418.12
461.898	421.12
462.118	415.12
462.338	399.12
462.558	432.12
462.777	414.12
462.997	425.12
463.217	424.12
463.437	454.12
463.657	437.12
463.876	446.12
464.096	437.12
464.316	425.12
464.536	447.12
464.755	466.12
464.975	490.12
465.195	549.12
465.414	681.12
465.634	576.12
465.854	502.12
466.073	470.12
466.293	438.12
466.512	472.12
466.732	432.12
466.951	429.12
467.171	421.12
467.391	425.12
467.61	448.12
467.829	450.12
468.049	442.12
468.268	411.12
468.488	416.12
468.707	422.12
468.927	425.12
469.146	424.12
469.365	420.12
469.585	376.12
469.804	441.12
470.023	442.12
470.243	428.12
470.462	432.12
470.681	456.12
470.901	487.12
471.12	446.12
471.339	432.12
471.558	446.12
471.777	438.12
471.997	424.12
472.216	430.12
472.435	438.12
472.654	425.12
472.873	403.12
473.092	417.12
473.311	409.12
473.53	446.12
473.749	456.12
473.968	485.12
474.187	619.12
474.406	623.12
474.625	508.12
474.844	461.12
475.063	431.12
475.282	445.12
475.501	432.12
475.72	431.12
475.939	449.12
476.158	437.12
476.377	426.12
476.596	440.12
476.814	471.12
477.033	464.12
477.252	450.12
477.471	456.12
477.69	470.12
477.908	468.12
478.127	454.12
478.346	453.12
478.564	468.12
478.783	462.12
479.002	490.12
479.22	461.12
479.439	505.12
479.658	555.12
479.876	540.12
480.095	555.12
480.313	556.12
480.532	557.12
480.751	517.12
480.969	494.12
481.188	536.12
481.406	566.12
481.624	524.12
481.843	491.12
482.061	496.12
482.28	494.12
482.498	466.12
482.717	492.12
482.935	492.12
483.153	486.12
483.372	505.12
483.59	504.12
483.808	506.12
484.027	485.12
484.245	512.12
484.463	502.12
484.681	540.12
484.9	520.12
485.118	491.12
485.336	504.12
485.554	503.12
485.772	521.12
485.99	544.12
486.209	536.12
486.427	530.12
486.645	536.12
486.863	567.12
487.081	569.12
487.299	560.12
487.517	554.12
487.735	548.12
487.953	576.12
488.171	543.12
488.389	556.12
488.607	552.12
488.825	565.12
489.043	549.12
489.261	550.12
489.479	570.12
489.696	538.12
489.914	584.12
490.132	588.12
490.35	588.12
490.568	588.12
490.786	593.12
491.003	589.12
491.221	625.12
491.439	642.12
491.657	634.12
491.874	654.12
492.092	640.12
492.31	647.12
492.527	635.12
492.745	634.12
492.963	651.12
493.18	640.12
493.398	665.12
493.615	662.12
493.833	669.12
494.05	677.12
494.268	648.12
494.485	685.12
494.703	667.12
494.92	674.12
495.138	673.12
495.355	707.12
495.573	664.12
495.79	685.12
496.008	694.12
496.225	664.12
496.442	685.12
496.66	663.12
496.877	665.12
497.094	675.12
497.312	668.12
497.529	700.12
497.746	709.12
497.963	696.12
498.181	711.12
498.398	720.12
498.615	688.12
498.832	742.12
499.049	707.12
499.267	714.12
499.484	737.12
499.701	743.12
499.918	746.12
500.135	761.12
500.352	759.12
500.569	785.12
500.786	784.12
501.003	794.12
501.22	759.12
501.437	787.12
501.654	821.12
501.871	822.12
