Data from 1987.PennyLincolnUp.Lamp.En5.5.200Scan.071819.P2_HRD10591_17-15-31-971.txt Node
Date: Thu Jul 18 17:15:31 EDT 2019
User: cochatt
Spectrometer: HR+D1059
Trigger mode: 1
Integration Time (sec): 1.000000E-1
Scans to average: 1
Electric dark correction enabled: true
Nonlinearity correction enabled: false
Boxcar width: 0
XAxis mode: Wavelengths
Number of Pixels in Spectrum: 2048
>>>>>Begin Spectral Data<<<<<
223.165	-9.94
223.4	-9.94
223.635	-9.94
223.869	-23.94
224.104	-29.94
224.338	-14.94
224.573	-20.94
224.808	-11.94
225.042	-21.94
225.277	0.06
225.511	10.06
225.746	1.06
225.98	6.06
226.215	24.06
226.449	13.06
226.683	19.06
226.918	24.06
227.152	36.06
227.387	23.06
227.621	32.06
227.856	50.06
228.09	54.06
228.324	55.06
228.559	57.06
228.793	82.06
229.027	111.06
229.262	119.06
229.496	115.06
229.73	145.06
229.964	166.06
230.199	137.06
230.433	126.06
230.667	114.06
230.901	123.06
231.136	108.06
231.37	116.06
231.604	124.06
231.838	116.06
232.072	105.06
232.306	97.06
232.541	119.06
232.775	116.06
233.009	120.06
233.243	109.06
233.477	117.06
233.711	111.06
233.945	102.06
234.179	123.06
234.413	121.06
234.647	115.06
234.881	117.06
235.115	126.06
235.349	121.06
235.583	127.06
235.817	136.06
236.051	122.06
236.285	138.06
236.519	139.06
236.753	122.06
236.987	150.06
237.221	208.06
237.455	251.06
237.689	211.06
237.922	150.06
238.156	139.06
238.39	143.06
238.624	133.06
238.858	132.06
239.091	126.06
239.325	127.06
239.559	121.06
239.793	129.06
240.027	138.06
240.26	149.06
240.494	171.06
240.728	147.06
240.961	160.06
241.195	142.06
241.429	136.06
241.662	136.06
241.896	135.06
242.13	128.06
242.363	134.06
242.597	121.06
242.83	119.06
243.064	137.06
243.298	139.06
243.531	119.06
243.765	136.06
243.998	142.06
244.232	119.06
244.465	149.06
244.699	151.06
244.932	131.06
245.166	137.06
245.399	125.06
245.633	141.06
245.866	143.06
246.099	136.06
246.333	140.06
246.566	137.06
246.8	144.06
247.033	147.06
247.266	163.06
247.5	151.06
247.733	162.06
247.966	162.06
248.2	166.06
248.433	164.06
248.666	164.06
248.899	184.06
249.133	189.06
249.366	212.06
249.599	179.06
249.832	183.06
250.066	171.06
250.299	175.06
250.532	183.06
250.765	198.06
250.998	205.06
251.231	214.06
251.465	205.06
251.698	194.06
251.931	188.06
252.164	193.06
252.397	190.06
252.63	186.06
252.863	207.06
253.096	218.06
253.329	209.06
253.562	216.06
253.795	214.06
254.028	223.06
254.261	230.06
254.494	234.06
254.727	262.06
254.96	289.06
255.193	285.06
255.426	243.06
255.659	229.06
255.892	218.06
256.124	212.06
256.357	215.06
256.59	200.06
256.823	192.06
257.056	193.06
257.289	203.06
257.521	190.06
257.754	204.06
257.987	202.06
258.22	196.06
258.452	189.06
258.685	197.06
258.918	184.06
259.151	209.06
259.383	196.06
259.616	203.06
259.849	216.06
260.081	211.06
260.314	235.06
260.547	252.06
260.779	249.06
261.012	209.06
261.244	225.06
261.477	211.06
261.71	209.06
261.942	233.06
262.175	220.06
262.407	227.06
262.64	216.06
262.872	193.06
263.105	201.06
263.337	205.06
263.57	201.06
263.802	200.06
264.035	209.06
264.267	189.06
264.499	189.06
264.732	185.06
264.964	189.06
265.197	195.06
265.429	193.06
265.661	184.06
265.894	192.06
266.126	197.06
266.358	175.06
266.591	190.06
266.823	191.06
267.055	192.06
267.287	193.06
267.52	204.06
267.752	198.06
267.984	194.06
268.216	207.06
268.448	207.06
268.681	214.06
268.913	213.06
269.145	228.06
269.377	269.06
269.609	245.06
269.841	261.06
270.073	269.06
270.306	251.06
270.538	288.06
270.77	303.06
271.002	291.06
271.234	292.06
271.466	285.06
271.698	299.06
271.93	301.06
272.162	310.06
272.394	315.06
272.626	299.06
272.858	274.06
273.09	276.06
273.322	271.06
273.553	248.06
273.785	261.06
274.017	252.06
274.249	245.06
274.481	245.06
274.713	254.06
274.945	227.06
275.176	241.06
275.408	244.06
275.64	241.06
275.872	247.06
276.104	237.06
276.335	233.06
276.567	267.06
276.799	281.06
277.031	281.06
277.262	291.06
277.494	293.06
277.726	287.06
277.957	251.06
278.189	259.06
278.421	258.06
278.652	232.06
278.884	259.06
279.115	230.06
279.347	221.06
279.579	241.06
279.81	235.06
280.042	220.06
280.273	238.06
280.505	223.06
280.736	227.06
280.968	232.06
281.199	222.06
281.431	242.06
281.662	233.06
281.894	225.06
282.125	232.06
282.356	250.06
282.588	295.06
282.819	279.06
283.051	258.06
283.282	242.06
283.513	223.06
283.745	228.06
283.976	217.06
284.207	214.06
284.439	239.06
284.67	229.06
284.901	233.06
285.132	215.06
285.364	221.06
285.595	232.06
285.826	240.06
286.057	247.06
286.288	225.06
286.52	234.06
286.751	236.06
286.982	219.06
287.213	231.06
287.444	233.06
287.675	248.06
287.906	240.06
288.138	255.06
288.369	252.06
288.6	264.06
288.831	242.06
289.062	236.06
289.293	247.06
289.524	228.06
289.755	239.06
289.986	226.06
290.217	235.06
290.448	251.06
290.679	248.06
290.91	236.06
291.141	231.06
291.371	237.06
291.602	228.06
291.833	243.06
292.064	226.06
292.295	235.06
292.526	241.06
292.757	235.06
292.987	240.06
293.218	239.06
293.449	222.06
293.68	217.06
293.91	232.06
294.141	237.06
294.372	233.06
294.603	246.06
294.833	239.06
295.064	250.06
295.295	245.06
295.525	258.06
295.756	253.06
295.987	258.06
296.217	251.06
296.448	315.06
296.679	261.06
296.909	258.06
297.14	256.06
297.37	237.06
297.601	224.06
297.831	251.06
298.062	240.06
298.292	235.06
298.523	249.06
298.753	241.06
298.984	244.06
299.214	232.06
299.445	243.06
299.675	239.06
299.905	269.06
300.136	257.06
300.366	244.06
300.597	261.06
300.827	265.06
301.057	264.06
301.288	294.06
301.518	260.06
301.748	263.06
301.979	267.06
302.209	262.06
302.439	282.06
302.669	278.06
302.9	264.06
303.13	248.06
303.36	260.06
303.59	271.06
303.82	285.06
304.051	275.06
304.281	279.06
304.511	242.06
304.741	266.06
304.971	263.06
305.201	263.06
305.431	255.06
305.661	259.06
305.891	261.06
306.121	257.06
306.352	281.06
306.582	303.06
306.812	268.06
307.042	275.06
307.272	278.06
307.502	251.06
307.731	279.06
307.961	284.06
308.191	255.06
308.421	265.06
308.651	286.06
308.881	283.06
309.111	291.06
309.341	308.06
309.571	295.06
309.8	307.06
310.03	340.06
310.26	333.06
310.49	349.06
310.72	359.06
310.949	387.06
311.179	380.06
311.409	348.06
311.639	351.06
311.868	361.06
312.098	342.06
312.328	362.06
312.557	395.06
312.787	398.06
313.017	419.06
313.246	355.06
313.476	328.06
313.706	344.06
313.935	335.06
314.165	354.06
314.394	376.06
314.624	361.06
314.853	346.06
315.083	338.06
315.312	339.06
315.542	326.06
315.771	305.06
316.001	331.06
316.23	298.06
316.46	320.06
316.689	324.06
316.919	337.06
317.148	334.06
317.377	358.06
317.607	349.06
317.836	331.06
318.065	344.06
318.295	343.06
318.524	322.06
318.753	341.06
318.983	329.06
319.212	324.06
319.441	336.06
319.67	356.06
319.9	329.06
320.129	327.06
320.358	325.06
320.587	367.06
320.816	352.06
321.046	356.06
321.275	381.06
321.504	364.06
321.733	372.06
321.962	389.06
322.191	394.06
322.42	408.06
322.649	447.06
322.878	453.06
323.108	464.06
323.337	514.06
323.566	537.06
323.795	599.06
324.024	668.06
324.253	834.06
324.482	1220.06
324.71	1865.06
324.939	2611.06
325.168	2356.06
325.397	1269.06
325.626	810.06
325.855	629.06
326.084	565.06
326.313	523.06
326.542	553.06
326.77	628.06
326.999	754.06
327.228	1046.06
327.457	1648.06
327.686	2006.06
327.914	1404.06
328.143	899.06
328.372	754.06
328.6	651.06
328.829	612.06
329.058	620.06
329.287	654.06
329.515	595.06
329.744	533.06
329.972	475.06
330.201	515.06
330.43	537.06
330.658	604.06
330.887	688.06
331.115	655.06
331.344	547.06
331.572	468.06
331.801	494.06
332.03	490.06
332.258	445.06
332.486	407.06
332.715	407.06
332.943	389.06
333.172	387.06
333.4	386.06
333.629	405.06
333.857	398.06
334.085	395.06
334.314	383.06
334.542	377.06
334.771	390.06
334.999	375.06
335.227	401.06
335.455	393.06
335.684	377.06
335.912	376.06
336.14	379.06
336.369	379.06
336.597	395.06
336.825	389.06
337.053	373.06
337.281	384.06
337.51	378.06
337.738	379.06
337.966	389.06
338.194	383.06
338.422	391.06
338.65	358.06
338.878	362.06
339.106	374.06
339.334	367.06
339.562	361.06
339.79	354.06
340.018	373.06
340.246	371.06
340.474	364.06
340.702	367.06
340.93	360.06
341.158	356.06
341.386	379.06
341.614	373.06
341.842	379.06
342.07	382.06
342.298	372.06
342.526	344.06
342.754	329.06
342.981	348.06
343.209	357.06
343.437	341.06
343.665	336.06
343.893	347.06
344.12	359.06
344.348	348.06
344.576	368.06
344.804	377.06
345.031	382.06
345.259	397.06
345.487	403.06
345.714	378.06
345.942	355.06
346.17	371.06
346.397	374.06
346.625	395.06
346.853	355.06
347.08	369.06
347.308	369.06
347.535	374.06
347.763	373.06
347.99	399.06
348.218	383.06
348.445	397.06
348.673	394.06
348.9	374.06
349.128	360.06
349.355	323.06
349.583	343.06
349.81	370.06
350.037	345.06
350.265	365.06
350.492	347.06
350.72	347.06
350.947	363.06
351.174	410.06
351.402	371.06
351.629	379.06
351.856	393.06
352.083	362.06
352.311	406.06
352.538	407.06
352.765	412.06
352.992	397.06
353.22	381.06
353.447	383.06
353.674	382.06
353.901	330.06
354.128	365.06
354.355	344.06
354.583	353.06
354.81	348.06
355.037	337.06
355.264	344.06
355.491	312.06
355.718	346.06
355.945	330.06
356.172	318.06
356.399	314.06
356.626	326.06
356.853	330.06
357.08	300.06
357.307	320.06
357.534	328.06
357.761	333.06
357.988	329.06
358.215	345.06
358.441	326.06
358.668	336.06
358.895	336.06
359.122	342.06
359.349	354.06
359.576	376.06
359.802	403.06
360.029	470.06
360.256	486.06
360.483	448.06
360.709	404.06
360.936	373.06
361.163	386.06
361.39	385.06
361.616	395.06
361.843	388.06
362.07	381.06
362.296	397.06
362.523	399.06
362.749	376.06
362.976	389.06
363.203	356.06
363.429	346.06
363.656	344.06
363.882	359.06
364.109	353.06
364.335	340.06
364.562	332.06
364.788	348.06
365.015	343.06
365.241	353.06
365.468	348.06
365.694	363.06
365.92	370.06
366.147	357.06
366.373	338.06
366.599	350.06
366.826	336.06
367.052	338.06
367.278	325.06
367.505	345.06
367.731	348.06
367.957	344.06
368.184	350.06
368.41	365.06
368.636	367.06
368.862	367.06
369.089	371.06
369.315	349.06
369.541	340.06
369.767	328.06
369.993	337.06
370.219	339.06
370.445	332.06
370.672	345.06
370.898	350.06
371.124	332.06
371.35	321.06
371.576	337.06
371.802	324.06
372.028	316.06
372.254	329.06
372.48	312.06
372.706	321.06
372.932	345.06
373.158	327.06
373.384	300.06
373.61	338.06
373.835	334.06
374.061	315.06
374.287	327.06
374.513	319.06
374.739	329.06
374.965	315.06
375.191	321.06
375.416	314.06
375.642	329.06
375.868	336.06
376.094	335.06
376.319	343.06
376.545	326.06
376.771	319.06
376.997	317.06
377.222	307.06
377.448	304.06
377.674	297.06
377.899	311.06
378.125	313.06
378.35	310.06
378.576	312.06
378.802	316.06
379.027	320.06
379.253	320.06
379.478	309.06
379.704	315.06
379.929	304.06
380.155	316.06
380.38	317.06
380.606	318.06
380.831	330.06
381.057	345.06
381.282	332.06
381.507	312.06
381.733	316.06
381.958	321.06
382.184	335.06
382.409	312.06
382.634	334.06
382.86	321.06
383.085	342.06
383.31	342.06
383.535	332.06
383.761	325.06
383.986	331.06
384.211	339.06
384.436	323.06
384.662	333.06
384.887	352.06
385.112	337.06
385.337	338.06
385.562	344.06
385.787	345.06
386.013	361.06
386.238	361.06
386.463	358.06
386.688	340.06
386.913	324.06
387.138	339.06
387.363	359.06
387.588	336.06
387.813	352.06
388.038	322.06
388.263	326.06
388.488	327.06
388.713	347.06
388.938	352.06
389.163	331.06
389.387	348.06
389.612	324.06
389.837	343.06
390.062	347.06
390.287	341.06
390.512	340.06
390.736	339.06
390.961	340.06
391.186	359.06
391.411	361.06
391.636	335.06
391.86	351.06
392.085	352.06
392.31	344.06
392.534	338.06
392.759	346.06
392.984	362.06
393.208	344.06
393.433	351.06
393.658	353.06
393.882	348.06
394.107	339.06
394.331	332.06
394.556	332.06
394.78	343.06
395.005	361.06
395.229	355.06
395.454	353.06
395.678	355.06
395.903	369.06
396.127	377.06
396.352	383.06
396.576	377.06
396.801	362.06
397.025	370.06
397.249	360.06
397.474	390.06
397.698	370.06
397.922	370.06
398.147	388.06
398.371	392.06
398.595	398.06
398.82	383.06
399.044	384.06
399.268	386.06
399.492	386.06
399.717	415.06
399.941	426.06
400.165	481.06
400.389	491.06
400.613	439.06
400.837	410.06
401.062	420.06
401.286	409.06
401.51	395.06
401.734	412.06
401.958	385.06
402.182	387.06
402.406	437.06
402.63	425.06
402.854	417.06
403.078	397.06
403.302	405.06
403.526	416.06
403.75	427.06
403.974	412.06
404.198	419.06
404.422	412.06
404.645	402.06
404.869	413.06
405.093	431.06
405.317	467.06
405.541	479.06
405.765	456.06
405.988	435.06
406.212	449.06
406.436	517.06
406.66	515.06
406.883	480.06
407.107	495.06
407.331	536.06
407.555	592.06
407.778	588.06
408.002	531.06
408.226	481.06
408.449	475.06
408.673	494.06
408.896	508.06
409.12	504.06
409.344	516.06
409.567	451.06
409.791	444.06
410.014	397.06
410.238	416.06
410.461	414.06
410.685	418.06
410.908	439.06
411.132	453.06
411.355	499.06
411.578	493.06
411.802	438.06
412.025	421.06
412.249	409.06
412.472	435.06
412.695	433.06
412.919	402.06
413.142	413.06
413.365	400.06
413.589	398.06
413.812	388.06
414.035	387.06
414.258	386.06
414.482	374.06
414.705	395.06
414.928	379.06
415.151	396.06
415.374	371.06
415.597	391.06
415.821	395.06
416.044	393.06
416.267	408.06
416.49	407.06
416.713	389.06
416.936	397.06
417.159	392.06
417.382	416.06
417.605	422.06
417.828	437.06
418.051	440.06
418.274	433.06
418.497	408.06
418.72	395.06
418.943	391.06
419.166	399.06
419.389	416.06
419.611	424.06
419.834	416.06
420.057	421.06
420.28	434.06
420.503	428.06
420.726	424.06
420.948	415.06
421.171	488.06
421.394	499.06
421.617	459.06
421.839	435.06
422.062	424.06
422.285	451.06
422.507	511.06
422.73	581.06
422.953	565.06
423.175	497.06
423.398	458.06
423.621	470.06
423.843	483.06
424.066	483.06
424.288	465.06
424.511	503.06
424.733	585.06
424.956	667.06
425.178	628.06
425.401	599.06
425.623	616.06
425.846	559.06
426.068	520.06
426.291	495.06
426.513	515.06
426.735	514.06
426.958	583.06
427.18	651.06
427.402	757.06
427.625	836.06
427.847	805.06
428.069	662.06
428.292	565.06
428.514	535.06
428.736	519.06
428.958	502.06
429.181	479.06
429.403	456.06
429.625	458.06
429.847	501.06
430.069	591.06
430.292	595.06
430.514	495.06
430.736	476.06
430.958	459.06
431.18	441.06
431.402	444.06
431.624	435.06
431.846	437.06
432.068	445.06
432.29	432.06
432.512	444.06
432.734	422.06
432.956	420.06
433.178	417.06
433.4	433.06
433.622	444.06
433.844	450.06
434.066	435.06
434.287	422.06
434.509	410.06
434.731	436.06
434.953	439.06
435.175	465.06
435.397	488.06
435.618	503.06
435.84	547.06
436.062	651.06
436.284	712.06
436.505	600.06
436.727	516.06
436.949	515.06
437.17	490.06
437.392	474.06
437.614	496.06
437.835	561.06
438.057	664.06
438.278	732.06
438.5	710.06
438.721	782.06
438.943	740.06
439.165	623.06
439.386	551.06
439.608	547.06
439.829	565.06
440.05	580.06
440.272	603.06
440.493	585.06
440.715	510.06
440.936	495.06
441.158	476.06
441.379	467.06
441.6	489.06
441.822	503.06
442.043	561.06
442.264	648.06
442.486	671.06
442.707	577.06
442.928	553.06
443.149	541.06
443.371	565.06
443.592	599.06
443.813	687.06
444.034	746.06
444.255	602.06
444.476	515.06
444.698	523.06
444.919	476.06
445.14	629.06
445.361	541.06
445.582	574.06
445.803	621.06
446.024	729.06
446.245	738.06
446.466	647.06
446.687	601.06
446.908	536.06
447.129	511.06
447.35	486.06
447.571	483.06
447.792	503.06
448.013	485.06
448.234	517.06
448.455	559.06
448.675	681.06
448.896	760.06
449.117	636.06
449.338	619.06
449.559	695.06
449.779	766.06
450	643.06
450.221	556.06
450.442	498.06
450.662	503.06
450.883	514.06
451.104	530.06
451.324	539.06
451.545	479.06
451.766	477.06
451.986	456.06
452.207	416.06
452.428	418.06
452.648	438.06
452.869	449.06
453.089	442.06
453.31	473.06
453.53	471.06
453.751	432.06
453.971	445.06
454.192	492.06
454.412	468.06
454.633	453.06
454.853	451.06
455.073	432.06
455.294	458.06
455.514	533.06
455.734	515.06
455.955	436.06
456.175	396.06
456.395	395.06
456.616	401.06
456.836	392.06
457.056	388.06
457.276	373.06
457.497	392.06
457.717	409.06
457.937	410.06
458.157	387.06
458.377	427.06
458.598	461.06
458.818	514.06
459.038	625.06
459.258	638.06
459.478	539.06
459.698	465.06
459.918	439.06
460.138	423.06
460.358	421.06
460.578	417.06
460.798	421.06
461.018	433.06
461.238	426.06
461.458	424.06
461.678	413.06
461.898	431.06
462.118	405.06
462.338	412.06
462.558	406.06
462.777	403.06
462.997	427.06
463.217	421.06
463.437	415.06
463.657	438.06
463.876	432.06
464.096	439.06
464.316	439.06
464.536	433.06
464.755	441.06
464.975	456.06
465.195	565.06
465.414	665.06
465.634	582.06
465.854	515.06
466.073	465.06
466.293	448.06
466.512	448.06
466.732	426.06
466.951	395.06
467.171	424.06
467.391	424.06
467.61	456.06
467.829	476.06
468.049	436.06
468.268	415.06
468.488	394.06
468.707	417.06
468.927	412.06
469.146	403.06
469.365	415.06
469.585	411.06
469.804	398.06
470.023	450.06
470.243	441.06
470.462	457.06
470.681	475.06
470.901	465.06
471.12	449.06
471.339	437.06
471.558	426.06
471.777	436.06
471.997	409.06
472.216	409.06
472.435	428.06
472.654	431.06
472.873	418.06
473.092	415.06
473.311	404.06
473.53	424.06
473.749	448.06
473.968	489.06
474.187	625.06
474.406	628.06
474.625	496.06
474.844	444.06
475.063	437.06
475.282	438.06
475.501	425.06
475.72	438.06
475.939	443.06
476.158	447.06
476.377	437.06
476.596	440.06
476.814	475.06
477.033	445.06
477.252	472.06
477.471	464.06
477.69	471.06
477.908	457.06
478.127	463.06
478.346	483.06
478.564	466.06
478.783	457.06
479.002	455.06
479.22	492.06
479.439	493.06
479.658	524.06
479.876	537.06
480.095	522.06
480.313	551.06
480.532	535.06
480.751	503.06
480.969	523.06
481.188	509.06
481.406	529.06
481.624	513.06
481.843	503.06
482.061	506.06
482.28	531.06
482.498	499.06
482.717	513.06
482.935	493.06
483.153	488.06
483.372	511.06
483.59	504.06
483.808	496.06
484.027	492.06
484.245	506.06
484.463	513.06
484.681	513.06
484.9	526.06
485.118	503.06
485.336	521.06
485.554	509.06
485.772	532.06
485.99	522.06
486.209	536.06
486.427	543.06
486.645	539.06
486.863	575.06
487.081	575.06
487.299	589.06
487.517	559.06
487.735	562.06
487.953	563.06
488.171	560.06
488.389	575.06
488.607	563.06
488.825	567.06
489.043	568.06
489.261	571.06
489.479	567.06
489.696	564.06
489.914	553.06
490.132	573.06
490.35	569.06
490.568	593.06
490.786	586.06
491.003	615.06
491.221	615.06
491.439	621.06
491.657	644.06
491.874	659.06
492.092	641.06
492.31	659.06
492.527	635.06
492.745	640.06
492.963	639.06
493.18	642.06
493.398	662.06
493.615	676.06
493.833	669.06
494.05	645.06
494.268	653.06
494.485	675.06
494.703	647.06
494.92	688.06
495.138	681.06
495.355	675.06
495.573	661.06
495.79	676.06
496.008	684.06
496.225	693.06
496.442	671.06
496.66	653.06
496.877	652.06
497.094	641.06
497.312	667.06
497.529	669.06
497.746	675.06
497.963	682.06
498.181	710.06
498.398	712.06
498.615	721.06
498.832	736.06
499.049	699.06
499.267	737.06
499.484	725.06
499.701	748.06
499.918	754.06
500.135	759.06
500.352	779.06
500.569	746.06
500.786	792.06
501.003	807.06
501.22	779.06
501.437	779.06
501.654	789.06
501.871	807.06
