Data from 1987.PennyLincolnUp.Lamp.En5.5.200Scan.071819.P2_HRD10591_17-14-02-971.txt Node
Date: Thu Jul 18 17:14:02 EDT 2019
User: cochatt
Spectrometer: HR+D1059
Trigger mode: 1
Integration Time (sec): 1.000000E-1
Scans to average: 1
Electric dark correction enabled: true
Nonlinearity correction enabled: false
Boxcar width: 0
XAxis mode: Wavelengths
Number of Pixels in Spectrum: 2048
>>>>>Begin Spectral Data<<<<<
223.165	-21.19
223.4	-21.19
223.635	-21.19
223.869	-15.19
224.104	-35.19
224.338	-11.19
224.573	-12.19
224.808	3.81
225.042	-0.19
225.277	-13.19
225.511	5.81
225.746	-5.19
225.98	3.81
226.215	7.81
226.449	8.81
226.683	21.81
226.918	24.81
227.152	36.81
227.387	33.81
227.621	35.81
227.856	42.81
228.09	41.81
228.324	40.81
228.559	43.81
228.793	63.81
229.027	87.81
229.262	104.81
229.496	121.81
229.73	131.81
229.964	155.81
230.199	124.81
230.433	107.81
230.667	103.81
230.901	91.81
231.136	107.81
231.37	111.81
231.604	110.81
231.838	114.81
232.072	108.81
232.306	117.81
232.541	103.81
232.775	82.81
233.009	97.81
233.243	99.81
233.477	108.81
233.711	94.81
233.945	107.81
234.179	106.81
234.413	123.81
234.647	105.81
234.881	113.81
235.115	107.81
235.349	110.81
235.583	113.81
235.817	104.81
236.051	115.81
236.285	124.81
236.519	127.81
236.753	122.81
236.987	116.81
237.221	172.81
237.455	222.81
237.689	170.81
237.922	116.81
238.156	121.81
238.39	121.81
238.624	114.81
238.858	113.81
239.091	126.81
239.325	112.81
239.559	121.81
239.793	124.81
240.027	127.81
240.26	115.81
240.494	147.81
240.728	132.81
240.961	133.81
241.195	124.81
241.429	127.81
241.662	140.81
241.896	125.81
242.13	112.81
242.363	117.81
242.597	127.81
242.83	135.81
243.064	117.81
243.298	144.81
243.531	120.81
243.765	128.81
243.998	122.81
244.232	122.81
244.465	134.81
244.699	140.81
244.932	125.81
245.166	132.81
245.399	135.81
245.633	121.81
245.866	136.81
246.099	124.81
246.333	115.81
246.566	151.81
246.8	132.81
247.033	140.81
247.266	125.81
247.5	150.81
247.733	148.81
247.966	155.81
248.2	142.81
248.433	149.81
248.666	155.81
248.899	163.81
249.133	169.81
249.366	195.81
249.599	168.81
249.832	156.81
250.066	176.81
250.299	153.81
250.532	172.81
250.765	166.81
250.998	190.81
251.231	211.81
251.465	181.81
251.698	175.81
251.931	168.81
252.164	158.81
252.397	164.81
252.63	179.81
252.863	170.81
253.096	185.81
253.329	201.81
253.562	196.81
253.795	201.81
254.028	177.81
254.261	194.81
254.494	195.81
254.727	222.81
254.96	228.81
255.193	239.81
255.426	224.81
255.659	215.81
255.892	203.81
256.124	197.81
256.357	179.81
256.59	168.81
256.823	193.81
257.056	170.81
257.289	187.81
257.521	163.81
257.754	170.81
257.987	192.81
258.22	177.81
258.452	170.81
258.685	179.81
258.918	165.81
259.151	171.81
259.383	184.81
259.616	189.81
259.849	210.81
260.081	189.81
260.314	195.81
260.547	214.81
260.779	205.81
261.012	186.81
261.244	198.81
261.477	175.81
261.71	170.81
261.942	191.81
262.175	211.81
262.407	200.81
262.64	182.81
262.872	170.81
263.105	171.81
263.337	169.81
263.57	165.81
263.802	167.81
264.035	179.81
264.267	165.81
264.499	173.81
264.732	181.81
264.964	158.81
265.197	193.81
265.429	181.81
265.661	161.81
265.894	185.81
266.126	166.81
266.358	172.81
266.591	180.81
266.823	176.81
267.055	176.81
267.287	181.81
267.52	187.81
267.752	185.81
267.984	181.81
268.216	178.81
268.448	186.81
268.681	179.81
268.913	195.81
269.145	197.81
269.377	230.81
269.609	217.81
269.841	219.81
270.073	205.81
270.306	213.81
270.538	248.81
270.77	243.81
271.002	265.81
271.234	234.81
271.466	247.81
271.698	251.81
271.93	268.81
272.162	250.81
272.394	256.81
272.626	231.81
272.858	221.81
273.09	240.81
273.322	230.81
273.553	221.81
273.785	195.81
274.017	209.81
274.249	211.81
274.481	217.81
274.713	229.81
274.945	188.81
275.176	193.81
275.408	200.81
275.64	199.81
275.872	193.81
276.104	195.81
276.335	192.81
276.567	210.81
276.799	212.81
277.031	236.81
277.262	258.81
277.494	257.81
277.726	253.81
277.957	232.81
278.189	215.81
278.421	217.81
278.652	209.81
278.884	196.81
279.115	207.81
279.347	203.81
279.579	200.81
279.81	201.81
280.042	187.81
280.273	193.81
280.505	202.81
280.736	194.81
280.968	205.81
281.199	193.81
281.431	202.81
281.662	206.81
281.894	191.81
282.125	206.81
282.356	215.81
282.588	230.81
282.819	239.81
283.051	202.81
283.282	204.81
283.513	207.81
283.745	207.81
283.976	200.81
284.207	192.81
284.439	213.81
284.67	204.81
284.901	197.81
285.132	203.81
285.364	204.81
285.595	204.81
285.826	195.81
286.057	188.81
286.288	214.81
286.52	203.81
286.751	208.81
286.982	215.81
287.213	195.81
287.444	197.81
287.675	199.81
287.906	204.81
288.138	227.81
288.369	219.81
288.6	217.81
288.831	203.81
289.062	208.81
289.293	229.81
289.524	212.81
289.755	204.81
289.986	196.81
290.217	213.81
290.448	191.81
290.679	204.81
290.91	217.81
291.141	196.81
291.371	203.81
291.602	205.81
291.833	206.81
292.064	195.81
292.295	207.81
292.526	190.81
292.757	183.81
292.987	205.81
293.218	191.81
293.449	197.81
293.68	208.81
293.91	206.81
294.141	199.81
294.372	213.81
294.603	205.81
294.833	214.81
295.064	194.81
295.295	211.81
295.525	214.81
295.756	195.81
295.987	219.81
296.217	233.81
296.448	256.81
296.679	224.81
296.909	221.81
297.14	225.81
297.37	202.81
297.601	229.81
297.831	208.81
298.062	205.81
298.292	225.81
298.523	221.81
298.753	211.81
298.984	206.81
299.214	215.81
299.445	213.81
299.675	219.81
299.905	231.81
300.136	213.81
300.366	222.81
300.597	235.81
300.827	225.81
301.057	225.81
301.288	226.81
301.518	231.81
301.748	216.81
301.979	222.81
302.209	235.81
302.439	229.81
302.669	226.81
302.9	234.81
303.13	231.81
303.36	251.81
303.59	234.81
303.82	241.81
304.051	221.81
304.281	222.81
304.511	205.81
304.741	218.81
304.971	235.81
305.201	220.81
305.431	229.81
305.661	227.81
305.891	218.81
306.121	225.81
306.352	249.81
306.582	234.81
306.812	240.81
307.042	243.81
307.272	230.81
307.502	211.81
307.731	231.81
307.961	224.81
308.191	231.81
308.421	227.81
308.651	240.81
308.881	235.81
309.111	245.81
309.341	246.81
309.571	269.81
309.8	262.81
310.03	282.81
310.26	278.81
310.49	283.81
310.72	282.81
310.949	281.81
311.179	316.81
311.409	286.81
311.639	273.81
311.868	303.81
312.098	269.81
312.328	272.81
312.557	307.81
312.787	335.81
313.017	315.81
313.246	297.81
313.476	282.81
313.706	271.81
313.935	284.81
314.165	308.81
314.394	289.81
314.624	298.81
314.853	281.81
315.083	297.81
315.312	283.81
315.542	303.81
315.771	280.81
316.001	267.81
316.23	276.81
316.46	273.81
316.689	271.81
316.919	290.81
317.148	269.81
317.377	290.81
317.607	287.81
317.836	268.81
318.065	277.81
318.295	267.81
318.524	279.81
318.753	269.81
318.983	285.81
319.212	258.81
319.441	291.81
319.67	284.81
319.9	296.81
320.129	276.81
320.358	268.81
320.587	284.81
320.816	293.81
321.046	312.81
321.275	311.81
321.504	315.81
321.733	301.81
321.962	309.81
322.191	327.81
322.42	335.81
322.649	345.81
322.878	360.81
323.108	339.81
323.337	386.81
323.566	412.81
323.795	441.81
324.024	465.81
324.253	587.81
324.482	860.81
324.71	1321.81
324.939	1819.81
325.168	1585.81
325.397	896.81
325.626	590.81
325.855	486.81
326.084	457.81
326.313	433.81
326.542	411.81
326.77	427.81
326.999	550.81
327.228	737.81
327.457	1137.81
327.686	1364.81
327.914	974.81
328.143	617.81
328.372	533.81
328.6	493.81
328.829	477.81
329.058	485.81
329.287	471.81
329.515	449.81
329.744	381.81
329.972	385.81
330.201	381.81
330.43	384.81
330.658	458.81
330.887	511.81
331.115	483.81
331.344	424.81
331.572	397.81
331.801	370.81
332.03	388.81
332.258	356.81
332.486	341.81
332.715	319.81
332.943	321.81
333.172	327.81
333.4	317.81
333.629	330.81
333.857	329.81
334.085	327.81
334.314	330.81
334.542	339.81
334.771	340.81
334.999	329.81
335.227	320.81
335.455	341.81
335.684	328.81
335.912	294.81
336.14	303.81
336.369	319.81
336.597	323.81
336.825	323.81
337.053	336.81
337.281	295.81
337.51	318.81
337.738	326.81
337.966	309.81
338.194	306.81
338.422	326.81
338.65	321.81
338.878	312.81
339.106	300.81
339.334	298.81
339.562	299.81
339.79	292.81
340.018	302.81
340.246	293.81
340.474	316.81
340.702	317.81
340.93	315.81
341.158	307.81
341.386	317.81
341.614	332.81
341.842	301.81
342.07	293.81
342.298	307.81
342.526	295.81
342.754	303.81
342.981	293.81
343.209	307.81
343.437	300.81
343.665	301.81
343.893	295.81
344.12	310.81
344.348	287.81
344.576	323.81
344.804	298.81
345.031	320.81
345.259	355.81
345.487	336.81
345.714	321.81
345.942	307.81
346.17	295.81
346.397	310.81
346.625	316.81
346.853	312.81
347.08	316.81
347.308	321.81
347.535	325.81
347.763	326.81
347.99	290.81
348.218	332.81
348.445	337.81
348.673	313.81
348.9	319.81
349.128	318.81
349.355	287.81
349.583	288.81
349.81	322.81
350.037	303.81
350.265	303.81
350.492	291.81
350.72	324.81
350.947	309.81
351.174	326.81
351.402	320.81
351.629	313.81
351.856	324.81
352.083	319.81
352.311	338.81
352.538	351.81
352.765	335.81
352.992	336.81
353.22	314.81
353.447	317.81
353.674	305.81
353.901	291.81
354.128	300.81
354.355	282.81
354.583	272.81
354.81	281.81
355.037	289.81
355.264	287.81
355.491	311.81
355.718	272.81
355.945	281.81
356.172	279.81
356.399	274.81
356.626	284.81
356.853	285.81
357.08	280.81
357.307	282.81
357.534	273.81
357.761	287.81
357.988	303.81
358.215	280.81
358.441	295.81
358.668	274.81
358.895	291.81
359.122	284.81
359.349	324.81
359.576	311.81
359.802	332.81
360.029	371.81
360.256	360.81
360.483	360.81
360.709	320.81
360.936	320.81
361.163	328.81
361.39	336.81
361.616	331.81
361.843	310.81
362.07	338.81
362.296	333.81
362.523	314.81
362.749	313.81
362.976	295.81
363.203	296.81
363.429	298.81
363.656	296.81
363.882	294.81
364.109	307.81
364.335	305.81
364.562	305.81
364.788	286.81
365.015	309.81
365.241	317.81
365.468	319.81
365.694	295.81
365.92	311.81
366.147	311.81
366.373	317.81
366.599	294.81
366.826	307.81
367.052	284.81
367.278	307.81
367.505	300.81
367.731	319.81
367.957	294.81
368.184	301.81
368.41	319.81
368.636	302.81
368.862	312.81
369.089	324.81
369.315	298.81
369.541	315.81
369.767	299.81
369.993	304.81
370.219	287.81
370.445	298.81
370.672	300.81
370.898	291.81
371.124	307.81
371.35	290.81
371.576	299.81
371.802	290.81
372.028	288.81
372.254	287.81
372.48	297.81
372.706	305.81
372.932	306.81
373.158	288.81
373.384	291.81
373.61	318.81
373.835	314.81
374.061	298.81
374.287	298.81
374.513	312.81
374.739	305.81
374.965	296.81
375.191	299.81
375.416	297.81
375.642	283.81
375.868	325.81
376.094	298.81
376.319	307.81
376.545	283.81
376.771	297.81
376.997	314.81
377.222	288.81
377.448	297.81
377.674	300.81
377.899	292.81
378.125	312.81
378.35	299.81
378.576	305.81
378.802	307.81
379.027	277.81
379.253	296.81
379.478	277.81
379.704	291.81
379.929	298.81
380.155	296.81
380.38	308.81
380.606	298.81
380.831	306.81
381.057	318.81
381.282	301.81
381.507	307.81
381.733	290.81
381.958	319.81
382.184	315.81
382.409	305.81
382.634	300.81
382.86	293.81
383.085	313.81
383.31	288.81
383.535	319.81
383.761	309.81
383.986	305.81
384.211	304.81
384.436	318.81
384.662	293.81
384.887	314.81
385.112	295.81
385.337	328.81
385.562	307.81
385.787	309.81
386.013	328.81
386.238	301.81
386.463	307.81
386.688	320.81
386.913	322.81
387.138	309.81
387.363	329.81
387.588	305.81
387.813	303.81
388.038	309.81
388.263	316.81
388.488	307.81
388.713	301.81
388.938	317.81
389.163	332.81
389.387	309.81
389.612	308.81
389.837	315.81
390.062	305.81
390.287	295.81
390.512	310.81
390.736	318.81
390.961	323.81
391.186	300.81
391.411	325.81
391.636	313.81
391.86	317.81
392.085	305.81
392.31	333.81
392.534	328.81
392.759	317.81
392.984	333.81
393.208	339.81
393.433	352.81
393.658	351.81
393.882	319.81
394.107	312.81
394.331	317.81
394.556	311.81
394.78	323.81
395.005	307.81
395.229	307.81
395.454	301.81
395.678	330.81
395.903	340.81
396.127	348.81
396.352	376.81
396.576	339.81
396.801	330.81
397.025	365.81
397.249	316.81
397.474	330.81
397.698	351.81
397.922	347.81
398.147	354.81
398.371	368.81
398.595	361.81
398.82	344.81
399.044	367.81
399.268	362.81
399.492	365.81
399.717	387.81
399.941	403.81
400.165	424.81
400.389	451.81
400.613	402.81
400.837	374.81
401.062	364.81
401.286	369.81
401.51	380.81
401.734	376.81
401.958	349.81
402.182	371.81
402.406	388.81
402.63	376.81
402.854	389.81
403.078	364.81
403.302	385.81
403.526	353.81
403.75	383.81
403.974	375.81
404.198	377.81
404.422	372.81
404.645	354.81
404.869	375.81
405.093	397.81
405.317	395.81
405.541	441.81
405.765	401.81
405.988	381.81
406.212	414.81
406.436	443.81
406.66	433.81
406.883	413.81
407.107	428.81
407.331	469.81
407.555	517.81
407.778	543.81
408.002	477.81
408.226	444.81
408.449	436.81
408.673	419.81
408.896	458.81
409.12	471.81
409.344	448.81
409.567	407.81
409.791	415.81
410.014	379.81
410.238	380.81
410.461	375.81
410.685	403.81
410.908	397.81
411.132	454.81
411.355	451.81
411.578	434.81
411.802	396.81
412.025	372.81
412.249	369.81
412.472	385.81
412.695	396.81
412.919	392.81
413.142	382.81
413.365	371.81
413.589	380.81
413.812	373.81
414.035	355.81
414.258	337.81
414.482	370.81
414.705	371.81
414.928	347.81
415.151	367.81
415.374	353.81
415.597	378.81
415.821	362.81
416.044	369.81
416.267	383.81
416.49	379.81
416.713	352.81
416.936	371.81
417.159	361.81
417.382	372.81
417.605	365.81
417.828	382.81
418.051	402.81
418.274	372.81
418.497	354.81
418.72	360.81
418.943	371.81
419.166	376.81
419.389	396.81
419.611	371.81
419.834	376.81
420.057	362.81
420.28	375.81
420.503	381.81
420.726	384.81
420.948	397.81
421.171	449.81
421.394	485.81
421.617	413.81
421.839	386.81
422.062	401.81
422.285	405.81
422.507	468.81
422.73	546.81
422.953	505.81
423.175	435.81
423.398	413.81
423.621	421.81
423.843	441.81
424.066	455.81
424.288	434.81
424.511	450.81
424.733	509.81
424.956	550.81
425.178	567.81
425.401	551.81
425.623	564.81
425.846	471.81
426.068	450.81
426.291	436.81
426.513	439.81
426.735	456.81
426.958	504.81
427.18	549.81
427.402	678.81
427.625	715.81
427.847	650.81
428.069	553.81
428.292	489.81
428.514	472.81
428.736	446.81
428.958	417.81
429.181	429.81
429.403	402.81
429.625	416.81
429.847	444.81
430.069	499.81
430.292	523.81
430.514	453.81
430.736	425.81
430.958	405.81
431.18	388.81
431.402	373.81
431.624	374.81
431.846	391.81
432.068	389.81
432.29	379.81
432.512	371.81
432.734	389.81
432.956	383.81
433.178	410.81
433.4	392.81
433.622	406.81
433.844	375.81
434.066	385.81
434.287	379.81
434.509	380.81
434.731	402.81
434.953	397.81
435.175	404.81
435.397	439.81
435.618	451.81
435.84	485.81
436.062	588.81
436.284	595.81
436.505	506.81
436.727	468.81
436.949	425.81
437.17	435.81
437.392	432.81
437.614	421.81
437.835	474.81
438.057	563.81
438.278	632.81
438.5	628.81
438.721	675.81
438.943	657.81
439.165	541.81
439.386	481.81
439.608	481.81
439.829	502.81
440.05	499.81
440.272	516.81
440.493	511.81
440.715	455.81
440.936	447.81
441.158	422.81
441.379	421.81
441.6	423.81
441.822	449.81
442.043	492.81
442.264	573.81
442.486	599.81
442.707	524.81
442.928	488.81
443.149	475.81
443.371	503.81
443.592	521.81
443.813	605.81
444.034	644.81
444.255	553.81
444.476	465.81
444.698	469.81
444.919	442.81
445.14	531.81
445.361	477.81
445.582	483.81
445.803	526.81
446.024	625.81
446.245	630.81
446.466	580.81
446.687	486.81
446.908	484.81
447.129	429.81
447.35	412.81
447.571	434.81
447.792	433.81
448.013	411.81
448.234	459.81
448.455	492.81
448.675	581.81
448.896	692.81
449.117	578.81
449.338	554.81
449.559	610.81
449.779	714.81
450	577.81
450.221	488.81
450.442	462.81
450.662	449.81
450.883	425.81
451.104	431.81
451.324	435.81
451.545	409.81
451.766	396.81
451.986	394.81
452.207	381.81
452.428	373.81
452.648	354.81
452.869	383.81
453.089	387.81
453.31	407.81
453.53	395.81
453.751	396.81
453.971	370.81
454.192	401.81
454.412	373.81
454.633	387.81
454.853	363.81
455.073	385.81
455.294	411.81
455.514	469.81
455.734	432.81
455.955	389.81
456.175	364.81
456.395	347.81
456.616	341.81
456.836	354.81
457.056	331.81
457.276	338.81
457.497	352.81
457.717	344.81
457.937	353.81
458.157	351.81
458.377	378.81
458.598	397.81
458.818	455.81
459.038	486.81
459.258	517.81
459.478	445.81
459.698	412.81
459.918	389.81
460.138	384.81
460.358	381.81
460.578	367.81
460.798	375.81
461.018	370.81
461.238	374.81
461.458	373.81
461.678	353.81
461.898	375.81
462.118	389.81
462.338	377.81
462.558	359.81
462.777	385.81
462.997	395.81
463.217	389.81
463.437	389.81
463.657	389.81
463.876	397.81
464.096	401.81
464.316	394.81
464.536	407.81
464.755	404.81
464.975	404.81
465.195	471.81
465.414	523.81
465.634	459.81
465.854	444.81
466.073	411.81
466.293	392.81
466.512	391.81
466.732	365.81
466.951	373.81
467.171	382.81
467.391	379.81
467.61	405.81
467.829	399.81
468.049	385.81
468.268	367.81
468.488	381.81
468.707	368.81
468.927	356.81
469.146	340.81
469.365	348.81
469.585	363.81
469.804	367.81
470.023	385.81
470.243	360.81
470.462	390.81
470.681	384.81
470.901	420.81
471.12	392.81
471.339	388.81
471.558	381.81
471.777	381.81
471.997	385.81
472.216	384.81
472.435	387.81
472.654	384.81
472.873	367.81
473.092	361.81
473.311	391.81
473.53	389.81
473.749	400.81
473.968	424.81
474.187	519.81
474.406	537.81
474.625	447.81
474.844	418.81
475.063	412.81
475.282	387.81
475.501	377.81
475.72	393.81
475.939	384.81
476.158	387.81
476.377	403.81
476.596	404.81
476.814	386.81
477.033	418.81
477.252	392.81
477.471	395.81
477.69	404.81
477.908	401.81
478.127	413.81
478.346	412.81
478.564	397.81
478.783	434.81
479.002	427.81
479.22	410.81
479.439	440.81
479.658	459.81
479.876	476.81
480.095	468.81
480.313	474.81
480.532	473.81
480.751	455.81
480.969	473.81
481.188	471.81
481.406	477.81
481.624	466.81
481.843	462.81
482.061	446.81
482.28	445.81
482.498	465.81
482.717	463.81
482.935	453.81
483.153	445.81
483.372	437.81
483.59	446.81
483.808	450.81
484.027	459.81
484.245	452.81
484.463	440.81
484.681	461.81
484.9	465.81
485.118	469.81
485.336	433.81
485.554	461.81
485.772	468.81
485.99	481.81
486.209	455.81
486.427	466.81
486.645	460.81
486.863	501.81
487.081	495.81
487.299	514.81
487.517	483.81
487.735	474.81
487.953	477.81
488.171	489.81
488.389	492.81
488.607	500.81
488.825	481.81
489.043	491.81
489.261	505.81
489.479	515.81
489.696	500.81
489.914	495.81
490.132	525.81
490.35	511.81
490.568	513.81
490.786	520.81
491.003	517.81
491.221	536.81
491.439	540.81
491.657	582.81
491.874	553.81
492.092	537.81
492.31	569.81
492.527	575.81
492.745	551.81
492.963	583.81
493.18	564.81
493.398	573.81
493.615	573.81
493.833	579.81
494.05	585.81
494.268	572.81
494.485	606.81
494.703	572.81
494.92	583.81
495.138	608.81
495.355	586.81
495.573	582.81
495.79	587.81
496.008	571.81
496.225	546.81
496.442	599.81
496.66	617.81
496.877	589.81
497.094	604.81
497.312	599.81
497.529	620.81
497.746	618.81
497.963	628.81
498.181	635.81
498.398	635.81
498.615	651.81
498.832	665.81
499.049	649.81
499.267	636.81
499.484	665.81
499.701	699.81
499.918	703.81
500.135	704.81
500.352	701.81
500.569	717.81
500.786	717.81
501.003	700.81
501.22	719.81
501.437	712.81
501.654	708.81
501.871	701.81
502.088	689.81
