Data from 1987.PennyLincolnUp.Lamp.En5.5.200Scan.071819.P2_HRD10591_17-15-24-972.txt Node
Date: Thu Jul 18 17:15:24 EDT 2019
User: cochatt
Spectrometer: HR+D1059
Trigger mode: 1
Integration Time (sec): 1.000000E-1
Scans to average: 1
Electric dark correction enabled: true
Nonlinearity correction enabled: false
Boxcar width: 0
XAxis mode: Wavelengths
Number of Pixels in Spectrum: 2048
>>>>>Begin Spectral Data<<<<<
223.165	-14.19
223.4	-14.19
223.635	-14.19
223.869	-9.19
224.104	-11.19
224.338	-5.19
224.573	-18.19
224.808	-14.19
225.042	-9.19
225.277	-17.19
225.511	-0.19
225.746	16.81
225.98	15.81
226.215	3.81
226.449	10.81
226.683	16.81
226.918	16.81
227.152	17.81
227.387	32.81
227.621	46.81
227.856	32.81
228.09	34.81
228.324	42.81
228.559	58.81
228.793	69.81
229.027	117.81
229.262	121.81
229.496	117.81
229.73	133.81
229.964	181.81
230.199	152.81
230.433	133.81
230.667	110.81
230.901	122.81
231.136	112.81
231.37	114.81
231.604	103.81
231.838	121.81
232.072	102.81
232.306	107.81
232.541	117.81
232.775	118.81
233.009	106.81
233.243	108.81
233.477	101.81
233.711	111.81
233.945	109.81
234.179	121.81
234.413	125.81
234.647	110.81
234.881	126.81
235.115	120.81
235.349	132.81
235.583	116.81
235.817	119.81
236.051	124.81
236.285	125.81
236.519	109.81
236.753	146.81
236.987	146.81
237.221	227.81
237.455	261.81
237.689	203.81
237.922	163.81
238.156	142.81
238.39	142.81
238.624	127.81
238.858	122.81
239.091	132.81
239.325	125.81
239.559	122.81
239.793	132.81
240.027	129.81
240.26	130.81
240.494	150.81
240.728	163.81
240.961	132.81
241.195	151.81
241.429	131.81
241.662	120.81
241.896	122.81
242.13	132.81
242.363	134.81
242.597	124.81
242.83	141.81
243.064	144.81
243.298	120.81
243.531	132.81
243.765	141.81
243.998	132.81
244.232	125.81
244.465	136.81
244.699	122.81
244.932	126.81
245.166	147.81
245.399	124.81
245.633	135.81
245.866	126.81
246.099	148.81
246.333	135.81
246.566	144.81
246.8	150.81
247.033	171.81
247.266	146.81
247.5	153.81
247.733	167.81
247.966	165.81
248.2	155.81
248.433	164.81
248.666	171.81
248.899	187.81
249.133	201.81
249.366	216.81
249.599	194.81
249.832	176.81
250.066	184.81
250.299	173.81
250.532	169.81
250.765	202.81
250.998	201.81
251.231	233.81
251.465	204.81
251.698	212.81
251.931	188.81
252.164	185.81
252.397	201.81
252.63	197.81
252.863	214.81
253.096	206.81
253.329	232.81
253.562	222.81
253.795	218.81
254.028	216.81
254.261	197.81
254.494	229.81
254.727	278.81
254.96	271.81
255.193	284.81
255.426	242.81
255.659	238.81
255.892	231.81
256.124	224.81
256.357	196.81
256.59	188.81
256.823	203.81
257.056	196.81
257.289	198.81
257.521	214.81
257.754	206.81
257.987	184.81
258.22	197.81
258.452	188.81
258.685	203.81
258.918	211.81
259.151	209.81
259.383	212.81
259.616	206.81
259.849	217.81
260.081	222.81
260.314	227.81
260.547	257.81
260.779	236.81
261.012	244.81
261.244	207.81
261.477	229.81
261.71	210.81
261.942	233.81
262.175	228.81
262.407	232.81
262.64	209.81
262.872	209.81
263.105	205.81
263.337	208.81
263.57	197.81
263.802	180.81
264.035	178.81
264.267	190.81
264.499	195.81
264.732	184.81
264.964	193.81
265.197	214.81
265.429	202.81
265.661	184.81
265.894	196.81
266.126	184.81
266.358	182.81
266.591	187.81
266.823	196.81
267.055	195.81
267.287	201.81
267.52	201.81
267.752	203.81
267.984	206.81
268.216	204.81
268.448	212.81
268.681	209.81
268.913	216.81
269.145	232.81
269.377	242.81
269.609	248.81
269.841	260.81
270.073	246.81
270.306	271.81
270.538	289.81
270.77	297.81
271.002	300.81
271.234	281.81
271.466	288.81
271.698	299.81
271.93	314.81
272.162	316.81
272.394	320.81
272.626	301.81
272.858	263.81
273.09	261.81
273.322	257.81
273.553	233.81
273.785	246.81
274.017	232.81
274.249	245.81
274.481	230.81
274.713	238.81
274.945	236.81
275.176	237.81
275.408	229.81
275.64	234.81
275.872	234.81
276.104	231.81
276.335	240.81
276.567	235.81
276.799	269.81
277.031	293.81
277.262	294.81
277.494	283.81
277.726	288.81
277.957	270.81
278.189	249.81
278.421	251.81
278.652	237.81
278.884	232.81
279.115	231.81
279.347	232.81
279.579	230.81
279.81	219.81
280.042	214.81
280.273	220.81
280.505	228.81
280.736	224.81
280.968	222.81
281.199	205.81
281.431	224.81
281.662	207.81
281.894	237.81
282.125	248.81
282.356	238.81
282.588	284.81
282.819	299.81
283.051	243.81
283.282	238.81
283.513	227.81
283.745	226.81
283.976	223.81
284.207	228.81
284.439	235.81
284.67	240.81
284.901	222.81
285.132	233.81
285.364	225.81
285.595	231.81
285.826	222.81
286.057	229.81
286.288	229.81
286.52	224.81
286.751	228.81
286.982	220.81
287.213	229.81
287.444	228.81
287.675	250.81
287.906	234.81
288.138	259.81
288.369	248.81
288.6	267.81
288.831	236.81
289.062	234.81
289.293	242.81
289.524	242.81
289.755	234.81
289.986	218.81
290.217	232.81
290.448	228.81
290.679	234.81
290.91	236.81
291.141	238.81
291.371	235.81
291.602	229.81
291.833	223.81
292.064	237.81
292.295	244.81
292.526	242.81
292.757	237.81
292.987	229.81
293.218	235.81
293.449	228.81
293.68	256.81
293.91	249.81
294.141	250.81
294.372	247.81
294.603	254.81
294.833	236.81
295.064	242.81
295.295	225.81
295.525	244.81
295.756	244.81
295.987	259.81
296.217	276.81
296.448	288.81
296.679	256.81
296.909	238.81
297.14	213.81
297.37	254.81
297.601	237.81
297.831	242.81
298.062	232.81
298.292	242.81
298.523	256.81
298.753	237.81
298.984	262.81
299.214	266.81
299.445	254.81
299.675	262.81
299.905	266.81
300.136	254.81
300.366	249.81
300.597	260.81
300.827	262.81
301.057	283.81
301.288	278.81
301.518	256.81
301.748	264.81
301.979	276.81
302.209	254.81
302.439	281.81
302.669	260.81
302.9	264.81
303.13	264.81
303.36	270.81
303.59	276.81
303.82	298.81
304.051	281.81
304.281	265.81
304.511	262.81
304.741	254.81
304.971	280.81
305.201	250.81
305.431	259.81
305.661	266.81
305.891	260.81
306.121	286.81
306.352	267.81
306.582	291.81
306.812	270.81
307.042	270.81
307.272	267.81
307.502	259.81
307.731	284.81
307.961	272.81
308.191	285.81
308.421	261.81
308.651	281.81
308.881	296.81
309.111	298.81
309.341	284.81
309.571	308.81
309.8	322.81
310.03	325.81
310.26	329.81
310.49	324.81
310.72	341.81
310.949	381.81
311.179	405.81
311.409	335.81
311.639	348.81
311.868	342.81
312.098	345.81
312.328	354.81
312.557	378.81
312.787	384.81
313.017	376.81
313.246	352.81
313.476	336.81
313.706	343.81
313.935	333.81
314.165	348.81
314.394	376.81
314.624	376.81
314.853	345.81
315.083	336.81
315.312	332.81
315.542	332.81
315.771	324.81
316.001	312.81
316.23	317.81
316.46	322.81
316.689	320.81
316.919	304.81
317.148	336.81
317.377	354.81
317.607	354.81
317.836	346.81
318.065	322.81
318.295	329.81
318.524	342.81
318.753	305.81
318.983	331.81
319.212	326.81
319.441	347.81
319.67	351.81
319.9	334.81
320.129	330.81
320.358	339.81
320.587	340.81
320.816	360.81
321.046	366.81
321.275	368.81
321.504	370.81
321.733	376.81
321.962	374.81
322.191	387.81
322.42	416.81
322.649	434.81
322.878	437.81
323.108	452.81
323.337	499.81
323.566	547.81
323.795	604.81
324.024	648.81
324.253	795.81
324.482	1197.81
324.71	1850.81
324.939	2596.81
325.168	2313.81
325.397	1222.81
325.626	796.81
325.855	640.81
326.084	587.81
326.313	510.81
326.542	540.81
326.77	599.81
326.999	729.81
327.228	1014.81
327.457	1578.81
327.686	1963.81
327.914	1341.81
328.143	882.81
328.372	712.81
328.6	668.81
328.829	630.81
329.058	642.81
329.287	640.81
329.515	568.81
329.744	520.81
329.972	503.81
330.201	489.81
330.43	526.81
330.658	592.81
330.887	652.81
331.115	646.81
331.344	544.81
331.572	476.81
331.801	473.81
332.03	473.81
332.258	421.81
332.486	380.81
332.715	388.81
332.943	385.81
333.172	392.81
333.4	404.81
333.629	396.81
333.857	387.81
334.085	391.81
334.314	377.81
334.542	396.81
334.771	382.81
334.999	393.81
335.227	404.81
335.455	365.81
335.684	357.81
335.912	367.81
336.14	352.81
336.369	376.81
336.597	376.81
336.825	395.81
337.053	375.81
337.281	360.81
337.51	376.81
337.738	365.81
337.966	372.81
338.194	384.81
338.422	382.81
338.65	377.81
338.878	364.81
339.106	354.81
339.334	358.81
339.562	352.81
339.79	376.81
340.018	350.81
340.246	356.81
340.474	396.81
340.702	382.81
340.93	376.81
341.158	360.81
341.386	365.81
341.614	368.81
341.842	360.81
342.07	371.81
342.298	352.81
342.526	345.81
342.754	345.81
342.981	337.81
343.209	332.81
343.437	326.81
343.665	330.81
343.893	347.81
344.12	365.81
344.348	362.81
344.576	370.81
344.804	378.81
345.031	384.81
345.259	420.81
345.487	404.81
345.714	385.81
345.942	390.81
346.17	371.81
346.397	368.81
346.625	375.81
346.853	337.81
347.08	360.81
347.308	383.81
347.535	371.81
347.763	411.81
347.99	393.81
348.218	375.81
348.445	397.81
348.673	391.81
348.9	374.81
349.128	360.81
349.355	365.81
349.583	350.81
349.81	362.81
350.037	352.81
350.265	340.81
350.492	357.81
350.72	350.81
350.947	349.81
351.174	381.81
351.402	415.81
351.629	364.81
351.856	380.81
352.083	378.81
352.311	401.81
352.538	396.81
352.765	410.81
352.992	401.81
353.22	370.81
353.447	373.81
353.674	362.81
353.901	350.81
354.128	346.81
354.355	324.81
354.583	331.81
354.81	317.81
355.037	334.81
355.264	315.81
355.491	309.81
355.718	316.81
355.945	312.81
356.172	310.81
356.399	324.81
356.626	327.81
356.853	321.81
357.08	325.81
357.307	311.81
357.534	322.81
357.761	322.81
357.988	332.81
358.215	339.81
358.441	326.81
358.668	312.81
358.895	335.81
359.122	338.81
359.349	357.81
359.576	381.81
359.802	412.81
360.029	451.81
360.256	484.81
360.483	434.81
360.709	393.81
360.936	374.81
361.163	372.81
361.39	367.81
361.616	378.81
361.843	388.81
362.07	368.81
362.296	393.81
362.523	378.81
362.749	377.81
362.976	374.81
363.203	358.81
363.429	352.81
363.656	331.81
363.882	345.81
364.109	346.81
364.335	344.81
364.562	354.81
364.788	345.81
365.015	346.81
365.241	350.81
365.468	372.81
365.694	372.81
365.92	357.81
366.147	354.81
366.373	348.81
366.599	337.81
366.826	327.81
367.052	330.81
367.278	348.81
367.505	354.81
367.731	344.81
367.957	345.81
368.184	337.81
368.41	357.81
368.636	358.81
368.862	368.81
369.089	353.81
369.315	330.81
369.541	333.81
369.767	334.81
369.993	347.81
370.219	347.81
370.445	340.81
370.672	333.81
370.898	329.81
371.124	326.81
371.35	335.81
371.576	344.81
371.802	316.81
372.028	338.81
372.254	333.81
372.48	310.81
372.706	316.81
372.932	320.81
373.158	322.81
373.384	318.81
373.61	311.81
373.835	312.81
374.061	330.81
374.287	331.81
374.513	343.81
374.739	334.81
374.965	340.81
375.191	340.81
375.416	313.81
375.642	321.81
375.868	325.81
376.094	340.81
376.319	316.81
376.545	315.81
376.771	296.81
376.997	334.81
377.222	319.81
377.448	324.81
377.674	330.81
377.899	323.81
378.125	317.81
378.35	340.81
378.576	314.81
378.802	308.81
379.027	321.81
379.253	306.81
379.478	331.81
379.704	316.81
379.929	324.81
380.155	338.81
380.38	337.81
380.606	330.81
380.831	314.81
381.057	323.81
381.282	332.81
381.507	318.81
381.733	325.81
381.958	324.81
382.184	334.81
382.409	317.81
382.634	334.81
382.86	334.81
383.085	329.81
383.31	329.81
383.535	336.81
383.761	306.81
383.986	341.81
384.211	335.81
384.436	329.81
384.662	334.81
384.887	318.81
385.112	326.81
385.337	344.81
385.562	342.81
385.787	341.81
386.013	353.81
386.238	362.81
386.463	354.81
386.688	355.81
386.913	346.81
387.138	347.81
387.363	348.81
387.588	349.81
387.813	346.81
388.038	345.81
388.263	331.81
388.488	333.81
388.713	329.81
388.938	349.81
389.163	331.81
389.387	364.81
389.612	362.81
389.837	330.81
390.062	354.81
390.287	331.81
390.512	341.81
390.736	349.81
390.961	349.81
391.186	340.81
391.411	337.81
391.636	362.81
391.86	347.81
392.085	355.81
392.31	360.81
392.534	336.81
392.759	354.81
392.984	339.81
393.208	355.81
393.433	332.81
393.658	329.81
393.882	345.81
394.107	329.81
394.331	338.81
394.556	341.81
394.78	352.81
395.005	346.81
395.229	357.81
395.454	346.81
395.678	364.81
395.903	342.81
396.127	387.81
396.352	404.81
396.576	362.81
396.801	325.81
397.025	365.81
397.249	361.81
397.474	360.81
397.698	359.81
397.922	381.81
398.147	384.81
398.371	392.81
398.595	409.81
398.82	386.81
399.044	384.81
399.268	388.81
399.492	398.81
399.717	413.81
399.941	443.81
400.165	467.81
400.389	482.81
400.613	459.81
400.837	421.81
401.062	413.81
401.286	396.81
401.51	416.81
401.734	402.81
401.958	397.81
402.182	398.81
402.406	405.81
402.63	417.81
402.854	391.81
403.078	416.81
403.302	412.81
403.526	424.81
403.75	393.81
403.974	395.81
404.198	391.81
404.422	421.81
404.645	418.81
404.869	405.81
405.093	438.81
405.317	460.81
405.541	485.81
405.765	468.81
405.988	414.81
406.212	463.81
406.436	460.81
406.66	506.81
406.883	467.81
407.107	487.81
407.331	548.81
407.555	596.81
407.778	590.81
408.002	531.81
408.226	438.81
408.449	456.81
408.673	466.81
408.896	497.81
409.12	526.81
409.344	514.81
409.567	472.81
409.791	458.81
410.014	427.81
410.238	409.81
410.461	410.81
410.685	433.81
410.908	438.81
411.132	480.81
411.355	492.81
411.578	499.81
411.802	416.81
412.025	418.81
412.249	407.81
412.472	415.81
412.695	430.81
412.919	437.81
413.142	415.81
413.365	412.81
413.589	418.81
413.812	421.81
414.035	393.81
414.258	391.81
414.482	394.81
414.705	396.81
414.928	394.81
415.151	371.81
415.374	374.81
415.597	395.81
415.821	391.81
416.044	387.81
416.267	391.81
416.49	395.81
416.713	388.81
416.936	405.81
417.159	400.81
417.382	383.81
417.605	421.81
417.828	414.81
418.051	427.81
418.274	413.81
418.497	396.81
418.72	392.81
418.943	412.81
419.166	433.81
419.389	415.81
419.611	418.81
419.834	424.81
420.057	420.81
420.28	429.81
420.503	389.81
420.726	432.81
420.948	461.81
421.171	501.81
421.394	522.81
421.617	470.81
421.839	432.81
422.062	434.81
422.285	458.81
422.507	497.81
422.73	584.81
422.953	587.81
423.175	523.81
423.398	476.81
423.621	450.81
423.843	497.81
424.066	496.81
424.288	472.81
424.511	508.81
424.733	569.81
424.956	638.81
425.178	639.81
425.401	621.81
425.623	637.81
425.846	549.81
426.068	524.81
426.291	497.81
426.513	509.81
426.735	550.81
426.958	564.81
427.18	637.81
427.402	737.81
427.625	844.81
427.847	761.81
428.069	651.81
428.292	548.81
428.514	530.81
428.736	515.81
428.958	503.81
429.181	481.81
429.403	468.81
429.625	477.81
429.847	512.81
430.069	580.81
430.292	564.81
430.514	487.81
430.736	479.81
430.958	452.81
431.18	428.81
431.402	447.81
431.624	426.81
431.846	406.81
432.068	408.81
432.29	434.81
432.512	428.81
432.734	446.81
432.956	421.81
433.178	457.81
433.4	456.81
433.622	448.81
433.844	440.81
434.066	420.81
434.287	423.81
434.509	418.81
434.731	412.81
434.953	442.81
435.175	446.81
435.397	487.81
435.618	514.81
435.84	563.81
436.062	650.81
436.284	701.81
436.505	610.81
436.727	560.81
436.949	484.81
437.17	477.81
437.392	481.81
437.614	501.81
437.835	562.81
438.057	650.81
438.278	748.81
438.5	734.81
438.721	781.81
438.943	743.81
439.165	616.81
439.386	558.81
439.608	526.81
439.829	526.81
440.05	573.81
440.272	608.81
440.493	576.81
440.715	526.81
440.936	514.81
441.158	475.81
441.379	483.81
441.6	494.81
441.822	511.81
442.043	560.81
442.264	630.81
442.486	685.81
442.707	573.81
442.928	544.81
443.149	527.81
443.371	585.81
443.592	594.81
443.813	662.81
444.034	724.81
444.255	588.81
444.476	532.81
444.698	483.81
444.919	480.81
445.14	585.81
445.361	590.81
445.582	554.81
445.803	634.81
446.024	710.81
446.245	734.81
446.466	694.81
446.687	594.81
446.908	532.81
447.129	492.81
447.35	495.81
447.571	506.81
447.792	465.81
448.013	497.81
448.234	510.81
448.455	562.81
448.675	652.81
448.896	768.81
449.117	669.81
449.338	648.81
449.559	713.81
449.779	768.81
450	656.81
450.221	560.81
450.442	490.81
450.662	485.81
450.883	478.81
451.104	508.81
451.324	524.81
451.545	467.81
451.766	462.81
451.986	432.81
452.207	436.81
452.428	441.81
452.648	445.81
452.869	417.81
453.089	447.81
453.31	459.81
453.53	460.81
453.751	455.81
453.971	425.81
454.192	470.81
454.412	464.81
454.633	440.81
454.853	433.81
455.073	408.81
455.294	465.81
455.514	540.81
455.734	520.81
455.955	448.81
456.175	406.81
456.395	393.81
456.616	382.81
456.836	369.81
457.056	376.81
457.276	373.81
457.497	413.81
457.717	406.81
457.937	375.81
458.157	407.81
458.377	415.81
458.598	438.81
458.818	522.81
459.038	634.81
459.258	619.81
459.478	507.81
459.698	485.81
459.918	437.81
460.138	409.81
460.358	427.81
460.578	426.81
460.798	411.81
461.018	439.81
461.238	412.81
461.458	411.81
461.678	408.81
461.898	427.81
462.118	426.81
462.338	425.81
462.558	406.81
462.777	414.81
462.997	430.81
463.217	409.81
463.437	421.81
463.657	402.81
463.876	406.81
464.096	423.81
464.316	426.81
464.536	436.81
464.755	448.81
464.975	452.81
465.195	560.81
465.414	663.81
465.634	582.81
465.854	514.81
466.073	468.81
466.293	429.81
466.512	448.81
466.732	416.81
466.951	414.81
467.171	441.81
467.391	426.81
467.61	440.81
467.829	455.81
468.049	441.81
468.268	415.81
468.488	408.81
468.707	410.81
468.927	404.81
469.146	411.81
469.365	402.81
469.585	426.81
469.804	429.81
470.023	444.81
470.243	444.81
470.462	441.81
470.681	479.81
470.901	448.81
471.12	420.81
471.339	420.81
471.558	447.81
471.777	433.81
471.997	411.81
472.216	404.81
472.435	417.81
472.654	426.81
472.873	411.81
473.092	420.81
473.311	429.81
473.53	424.81
473.749	454.81
473.968	500.81
474.187	615.81
474.406	629.81
474.625	514.81
474.844	467.81
475.063	438.81
475.282	432.81
475.501	437.81
475.72	441.81
475.939	444.81
476.158	432.81
476.377	416.81
476.596	428.81
476.814	449.81
477.033	454.81
477.252	450.81
477.471	462.81
477.69	464.81
477.908	455.81
478.127	457.81
478.346	448.81
478.564	451.81
478.783	456.81
479.002	456.81
479.22	487.81
479.439	492.81
479.658	523.81
479.876	522.81
480.095	507.81
480.313	552.81
480.532	524.81
480.751	502.81
480.969	493.81
481.188	532.81
481.406	546.81
481.624	522.81
481.843	525.81
482.061	512.81
482.28	499.81
482.498	503.81
482.717	512.81
482.935	498.81
483.153	499.81
483.372	505.81
483.59	496.81
483.808	501.81
484.027	499.81
484.245	518.81
484.463	522.81
484.681	530.81
484.9	534.81
485.118	520.81
485.336	495.81
485.554	522.81
485.772	542.81
485.99	543.81
486.209	548.81
486.427	526.81
486.645	564.81
486.863	589.81
487.081	577.81
487.299	547.81
487.517	554.81
487.735	536.81
487.953	547.81
488.171	581.81
488.389	581.81
488.607	538.81
488.825	537.81
489.043	558.81
489.261	564.81
489.479	552.81
489.696	548.81
489.914	566.81
490.132	561.81
490.35	579.81
490.568	606.81
490.786	583.81
491.003	608.81
491.221	602.81
491.439	595.81
491.657	622.81
491.874	636.81
492.092	620.81
492.31	633.81
492.527	636.81
492.745	637.81
492.963	646.81
493.18	645.81
493.398	654.81
493.615	672.81
493.833	668.81
494.05	662.81
494.268	665.81
494.485	656.81
494.703	658.81
494.92	658.81
495.138	668.81
495.355	678.81
495.573	664.81
495.79	674.81
496.008	660.81
496.225	671.81
496.442	657.81
496.66	698.81
496.877	682.81
497.094	658.81
497.312	700.81
497.529	674.81
497.746	674.81
497.963	705.81
498.181	681.81
498.398	721.81
498.615	722.81
498.832	720.81
499.049	709.81
499.267	714.81
499.484	717.81
499.701	736.81
499.918	732.81
500.135	754.81
500.352	754.81
500.569	757.81
500.786	788.81
501.003	789.81
501.22	765.81
501.437	789.81
501.654	804.81
501.871	822.81
