Data from 1987.PennyLincolnUp.Lamp.En5.5.200Scan.071819.P2_HRD10591_17-14-13-976.txt Node
Date: Thu Jul 18 17:14:13 EDT 2019
User: cochatt
Spectrometer: HR+D1059
Trigger mode: 1
Integration Time (sec): 1.000000E-1
Scans to average: 1
Electric dark correction enabled: true
Nonlinearity correction enabled: false
Boxcar width: 0
XAxis mode: Wavelengths
Number of Pixels in Spectrum: 2048
>>>>>Begin Spectral Data<<<<<
223.165	-20.25
223.4	-20.25
223.635	-20.25
223.869	-27.25
224.104	-10.25
224.338	-14.25
224.573	-10.25
224.808	-3.25
225.042	-11.25
225.277	8.75
225.511	-9.25
225.746	7.75
225.98	6.75
226.215	4.75
226.449	13.75
226.683	26.75
226.918	19.75
227.152	17.75
227.387	39.75
227.621	28.75
227.856	42.75
228.09	41.75
228.324	50.75
228.559	46.75
228.793	80.75
229.027	105.75
229.262	108.75
229.496	93.75
229.73	125.75
229.964	158.75
230.199	128.75
230.433	118.75
230.667	110.75
230.901	110.75
231.136	102.75
231.37	118.75
231.604	123.75
231.838	122.75
232.072	121.75
232.306	104.75
232.541	108.75
232.775	111.75
233.009	108.75
233.243	97.75
233.477	115.75
233.711	122.75
233.945	105.75
234.179	107.75
234.413	120.75
234.647	119.75
234.881	114.75
235.115	114.75
235.349	108.75
235.583	122.75
235.817	118.75
236.051	118.75
236.285	116.75
236.519	122.75
236.753	112.75
236.987	149.75
237.221	192.75
237.455	241.75
237.689	184.75
237.922	130.75
238.156	133.75
238.39	131.75
238.624	128.75
238.858	113.75
239.091	120.75
239.325	122.75
239.559	124.75
239.793	126.75
240.027	129.75
240.26	146.75
240.494	154.75
240.728	146.75
240.961	142.75
241.195	138.75
241.429	130.75
241.662	139.75
241.896	125.75
242.13	131.75
242.363	132.75
242.597	115.75
242.83	130.75
243.064	122.75
243.298	125.75
243.531	150.75
243.765	133.75
243.998	131.75
244.232	117.75
244.465	122.75
244.699	121.75
244.932	124.75
245.166	136.75
245.399	131.75
245.633	132.75
245.866	123.75
246.099	131.75
246.333	140.75
246.566	128.75
246.8	133.75
247.033	156.75
247.266	134.75
247.5	137.75
247.733	148.75
247.966	180.75
248.2	178.75
248.433	142.75
248.666	152.75
248.899	184.75
249.133	167.75
249.366	194.75
249.599	194.75
249.832	189.75
250.066	166.75
250.299	170.75
250.532	175.75
250.765	187.75
250.998	211.75
251.231	214.75
251.465	186.75
251.698	197.75
251.931	188.75
252.164	188.75
252.397	180.75
252.63	183.75
252.863	199.75
253.096	192.75
253.329	198.75
253.562	200.75
253.795	208.75
254.028	216.75
254.261	216.75
254.494	211.75
254.727	244.75
254.96	278.75
255.193	265.75
255.426	215.75
255.659	231.75
255.892	218.75
256.124	190.75
256.357	201.75
256.59	192.75
256.823	186.75
257.056	191.75
257.289	189.75
257.521	201.75
257.754	173.75
257.987	164.75
258.22	185.75
258.452	182.75
258.685	194.75
258.918	187.75
259.151	186.75
259.383	180.75
259.616	212.75
259.849	199.75
260.081	213.75
260.314	211.75
260.547	211.75
260.779	225.75
261.012	207.75
261.244	204.75
261.477	188.75
261.71	190.75
261.942	205.75
262.175	200.75
262.407	222.75
262.64	194.75
262.872	190.75
263.105	168.75
263.337	184.75
263.57	188.75
263.802	176.75
264.035	180.75
264.267	171.75
264.499	169.75
264.732	182.75
264.964	197.75
265.197	162.75
265.429	188.75
265.661	177.75
265.894	186.75
266.126	171.75
266.358	186.75
266.591	186.75
266.823	177.75
267.055	176.75
267.287	194.75
267.52	188.75
267.752	201.75
267.984	181.75
268.216	196.75
268.448	214.75
268.681	192.75
268.913	212.75
269.145	201.75
269.377	244.75
269.609	246.75
269.841	219.75
270.073	226.75
270.306	265.75
270.538	274.75
270.77	269.75
271.002	278.75
271.234	249.75
271.466	258.75
271.698	263.75
271.93	274.75
272.162	284.75
272.394	284.75
272.626	265.75
272.858	246.75
273.09	218.75
273.322	223.75
273.553	228.75
273.785	220.75
274.017	219.75
274.249	219.75
274.481	211.75
274.713	234.75
274.945	216.75
275.176	222.75
275.408	210.75
275.64	217.75
275.872	199.75
276.104	204.75
276.335	236.75
276.567	240.75
276.799	242.75
277.031	260.75
277.262	283.75
277.494	275.75
277.726	260.75
277.957	249.75
278.189	248.75
278.421	224.75
278.652	224.75
278.884	227.75
279.115	201.75
279.347	207.75
279.579	215.75
279.81	215.75
280.042	217.75
280.273	217.75
280.505	192.75
280.736	199.75
280.968	215.75
281.199	207.75
281.431	231.75
281.662	198.75
281.894	230.75
282.125	223.75
282.356	227.75
282.588	261.75
282.819	256.75
283.051	222.75
283.282	198.75
283.513	194.75
283.745	216.75
283.976	212.75
284.207	221.75
284.439	197.75
284.67	213.75
284.901	209.75
285.132	214.75
285.364	213.75
285.595	207.75
285.826	209.75
286.057	209.75
286.288	233.75
286.52	213.75
286.751	198.75
286.982	208.75
287.213	213.75
287.444	227.75
287.675	221.75
287.906	224.75
288.138	232.75
288.369	240.75
288.6	247.75
288.831	232.75
289.062	211.75
289.293	218.75
289.524	216.75
289.755	214.75
289.986	220.75
290.217	226.75
290.448	218.75
290.679	226.75
290.91	225.75
291.141	221.75
291.371	218.75
291.602	217.75
291.833	210.75
292.064	213.75
292.295	221.75
292.526	207.75
292.757	219.75
292.987	203.75
293.218	218.75
293.449	217.75
293.68	210.75
293.91	211.75
294.141	219.75
294.372	205.75
294.603	229.75
294.833	214.75
295.064	228.75
295.295	212.75
295.525	222.75
295.756	236.75
295.987	244.75
296.217	282.75
296.448	255.75
296.679	226.75
296.909	240.75
297.14	214.75
297.37	224.75
297.601	224.75
297.831	236.75
298.062	227.75
298.292	227.75
298.523	221.75
298.753	222.75
298.984	231.75
299.214	235.75
299.445	229.75
299.675	222.75
299.905	219.75
300.136	225.75
300.366	242.75
300.597	244.75
300.827	243.75
301.057	245.75
301.288	266.75
301.518	253.75
301.748	212.75
301.979	221.75
302.209	241.75
302.439	250.75
302.669	244.75
302.9	236.75
303.13	216.75
303.36	234.75
303.59	272.75
303.82	261.75
304.051	247.75
304.281	238.75
304.511	244.75
304.741	242.75
304.971	253.75
305.201	242.75
305.431	235.75
305.661	249.75
305.891	236.75
306.121	240.75
306.352	250.75
306.582	255.75
306.812	242.75
307.042	241.75
307.272	227.75
307.502	233.75
307.731	258.75
307.961	249.75
308.191	249.75
308.421	244.75
308.651	249.75
308.881	247.75
309.111	266.75
309.341	265.75
309.571	292.75
309.8	282.75
310.03	300.75
310.26	300.75
310.49	309.75
310.72	345.75
310.949	353.75
311.179	334.75
311.409	311.75
311.639	296.75
311.868	301.75
312.098	300.75
312.328	333.75
312.557	301.75
312.787	340.75
313.017	331.75
313.246	313.75
313.476	291.75
313.706	296.75
313.935	286.75
314.165	316.75
314.394	318.75
314.624	328.75
314.853	294.75
315.083	292.75
315.312	304.75
315.542	259.75
315.771	296.75
316.001	287.75
316.23	295.75
316.46	275.75
316.689	296.75
316.919	294.75
317.148	301.75
317.377	317.75
317.607	316.75
317.836	298.75
318.065	297.75
318.295	278.75
318.524	303.75
318.753	305.75
318.983	281.75
319.212	311.75
319.441	288.75
319.67	308.75
319.9	306.75
320.129	295.75
320.358	281.75
320.587	312.75
320.816	323.75
321.046	308.75
321.275	333.75
321.504	318.75
321.733	326.75
321.962	321.75
322.191	348.75
322.42	362.75
322.649	383.75
322.878	390.75
323.108	398.75
323.337	426.75
323.566	445.75
323.795	478.75
324.024	540.75
324.253	676.75
324.482	960.75
324.71	1501.75
324.939	2074.75
325.168	1857.75
325.397	985.75
325.626	654.75
325.855	517.75
326.084	484.75
326.313	451.75
326.542	470.75
326.77	502.75
326.999	625.75
327.228	869.75
327.457	1292.75
327.686	1595.75
327.914	1095.75
328.143	702.75
328.372	598.75
328.6	547.75
328.829	515.75
329.058	541.75
329.287	545.75
329.515	490.75
329.744	430.75
329.972	432.75
330.201	422.75
330.43	448.75
330.658	484.75
330.887	532.75
331.115	556.75
331.344	440.75
331.572	409.75
331.801	398.75
332.03	416.75
332.258	380.75
332.486	369.75
332.715	360.75
332.943	333.75
333.172	345.75
333.4	334.75
333.629	334.75
333.857	353.75
334.085	363.75
334.314	346.75
334.542	353.75
334.771	360.75
334.999	366.75
335.227	338.75
335.455	340.75
335.684	338.75
335.912	326.75
336.14	325.75
336.369	345.75
336.597	333.75
336.825	351.75
337.053	345.75
337.281	328.75
337.51	328.75
337.738	345.75
337.966	321.75
338.194	350.75
338.422	345.75
338.65	339.75
338.878	317.75
339.106	327.75
339.334	316.75
339.562	330.75
339.79	323.75
340.018	338.75
340.246	330.75
340.474	319.75
340.702	350.75
340.93	345.75
341.158	314.75
341.386	313.75
341.614	341.75
341.842	339.75
342.07	315.75
342.298	315.75
342.526	323.75
342.754	331.75
342.981	317.75
343.209	312.75
343.437	323.75
343.665	333.75
343.893	316.75
344.12	313.75
344.348	317.75
344.576	337.75
344.804	350.75
345.031	349.75
345.259	375.75
345.487	349.75
345.714	356.75
345.942	324.75
346.17	337.75
346.397	358.75
346.625	316.75
346.853	315.75
347.08	318.75
347.308	344.75
347.535	349.75
347.763	334.75
347.99	343.75
348.218	341.75
348.445	362.75
348.673	355.75
348.9	326.75
349.128	335.75
349.355	321.75
349.583	308.75
349.81	320.75
350.037	298.75
350.265	317.75
350.492	321.75
350.72	331.75
350.947	322.75
351.174	338.75
351.402	351.75
351.629	333.75
351.856	347.75
352.083	359.75
352.311	359.75
352.538	362.75
352.765	380.75
352.992	361.75
353.22	335.75
353.447	336.75
353.674	321.75
353.901	322.75
354.128	324.75
354.355	314.75
354.583	300.75
354.81	306.75
355.037	304.75
355.264	276.75
355.491	291.75
355.718	300.75
355.945	292.75
356.172	283.75
356.399	290.75
356.626	309.75
356.853	311.75
357.08	281.75
357.307	302.75
357.534	304.75
357.761	300.75
357.988	299.75
358.215	293.75
358.441	306.75
358.668	281.75
358.895	328.75
359.122	334.75
359.349	320.75
359.576	347.75
359.802	350.75
360.029	402.75
360.256	411.75
360.483	388.75
360.709	343.75
360.936	335.75
361.163	333.75
361.39	336.75
361.616	366.75
361.843	333.75
362.07	332.75
362.296	315.75
362.523	349.75
362.749	339.75
362.976	334.75
363.203	317.75
363.429	336.75
363.656	313.75
363.882	334.75
364.109	304.75
364.335	316.75
364.562	325.75
364.788	342.75
365.015	320.75
365.241	323.75
365.468	326.75
365.694	344.75
365.92	333.75
366.147	305.75
366.373	316.75
366.599	304.75
366.826	307.75
367.052	296.75
367.278	295.75
367.505	324.75
367.731	328.75
367.957	318.75
368.184	303.75
368.41	317.75
368.636	325.75
368.862	321.75
369.089	320.75
369.315	314.75
369.541	317.75
369.767	301.75
369.993	319.75
370.219	312.75
370.445	326.75
370.672	291.75
370.898	315.75
371.124	311.75
371.35	320.75
371.576	305.75
371.802	287.75
372.028	296.75
372.254	312.75
372.48	300.75
372.706	290.75
372.932	322.75
373.158	295.75
373.384	291.75
373.61	322.75
373.835	333.75
374.061	321.75
374.287	309.75
374.513	315.75
374.739	298.75
374.965	306.75
375.191	287.75
375.416	304.75
375.642	306.75
375.868	323.75
376.094	304.75
376.319	310.75
376.545	307.75
376.771	304.75
376.997	324.75
377.222	321.75
377.448	324.75
377.674	306.75
377.899	290.75
378.125	297.75
378.35	289.75
378.576	284.75
378.802	304.75
379.027	282.75
379.253	301.75
379.478	315.75
379.704	274.75
379.929	312.75
380.155	299.75
380.38	288.75
380.606	297.75
380.831	320.75
381.057	327.75
381.282	309.75
381.507	318.75
381.733	320.75
381.958	329.75
382.184	320.75
382.409	294.75
382.634	325.75
382.86	317.75
383.085	316.75
383.31	326.75
383.535	318.75
383.761	301.75
383.986	321.75
384.211	299.75
384.436	306.75
384.662	316.75
384.887	304.75
385.112	328.75
385.337	326.75
385.562	306.75
385.787	320.75
386.013	320.75
386.238	323.75
386.463	332.75
386.688	330.75
386.913	306.75
387.138	320.75
387.363	321.75
387.588	328.75
387.813	343.75
388.038	326.75
388.263	338.75
388.488	341.75
388.713	322.75
388.938	318.75
389.163	354.75
389.387	316.75
389.612	320.75
389.837	338.75
390.062	300.75
390.287	308.75
390.512	333.75
390.736	314.75
390.961	325.75
391.186	318.75
391.411	334.75
391.636	327.75
391.86	329.75
392.085	334.75
392.31	335.75
392.534	333.75
392.759	328.75
392.984	321.75
393.208	338.75
393.433	351.75
393.658	335.75
393.882	332.75
394.107	328.75
394.331	337.75
394.556	336.75
394.78	314.75
395.005	345.75
395.229	321.75
395.454	333.75
395.678	323.75
395.903	334.75
396.127	378.75
396.352	362.75
396.576	350.75
396.801	358.75
397.025	345.75
397.249	341.75
397.474	348.75
397.698	327.75
397.922	357.75
398.147	351.75
398.371	362.75
398.595	377.75
398.82	344.75
399.044	370.75
399.268	373.75
399.492	388.75
399.717	391.75
399.941	429.75
400.165	456.75
400.389	473.75
400.613	423.75
400.837	387.75
401.062	372.75
401.286	372.75
401.51	413.75
401.734	380.75
401.958	377.75
402.182	370.75
402.406	387.75
402.63	395.75
402.854	389.75
403.078	380.75
403.302	383.75
403.526	392.75
403.75	377.75
403.974	382.75
404.198	396.75
404.422	395.75
404.645	392.75
404.869	402.75
405.093	410.75
405.317	426.75
405.541	460.75
405.765	439.75
405.988	415.75
406.212	422.75
406.436	445.75
406.66	449.75
406.883	414.75
407.107	435.75
407.331	481.75
407.555	553.75
407.778	530.75
408.002	498.75
408.226	460.75
408.449	440.75
408.673	432.75
408.896	451.75
409.12	496.75
409.344	473.75
409.567	429.75
409.791	406.75
410.014	412.75
410.238	411.75
410.461	405.75
410.685	424.75
410.908	404.75
411.132	452.75
411.355	459.75
411.578	457.75
411.802	422.75
412.025	399.75
412.249	398.75
412.472	414.75
412.695	401.75
412.919	396.75
413.142	368.75
413.365	371.75
413.589	358.75
413.812	380.75
414.035	370.75
414.258	372.75
414.482	382.75
414.705	364.75
414.928	378.75
415.151	355.75
415.374	363.75
415.597	379.75
415.821	364.75
416.044	371.75
416.267	347.75
416.49	379.75
416.713	372.75
416.936	380.75
417.159	381.75
417.382	375.75
417.605	370.75
417.828	392.75
418.051	410.75
418.274	419.75
418.497	384.75
418.72	374.75
418.943	369.75
419.166	402.75
419.389	393.75
419.611	399.75
419.834	393.75
420.057	394.75
420.28	385.75
420.503	385.75
420.726	406.75
420.948	426.75
421.171	468.75
421.394	488.75
421.617	438.75
421.839	418.75
422.062	420.75
422.285	416.75
422.507	483.75
422.73	550.75
422.953	544.75
423.175	449.75
423.398	421.75
423.621	447.75
423.843	452.75
424.066	446.75
424.288	446.75
424.511	460.75
424.733	521.75
424.956	603.75
425.178	584.75
425.401	575.75
425.623	589.75
425.846	504.75
426.068	473.75
426.291	478.75
426.513	477.75
426.735	487.75
426.958	524.75
427.18	602.75
427.402	680.75
427.625	785.75
427.847	733.75
428.069	603.75
428.292	540.75
428.514	477.75
428.736	455.75
428.958	457.75
429.181	427.75
429.403	422.75
429.625	463.75
429.847	485.75
430.069	530.75
430.292	534.75
430.514	468.75
430.736	430.75
430.958	416.75
431.18	410.75
431.402	411.75
431.624	398.75
431.846	391.75
432.068	416.75
432.29	396.75
432.512	403.75
432.734	414.75
432.956	384.75
433.178	409.75
433.4	422.75
433.622	396.75
433.844	386.75
434.066	400.75
434.287	385.75
434.509	394.75
434.731	420.75
434.953	403.75
435.175	420.75
435.397	449.75
435.618	457.75
435.84	494.75
436.062	585.75
436.284	652.75
436.505	546.75
436.727	485.75
436.949	451.75
437.17	452.75
437.392	446.75
437.614	451.75
437.835	496.75
438.057	577.75
438.278	660.75
438.5	688.75
438.721	711.75
438.943	694.75
439.165	568.75
439.386	512.75
439.608	512.75
439.829	506.75
440.05	552.75
440.272	543.75
440.493	510.75
440.715	493.75
440.936	450.75
441.158	455.75
441.379	438.75
441.6	461.75
441.822	481.75
442.043	504.75
442.264	580.75
442.486	628.75
442.707	521.75
442.928	498.75
443.149	505.75
443.371	517.75
443.592	558.75
443.813	628.75
444.034	688.75
444.255	581.75
444.476	496.75
444.698	480.75
444.919	455.75
445.14	560.75
445.361	518.75
445.582	517.75
445.803	573.75
446.024	685.75
446.245	657.75
446.466	589.75
446.687	532.75
446.908	478.75
447.129	440.75
447.35	471.75
447.571	452.75
447.792	447.75
448.013	445.75
448.234	489.75
448.455	540.75
448.675	619.75
448.896	700.75
449.117	634.75
449.338	591.75
449.559	666.75
449.779	704.75
450	606.75
450.221	544.75
450.442	475.75
450.662	443.75
450.883	471.75
451.104	468.75
451.324	460.75
451.545	429.75
451.766	414.75
451.986	400.75
452.207	389.75
452.428	393.75
452.648	397.75
452.869	421.75
453.089	429.75
453.31	410.75
453.53	401.75
453.751	396.75
453.971	391.75
454.192	420.75
454.412	422.75
454.633	411.75
454.853	396.75
455.073	395.75
455.294	433.75
455.514	480.75
455.734	488.75
455.955	413.75
456.175	375.75
456.395	371.75
456.616	395.75
456.836	357.75
457.056	374.75
457.276	365.75
457.497	352.75
457.717	357.75
457.937	381.75
458.157	376.75
458.377	389.75
458.598	408.75
458.818	464.75
459.038	568.75
459.258	569.75
459.478	458.75
459.698	405.75
459.918	401.75
460.138	386.75
460.358	403.75
460.578	404.75
460.798	398.75
461.018	394.75
461.238	402.75
461.458	390.75
461.678	377.75
461.898	391.75
462.118	388.75
462.338	391.75
462.558	393.75
462.777	398.75
462.997	416.75
463.217	417.75
463.437	413.75
463.657	410.75
463.876	395.75
464.096	400.75
464.316	413.75
464.536	397.75
464.755	413.75
464.975	432.75
465.195	465.75
465.414	586.75
465.634	493.75
465.854	451.75
466.073	416.75
466.293	417.75
466.512	412.75
466.732	414.75
466.951	379.75
467.171	377.75
467.391	373.75
467.61	381.75
467.829	441.75
468.049	388.75
468.268	390.75
468.488	373.75
468.707	365.75
468.927	397.75
469.146	374.75
469.365	384.75
469.585	364.75
469.804	396.75
470.023	382.75
470.243	380.75
470.462	394.75
470.681	421.75
470.901	422.75
471.12	409.75
471.339	415.75
471.558	405.75
471.777	396.75
471.997	388.75
472.216	396.75
472.435	382.75
472.654	379.75
472.873	380.75
473.092	379.75
473.311	370.75
473.53	388.75
473.749	401.75
473.968	458.75
474.187	557.75
474.406	562.75
474.625	457.75
474.844	417.75
475.063	411.75
475.282	420.75
475.501	400.75
475.72	407.75
475.939	402.75
476.158	410.75
476.377	417.75
476.596	410.75
476.814	410.75
477.033	424.75
477.252	434.75
477.471	430.75
477.69	430.75
477.908	431.75
478.127	440.75
478.346	418.75
478.564	442.75
478.783	436.75
479.002	426.75
479.22	432.75
479.439	445.75
479.658	469.75
479.876	499.75
480.095	486.75
480.313	501.75
480.532	482.75
480.751	474.75
480.969	478.75
481.188	505.75
481.406	489.75
481.624	451.75
481.843	461.75
482.061	461.75
482.28	460.75
482.498	457.75
482.717	459.75
482.935	480.75
483.153	458.75
483.372	461.75
483.59	477.75
483.808	458.75
484.027	463.75
484.245	468.75
484.463	471.75
484.681	490.75
484.9	485.75
485.118	464.75
485.336	482.75
485.554	473.75
485.772	489.75
485.99	476.75
486.209	497.75
486.427	497.75
486.645	515.75
486.863	545.75
487.081	558.75
487.299	525.75
487.517	523.75
487.735	500.75
487.953	515.75
488.171	513.75
488.389	497.75
488.607	523.75
488.825	510.75
489.043	505.75
489.261	527.75
489.479	528.75
489.696	541.75
489.914	521.75
490.132	549.75
490.35	534.75
490.568	541.75
490.786	552.75
491.003	530.75
491.221	542.75
491.439	566.75
491.657	584.75
491.874	589.75
492.092	570.75
492.31	587.75
492.527	594.75
492.745	579.75
492.963	626.75
493.18	609.75
493.398	601.75
493.615	625.75
493.833	597.75
494.05	597.75
494.268	584.75
494.485	624.75
494.703	598.75
494.92	628.75
495.138	610.75
495.355	622.75
495.573	629.75
495.79	620.75
496.008	608.75
496.225	608.75
496.442	643.75
496.66	620.75
496.877	610.75
497.094	664.75
497.312	627.75
497.529	658.75
497.746	637.75
497.963	646.75
498.181	674.75
498.398	673.75
498.615	661.75
498.832	679.75
499.049	688.75
499.267	652.75
499.484	666.75
499.701	717.75
499.918	709.75
500.135	723.75
500.352	749.75
500.569	710.75
500.786	740.75
501.003	723.75
501.22	739.75
501.437	740.75
501.654	722.75
501.871	742.75
