Data from 1987.PennyLincolnUp.Lamp.En5.5.200Scan.071819.P2_HRD10591_17-15-05-971.txt Node
Date: Thu Jul 18 17:15:05 EDT 2019
User: cochatt
Spectrometer: HR+D1059
Trigger mode: 1
Integration Time (sec): 1.000000E-1
Scans to average: 1
Electric dark correction enabled: true
Nonlinearity correction enabled: false
Boxcar width: 0
XAxis mode: Wavelengths
Number of Pixels in Spectrum: 2048
>>>>>Begin Spectral Data<<<<<
223.165	-14.69
223.4	-14.69
223.635	-14.69
223.869	-18.69
224.104	-12.69
224.338	-14.69
224.573	-16.69
224.808	-27.69
225.042	2.31
225.277	-13.69
225.511	-1.69
225.746	13.31
225.98	14.31
226.215	-0.69
226.449	15.31
226.683	10.31
226.918	34.31
227.152	31.31
227.387	32.31
227.621	35.31
227.856	29.31
228.09	30.31
228.324	51.31
228.559	66.31
228.793	72.31
229.027	96.31
229.262	121.31
229.496	124.31
229.73	148.31
229.964	183.31
230.199	139.31
230.433	122.31
230.667	114.31
230.901	104.31
231.136	101.31
231.37	115.31
231.604	104.31
231.838	120.31
232.072	111.31
232.306	112.31
232.541	104.31
232.775	103.31
233.009	105.31
233.243	106.31
233.477	111.31
233.711	109.31
233.945	113.31
234.179	118.31
234.413	116.31
234.647	118.31
234.881	119.31
235.115	118.31
235.349	112.31
235.583	119.31
235.817	117.31
236.051	123.31
236.285	141.31
236.519	126.31
236.753	136.31
236.987	146.31
237.221	193.31
237.455	264.31
237.689	200.31
237.922	167.31
238.156	141.31
238.39	124.31
238.624	132.31
238.858	123.31
239.091	126.31
239.325	142.31
239.559	132.31
239.793	138.31
240.027	150.31
240.26	134.31
240.494	152.31
240.728	138.31
240.961	157.31
241.195	142.31
241.429	134.31
241.662	131.31
241.896	130.31
242.13	148.31
242.363	126.31
242.597	134.31
242.83	140.31
243.064	141.31
243.298	136.31
243.531	134.31
243.765	130.31
243.998	134.31
244.232	129.31
244.465	138.31
244.699	153.31
244.932	124.31
245.166	144.31
245.399	136.31
245.633	149.31
245.866	134.31
246.099	149.31
246.333	130.31
246.566	135.31
246.8	156.31
247.033	150.31
247.266	148.31
247.5	146.31
247.733	153.31
247.966	162.31
248.2	153.31
248.433	174.31
248.666	169.31
248.899	181.31
249.133	196.31
249.366	211.31
249.599	198.31
249.832	182.31
250.066	163.31
250.299	162.31
250.532	181.31
250.765	202.31
250.998	206.31
251.231	220.31
251.465	210.31
251.698	214.31
251.931	169.31
252.164	194.31
252.397	208.31
252.63	195.31
252.863	197.31
253.096	202.31
253.329	218.31
253.562	194.31
253.795	200.31
254.028	210.31
254.261	197.31
254.494	210.31
254.727	241.31
254.96	266.31
255.193	246.31
255.426	253.31
255.659	245.31
255.892	229.31
256.124	212.31
256.357	208.31
256.59	207.31
256.823	190.31
257.056	193.31
257.289	187.31
257.521	181.31
257.754	167.31
257.987	192.31
258.22	191.31
258.452	196.31
258.685	196.31
258.918	190.31
259.151	189.31
259.383	208.31
259.616	204.31
259.849	193.31
260.081	214.31
260.314	252.31
260.547	246.31
260.779	249.31
261.012	229.31
261.244	205.31
261.477	212.31
261.71	198.31
261.942	230.31
262.175	236.31
262.407	220.31
262.64	212.31
262.872	192.31
263.105	196.31
263.337	181.31
263.57	193.31
263.802	182.31
264.035	196.31
264.267	189.31
264.499	188.31
264.732	176.31
264.964	183.31
265.197	192.31
265.429	181.31
265.661	191.31
265.894	174.31
266.126	198.31
266.358	180.31
266.591	199.31
266.823	180.31
267.055	198.31
267.287	212.31
267.52	190.31
267.752	190.31
267.984	207.31
268.216	195.31
268.448	215.31
268.681	217.31
268.913	226.31
269.145	229.31
269.377	252.31
269.609	245.31
269.841	244.31
270.073	258.31
270.306	268.31
270.538	281.31
270.77	304.31
271.002	295.31
271.234	269.31
271.466	283.31
271.698	283.31
271.93	302.31
272.162	292.31
272.394	299.31
272.626	285.31
272.858	276.31
273.09	262.31
273.322	244.31
273.553	221.31
273.785	244.31
274.017	250.31
274.249	242.31
274.481	250.31
274.713	254.31
274.945	235.31
275.176	246.31
275.408	220.31
275.64	228.31
275.872	238.31
276.104	238.31
276.335	217.31
276.567	233.31
276.799	252.31
277.031	272.31
277.262	286.31
277.494	300.31
277.726	258.31
277.957	263.31
278.189	254.31
278.421	254.31
278.652	242.31
278.884	262.31
279.115	237.31
279.347	218.31
279.579	239.31
279.81	227.31
280.042	218.31
280.273	223.31
280.505	234.31
280.736	215.31
280.968	211.31
281.199	215.31
281.431	217.31
281.662	227.31
281.894	220.31
282.125	209.31
282.356	250.31
282.588	284.31
282.819	286.31
283.051	228.31
283.282	222.31
283.513	227.31
283.745	218.31
283.976	229.31
284.207	227.31
284.439	233.31
284.67	238.31
284.901	232.31
285.132	226.31
285.364	222.31
285.595	226.31
285.826	227.31
286.057	236.31
286.288	242.31
286.52	206.31
286.751	218.31
286.982	227.31
287.213	225.31
287.444	239.31
287.675	222.31
287.906	244.31
288.138	252.31
288.369	265.31
288.6	249.31
288.831	250.31
289.062	234.31
289.293	222.31
289.524	225.31
289.755	236.31
289.986	229.31
290.217	234.31
290.448	231.31
290.679	226.31
290.91	241.31
291.141	227.31
291.371	224.31
291.602	233.31
291.833	227.31
292.064	220.31
292.295	242.31
292.526	237.31
292.757	239.31
292.987	228.31
293.218	244.31
293.449	241.31
293.68	248.31
293.91	247.31
294.141	233.31
294.372	230.31
294.603	225.31
294.833	227.31
295.064	239.31
295.295	247.31
295.525	252.31
295.756	231.31
295.987	262.31
296.217	282.31
296.448	292.31
296.679	238.31
296.909	229.31
297.14	237.31
297.37	248.31
297.601	238.31
297.831	224.31
298.062	226.31
298.292	249.31
298.523	261.31
298.753	239.31
298.984	243.31
299.214	250.31
299.445	265.31
299.675	258.31
299.905	257.31
300.136	278.31
300.366	225.31
300.597	263.31
300.827	252.31
301.057	252.31
301.288	273.31
301.518	267.31
301.748	244.31
301.979	236.31
302.209	258.31
302.439	259.31
302.669	265.31
302.9	270.31
303.13	252.31
303.36	258.31
303.59	268.31
303.82	299.31
304.051	281.31
304.281	253.31
304.511	246.31
304.741	261.31
304.971	261.31
305.201	268.31
305.431	272.31
305.661	250.31
305.891	271.31
306.121	273.31
306.352	274.31
306.582	279.31
306.812	285.31
307.042	274.31
307.272	264.31
307.502	276.31
307.731	289.31
307.961	284.31
308.191	279.31
308.421	298.31
308.651	274.31
308.881	296.31
309.111	279.31
309.341	288.31
309.571	294.31
309.8	316.31
310.03	318.31
310.26	326.31
310.49	328.31
310.72	330.31
310.949	371.31
311.179	378.31
311.409	378.31
311.639	340.31
311.868	339.31
312.098	347.31
312.328	360.31
312.557	367.31
312.787	406.31
313.017	396.31
313.246	352.31
313.476	344.31
313.706	332.31
313.935	329.31
314.165	353.31
314.394	362.31
314.624	366.31
314.853	348.31
315.083	320.31
315.312	330.31
315.542	324.31
315.771	304.31
316.001	313.31
316.23	311.31
316.46	315.31
316.689	330.31
316.919	313.31
317.148	331.31
317.377	315.31
317.607	332.31
317.836	346.31
318.065	318.31
318.295	323.31
318.524	308.31
318.753	338.31
318.983	351.31
319.212	341.31
319.441	355.31
319.67	343.31
319.9	337.31
320.129	321.31
320.358	339.31
320.587	351.31
320.816	355.31
321.046	358.31
321.275	369.31
321.504	343.31
321.733	355.31
321.962	335.31
322.191	382.31
322.42	420.31
322.649	438.31
322.878	443.31
323.108	448.31
323.337	499.31
323.566	528.31
323.795	582.31
324.024	652.31
324.253	830.31
324.482	1188.31
324.71	1838.31
324.939	2516.31
325.168	2238.31
325.397	1228.31
325.626	796.31
325.855	624.31
326.084	540.31
326.313	518.31
326.542	534.31
326.77	607.31
326.999	751.31
327.228	993.31
327.457	1598.31
327.686	1941.31
327.914	1321.31
328.143	859.31
328.372	721.31
328.6	632.31
328.829	630.31
329.058	619.31
329.287	645.31
329.515	572.31
329.744	498.31
329.972	484.31
330.201	486.31
330.43	530.31
330.658	587.31
330.887	652.31
331.115	638.31
331.344	514.31
331.572	467.31
331.801	480.31
332.03	468.31
332.258	440.31
332.486	397.31
332.715	405.31
332.943	373.31
333.172	375.31
333.4	404.31
333.629	390.31
333.857	396.31
334.085	411.31
334.314	403.31
334.542	381.31
334.771	379.31
334.999	385.31
335.227	374.31
335.455	373.31
335.684	380.31
335.912	389.31
336.14	376.31
336.369	378.31
336.597	371.31
336.825	373.31
337.053	370.31
337.281	360.31
337.51	376.31
337.738	376.31
337.966	400.31
338.194	362.31
338.422	372.31
338.65	389.31
338.878	363.31
339.106	359.31
339.334	380.31
339.562	353.31
339.79	368.31
340.018	371.31
340.246	368.31
340.474	360.31
340.702	366.31
340.93	367.31
341.158	360.31
341.386	370.31
341.614	396.31
341.842	378.31
342.07	376.31
342.298	373.31
342.526	348.31
342.754	346.31
342.981	335.31
343.209	345.31
343.437	345.31
343.665	336.31
343.893	350.31
344.12	354.31
344.348	337.31
344.576	377.31
344.804	366.31
345.031	377.31
345.259	392.31
345.487	378.31
345.714	385.31
345.942	348.31
346.17	355.31
346.397	359.31
346.625	360.31
346.853	361.31
347.08	367.31
347.308	360.31
347.535	370.31
347.763	386.31
347.99	379.31
348.218	390.31
348.445	386.31
348.673	366.31
348.9	370.31
349.128	356.31
349.355	344.31
349.583	348.31
349.81	362.31
350.037	335.31
350.265	356.31
350.492	348.31
350.72	347.31
350.947	351.31
351.174	384.31
351.402	394.31
351.629	376.31
351.856	389.31
352.083	392.31
352.311	406.31
352.538	396.31
352.765	409.31
352.992	404.31
353.22	387.31
353.447	389.31
353.674	352.31
353.901	340.31
354.128	328.31
354.355	328.31
354.583	310.31
354.81	322.31
355.037	327.31
355.264	322.31
355.491	331.31
355.718	320.31
355.945	321.31
356.172	320.31
356.399	342.31
356.626	312.31
356.853	329.31
357.08	322.31
357.307	332.31
357.534	334.31
357.761	323.31
357.988	327.31
358.215	342.31
358.441	323.31
358.668	334.31
358.895	338.31
359.122	344.31
359.349	366.31
359.576	375.31
359.802	411.31
360.029	469.31
360.256	492.31
360.483	432.31
360.709	377.31
360.936	375.31
361.163	364.31
361.39	386.31
361.616	378.31
361.843	367.31
362.07	382.31
362.296	396.31
362.523	372.31
362.749	378.31
362.976	359.31
363.203	356.31
363.429	348.31
363.656	345.31
363.882	323.31
364.109	340.31
364.335	344.31
364.562	348.31
364.788	336.31
365.015	356.31
365.241	335.31
365.468	370.31
365.694	355.31
365.92	368.31
366.147	356.31
366.373	314.31
366.599	316.31
366.826	317.31
367.052	322.31
367.278	335.31
367.505	343.31
367.731	334.31
367.957	339.31
368.184	338.31
368.41	342.31
368.636	338.31
368.862	378.31
369.089	333.31
369.315	325.31
369.541	344.31
369.767	324.31
369.993	331.31
370.219	334.31
370.445	334.31
370.672	334.31
370.898	335.31
371.124	334.31
371.35	330.31
371.576	328.31
371.802	319.31
372.028	321.31
372.254	315.31
372.48	335.31
372.706	322.31
372.932	331.31
373.158	310.31
373.384	346.31
373.61	330.31
373.835	332.31
374.061	320.31
374.287	329.31
374.513	326.31
374.739	323.31
374.965	321.31
375.191	323.31
375.416	346.31
375.642	335.31
375.868	321.31
376.094	322.31
376.319	320.31
376.545	347.31
376.771	330.31
376.997	320.31
377.222	326.31
377.448	332.31
377.674	336.31
377.899	344.31
378.125	325.31
378.35	313.31
378.576	310.31
378.802	326.31
379.027	305.31
379.253	307.31
379.478	310.31
379.704	315.31
379.929	310.31
380.155	347.31
380.38	333.31
380.606	336.31
380.831	317.31
381.057	321.31
381.282	332.31
381.507	334.31
381.733	333.31
381.958	331.31
382.184	350.31
382.409	346.31
382.634	330.31
382.86	344.31
383.085	334.31
383.31	335.31
383.535	323.31
383.761	350.31
383.986	340.31
384.211	334.31
384.436	336.31
384.662	339.31
384.887	345.31
385.112	332.31
385.337	353.31
385.562	355.31
385.787	344.31
386.013	366.31
386.238	353.31
386.463	336.31
386.688	339.31
386.913	327.31
387.138	346.31
387.363	368.31
387.588	353.31
387.813	364.31
388.038	362.31
388.263	346.31
388.488	348.31
388.713	335.31
388.938	330.31
389.163	367.31
389.387	336.31
389.612	338.31
389.837	336.31
390.062	339.31
390.287	347.31
390.512	342.31
390.736	357.31
390.961	327.31
391.186	321.31
391.411	328.31
391.636	333.31
391.86	343.31
392.085	329.31
392.31	350.31
392.534	352.31
392.759	337.31
392.984	341.31
393.208	353.31
393.433	346.31
393.658	371.31
393.882	355.31
394.107	348.31
394.331	348.31
394.556	369.31
394.78	363.31
395.005	335.31
395.229	339.31
395.454	350.31
395.678	366.31
395.903	371.31
396.127	383.31
396.352	384.31
396.576	367.31
396.801	356.31
397.025	370.31
397.249	350.31
397.474	360.31
397.698	372.31
397.922	378.31
398.147	378.31
398.371	399.31
398.595	377.31
398.82	382.31
399.044	363.31
399.268	396.31
399.492	432.31
399.717	434.31
399.941	443.31
400.165	475.31
400.389	484.31
400.613	456.31
400.837	426.31
401.062	421.31
401.286	392.31
401.51	406.31
401.734	412.31
401.958	404.31
402.182	403.31
402.406	433.31
402.63	459.31
402.854	411.31
403.078	419.31
403.302	404.31
403.526	410.31
403.75	425.31
403.974	414.31
404.198	417.31
404.422	402.31
404.645	432.31
404.869	416.31
405.093	435.31
405.317	454.31
405.541	488.31
405.765	460.31
405.988	458.31
406.212	476.31
406.436	464.31
406.66	487.31
406.883	463.31
407.107	489.31
407.331	523.31
407.555	575.31
407.778	569.31
408.002	502.31
408.226	486.31
408.449	480.31
408.673	495.31
408.896	482.31
409.12	514.31
409.344	491.31
409.567	456.31
409.791	442.31
410.014	425.31
410.238	413.31
410.461	411.31
410.685	451.31
410.908	449.31
411.132	494.31
411.355	510.31
411.578	458.31
411.802	438.31
412.025	420.31
412.249	402.31
412.472	434.31
412.695	436.31
412.919	427.31
413.142	413.31
413.365	408.31
413.589	396.31
413.812	400.31
414.035	390.31
414.258	379.31
414.482	406.31
414.705	396.31
414.928	387.31
415.151	382.31
415.374	380.31
415.597	376.31
415.821	396.31
416.044	401.31
416.267	404.31
416.49	399.31
416.713	403.31
416.936	391.31
417.159	406.31
417.382	418.31
417.605	402.31
417.828	435.31
418.051	432.31
418.274	424.31
418.497	410.31
418.72	420.31
418.943	404.31
419.166	413.31
419.389	418.31
419.611	416.31
419.834	430.31
420.057	406.31
420.28	418.31
420.503	426.31
420.726	433.31
420.948	446.31
421.171	513.31
421.394	514.31
421.617	458.31
421.839	434.31
422.062	434.31
422.285	453.31
422.507	500.31
422.73	598.31
422.953	563.31
423.175	504.31
423.398	476.31
423.621	455.31
423.843	499.31
424.066	480.31
424.288	498.31
424.511	522.31
424.733	578.31
424.956	652.31
425.178	630.31
425.401	603.31
425.623	628.31
425.846	566.31
426.068	515.31
426.291	518.31
426.513	512.31
426.735	510.31
426.958	543.31
427.18	647.31
427.402	769.31
427.625	850.31
427.847	779.31
428.069	640.31
428.292	560.31
428.514	523.31
428.736	497.31
428.958	474.31
429.181	471.31
429.403	459.31
429.625	488.31
429.847	522.31
430.069	578.31
430.292	575.31
430.514	493.31
430.736	442.31
430.958	452.31
431.18	435.31
431.402	442.31
431.624	442.31
431.846	435.31
432.068	405.31
432.29	435.31
432.512	410.31
432.734	412.31
432.956	455.31
433.178	453.31
433.4	464.31
433.622	471.31
433.844	402.31
434.066	409.31
434.287	420.31
434.509	424.31
434.731	436.31
434.953	426.31
435.175	447.31
435.397	491.31
435.618	510.31
435.84	579.31
436.062	649.31
436.284	691.31
436.505	594.31
436.727	542.31
436.949	495.31
437.17	469.31
437.392	480.31
437.614	495.31
437.835	559.31
438.057	659.31
438.278	731.31
438.5	725.31
438.721	793.31
438.943	745.31
439.165	619.31
439.386	565.31
439.608	545.31
439.829	556.31
440.05	577.31
440.272	610.31
440.493	582.31
440.715	525.31
440.936	489.31
441.158	472.31
441.379	466.31
441.6	491.31
441.822	538.31
442.043	571.31
442.264	628.31
442.486	678.31
442.707	584.31
442.928	538.31
443.149	536.31
443.371	574.31
443.592	612.31
443.813	683.31
444.034	746.31
444.255	609.31
444.476	534.31
444.698	510.31
444.919	502.31
445.14	613.31
445.361	574.31
445.582	572.31
445.803	627.31
446.024	732.31
446.245	731.31
446.466	670.31
446.687	585.31
446.908	524.31
447.129	497.31
447.35	491.31
447.571	496.31
447.792	487.31
448.013	488.31
448.234	495.31
448.455	554.31
448.675	671.31
448.896	730.31
449.117	658.31
449.338	624.31
449.559	742.31
449.779	765.31
450	658.31
450.221	547.31
450.442	510.31
450.662	491.31
450.883	508.31
451.104	526.31
451.324	484.31
451.545	467.31
451.766	446.31
451.986	433.31
452.207	418.31
452.428	432.31
452.648	435.31
452.869	436.31
453.089	422.31
453.31	456.31
453.53	442.31
453.751	456.31
453.971	450.31
454.192	480.31
454.412	470.31
454.633	445.31
454.853	437.31
455.073	402.31
455.294	459.31
455.514	514.31
455.734	514.31
455.955	432.31
456.175	408.31
456.395	398.31
456.616	409.31
456.836	394.31
457.056	392.31
457.276	369.31
457.497	382.31
457.717	404.31
457.937	382.31
458.157	410.31
458.377	400.31
458.598	442.31
458.818	527.31
459.038	646.31
459.258	612.31
459.478	528.31
459.698	440.31
459.918	455.31
460.138	424.31
460.358	421.31
460.578	415.31
460.798	411.31
461.018	428.31
461.238	425.31
461.458	422.31
461.678	388.31
461.898	421.31
462.118	396.31
462.338	412.31
462.558	416.31
462.777	435.31
462.997	434.31
463.217	419.31
463.437	447.31
463.657	426.31
463.876	424.31
464.096	437.31
464.316	430.31
464.536	444.31
464.755	456.31
464.975	477.31
465.195	532.31
465.414	656.31
465.634	583.31
465.854	510.31
466.073	453.31
466.293	428.31
466.512	444.31
466.732	425.31
466.951	424.31
467.171	438.31
467.391	438.31
467.61	436.31
467.829	458.31
468.049	459.31
468.268	430.31
468.488	418.31
468.707	398.31
468.927	417.31
469.146	403.31
469.365	419.31
469.585	419.31
469.804	426.31
470.023	437.31
470.243	446.31
470.462	439.31
470.681	460.31
470.901	466.31
471.12	427.31
471.339	426.31
471.558	423.31
471.777	444.31
471.997	414.31
472.216	414.31
472.435	415.31
472.654	404.31
472.873	423.31
473.092	422.31
473.311	433.31
473.53	424.31
473.749	436.31
473.968	494.31
474.187	625.31
474.406	619.31
474.625	514.31
474.844	446.31
475.063	433.31
475.282	440.31
475.501	428.31
475.72	448.31
475.939	423.31
476.158	442.31
476.377	443.31
476.596	451.31
476.814	456.31
477.033	455.31
477.252	467.31
477.471	452.31
477.69	458.31
477.908	473.31
478.127	457.31
478.346	451.31
478.564	479.31
478.783	453.31
479.002	456.31
479.22	464.31
479.439	484.31
479.658	525.31
479.876	519.31
480.095	533.31
480.313	554.31
480.532	524.31
480.751	518.31
480.969	539.31
481.188	520.31
481.406	522.31
481.624	534.31
481.843	504.31
482.061	496.31
482.28	523.31
482.498	494.31
482.717	504.31
482.935	487.31
483.153	491.31
483.372	494.31
483.59	494.31
483.808	498.31
484.027	510.31
484.245	494.31
484.463	498.31
484.681	516.31
484.9	504.31
485.118	515.31
485.336	520.31
485.554	511.31
485.772	506.31
485.99	507.31
486.209	523.31
486.427	510.31
486.645	565.31
486.863	586.31
487.081	572.31
487.299	568.31
487.517	572.31
487.735	561.31
487.953	564.31
488.171	552.31
488.389	546.31
488.607	558.31
488.825	555.31
489.043	556.31
489.261	574.31
489.479	561.31
489.696	563.31
489.914	561.31
490.132	589.31
490.35	559.31
490.568	586.31
490.786	581.31
491.003	606.31
491.221	602.31
491.439	622.31
491.657	618.31
491.874	595.31
492.092	635.31
492.31	643.31
492.527	637.31
492.745	666.31
492.963	630.31
493.18	662.31
493.398	664.31
493.615	646.31
493.833	627.31
494.05	672.31
494.268	674.31
494.485	642.31
494.703	650.31
494.92	659.31
495.138	648.31
495.355	664.31
495.573	666.31
495.79	684.31
496.008	679.31
496.225	670.31
496.442	672.31
496.66	674.31
496.877	662.31
497.094	680.31
497.312	675.31
497.529	687.31
497.746	688.31
497.963	671.31
498.181	722.31
498.398	710.31
498.615	723.31
498.832	715.31
499.049	719.31
499.267	741.31
499.484	732.31
499.701	760.31
499.918	752.31
500.135	778.31
500.352	769.31
500.569	779.31
500.786	770.31
501.003	794.31
501.22	767.31
501.437	788.31
501.654	787.31
501.871	817.31
