Data from 1987.PennyLincolnUp.Lamp.En5.5.200Scan.071819.P2_HRD10591_17-16-56-971.txt Node
Date: Thu Jul 18 17:16:56 EDT 2019
User: cochatt
Spectrometer: HR+D1059
Trigger mode: 1
Integration Time (sec): 1.000000E-1
Scans to average: 1
Electric dark correction enabled: true
Nonlinearity correction enabled: false
Boxcar width: 0
XAxis mode: Wavelengths
Number of Pixels in Spectrum: 2048
>>>>>Begin Spectral Data<<<<<
223.165	-11.38
223.4	-11.38
223.635	-11.38
223.869	-23.38
224.104	-17.38
224.338	-16.38
224.573	-22.38
224.808	-22.38
225.042	-5.38
225.277	-8.38
225.511	10.62
225.746	7.62
225.98	6.62
226.215	7.62
226.449	22.62
226.683	12.62
226.918	26.62
227.152	32.62
227.387	31.62
227.621	23.62
227.856	38.62
228.09	46.62
228.324	48.62
228.559	63.62
228.793	76.62
229.027	115.62
229.262	111.62
229.496	120.62
229.73	138.62
229.964	187.62
230.199	136.62
230.433	131.62
230.667	116.62
230.901	119.62
231.136	113.62
231.37	108.62
231.604	107.62
231.838	118.62
232.072	112.62
232.306	99.62
232.541	109.62
232.775	118.62
233.009	96.62
233.243	104.62
233.477	113.62
233.711	118.62
233.945	129.62
234.179	112.62
234.413	100.62
234.647	118.62
234.881	110.62
235.115	109.62
235.349	119.62
235.583	101.62
235.817	114.62
236.051	129.62
236.285	137.62
236.519	120.62
236.753	150.62
236.987	149.62
237.221	185.62
237.455	275.62
237.689	231.62
237.922	150.62
238.156	137.62
238.39	138.62
238.624	134.62
238.858	139.62
239.091	126.62
239.325	110.62
239.559	127.62
239.793	138.62
240.027	148.62
240.26	157.62
240.494	163.62
240.728	154.62
240.961	156.62
241.195	132.62
241.429	139.62
241.662	124.62
241.896	130.62
242.13	128.62
242.363	132.62
242.597	125.62
242.83	118.62
243.064	128.62
243.298	128.62
243.531	129.62
243.765	125.62
243.998	138.62
244.232	129.62
244.465	132.62
244.699	142.62
244.932	138.62
245.166	127.62
245.399	148.62
245.633	126.62
245.866	128.62
246.099	137.62
246.333	146.62
246.566	131.62
246.8	137.62
247.033	136.62
247.266	146.62
247.5	158.62
247.733	161.62
247.966	175.62
248.2	168.62
248.433	162.62
248.666	160.62
248.899	172.62
249.133	218.62
249.366	213.62
249.599	198.62
249.832	192.62
250.066	172.62
250.299	190.62
250.532	187.62
250.765	202.62
250.998	219.62
251.231	233.62
251.465	219.62
251.698	192.62
251.931	205.62
252.164	203.62
252.397	185.62
252.63	203.62
252.863	211.62
253.096	216.62
253.329	240.62
253.562	221.62
253.795	226.62
254.028	212.62
254.261	211.62
254.494	223.62
254.727	254.62
254.96	288.62
255.193	286.62
255.426	268.62
255.659	227.62
255.892	233.62
256.124	214.62
256.357	195.62
256.59	203.62
256.823	210.62
257.056	212.62
257.289	198.62
257.521	196.62
257.754	187.62
257.987	190.62
258.22	195.62
258.452	198.62
258.685	190.62
258.918	198.62
259.151	202.62
259.383	220.62
259.616	203.62
259.849	217.62
260.081	213.62
260.314	224.62
260.547	258.62
260.779	238.62
261.012	212.62
261.244	206.62
261.477	220.62
261.71	202.62
261.942	224.62
262.175	260.62
262.407	214.62
262.64	198.62
262.872	192.62
263.105	209.62
263.337	188.62
263.57	179.62
263.802	192.62
264.035	203.62
264.267	205.62
264.499	197.62
264.732	193.62
264.964	201.62
265.197	184.62
265.429	194.62
265.661	194.62
265.894	188.62
266.126	186.62
266.358	196.62
266.591	180.62
266.823	195.62
267.055	201.62
267.287	204.62
267.52	197.62
267.752	234.62
267.984	202.62
268.216	201.62
268.448	194.62
268.681	198.62
268.913	224.62
269.145	245.62
269.377	257.62
269.609	261.62
269.841	242.62
270.073	247.62
270.306	301.62
270.538	282.62
270.77	301.62
271.002	292.62
271.234	269.62
271.466	289.62
271.698	294.62
271.93	301.62
272.162	286.62
272.394	313.62
272.626	299.62
272.858	271.62
273.09	266.62
273.322	260.62
273.553	239.62
273.785	260.62
274.017	242.62
274.249	228.62
274.481	235.62
274.713	258.62
274.945	233.62
275.176	234.62
275.408	234.62
275.64	219.62
275.872	238.62
276.104	238.62
276.335	252.62
276.567	254.62
276.799	270.62
277.031	288.62
277.262	288.62
277.494	293.62
277.726	276.62
277.957	259.62
278.189	250.62
278.421	245.62
278.652	234.62
278.884	234.62
279.115	231.62
279.347	246.62
279.579	221.62
279.81	240.62
280.042	214.62
280.273	219.62
280.505	229.62
280.736	242.62
280.968	237.62
281.199	216.62
281.431	241.62
281.662	230.62
281.894	237.62
282.125	218.62
282.356	245.62
282.588	275.62
282.819	276.62
283.051	240.62
283.282	229.62
283.513	211.62
283.745	234.62
283.976	235.62
284.207	233.62
284.439	236.62
284.67	234.62
284.901	238.62
285.132	211.62
285.364	234.62
285.595	226.62
285.826	225.62
286.057	217.62
286.288	226.62
286.52	221.62
286.751	219.62
286.982	230.62
287.213	230.62
287.444	233.62
287.675	217.62
287.906	250.62
288.138	244.62
288.369	246.62
288.6	260.62
288.831	250.62
289.062	247.62
289.293	266.62
289.524	236.62
289.755	218.62
289.986	232.62
290.217	246.62
290.448	220.62
290.679	233.62
290.91	245.62
291.141	237.62
291.371	228.62
291.602	227.62
291.833	239.62
292.064	220.62
292.295	224.62
292.526	226.62
292.757	224.62
292.987	234.62
293.218	228.62
293.449	232.62
293.68	227.62
293.91	230.62
294.141	236.62
294.372	225.62
294.603	221.62
294.833	230.62
295.064	242.62
295.295	241.62
295.525	220.62
295.756	235.62
295.987	262.62
296.217	287.62
296.448	284.62
296.679	262.62
296.909	233.62
297.14	232.62
297.37	245.62
297.601	229.62
297.831	256.62
298.062	229.62
298.292	227.62
298.523	219.62
298.753	231.62
298.984	235.62
299.214	237.62
299.445	234.62
299.675	245.62
299.905	266.62
300.136	281.62
300.366	253.62
300.597	253.62
300.827	261.62
301.057	277.62
301.288	290.62
301.518	276.62
301.748	269.62
301.979	248.62
302.209	256.62
302.439	247.62
302.669	270.62
302.9	261.62
303.13	270.62
303.36	260.62
303.59	262.62
303.82	288.62
304.051	265.62
304.281	276.62
304.511	250.62
304.741	273.62
304.971	265.62
305.201	249.62
305.431	261.62
305.661	255.62
305.891	248.62
306.121	259.62
306.352	263.62
306.582	278.62
306.812	253.62
307.042	279.62
307.272	258.62
307.502	258.62
307.731	262.62
307.961	283.62
308.191	269.62
308.421	254.62
308.651	283.62
308.881	263.62
309.111	272.62
309.341	266.62
309.571	312.62
309.8	300.62
310.03	334.62
310.26	348.62
310.49	358.62
310.72	345.62
310.949	378.62
311.179	376.62
311.409	347.62
311.639	339.62
311.868	347.62
312.098	343.62
312.328	344.62
312.557	383.62
312.787	402.62
313.017	393.62
313.246	340.62
313.476	360.62
313.706	326.62
313.935	339.62
314.165	356.62
314.394	384.62
314.624	357.62
314.853	333.62
315.083	344.62
315.312	325.62
315.542	309.62
315.771	302.62
316.001	320.62
316.23	309.62
316.46	302.62
316.689	344.62
316.919	325.62
317.148	347.62
317.377	344.62
317.607	356.62
317.836	353.62
318.065	343.62
318.295	318.62
318.524	306.62
318.753	305.62
318.983	302.62
319.212	316.62
319.441	338.62
319.67	361.62
319.9	342.62
320.129	327.62
320.358	331.62
320.587	330.62
320.816	333.62
321.046	355.62
321.275	355.62
321.504	348.62
321.733	365.62
321.962	374.62
322.191	386.62
322.42	405.62
322.649	427.62
322.878	442.62
323.108	461.62
323.337	493.62
323.566	526.62
323.795	590.62
324.024	663.62
324.253	849.62
324.482	1207.62
324.71	1854.62
324.939	2586.62
325.168	2283.62
325.397	1246.62
325.626	842.62
325.855	643.62
326.084	563.62
326.313	552.62
326.542	560.62
326.77	616.62
326.999	774.62
327.228	1059.62
327.457	1641.62
327.686	1968.62
327.914	1378.62
328.143	893.62
328.372	742.62
328.6	681.62
328.829	634.62
329.058	632.62
329.287	685.62
329.515	603.62
329.744	522.62
329.972	495.62
330.201	503.62
330.43	532.62
330.658	603.62
330.887	668.62
331.115	631.62
331.344	523.62
331.572	496.62
331.801	481.62
332.03	455.62
332.258	421.62
332.486	393.62
332.715	396.62
332.943	390.62
333.172	381.62
333.4	378.62
333.629	380.62
333.857	378.62
334.085	393.62
334.314	362.62
334.542	382.62
334.771	382.62
334.999	389.62
335.227	371.62
335.455	375.62
335.684	368.62
335.912	366.62
336.14	365.62
336.369	359.62
336.597	376.62
336.825	378.62
337.053	368.62
337.281	354.62
337.51	355.62
337.738	335.62
337.966	358.62
338.194	363.62
338.422	386.62
338.65	382.62
338.878	341.62
339.106	348.62
339.334	359.62
339.562	340.62
339.79	344.62
340.018	349.62
340.246	376.62
340.474	378.62
340.702	382.62
340.93	377.62
341.158	369.62
341.386	374.62
341.614	374.62
341.842	369.62
342.07	374.62
342.298	379.62
342.526	355.62
342.754	329.62
342.981	344.62
343.209	335.62
343.437	328.62
343.665	334.62
343.893	338.62
344.12	348.62
344.348	347.62
344.576	353.62
344.804	353.62
345.031	374.62
345.259	397.62
345.487	404.62
345.714	376.62
345.942	390.62
346.17	368.62
346.397	351.62
346.625	358.62
346.853	345.62
347.08	351.62
347.308	343.62
347.535	370.62
347.763	361.62
347.99	388.62
348.218	403.62
348.445	381.62
348.673	401.62
348.9	377.62
349.128	342.62
349.355	361.62
349.583	323.62
349.81	360.62
350.037	356.62
350.265	342.62
350.492	352.62
350.72	343.62
350.947	368.62
351.174	372.62
351.402	368.62
351.629	362.62
351.856	398.62
352.083	389.62
352.311	409.62
352.538	408.62
352.765	392.62
352.992	378.62
353.22	396.62
353.447	372.62
353.674	333.62
353.901	342.62
354.128	341.62
354.355	329.62
354.583	336.62
354.81	338.62
355.037	320.62
355.264	326.62
355.491	308.62
355.718	307.62
355.945	332.62
356.172	305.62
356.399	314.62
356.626	318.62
356.853	304.62
357.08	316.62
357.307	303.62
357.534	304.62
357.761	324.62
357.988	307.62
358.215	324.62
358.441	331.62
358.668	320.62
358.895	342.62
359.122	330.62
359.349	362.62
359.576	370.62
359.802	411.62
360.029	449.62
360.256	467.62
360.483	440.62
360.709	394.62
360.936	372.62
361.163	370.62
361.39	376.62
361.616	390.62
361.843	391.62
362.07	381.62
362.296	375.62
362.523	360.62
362.749	374.62
362.976	365.62
363.203	360.62
363.429	344.62
363.656	327.62
363.882	326.62
364.109	335.62
364.335	335.62
364.562	328.62
364.788	338.62
365.015	347.62
365.241	336.62
365.468	340.62
365.694	358.62
365.92	344.62
366.147	356.62
366.373	347.62
366.599	316.62
366.826	321.62
367.052	328.62
367.278	324.62
367.505	336.62
367.731	317.62
367.957	328.62
368.184	337.62
368.41	338.62
368.636	332.62
368.862	364.62
369.089	349.62
369.315	326.62
369.541	318.62
369.767	324.62
369.993	324.62
370.219	327.62
370.445	304.62
370.672	326.62
370.898	323.62
371.124	310.62
371.35	339.62
371.576	309.62
371.802	308.62
372.028	289.62
372.254	304.62
372.48	320.62
372.706	328.62
372.932	302.62
373.158	318.62
373.384	309.62
373.61	318.62
373.835	325.62
374.061	325.62
374.287	314.62
374.513	321.62
374.739	334.62
374.965	315.62
375.191	324.62
375.416	317.62
375.642	304.62
375.868	321.62
376.094	323.62
376.319	307.62
376.545	321.62
376.771	325.62
376.997	313.62
377.222	312.62
377.448	316.62
377.674	323.62
377.899	313.62
378.125	304.62
378.35	312.62
378.576	306.62
378.802	293.62
379.027	308.62
379.253	323.62
379.478	312.62
379.704	306.62
379.929	318.62
380.155	316.62
380.38	320.62
380.606	326.62
380.831	306.62
381.057	334.62
381.282	305.62
381.507	315.62
381.733	319.62
381.958	319.62
382.184	313.62
382.409	323.62
382.634	316.62
382.86	314.62
383.085	312.62
383.31	313.62
383.535	336.62
383.761	323.62
383.986	351.62
384.211	333.62
384.436	337.62
384.662	316.62
384.887	324.62
385.112	320.62
385.337	331.62
385.562	334.62
385.787	326.62
386.013	344.62
386.238	356.62
386.463	348.62
386.688	331.62
386.913	315.62
387.138	334.62
387.363	326.62
387.588	331.62
387.813	324.62
388.038	314.62
388.263	331.62
388.488	330.62
388.713	325.62
388.938	336.62
389.163	345.62
389.387	333.62
389.612	340.62
389.837	313.62
390.062	308.62
390.287	328.62
390.512	317.62
390.736	347.62
390.961	343.62
391.186	323.62
391.411	344.62
391.636	325.62
391.86	329.62
392.085	321.62
392.31	329.62
392.534	332.62
392.759	336.62
392.984	332.62
393.208	330.62
393.433	325.62
393.658	321.62
393.882	331.62
394.107	336.62
394.331	340.62
394.556	315.62
394.78	320.62
395.005	332.62
395.229	318.62
395.454	334.62
395.678	323.62
395.903	360.62
396.127	367.62
396.352	374.62
396.576	362.62
396.801	364.62
397.025	343.62
397.249	340.62
397.474	367.62
397.698	334.62
397.922	351.62
398.147	377.62
398.371	366.62
398.595	346.62
398.82	369.62
399.044	366.62
399.268	361.62
399.492	385.62
399.717	392.62
399.941	441.62
400.165	456.62
400.389	470.62
400.613	431.62
400.837	396.62
401.062	394.62
401.286	399.62
401.51	373.62
401.734	391.62
401.958	388.62
402.182	371.62
402.406	402.62
402.63	414.62
402.854	387.62
403.078	368.62
403.302	406.62
403.526	401.62
403.75	400.62
403.974	404.62
404.198	392.62
404.422	394.62
404.645	405.62
404.869	413.62
405.093	433.62
405.317	424.62
405.541	458.62
405.765	441.62
405.988	408.62
406.212	441.62
406.436	481.62
406.66	476.62
406.883	453.62
407.107	482.62
407.331	501.62
407.555	547.62
407.778	544.62
408.002	489.62
408.226	457.62
408.449	468.62
408.673	444.62
408.896	465.62
409.12	499.62
409.344	506.62
409.567	436.62
409.791	404.62
410.014	415.62
410.238	413.62
410.461	396.62
410.685	409.62
410.908	417.62
411.132	459.62
411.355	498.62
411.578	474.62
411.802	406.62
412.025	399.62
412.249	413.62
412.472	421.62
412.695	443.62
412.919	432.62
413.142	389.62
413.365	379.62
413.589	389.62
413.812	387.62
414.035	384.62
414.258	365.62
414.482	364.62
414.705	371.62
414.928	380.62
415.151	364.62
415.374	376.62
415.597	384.62
415.821	365.62
416.044	374.62
416.267	378.62
416.49	377.62
416.713	363.62
416.936	366.62
417.159	401.62
417.382	393.62
417.605	386.62
417.828	389.62
418.051	415.62
418.274	395.62
418.497	389.62
418.72	410.62
418.943	388.62
419.166	388.62
419.389	404.62
419.611	392.62
419.834	427.62
420.057	431.62
420.28	404.62
420.503	396.62
420.726	421.62
420.948	436.62
421.171	481.62
421.394	514.62
421.617	421.62
421.839	420.62
422.062	413.62
422.285	458.62
422.507	498.62
422.73	537.62
422.953	544.62
423.175	473.62
423.398	456.62
423.621	445.62
423.843	474.62
424.066	458.62
424.288	476.62
424.511	522.62
424.733	544.62
424.956	631.62
425.178	622.62
425.401	592.62
425.623	611.62
425.846	514.62
426.068	505.62
426.291	482.62
426.513	484.62
426.735	494.62
426.958	556.62
427.18	618.62
427.402	734.62
427.625	787.62
427.847	775.62
428.069	653.62
428.292	593.62
428.514	526.62
428.736	488.62
428.958	466.62
429.181	459.62
429.403	470.62
429.625	450.62
429.847	541.62
430.069	570.62
430.292	569.62
430.514	480.62
430.736	453.62
430.958	421.62
431.18	433.62
431.402	415.62
431.624	410.62
431.846	409.62
432.068	396.62
432.29	395.62
432.512	411.62
432.734	422.62
432.956	448.62
433.178	444.62
433.4	431.62
433.622	428.62
433.844	397.62
434.066	410.62
434.287	406.62
434.509	411.62
434.731	417.62
434.953	440.62
435.175	431.62
435.397	475.62
435.618	487.62
435.84	533.62
436.062	620.62
436.284	683.62
436.505	580.62
436.727	516.62
436.949	461.62
437.17	468.62
437.392	471.62
437.614	475.62
437.835	525.62
438.057	635.62
438.278	716.62
438.5	696.62
438.721	724.62
438.943	721.62
439.165	601.62
439.386	568.62
439.608	532.62
439.829	544.62
440.05	557.62
440.272	602.62
440.493	552.62
440.715	522.62
440.936	470.62
441.158	498.62
441.379	466.62
441.6	468.62
441.822	511.62
442.043	539.62
442.264	636.62
442.486	650.62
442.707	565.62
442.928	544.62
443.149	526.62
443.371	563.62
443.592	585.62
443.813	644.62
444.034	693.62
444.255	578.62
444.476	521.62
444.698	508.62
444.919	483.62
445.14	557.62
445.361	563.62
445.582	529.62
445.803	614.62
446.024	726.62
446.245	702.62
446.466	654.62
446.687	571.62
446.908	532.62
447.129	483.62
447.35	480.62
447.571	477.62
447.792	454.62
448.013	476.62
448.234	489.62
448.455	541.62
448.675	642.62
448.896	734.62
449.117	653.62
449.338	601.62
449.559	699.62
449.779	759.62
450	634.62
450.221	564.62
450.442	501.62
450.662	491.62
450.883	513.62
451.104	530.62
451.324	513.62
451.545	477.62
451.766	433.62
451.986	440.62
452.207	422.62
452.428	428.62
452.648	417.62
452.869	425.62
453.089	427.62
453.31	469.62
453.53	433.62
453.751	455.62
453.971	441.62
454.192	465.62
454.412	450.62
454.633	439.62
454.853	426.62
455.073	416.62
455.294	446.62
455.514	542.62
455.734	537.62
455.955	428.62
456.175	404.62
456.395	365.62
456.616	378.62
456.836	385.62
457.056	378.62
457.276	370.62
457.497	381.62
457.717	361.62
457.937	382.62
458.157	387.62
458.377	396.62
458.598	425.62
458.818	531.62
459.038	641.62
459.258	629.62
459.478	511.62
459.698	454.62
459.918	424.62
460.138	421.62
460.358	409.62
460.578	394.62
460.798	407.62
461.018	411.62
461.238	400.62
461.458	386.62
461.678	388.62
461.898	390.62
462.118	396.62
462.338	391.62
462.558	382.62
462.777	381.62
462.997	404.62
463.217	421.62
463.437	421.62
463.657	405.62
463.876	394.62
464.096	434.62
464.316	412.62
464.536	418.62
464.755	450.62
464.975	480.62
465.195	532.62
465.414	663.62
465.634	573.62
465.854	488.62
466.073	442.62
466.293	443.62
466.512	411.62
466.732	402.62
466.951	407.62
467.171	384.62
467.391	414.62
467.61	447.62
467.829	442.62
468.049	439.62
468.268	410.62
468.488	394.62
468.707	393.62
468.927	390.62
469.146	377.62
469.365	403.62
469.585	392.62
469.804	415.62
470.023	408.62
470.243	421.62
470.462	434.62
470.681	463.62
470.901	445.62
471.12	430.62
471.339	434.62
471.558	427.62
471.777	436.62
471.997	395.62
472.216	411.62
472.435	406.62
472.654	393.62
472.873	412.62
473.092	395.62
473.311	405.62
473.53	412.62
473.749	432.62
473.968	468.62
474.187	588.62
474.406	605.62
474.625	478.62
474.844	459.62
475.063	430.62
475.282	424.62
475.501	408.62
475.72	410.62
475.939	417.62
476.158	428.62
476.377	435.62
476.596	397.62
476.814	433.62
477.033	443.62
477.252	441.62
477.471	435.62
477.69	445.62
477.908	453.62
478.127	448.62
478.346	433.62
478.564	434.62
478.783	442.62
479.002	465.62
479.22	464.62
479.439	490.62
479.658	503.62
479.876	512.62
480.095	530.62
480.313	540.62
480.532	518.62
480.751	505.62
480.969	501.62
481.188	520.62
481.406	526.62
481.624	507.62
481.843	508.62
482.061	501.62
482.28	499.62
482.498	479.62
482.717	467.62
482.935	472.62
483.153	482.62
483.372	482.62
483.59	490.62
483.808	481.62
484.027	499.62
484.245	500.62
484.463	513.62
484.681	506.62
484.9	527.62
485.118	498.62
485.336	512.62
485.554	534.62
485.772	497.62
485.99	486.62
486.209	497.62
486.427	514.62
486.645	553.62
486.863	566.62
487.081	560.62
487.299	526.62
487.517	548.62
487.735	520.62
487.953	521.62
488.171	551.62
488.389	510.62
488.607	526.62
488.825	570.62
489.043	536.62
489.261	544.62
489.479	552.62
489.696	547.62
489.914	565.62
490.132	555.62
490.35	552.62
490.568	587.62
490.786	587.62
491.003	583.62
491.221	604.62
491.439	592.62
491.657	596.62
491.874	616.62
492.092	624.62
492.31	609.62
492.527	617.62
492.745	622.62
492.963	631.62
493.18	637.62
493.398	644.62
493.615	639.62
493.833	640.62
494.05	620.62
494.268	638.62
494.485	648.62
494.703	631.62
494.92	631.62
495.138	644.62
495.355	655.62
495.573	658.62
495.79	647.62
496.008	675.62
496.225	650.62
496.442	644.62
496.66	658.62
496.877	651.62
497.094	646.62
497.312	637.62
497.529	668.62
497.746	646.62
497.963	683.62
498.181	684.62
498.398	682.62
498.615	686.62
498.832	711.62
499.049	675.62
499.267	716.62
499.484	700.62
499.701	732.62
499.918	731.62
500.135	723.62
500.352	734.62
500.569	759.62
500.786	755.62
501.003	755.62
501.22	733.62
501.437	738.62
501.654	736.62
501.871	787.62
