Data from 1987.PennyLincolnUp.Lamp.En5.5.200Scan.071819.P2_HRD10591_17-13-51-995.txt Node
Date: Thu Jul 18 17:13:51 EDT 2019
User: cochatt
Spectrometer: HR+D1059
Trigger mode: 1
Integration Time (sec): 1.000000E-1
Scans to average: 1
Electric dark correction enabled: true
Nonlinearity correction enabled: false
Boxcar width: 0
XAxis mode: Wavelengths
Number of Pixels in Spectrum: 2048
>>>>>Begin Spectral Data<<<<<
223.165	-16.06
223.4	-16.06
223.635	-16.06
223.869	-17.06
224.104	-29.06
224.338	-14.06
224.573	-6.06
224.808	-18.06
225.042	-9.06
225.277	-4.06
225.511	-10.06
225.746	5.94
225.98	9.94
226.215	9.94
226.449	20.94
226.683	19.94
226.918	24.94
227.152	31.94
227.387	38.94
227.621	31.94
227.856	30.94
228.09	51.94
228.324	60.94
228.559	53.94
228.793	50.94
229.027	81.94
229.262	97.94
229.496	116.94
229.73	117.94
229.964	140.94
230.199	122.94
230.433	95.94
230.667	95.94
230.901	89.94
231.136	107.94
231.37	110.94
231.604	91.94
231.838	94.94
232.072	102.94
232.306	106.94
232.541	103.94
232.775	94.94
233.009	97.94
233.243	106.94
233.477	108.94
233.711	119.94
233.945	110.94
234.179	96.94
234.413	98.94
234.647	97.94
234.881	113.94
235.115	111.94
235.349	112.94
235.583	107.94
235.817	107.94
236.051	103.94
236.285	116.94
236.519	116.94
236.753	102.94
236.987	115.94
237.221	147.94
237.455	184.94
237.689	143.94
237.922	125.94
238.156	116.94
238.39	115.94
238.624	114.94
238.858	115.94
239.091	103.94
239.325	110.94
239.559	110.94
239.793	118.94
240.027	126.94
240.26	117.94
240.494	126.94
240.728	129.94
240.961	117.94
241.195	125.94
241.429	118.94
241.662	120.94
241.896	105.94
242.13	116.94
242.363	105.94
242.597	117.94
242.83	116.94
243.064	110.94
243.298	120.94
243.531	124.94
243.765	126.94
243.998	118.94
244.232	117.94
244.465	121.94
244.699	117.94
244.932	108.94
245.166	129.94
245.399	121.94
245.633	120.94
245.866	118.94
246.099	129.94
246.333	121.94
246.566	129.94
246.8	117.94
247.033	121.94
247.266	125.94
247.5	150.94
247.733	144.94
247.966	143.94
248.2	130.94
248.433	148.94
248.666	137.94
248.899	147.94
249.133	153.94
249.366	175.94
249.599	155.94
249.832	156.94
250.066	143.94
250.299	139.94
250.532	152.94
250.765	146.94
250.998	153.94
251.231	182.94
251.465	165.94
251.698	177.94
251.931	162.94
252.164	156.94
252.397	162.94
252.63	165.94
252.863	169.94
253.096	188.94
253.329	179.94
253.562	175.94
253.795	182.94
254.028	189.94
254.261	168.94
254.494	184.94
254.727	191.94
254.96	210.94
255.193	202.94
255.426	182.94
255.659	169.94
255.892	186.94
256.124	158.94
256.357	161.94
256.59	160.94
256.823	152.94
257.056	156.94
257.289	172.94
257.521	156.94
257.754	161.94
257.987	164.94
258.22	174.94
258.452	153.94
258.685	159.94
258.918	157.94
259.151	152.94
259.383	175.94
259.616	182.94
259.849	165.94
260.081	179.94
260.314	194.94
260.547	201.94
260.779	183.94
261.012	181.94
261.244	190.94
261.477	184.94
261.71	174.94
261.942	173.94
262.175	184.94
262.407	187.94
262.64	165.94
262.872	156.94
263.105	171.94
263.337	165.94
263.57	161.94
263.802	170.94
264.035	163.94
264.267	155.94
264.499	149.94
264.732	158.94
264.964	165.94
265.197	161.94
265.429	153.94
265.661	148.94
265.894	166.94
266.126	161.94
266.358	148.94
266.591	162.94
266.823	150.94
267.055	158.94
267.287	168.94
267.52	156.94
267.752	158.94
267.984	167.94
268.216	166.94
268.448	166.94
268.681	174.94
268.913	171.94
269.145	170.94
269.377	181.94
269.609	180.94
269.841	190.94
270.073	193.94
270.306	211.94
270.538	210.94
270.77	229.94
271.002	221.94
271.234	221.94
271.466	198.94
271.698	209.94
271.93	225.94
272.162	226.94
272.394	216.94
272.626	226.94
272.858	193.94
273.09	199.94
273.322	184.94
273.553	186.94
273.785	188.94
274.017	181.94
274.249	187.94
274.481	174.94
274.713	179.94
274.945	181.94
275.176	198.94
275.408	201.94
275.64	197.94
275.872	188.94
276.104	194.94
276.335	180.94
276.567	181.94
276.799	199.94
277.031	206.94
277.262	229.94
277.494	219.94
277.726	215.94
277.957	195.94
278.189	196.94
278.421	193.94
278.652	187.94
278.884	193.94
279.115	179.94
279.347	188.94
279.579	198.94
279.81	183.94
280.042	195.94
280.273	166.94
280.505	185.94
280.736	186.94
280.968	182.94
281.199	187.94
281.431	158.94
281.662	171.94
281.894	195.94
282.125	190.94
282.356	199.94
282.588	203.94
282.819	214.94
283.051	187.94
283.282	165.94
283.513	190.94
283.745	187.94
283.976	181.94
284.207	178.94
284.439	186.94
284.67	191.94
284.901	189.94
285.132	189.94
285.364	186.94
285.595	173.94
285.826	190.94
286.057	194.94
286.288	188.94
286.52	180.94
286.751	169.94
286.982	174.94
287.213	187.94
287.444	179.94
287.675	175.94
287.906	195.94
288.138	195.94
288.369	207.94
288.6	207.94
288.831	190.94
289.062	221.94
289.293	210.94
289.524	173.94
289.755	175.94
289.986	174.94
290.217	196.94
290.448	193.94
290.679	184.94
290.91	180.94
291.141	190.94
291.371	194.94
291.602	200.94
291.833	191.94
292.064	185.94
292.295	180.94
292.526	174.94
292.757	198.94
292.987	184.94
293.218	188.94
293.449	185.94
293.68	169.94
293.91	178.94
294.141	178.94
294.372	174.94
294.603	196.94
294.833	185.94
295.064	191.94
295.295	197.94
295.525	187.94
295.756	199.94
295.987	199.94
296.217	204.94
296.448	220.94
296.679	190.94
296.909	188.94
297.14	174.94
297.37	194.94
297.601	169.94
297.831	202.94
298.062	189.94
298.292	178.94
298.523	206.94
298.753	198.94
298.984	188.94
299.214	212.94
299.445	204.94
299.675	215.94
299.905	199.94
300.136	201.94
300.366	195.94
300.597	192.94
300.827	207.94
301.057	211.94
301.288	213.94
301.518	200.94
301.748	198.94
301.979	193.94
302.209	216.94
302.439	216.94
302.669	210.94
302.9	185.94
303.13	195.94
303.36	212.94
303.59	205.94
303.82	222.94
304.051	223.94
304.281	205.94
304.511	204.94
304.741	200.94
304.971	196.94
305.201	204.94
305.431	197.94
305.661	205.94
305.891	207.94
306.121	200.94
306.352	205.94
306.582	222.94
306.812	208.94
307.042	213.94
307.272	204.94
307.502	196.94
307.731	222.94
307.961	217.94
308.191	202.94
308.421	199.94
308.651	235.94
308.881	229.94
309.111	211.94
309.341	209.94
309.571	236.94
309.8	249.94
310.03	229.94
310.26	239.94
310.49	226.94
310.72	254.94
310.949	251.94
311.179	253.94
311.409	252.94
311.639	226.94
311.868	246.94
312.098	245.94
312.328	252.94
312.557	246.94
312.787	261.94
313.017	260.94
313.246	258.94
313.476	260.94
313.706	259.94
313.935	254.94
314.165	237.94
314.394	269.94
314.624	248.94
314.853	257.94
315.083	245.94
315.312	247.94
315.542	243.94
315.771	231.94
316.001	227.94
316.23	245.94
316.46	243.94
316.689	250.94
316.919	261.94
317.148	245.94
317.377	249.94
317.607	244.94
317.836	243.94
318.065	250.94
318.295	246.94
318.524	256.94
318.753	232.94
318.983	253.94
319.212	229.94
319.441	263.94
319.67	243.94
319.9	230.94
320.129	236.94
320.358	239.94
320.587	238.94
320.816	247.94
321.046	266.94
321.275	281.94
321.504	239.94
321.733	265.94
321.962	273.94
322.191	286.94
322.42	281.94
322.649	289.94
322.878	315.94
323.108	323.94
323.337	334.94
323.566	352.94
323.795	356.94
324.024	403.94
324.253	509.94
324.482	707.94
324.71	1051.94
324.939	1512.94
325.168	1320.94
325.397	716.94
325.626	485.94
325.855	411.94
326.084	361.94
326.313	357.94
326.542	348.94
326.77	389.94
326.999	461.94
327.228	619.94
327.457	925.94
327.686	1171.94
327.914	774.94
328.143	526.94
328.372	453.94
328.6	416.94
328.829	405.94
329.058	391.94
329.287	397.94
329.515	377.94
329.744	343.94
329.972	346.94
330.201	333.94
330.43	349.94
330.658	407.94
330.887	418.94
331.115	392.94
331.344	350.94
331.572	333.94
331.801	323.94
332.03	314.94
332.258	301.94
332.486	282.94
332.715	299.94
332.943	285.94
333.172	271.94
333.4	287.94
333.629	288.94
333.857	270.94
334.085	312.94
334.314	290.94
334.542	289.94
334.771	278.94
334.999	273.94
335.227	292.94
335.455	287.94
335.684	267.94
335.912	288.94
336.14	259.94
336.369	274.94
336.597	279.94
336.825	294.94
337.053	269.94
337.281	281.94
337.51	268.94
337.738	271.94
337.966	274.94
338.194	262.94
338.422	283.94
338.65	288.94
338.878	272.94
339.106	259.94
339.334	264.94
339.562	256.94
339.79	266.94
340.018	271.94
340.246	265.94
340.474	257.94
340.702	286.94
340.93	281.94
341.158	270.94
341.386	281.94
341.614	276.94
341.842	276.94
342.07	264.94
342.298	268.94
342.526	252.94
342.754	263.94
342.981	275.94
343.209	274.94
343.437	282.94
343.665	247.94
343.893	247.94
344.12	258.94
344.348	265.94
344.576	281.94
344.804	289.94
345.031	287.94
345.259	305.94
345.487	297.94
345.714	267.94
345.942	275.94
346.17	286.94
346.397	276.94
346.625	252.94
346.853	275.94
347.08	257.94
347.308	278.94
347.535	289.94
347.763	284.94
347.99	276.94
348.218	279.94
348.445	281.94
348.673	287.94
348.9	302.94
349.128	273.94
349.355	251.94
349.583	257.94
349.81	288.94
350.037	269.94
350.265	260.94
350.492	255.94
350.72	265.94
350.947	278.94
351.174	285.94
351.402	271.94
351.629	293.94
351.856	273.94
352.083	288.94
352.311	298.94
352.538	300.94
352.765	288.94
352.992	271.94
353.22	271.94
353.447	278.94
353.674	270.94
353.901	255.94
354.128	249.94
354.355	269.94
354.583	262.94
354.81	254.94
355.037	261.94
355.264	256.94
355.491	247.94
355.718	232.94
355.945	247.94
356.172	251.94
356.399	257.94
356.626	243.94
356.853	234.94
357.08	247.94
357.307	263.94
357.534	254.94
357.761	254.94
357.988	259.94
358.215	254.94
358.441	253.94
358.668	261.94
358.895	263.94
359.122	258.94
359.349	279.94
359.576	292.94
359.802	294.94
360.029	321.94
360.256	341.94
360.483	314.94
360.709	272.94
360.936	266.94
361.163	282.94
361.39	276.94
361.616	278.94
361.843	297.94
362.07	283.94
362.296	280.94
362.523	282.94
362.749	281.94
362.976	265.94
363.203	267.94
363.429	283.94
363.656	263.94
363.882	254.94
364.109	264.94
364.335	271.94
364.562	247.94
364.788	254.94
365.015	269.94
365.241	267.94
365.468	257.94
365.694	266.94
365.92	268.94
366.147	266.94
366.373	237.94
366.599	259.94
366.826	263.94
367.052	255.94
367.278	269.94
367.505	268.94
367.731	267.94
367.957	271.94
368.184	266.94
368.41	266.94
368.636	261.94
368.862	283.94
369.089	269.94
369.315	257.94
369.541	276.94
369.767	250.94
369.993	275.94
370.219	258.94
370.445	278.94
370.672	255.94
370.898	263.94
371.124	270.94
371.35	253.94
371.576	263.94
371.802	255.94
372.028	258.94
372.254	256.94
372.48	260.94
372.706	266.94
372.932	246.94
373.158	262.94
373.384	268.94
373.61	252.94
373.835	252.94
374.061	258.94
374.287	254.94
374.513	258.94
374.739	242.94
374.965	280.94
375.191	267.94
375.416	265.94
375.642	265.94
375.868	268.94
376.094	260.94
376.319	270.94
376.545	277.94
376.771	247.94
376.997	257.94
377.222	265.94
377.448	268.94
377.674	265.94
377.899	274.94
378.125	269.94
378.35	274.94
378.576	253.94
378.802	253.94
379.027	282.94
379.253	259.94
379.478	255.94
379.704	277.94
379.929	266.94
380.155	269.94
380.38	250.94
380.606	277.94
380.831	247.94
381.057	270.94
381.282	249.94
381.507	259.94
381.733	266.94
381.958	266.94
382.184	273.94
382.409	270.94
382.634	272.94
382.86	268.94
383.085	275.94
383.31	280.94
383.535	264.94
383.761	276.94
383.986	272.94
384.211	270.94
384.436	289.94
384.662	271.94
384.887	262.94
385.112	271.94
385.337	284.94
385.562	270.94
385.787	277.94
386.013	292.94
386.238	306.94
386.463	293.94
386.688	269.94
386.913	275.94
387.138	285.94
387.363	279.94
387.588	281.94
387.813	293.94
388.038	284.94
388.263	276.94
388.488	270.94
388.713	294.94
388.938	293.94
389.163	293.94
389.387	281.94
389.612	288.94
389.837	287.94
390.062	276.94
390.287	278.94
390.512	284.94
390.736	299.94
390.961	277.94
391.186	285.94
391.411	295.94
391.636	285.94
391.86	291.94
392.085	302.94
392.31	285.94
392.534	293.94
392.759	305.94
392.984	266.94
393.208	316.94
393.433	372.94
393.658	385.94
393.882	306.94
394.107	291.94
394.331	294.94
394.556	290.94
394.78	280.94
395.005	277.94
395.229	287.94
395.454	288.94
395.678	289.94
395.903	298.94
396.127	315.94
396.352	313.94
396.576	311.94
396.801	322.94
397.025	336.94
397.249	332.94
397.474	292.94
397.698	313.94
397.922	302.94
398.147	315.94
398.371	314.94
398.595	310.94
398.82	309.94
399.044	317.94
399.268	326.94
399.492	337.94
399.717	334.94
399.941	365.94
400.165	367.94
400.389	401.94
400.613	359.94
400.837	336.94
401.062	324.94
401.286	333.94
401.51	313.94
401.734	319.94
401.958	328.94
402.182	311.94
402.406	324.94
402.63	311.94
402.854	325.94
403.078	312.94
403.302	315.94
403.526	339.94
403.75	326.94
403.974	314.94
404.198	328.94
404.422	329.94
404.645	333.94
404.869	348.94
405.093	360.94
405.317	369.94
405.541	400.94
405.765	361.94
405.988	327.94
406.212	348.94
406.436	363.94
406.66	412.94
406.883	378.94
407.107	391.94
407.331	402.94
407.555	465.94
407.778	467.94
408.002	422.94
408.226	397.94
408.449	379.94
408.673	356.94
408.896	402.94
409.12	413.94
409.344	388.94
409.567	353.94
409.791	347.94
410.014	326.94
410.238	318.94
410.461	316.94
410.685	365.94
410.908	349.94
411.132	382.94
411.355	413.94
411.578	387.94
411.802	345.94
412.025	341.94
412.249	331.94
412.472	328.94
412.695	331.94
412.919	347.94
413.142	330.94
413.365	325.94
413.589	343.94
413.812	331.94
414.035	321.94
414.258	317.94
414.482	329.94
414.705	324.94
414.928	325.94
415.151	317.94
415.374	299.94
415.597	316.94
415.821	321.94
416.044	333.94
416.267	328.94
416.49	305.94
416.713	317.94
416.936	321.94
417.159	325.94
417.382	318.94
417.605	307.94
417.828	317.94
418.051	336.94
418.274	337.94
418.497	332.94
418.72	325.94
418.943	325.94
419.166	335.94
419.389	340.94
419.611	337.94
419.834	338.94
420.057	328.94
420.28	329.94
420.503	342.94
420.726	336.94
420.948	348.94
421.171	365.94
421.394	408.94
421.617	365.94
421.839	342.94
422.062	351.94
422.285	361.94
422.507	405.94
422.73	461.94
422.953	446.94
423.175	385.94
423.398	365.94
423.621	372.94
423.843	381.94
424.066	372.94
424.288	396.94
424.511	413.94
424.733	423.94
424.956	513.94
425.178	466.94
425.401	472.94
425.623	493.94
425.846	433.94
426.068	392.94
426.291	392.94
426.513	386.94
426.735	395.94
426.958	447.94
427.18	461.94
427.402	567.94
427.625	641.94
427.847	591.94
428.069	485.94
428.292	441.94
428.514	409.94
428.736	389.94
428.958	370.94
429.181	343.94
429.403	379.94
429.625	367.94
429.847	411.94
430.069	467.94
430.292	420.94
430.514	387.94
430.736	368.94
430.958	347.94
431.18	357.94
431.402	334.94
431.624	329.94
431.846	337.94
432.068	348.94
432.29	342.94
432.512	334.94
432.734	320.94
432.956	351.94
433.178	357.94
433.4	355.94
433.622	356.94
433.844	330.94
434.066	327.94
434.287	330.94
434.509	334.94
434.731	353.94
434.953	341.94
435.175	350.94
435.397	398.94
435.618	403.94
435.84	439.94
436.062	481.94
436.284	526.94
436.505	459.94
436.727	412.94
436.949	382.94
437.17	365.94
437.392	373.94
437.614	386.94
437.835	400.94
438.057	492.94
438.278	554.94
438.5	565.94
438.721	587.94
438.943	556.94
439.165	439.94
439.386	433.94
439.608	407.94
439.829	414.94
440.05	446.94
440.272	450.94
440.493	441.94
440.715	412.94
440.936	381.94
441.158	374.94
441.379	381.94
441.6	396.94
441.822	379.94
442.043	407.94
442.264	470.94
442.486	531.94
442.707	459.94
442.928	411.94
443.149	393.94
443.371	401.94
443.592	451.94
443.813	522.94
444.034	547.94
444.255	470.94
444.476	420.94
444.698	383.94
444.919	375.94
445.14	483.94
445.361	430.94
445.582	421.94
445.803	453.94
446.024	551.94
446.245	546.94
446.466	499.94
446.687	435.94
446.908	404.94
447.129	377.94
447.35	354.94
447.571	367.94
447.792	382.94
448.013	382.94
448.234	393.94
448.455	437.94
448.675	495.94
448.896	588.94
449.117	502.94
449.338	484.94
449.559	564.94
449.779	592.94
450	495.94
450.221	434.94
450.442	391.94
450.662	373.94
450.883	371.94
451.104	389.94
451.324	371.94
451.545	370.94
451.766	345.94
451.986	333.94
452.207	337.94
452.428	320.94
452.648	314.94
452.869	335.94
453.089	339.94
453.31	333.94
453.53	339.94
453.751	323.94
453.971	339.94
454.192	347.94
454.412	336.94
454.633	332.94
454.853	330.94
455.073	342.94
455.294	366.94
455.514	395.94
455.734	385.94
455.955	337.94
456.175	314.94
456.395	305.94
456.616	306.94
456.836	300.94
457.056	306.94
457.276	293.94
457.497	298.94
457.717	293.94
457.937	319.94
458.157	317.94
458.377	323.94
458.598	342.94
458.818	373.94
459.038	449.94
459.258	457.94
459.478	389.94
459.698	347.94
459.918	356.94
460.138	322.94
460.358	334.94
460.578	311.94
460.798	346.94
461.018	329.94
461.238	332.94
461.458	331.94
461.678	332.94
461.898	335.94
462.118	316.94
462.338	341.94
462.558	358.94
462.777	341.94
462.997	363.94
463.217	346.94
463.437	346.94
463.657	328.94
463.876	335.94
464.096	350.94
464.316	351.94
464.536	362.94
464.755	352.94
464.975	356.94
465.195	399.94
465.414	469.94
465.634	430.94
465.854	380.94
466.073	375.94
466.293	323.94
466.512	328.94
466.732	314.94
466.951	339.94
467.171	336.94
467.391	335.94
467.61	315.94
467.829	364.94
468.049	341.94
468.268	335.94
468.488	319.94
468.707	332.94
468.927	308.94
469.146	312.94
469.365	303.94
469.585	313.94
469.804	333.94
470.023	348.94
470.243	329.94
470.462	345.94
470.681	356.94
470.901	351.94
471.12	334.94
471.339	328.94
471.558	359.94
471.777	345.94
471.997	331.94
472.216	310.94
472.435	337.94
472.654	324.94
472.873	330.94
473.092	326.94
473.311	329.94
473.53	332.94
473.749	350.94
473.968	377.94
474.187	446.94
474.406	470.94
474.625	372.94
474.844	340.94
475.063	340.94
475.282	345.94
475.501	333.94
475.72	352.94
475.939	326.94
476.158	339.94
476.377	352.94
476.596	340.94
476.814	355.94
477.033	363.94
477.252	341.94
477.471	347.94
477.69	363.94
477.908	332.94
478.127	354.94
478.346	348.94
478.564	375.94
478.783	359.94
479.002	377.94
479.22	379.94
479.439	380.94
479.658	415.94
479.876	388.94
480.095	403.94
480.313	437.94
480.532	423.94
480.751	390.94
480.969	389.94
481.188	406.94
481.406	413.94
481.624	407.94
481.843	407.94
482.061	402.94
482.28	400.94
482.498	386.94
482.717	395.94
482.935	385.94
483.153	383.94
483.372	393.94
483.59	397.94
483.808	405.94
484.027	411.94
484.245	399.94
484.463	389.94
484.681	394.94
484.9	408.94
485.118	414.94
485.336	400.94
485.554	398.94
485.772	405.94
485.99	403.94
486.209	398.94
486.427	425.94
486.645	430.94
486.863	439.94
487.081	437.94
487.299	447.94
487.517	445.94
487.735	442.94
487.953	434.94
488.171	439.94
488.389	430.94
488.607	451.94
488.825	436.94
489.043	431.94
489.261	448.94
489.479	450.94
489.696	447.94
489.914	422.94
490.132	459.94
490.35	454.94
490.568	444.94
490.786	459.94
491.003	454.94
491.221	478.94
491.439	480.94
491.657	478.94
491.874	493.94
492.092	478.94
492.31	509.94
492.527	509.94
492.745	474.94
492.963	513.94
493.18	537.94
493.398	512.94
493.615	499.94
493.833	515.94
494.05	494.94
494.268	509.94
494.485	488.94
494.703	494.94
494.92	472.94
495.138	491.94
495.355	513.94
495.573	501.94
495.79	510.94
496.008	539.94
496.225	520.94
496.442	502.94
496.66	526.94
496.877	521.94
497.094	512.94
497.312	508.94
497.529	540.94
497.746	522.94
497.963	546.94
498.181	527.94
498.398	554.94
498.615	562.94
498.832	546.94
499.049	548.94
499.267	579.94
499.484	595.94
499.701	598.94
499.918	591.94
500.135	614.94
500.352	623.94
500.569	619.94
500.786	634.94
501.003	648.94
501.22	597.94
501.437	629.94
501.654	613.94
501.871	617.94
502.088	616.94
