Data from 1987.PennyLincolnUp.Lamp.En5.5.200Scan.071819.P2_HRD10591_17-15-03-971.txt Node
Date: Thu Jul 18 17:15:03 EDT 2019
User: cochatt
Spectrometer: HR+D1059
Trigger mode: 1
Integration Time (sec): 1.000000E-1
Scans to average: 1
Electric dark correction enabled: true
Nonlinearity correction enabled: false
Boxcar width: 0
XAxis mode: Wavelengths
Number of Pixels in Spectrum: 2048
>>>>>Begin Spectral Data<<<<<
223.165	-11.12
223.4	-11.12
223.635	-11.12
223.869	-5.12
224.104	-22.12
224.338	-13.12
224.573	-19.12
224.808	-24.12
225.042	-11.12
225.277	5.88
225.511	1.88
225.746	7.88
225.98	-0.12
226.215	4.88
226.449	13.88
226.683	17.88
226.918	21.88
227.152	31.88
227.387	29.88
227.621	44.88
227.856	47.88
228.09	41.88
228.324	47.88
228.559	64.88
228.793	62.88
229.027	101.88
229.262	115.88
229.496	115.88
229.73	135.88
229.964	158.88
230.199	140.88
230.433	119.88
230.667	118.88
230.901	123.88
231.136	119.88
231.37	102.88
231.604	117.88
231.838	113.88
232.072	104.88
232.306	106.88
232.541	111.88
232.775	104.88
233.009	115.88
233.243	102.88
233.477	115.88
233.711	113.88
233.945	110.88
234.179	124.88
234.413	109.88
234.647	106.88
234.881	99.88
235.115	108.88
235.349	99.88
235.583	135.88
235.817	110.88
236.051	117.88
236.285	130.88
236.519	128.88
236.753	141.88
236.987	139.88
237.221	192.88
237.455	254.88
237.689	192.88
237.922	131.88
238.156	128.88
238.39	137.88
238.624	128.88
238.858	115.88
239.091	121.88
239.325	125.88
239.559	114.88
239.793	128.88
240.027	121.88
240.26	137.88
240.494	159.88
240.728	146.88
240.961	140.88
241.195	132.88
241.429	128.88
241.662	120.88
241.896	123.88
242.13	133.88
242.363	140.88
242.597	139.88
242.83	121.88
243.064	123.88
243.298	133.88
243.531	119.88
243.765	104.88
243.998	125.88
244.232	121.88
244.465	133.88
244.699	128.88
244.932	147.88
245.166	125.88
245.399	129.88
245.633	137.88
245.866	147.88
246.099	142.88
246.333	137.88
246.566	137.88
246.8	156.88
247.033	146.88
247.266	149.88
247.5	160.88
247.733	150.88
247.966	149.88
248.2	162.88
248.433	163.88
248.666	176.88
248.899	177.88
249.133	195.88
249.366	198.88
249.599	204.88
249.832	171.88
250.066	171.88
250.299	185.88
250.532	175.88
250.765	183.88
250.998	207.88
251.231	222.88
251.465	190.88
251.698	192.88
251.931	199.88
252.164	185.88
252.397	187.88
252.63	193.88
252.863	196.88
253.096	208.88
253.329	219.88
253.562	232.88
253.795	206.88
254.028	215.88
254.261	194.88
254.494	229.88
254.727	246.88
254.96	258.88
255.193	263.88
255.426	237.88
255.659	213.88
255.892	210.88
256.124	222.88
256.357	224.88
256.59	202.88
256.823	181.88
257.056	197.88
257.289	206.88
257.521	196.88
257.754	199.88
257.987	194.88
258.22	187.88
258.452	192.88
258.685	196.88
258.918	192.88
259.151	196.88
259.383	200.88
259.616	203.88
259.849	213.88
260.081	211.88
260.314	247.88
260.547	236.88
260.779	227.88
261.012	210.88
261.244	216.88
261.477	195.88
261.71	196.88
261.942	216.88
262.175	217.88
262.407	220.88
262.64	205.88
262.872	205.88
263.105	197.88
263.337	184.88
263.57	194.88
263.802	183.88
264.035	188.88
264.267	181.88
264.499	205.88
264.732	188.88
264.964	193.88
265.197	171.88
265.429	179.88
265.661	170.88
265.894	177.88
266.126	181.88
266.358	185.88
266.591	192.88
266.823	188.88
267.055	200.88
267.287	205.88
267.52	207.88
267.752	199.88
267.984	197.88
268.216	188.88
268.448	195.88
268.681	205.88
268.913	219.88
269.145	237.88
269.377	262.88
269.609	255.88
269.841	244.88
270.073	242.88
270.306	252.88
270.538	284.88
270.77	290.88
271.002	284.88
271.234	271.88
271.466	277.88
271.698	291.88
271.93	291.88
272.162	295.88
272.394	311.88
272.626	275.88
272.858	282.88
273.09	268.88
273.322	255.88
273.553	241.88
273.785	255.88
274.017	239.88
274.249	234.88
274.481	226.88
274.713	235.88
274.945	217.88
275.176	247.88
275.408	238.88
275.64	220.88
275.872	244.88
276.104	251.88
276.335	243.88
276.567	245.88
276.799	253.88
277.031	291.88
277.262	273.88
277.494	276.88
277.726	289.88
277.957	258.88
278.189	239.88
278.421	235.88
278.652	243.88
278.884	247.88
279.115	211.88
279.347	222.88
279.579	216.88
279.81	229.88
280.042	226.88
280.273	214.88
280.505	231.88
280.736	223.88
280.968	213.88
281.199	201.88
281.431	222.88
281.662	225.88
281.894	219.88
282.125	218.88
282.356	252.88
282.588	279.88
282.819	282.88
283.051	240.88
283.282	219.88
283.513	229.88
283.745	228.88
283.976	206.88
284.207	231.88
284.439	227.88
284.67	234.88
284.901	215.88
285.132	208.88
285.364	227.88
285.595	213.88
285.826	224.88
286.057	209.88
286.288	219.88
286.52	222.88
286.751	236.88
286.982	222.88
287.213	234.88
287.444	221.88
287.675	237.88
287.906	233.88
288.138	247.88
288.369	253.88
288.6	228.88
288.831	251.88
289.062	232.88
289.293	238.88
289.524	231.88
289.755	238.88
289.986	259.88
290.217	232.88
290.448	239.88
290.679	232.88
290.91	216.88
291.141	226.88
291.371	240.88
291.602	249.88
291.833	242.88
292.064	238.88
292.295	251.88
292.526	230.88
292.757	222.88
292.987	237.88
293.218	245.88
293.449	228.88
293.68	232.88
293.91	236.88
294.141	223.88
294.372	240.88
294.603	235.88
294.833	246.88
295.064	216.88
295.295	224.88
295.525	236.88
295.756	239.88
295.987	252.88
296.217	286.88
296.448	295.88
296.679	279.88
296.909	214.88
297.14	228.88
297.37	249.88
297.601	239.88
297.831	241.88
298.062	245.88
298.292	240.88
298.523	244.88
298.753	253.88
298.984	224.88
299.214	246.88
299.445	248.88
299.675	253.88
299.905	257.88
300.136	268.88
300.366	238.88
300.597	249.88
300.827	238.88
301.057	256.88
301.288	267.88
301.518	259.88
301.748	246.88
301.979	279.88
302.209	264.88
302.439	275.88
302.669	253.88
302.9	271.88
303.13	278.88
303.36	274.88
303.59	255.88
303.82	279.88
304.051	269.88
304.281	274.88
304.511	245.88
304.741	261.88
304.971	269.88
305.201	259.88
305.431	250.88
305.661	260.88
305.891	273.88
306.121	259.88
306.352	280.88
306.582	291.88
306.812	291.88
307.042	276.88
307.272	274.88
307.502	270.88
307.731	285.88
307.961	275.88
308.191	277.88
308.421	278.88
308.651	262.88
308.881	275.88
309.111	289.88
309.341	296.88
309.571	308.88
309.8	301.88
310.03	321.88
310.26	345.88
310.49	323.88
310.72	349.88
310.949	388.88
311.179	355.88
311.409	337.88
311.639	316.88
311.868	349.88
312.098	339.88
312.328	347.88
312.557	361.88
312.787	374.88
313.017	399.88
313.246	348.88
313.476	320.88
313.706	330.88
313.935	317.88
314.165	370.88
314.394	369.88
314.624	353.88
314.853	344.88
315.083	345.88
315.312	308.88
315.542	303.88
315.771	310.88
316.001	303.88
316.23	324.88
316.46	322.88
316.689	335.88
316.919	335.88
317.148	345.88
317.377	334.88
317.607	323.88
317.836	325.88
318.065	326.88
318.295	307.88
318.524	333.88
318.753	321.88
318.983	316.88
319.212	319.88
319.441	340.88
319.67	363.88
319.9	323.88
320.129	339.88
320.358	319.88
320.587	327.88
320.816	343.88
321.046	356.88
321.275	378.88
321.504	355.88
321.733	369.88
321.962	377.88
322.191	393.88
322.42	405.88
322.649	429.88
322.878	450.88
323.108	462.88
323.337	498.88
323.566	525.88
323.795	586.88
324.024	635.88
324.253	827.88
324.482	1166.88
324.71	1840.88
324.939	2534.88
325.168	2238.88
325.397	1223.88
325.626	808.88
325.855	639.88
326.084	563.88
326.313	530.88
326.542	527.88
326.77	592.88
326.999	719.88
327.228	1025.88
327.457	1599.88
327.686	1909.88
327.914	1334.88
328.143	829.88
328.372	708.88
328.6	664.88
328.829	600.88
329.058	621.88
329.287	658.88
329.515	575.88
329.744	517.88
329.972	496.88
330.201	497.88
330.43	519.88
330.658	587.88
330.887	654.88
331.115	633.88
331.344	546.88
331.572	483.88
331.801	453.88
332.03	469.88
332.258	433.88
332.486	417.88
332.715	390.88
332.943	394.88
333.172	389.88
333.4	397.88
333.629	373.88
333.857	382.88
334.085	393.88
334.314	365.88
334.542	372.88
334.771	378.88
334.999	376.88
335.227	373.88
335.455	396.88
335.684	391.88
335.912	371.88
336.14	365.88
336.369	368.88
336.597	387.88
336.825	403.88
337.053	382.88
337.281	365.88
337.51	369.88
337.738	370.88
337.966	376.88
338.194	387.88
338.422	383.88
338.65	374.88
338.878	351.88
339.106	355.88
339.334	363.88
339.562	379.88
339.79	365.88
340.018	378.88
340.246	355.88
340.474	395.88
340.702	369.88
340.93	364.88
341.158	354.88
341.386	368.88
341.614	352.88
341.842	345.88
342.07	352.88
342.298	347.88
342.526	344.88
342.754	346.88
342.981	337.88
343.209	348.88
343.437	344.88
343.665	349.88
343.893	328.88
344.12	362.88
344.348	356.88
344.576	363.88
344.804	363.88
345.031	408.88
345.259	399.88
345.487	382.88
345.714	385.88
345.942	371.88
346.17	357.88
346.397	367.88
346.625	373.88
346.853	359.88
347.08	353.88
347.308	349.88
347.535	367.88
347.763	391.88
347.99	385.88
348.218	394.88
348.445	399.88
348.673	393.88
348.9	369.88
349.128	357.88
349.355	335.88
349.583	339.88
349.81	342.88
350.037	340.88
350.265	334.88
350.492	339.88
350.72	354.88
350.947	365.88
351.174	369.88
351.402	404.88
351.629	389.88
351.856	372.88
352.083	379.88
352.311	402.88
352.538	385.88
352.765	381.88
352.992	387.88
353.22	408.88
353.447	363.88
353.674	386.88
353.901	352.88
354.128	316.88
354.355	322.88
354.583	309.88
354.81	327.88
355.037	331.88
355.264	302.88
355.491	329.88
355.718	327.88
355.945	309.88
356.172	319.88
356.399	313.88
356.626	328.88
356.853	322.88
357.08	319.88
357.307	309.88
357.534	308.88
357.761	317.88
357.988	316.88
358.215	347.88
358.441	327.88
358.668	320.88
358.895	340.88
359.122	337.88
359.349	352.88
359.576	372.88
359.802	409.88
360.029	446.88
360.256	467.88
360.483	437.88
360.709	394.88
360.936	373.88
361.163	379.88
361.39	377.88
361.616	396.88
361.843	365.88
362.07	379.88
362.296	392.88
362.523	372.88
362.749	379.88
362.976	380.88
363.203	356.88
363.429	354.88
363.656	359.88
363.882	348.88
364.109	346.88
364.335	329.88
364.562	340.88
364.788	354.88
365.015	367.88
365.241	365.88
365.468	345.88
365.694	341.88
365.92	350.88
366.147	353.88
366.373	327.88
366.599	337.88
366.826	337.88
367.052	318.88
367.278	333.88
367.505	351.88
367.731	340.88
367.957	347.88
368.184	349.88
368.41	358.88
368.636	357.88
368.862	377.88
369.089	353.88
369.315	335.88
369.541	333.88
369.767	334.88
369.993	329.88
370.219	333.88
370.445	349.88
370.672	344.88
370.898	309.88
371.124	331.88
371.35	333.88
371.576	321.88
371.802	329.88
372.028	324.88
372.254	317.88
372.48	323.88
372.706	317.88
372.932	309.88
373.158	313.88
373.384	316.88
373.61	336.88
373.835	326.88
374.061	321.88
374.287	340.88
374.513	329.88
374.739	329.88
374.965	327.88
375.191	324.88
375.416	317.88
375.642	322.88
375.868	327.88
376.094	338.88
376.319	346.88
376.545	320.88
376.771	319.88
376.997	327.88
377.222	321.88
377.448	302.88
377.674	334.88
377.899	335.88
378.125	336.88
378.35	313.88
378.576	332.88
378.802	311.88
379.027	315.88
379.253	325.88
379.478	302.88
379.704	328.88
379.929	326.88
380.155	326.88
380.38	318.88
380.606	342.88
380.831	336.88
381.057	350.88
381.282	323.88
381.507	343.88
381.733	332.88
381.958	332.88
382.184	316.88
382.409	322.88
382.634	335.88
382.86	335.88
383.085	360.88
383.31	324.88
383.535	305.88
383.761	334.88
383.986	356.88
384.211	327.88
384.436	340.88
384.662	331.88
384.887	341.88
385.112	331.88
385.337	332.88
385.562	350.88
385.787	326.88
386.013	341.88
386.238	360.88
386.463	342.88
386.688	339.88
386.913	351.88
387.138	334.88
387.363	347.88
387.588	334.88
387.813	364.88
388.038	329.88
388.263	333.88
388.488	357.88
388.713	336.88
388.938	340.88
389.163	338.88
389.387	341.88
389.612	333.88
389.837	344.88
390.062	341.88
390.287	337.88
390.512	342.88
390.736	356.88
390.961	336.88
391.186	351.88
391.411	359.88
391.636	351.88
391.86	370.88
392.085	348.88
392.31	349.88
392.534	334.88
392.759	320.88
392.984	339.88
393.208	352.88
393.433	344.88
393.658	364.88
393.882	348.88
394.107	338.88
394.331	348.88
394.556	323.88
394.78	337.88
395.005	342.88
395.229	333.88
395.454	356.88
395.678	368.88
395.903	349.88
396.127	363.88
396.352	402.88
396.576	364.88
396.801	352.88
397.025	365.88
397.249	374.88
397.474	356.88
397.698	360.88
397.922	385.88
398.147	387.88
398.371	394.88
398.595	412.88
398.82	389.88
399.044	401.88
399.268	398.88
399.492	410.88
399.717	415.88
399.941	445.88
400.165	478.88
400.389	492.88
400.613	462.88
400.837	422.88
401.062	403.88
401.286	388.88
401.51	381.88
401.734	399.88
401.958	397.88
402.182	412.88
402.406	425.88
402.63	419.88
402.854	422.88
403.078	408.88
403.302	391.88
403.526	431.88
403.75	407.88
403.974	404.88
404.198	388.88
404.422	417.88
404.645	427.88
404.869	406.88
405.093	449.88
405.317	455.88
405.541	481.88
405.765	447.88
405.988	460.88
406.212	448.88
406.436	473.88
406.66	500.88
406.883	477.88
407.107	492.88
407.331	535.88
407.555	596.88
407.778	585.88
408.002	524.88
408.226	471.88
408.449	472.88
408.673	456.88
408.896	483.88
409.12	544.88
409.344	511.88
409.567	464.88
409.791	447.88
410.014	444.88
410.238	413.88
410.461	412.88
410.685	425.88
410.908	439.88
411.132	489.88
411.355	540.88
411.578	495.88
411.802	467.88
412.025	409.88
412.249	429.88
412.472	421.88
412.695	434.88
412.919	435.88
413.142	406.88
413.365	414.88
413.589	394.88
413.812	389.88
414.035	406.88
414.258	397.88
414.482	385.88
414.705	389.88
414.928	371.88
415.151	379.88
415.374	379.88
415.597	391.88
415.821	400.88
416.044	405.88
416.267	411.88
416.49	395.88
416.713	386.88
416.936	399.88
417.159	406.88
417.382	387.88
417.605	402.88
417.828	407.88
418.051	423.88
418.274	417.88
418.497	408.88
418.72	416.88
418.943	413.88
419.166	412.88
419.389	425.88
419.611	436.88
419.834	440.88
420.057	425.88
420.28	430.88
420.503	423.88
420.726	417.88
420.948	456.88
421.171	490.88
421.394	526.88
421.617	471.88
421.839	439.88
422.062	431.88
422.285	462.88
422.507	517.88
422.73	585.88
422.953	572.88
423.175	504.88
423.398	475.88
423.621	462.88
423.843	475.88
424.066	467.88
424.288	492.88
424.511	509.88
424.733	577.88
424.956	642.88
425.178	616.88
425.401	624.88
425.623	616.88
425.846	555.88
426.068	503.88
426.291	507.88
426.513	513.88
426.735	528.88
426.958	545.88
427.18	620.88
427.402	758.88
427.625	851.88
427.847	766.88
428.069	639.88
428.292	582.88
428.514	521.88
428.736	512.88
428.958	482.88
429.181	468.88
429.403	441.88
429.625	486.88
429.847	540.88
430.069	580.88
430.292	565.88
430.514	524.88
430.736	468.88
430.958	452.88
431.18	439.88
431.402	419.88
431.624	414.88
431.846	396.88
432.068	412.88
432.29	427.88
432.512	424.88
432.734	434.88
432.956	439.88
433.178	430.88
433.4	444.88
433.622	439.88
433.844	430.88
434.066	447.88
434.287	431.88
434.509	421.88
434.731	435.88
434.953	437.88
435.175	451.88
435.397	481.88
435.618	497.88
435.84	551.88
436.062	654.88
436.284	701.88
436.505	599.88
436.727	529.88
436.949	467.88
437.17	466.88
437.392	465.88
437.614	509.88
437.835	555.88
438.057	660.88
438.278	755.88
438.5	728.88
438.721	753.88
438.943	720.88
439.165	593.88
439.386	525.88
439.608	524.88
439.829	563.88
440.05	563.88
440.272	607.88
440.493	576.88
440.715	531.88
440.936	507.88
441.158	492.88
441.379	479.88
441.6	482.88
441.822	496.88
442.043	556.88
442.264	640.88
442.486	679.88
442.707	593.88
442.928	562.88
443.149	543.88
443.371	540.88
443.592	607.88
443.813	676.88
444.034	713.88
444.255	604.88
444.476	549.88
444.698	504.88
444.919	498.88
445.14	592.88
445.361	556.88
445.582	559.88
445.803	632.88
446.024	708.88
446.245	736.88
446.466	676.88
446.687	581.88
446.908	529.88
447.129	489.88
447.35	466.88
447.571	477.88
447.792	447.88
448.013	510.88
448.234	532.88
448.455	575.88
448.675	685.88
448.896	747.88
449.117	655.88
449.338	631.88
449.559	711.88
449.779	778.88
450	675.88
450.221	574.88
450.442	513.88
450.662	510.88
450.883	509.88
451.104	521.88
451.324	521.88
451.545	498.88
451.766	452.88
451.986	420.88
452.207	420.88
452.428	429.88
452.648	416.88
452.869	413.88
453.089	437.88
453.31	460.88
453.53	442.88
453.751	416.88
453.971	454.88
454.192	474.88
454.412	450.88
454.633	445.88
454.853	440.88
455.073	430.88
455.294	469.88
455.514	530.88
455.734	507.88
455.955	423.88
456.175	428.88
456.395	391.88
456.616	392.88
456.836	398.88
457.056	388.88
457.276	352.88
457.497	401.88
457.717	405.88
457.937	399.88
458.157	404.88
458.377	420.88
458.598	445.88
458.818	521.88
459.038	631.88
459.258	626.88
459.478	512.88
459.698	439.88
459.918	413.88
460.138	440.88
460.358	406.88
460.578	413.88
460.798	437.88
461.018	411.88
461.238	401.88
461.458	415.88
461.678	409.88
461.898	423.88
462.118	403.88
462.338	415.88
462.558	424.88
462.777	432.88
462.997	435.88
463.217	429.88
463.437	438.88
463.657	445.88
463.876	433.88
464.096	436.88
464.316	435.88
464.536	443.88
464.755	454.88
464.975	476.88
465.195	549.88
465.414	663.88
465.634	577.88
465.854	512.88
466.073	479.88
466.293	430.88
466.512	429.88
466.732	430.88
466.951	404.88
467.171	401.88
467.391	414.88
467.61	439.88
467.829	440.88
468.049	444.88
468.268	422.88
468.488	403.88
468.707	422.88
468.927	410.88
469.146	381.88
469.365	389.88
469.585	419.88
469.804	421.88
470.023	434.88
470.243	431.88
470.462	460.88
470.681	488.88
470.901	458.88
471.12	430.88
471.339	457.88
471.558	436.88
471.777	438.88
471.997	420.88
472.216	416.88
472.435	424.88
472.654	437.88
472.873	430.88
473.092	410.88
473.311	438.88
473.53	420.88
473.749	448.88
473.968	492.88
474.187	586.88
474.406	593.88
474.625	487.88
474.844	446.88
475.063	431.88
475.282	436.88
475.501	423.88
475.72	435.88
475.939	435.88
476.158	433.88
476.377	436.88
476.596	436.88
476.814	454.88
477.033	454.88
477.252	437.88
477.471	451.88
477.69	456.88
477.908	455.88
478.127	437.88
478.346	457.88
478.564	457.88
478.783	465.88
479.002	465.88
479.22	472.88
479.439	505.88
479.658	513.88
479.876	556.88
480.095	541.88
480.313	571.88
480.532	518.88
480.751	520.88
480.969	516.88
481.188	543.88
481.406	531.88
481.624	506.88
481.843	499.88
482.061	497.88
482.28	489.88
482.498	513.88
482.717	500.88
482.935	496.88
483.153	512.88
483.372	495.88
483.59	518.88
483.808	495.88
484.027	499.88
484.245	527.88
484.463	504.88
484.681	522.88
484.9	519.88
485.118	511.88
485.336	507.88
485.554	515.88
485.772	538.88
485.99	549.88
486.209	523.88
486.427	519.88
486.645	553.88
486.863	564.88
487.081	561.88
487.299	549.88
487.517	582.88
487.735	553.88
487.953	541.88
488.171	560.88
488.389	549.88
488.607	539.88
488.825	561.88
489.043	573.88
489.261	564.88
489.479	547.88
489.696	576.88
489.914	563.88
490.132	563.88
490.35	564.88
490.568	576.88
490.786	572.88
491.003	598.88
491.221	604.88
491.439	621.88
491.657	633.88
491.874	609.88
492.092	624.88
492.31	626.88
492.527	657.88
492.745	657.88
492.963	638.88
493.18	629.88
493.398	647.88
493.615	685.88
493.833	653.88
494.05	645.88
494.268	675.88
494.485	657.88
494.703	661.88
494.92	668.88
495.138	663.88
495.355	677.88
495.573	685.88
495.79	641.88
496.008	664.88
496.225	672.88
496.442	659.88
496.66	679.88
496.877	660.88
497.094	676.88
497.312	658.88
497.529	687.88
497.746	698.88
497.963	699.88
498.181	699.88
498.398	702.88
498.615	715.88
498.832	747.88
499.049	709.88
499.267	727.88
499.484	727.88
499.701	722.88
499.918	743.88
500.135	768.88
500.352	785.88
500.569	814.88
500.786	779.88
501.003	785.88
501.22	768.88
501.437	788.88
501.654	802.88
501.871	820.88
