Data from 1987.PennyLincolnUp.Lamp.En5.5.200Scan.071819.P2_HRD10591_17-16-19-971.txt Node
Date: Thu Jul 18 17:16:19 EDT 2019
User: cochatt
Spectrometer: HR+D1059
Trigger mode: 1
Integration Time (sec): 1.000000E-1
Scans to average: 1
Electric dark correction enabled: true
Nonlinearity correction enabled: false
Boxcar width: 0
XAxis mode: Wavelengths
Number of Pixels in Spectrum: 2048
>>>>>Begin Spectral Data<<<<<
223.165	-11.81
223.4	-11.81
223.635	-11.81
223.869	-29.81
224.104	-20.81
224.338	3.19
224.573	-10.81
224.808	-27.81
225.042	-5.81
225.277	7.19
225.511	-9.81
225.746	-8.81
225.98	13.19
226.215	19.19
226.449	22.19
226.683	12.19
226.918	25.19
227.152	23.19
227.387	27.19
227.621	44.19
227.856	37.19
228.09	46.19
228.324	49.19
228.559	59.19
228.793	71.19
229.027	104.19
229.262	111.19
229.496	129.19
229.73	149.19
229.964	173.19
230.199	148.19
230.433	117.19
230.667	123.19
230.901	121.19
231.136	124.19
231.37	114.19
231.604	106.19
231.838	102.19
232.072	115.19
232.306	111.19
232.541	100.19
232.775	111.19
233.009	114.19
233.243	115.19
233.477	105.19
233.711	117.19
233.945	97.19
234.179	115.19
234.413	108.19
234.647	112.19
234.881	107.19
235.115	104.19
235.349	112.19
235.583	114.19
235.817	115.19
236.051	126.19
236.285	149.19
236.519	118.19
236.753	138.19
236.987	148.19
237.221	193.19
237.455	278.19
237.689	217.19
237.922	149.19
238.156	151.19
238.39	130.19
238.624	116.19
238.858	127.19
239.091	124.19
239.325	117.19
239.559	127.19
239.793	125.19
240.027	122.19
240.26	153.19
240.494	163.19
240.728	144.19
240.961	149.19
241.195	152.19
241.429	137.19
241.662	138.19
241.896	129.19
242.13	140.19
242.363	126.19
242.597	127.19
242.83	134.19
243.064	129.19
243.298	116.19
243.531	138.19
243.765	125.19
243.998	141.19
244.232	140.19
244.465	132.19
244.699	142.19
244.932	142.19
245.166	144.19
245.399	145.19
245.633	148.19
245.866	139.19
246.099	123.19
246.333	139.19
246.566	139.19
246.8	133.19
247.033	149.19
247.266	157.19
247.5	156.19
247.733	163.19
247.966	149.19
248.2	153.19
248.433	165.19
248.666	165.19
248.899	205.19
249.133	206.19
249.366	216.19
249.599	204.19
249.832	174.19
250.066	166.19
250.299	190.19
250.532	190.19
250.765	194.19
250.998	221.19
251.231	228.19
251.465	214.19
251.698	207.19
251.931	213.19
252.164	192.19
252.397	190.19
252.63	200.19
252.863	212.19
253.096	221.19
253.329	215.19
253.562	232.19
253.795	230.19
254.028	214.19
254.261	213.19
254.494	216.19
254.727	250.19
254.96	299.19
255.193	278.19
255.426	269.19
255.659	239.19
255.892	215.19
256.124	219.19
256.357	210.19
256.59	214.19
256.823	202.19
257.056	209.19
257.289	213.19
257.521	189.19
257.754	211.19
257.987	219.19
258.22	212.19
258.452	211.19
258.685	187.19
258.918	208.19
259.151	208.19
259.383	206.19
259.616	206.19
259.849	223.19
260.081	238.19
260.314	255.19
260.547	249.19
260.779	247.19
261.012	236.19
261.244	223.19
261.477	209.19
261.71	229.19
261.942	223.19
262.175	259.19
262.407	248.19
262.64	221.19
262.872	190.19
263.105	210.19
263.337	202.19
263.57	207.19
263.802	203.19
264.035	190.19
264.267	175.19
264.499	196.19
264.732	185.19
264.964	189.19
265.197	181.19
265.429	203.19
265.661	196.19
265.894	185.19
266.126	195.19
266.358	207.19
266.591	196.19
266.823	196.19
267.055	211.19
267.287	205.19
267.52	197.19
267.752	221.19
267.984	214.19
268.216	209.19
268.448	213.19
268.681	220.19
268.913	218.19
269.145	255.19
269.377	261.19
269.609	264.19
269.841	277.19
270.073	250.19
270.306	273.19
270.538	291.19
270.77	309.19
271.002	310.19
271.234	290.19
271.466	293.19
271.698	302.19
271.93	331.19
272.162	311.19
272.394	311.19
272.626	293.19
272.858	261.19
273.09	268.19
273.322	256.19
273.553	249.19
273.785	251.19
274.017	236.19
274.249	233.19
274.481	240.19
274.713	245.19
274.945	255.19
275.176	245.19
275.408	250.19
275.64	229.19
275.872	249.19
276.104	243.19
276.335	255.19
276.567	256.19
276.799	259.19
277.031	296.19
277.262	291.19
277.494	281.19
277.726	281.19
277.957	268.19
278.189	244.19
278.421	257.19
278.652	246.19
278.884	230.19
279.115	249.19
279.347	245.19
279.579	242.19
279.81	236.19
280.042	233.19
280.273	234.19
280.505	229.19
280.736	233.19
280.968	209.19
281.199	213.19
281.431	234.19
281.662	234.19
281.894	215.19
282.125	239.19
282.356	260.19
282.588	298.19
282.819	291.19
283.051	258.19
283.282	228.19
283.513	243.19
283.745	233.19
283.976	253.19
284.207	248.19
284.439	225.19
284.67	233.19
284.901	238.19
285.132	232.19
285.364	231.19
285.595	202.19
285.826	228.19
286.057	243.19
286.288	230.19
286.52	230.19
286.751	227.19
286.982	246.19
287.213	233.19
287.444	231.19
287.675	256.19
287.906	265.19
288.138	258.19
288.369	264.19
288.6	269.19
288.831	270.19
289.062	244.19
289.293	263.19
289.524	241.19
289.755	252.19
289.986	248.19
290.217	240.19
290.448	237.19
290.679	230.19
290.91	248.19
291.141	230.19
291.371	245.19
291.602	244.19
291.833	236.19
292.064	224.19
292.295	238.19
292.526	241.19
292.757	244.19
292.987	232.19
293.218	261.19
293.449	236.19
293.68	248.19
293.91	236.19
294.141	252.19
294.372	243.19
294.603	233.19
294.833	248.19
295.064	253.19
295.295	237.19
295.525	237.19
295.756	245.19
295.987	261.19
296.217	298.19
296.448	292.19
296.679	274.19
296.909	232.19
297.14	237.19
297.37	246.19
297.601	257.19
297.831	247.19
298.062	239.19
298.292	258.19
298.523	256.19
298.753	248.19
298.984	267.19
299.214	252.19
299.445	246.19
299.675	246.19
299.905	264.19
300.136	265.19
300.366	281.19
300.597	247.19
300.827	260.19
301.057	251.19
301.288	266.19
301.518	277.19
301.748	286.19
301.979	268.19
302.209	268.19
302.439	278.19
302.669	259.19
302.9	279.19
303.13	275.19
303.36	268.19
303.59	282.19
303.82	281.19
304.051	278.19
304.281	295.19
304.511	261.19
304.741	257.19
304.971	274.19
305.201	286.19
305.431	265.19
305.661	250.19
305.891	266.19
306.121	286.19
306.352	283.19
306.582	287.19
306.812	273.19
307.042	279.19
307.272	266.19
307.502	286.19
307.731	303.19
307.961	277.19
308.191	285.19
308.421	281.19
308.651	285.19
308.881	295.19
309.111	305.19
309.341	281.19
309.571	322.19
309.8	340.19
310.03	344.19
310.26	361.19
310.49	356.19
310.72	359.19
310.949	370.19
311.179	397.19
311.409	373.19
311.639	349.19
311.868	364.19
312.098	363.19
312.328	374.19
312.557	402.19
312.787	412.19
313.017	399.19
313.246	373.19
313.476	358.19
313.706	344.19
313.935	361.19
314.165	358.19
314.394	384.19
314.624	373.19
314.853	360.19
315.083	365.19
315.312	332.19
315.542	331.19
315.771	324.19
316.001	336.19
316.23	332.19
316.46	331.19
316.689	349.19
316.919	338.19
317.148	350.19
317.377	363.19
317.607	349.19
317.836	353.19
318.065	328.19
318.295	334.19
318.524	315.19
318.753	316.19
318.983	332.19
319.212	350.19
319.441	336.19
319.67	353.19
319.9	377.19
320.129	357.19
320.358	339.19
320.587	359.19
320.816	374.19
321.046	401.19
321.275	374.19
321.504	375.19
321.733	388.19
321.962	389.19
322.191	413.19
322.42	441.19
322.649	463.19
322.878	445.19
323.108	492.19
323.337	530.19
323.566	540.19
323.795	596.19
324.024	668.19
324.253	826.19
324.482	1306.19
324.71	1950.19
324.939	2781.19
325.168	2422.19
325.397	1313.19
325.626	812.19
325.855	645.19
326.084	584.19
326.313	538.19
326.542	545.19
326.77	625.19
326.999	784.19
327.228	1093.19
327.457	1686.19
327.686	2037.19
327.914	1411.19
328.143	890.19
328.372	762.19
328.6	706.19
328.829	681.19
329.058	652.19
329.287	669.19
329.515	613.19
329.744	532.19
329.972	523.19
330.201	535.19
330.43	555.19
330.658	645.19
330.887	699.19
331.115	702.19
331.344	561.19
331.572	497.19
331.801	506.19
332.03	491.19
332.258	447.19
332.486	406.19
332.715	432.19
332.943	415.19
333.172	409.19
333.4	394.19
333.629	407.19
333.857	414.19
334.085	398.19
334.314	391.19
334.542	394.19
334.771	403.19
334.999	400.19
335.227	413.19
335.455	384.19
335.684	367.19
335.912	369.19
336.14	380.19
336.369	374.19
336.597	399.19
336.825	405.19
337.053	384.19
337.281	385.19
337.51	367.19
337.738	388.19
337.966	400.19
338.194	390.19
338.422	412.19
338.65	390.19
338.878	362.19
339.106	385.19
339.334	364.19
339.562	354.19
339.79	377.19
340.018	385.19
340.246	390.19
340.474	395.19
340.702	394.19
340.93	365.19
341.158	378.19
341.386	375.19
341.614	395.19
341.842	405.19
342.07	371.19
342.298	385.19
342.526	367.19
342.754	355.19
342.981	360.19
343.209	346.19
343.437	346.19
343.665	354.19
343.893	357.19
344.12	382.19
344.348	371.19
344.576	370.19
344.804	389.19
345.031	416.19
345.259	435.19
345.487	401.19
345.714	386.19
345.942	371.19
346.17	372.19
346.397	375.19
346.625	381.19
346.853	395.19
347.08	387.19
347.308	391.19
347.535	397.19
347.763	422.19
347.99	406.19
348.218	408.19
348.445	421.19
348.673	415.19
348.9	377.19
349.128	370.19
349.355	369.19
349.583	372.19
349.81	353.19
350.037	374.19
350.265	349.19
350.492	347.19
350.72	360.19
350.947	374.19
351.174	395.19
351.402	387.19
351.629	387.19
351.856	390.19
352.083	395.19
352.311	424.19
352.538	411.19
352.765	424.19
352.992	410.19
353.22	393.19
353.447	375.19
353.674	388.19
353.901	356.19
354.128	361.19
354.355	345.19
354.583	342.19
354.81	350.19
355.037	331.19
355.264	341.19
355.491	359.19
355.718	325.19
355.945	350.19
356.172	329.19
356.399	345.19
356.626	328.19
356.853	330.19
357.08	327.19
357.307	321.19
357.534	341.19
357.761	306.19
357.988	318.19
358.215	335.19
358.441	335.19
358.668	354.19
358.895	345.19
359.122	342.19
359.349	378.19
359.576	399.19
359.802	405.19
360.029	484.19
360.256	509.19
360.483	454.19
360.709	421.19
360.936	404.19
361.163	401.19
361.39	409.19
361.616	390.19
361.843	383.19
362.07	396.19
362.296	415.19
362.523	390.19
362.749	420.19
362.976	393.19
363.203	377.19
363.429	371.19
363.656	355.19
363.882	378.19
364.109	353.19
364.335	348.19
364.562	360.19
364.788	361.19
365.015	353.19
365.241	370.19
365.468	359.19
365.694	374.19
365.92	372.19
366.147	362.19
366.373	345.19
366.599	354.19
366.826	353.19
367.052	346.19
367.278	349.19
367.505	357.19
367.731	356.19
367.957	369.19
368.184	343.19
368.41	359.19
368.636	349.19
368.862	358.19
369.089	346.19
369.315	350.19
369.541	354.19
369.767	356.19
369.993	338.19
370.219	342.19
370.445	339.19
370.672	330.19
370.898	336.19
371.124	351.19
371.35	338.19
371.576	332.19
371.802	352.19
372.028	317.19
372.254	339.19
372.48	334.19
372.706	350.19
372.932	345.19
373.158	360.19
373.384	333.19
373.61	331.19
373.835	347.19
374.061	336.19
374.287	337.19
374.513	346.19
374.739	332.19
374.965	325.19
375.191	333.19
375.416	326.19
375.642	335.19
375.868	339.19
376.094	317.19
376.319	321.19
376.545	337.19
376.771	326.19
376.997	330.19
377.222	334.19
377.448	340.19
377.674	329.19
377.899	329.19
378.125	334.19
378.35	322.19
378.576	320.19
378.802	344.19
379.027	332.19
379.253	338.19
379.478	332.19
379.704	330.19
379.929	334.19
380.155	351.19
380.38	328.19
380.606	343.19
380.831	335.19
381.057	327.19
381.282	340.19
381.507	327.19
381.733	342.19
381.958	341.19
382.184	341.19
382.409	347.19
382.634	338.19
382.86	351.19
383.085	335.19
383.31	325.19
383.535	328.19
383.761	361.19
383.986	348.19
384.211	334.19
384.436	339.19
384.662	341.19
384.887	323.19
385.112	349.19
385.337	343.19
385.562	354.19
385.787	344.19
386.013	361.19
386.238	373.19
386.463	377.19
386.688	357.19
386.913	346.19
387.138	353.19
387.363	359.19
387.588	362.19
387.813	338.19
388.038	343.19
388.263	337.19
388.488	337.19
388.713	359.19
388.938	352.19
389.163	362.19
389.387	365.19
389.612	345.19
389.837	349.19
390.062	357.19
390.287	341.19
390.512	349.19
390.736	367.19
390.961	346.19
391.186	333.19
391.411	360.19
391.636	343.19
391.86	347.19
392.085	366.19
392.31	338.19
392.534	353.19
392.759	356.19
392.984	342.19
393.208	348.19
393.433	355.19
393.658	350.19
393.882	362.19
394.107	360.19
394.331	355.19
394.556	349.19
394.78	332.19
395.005	355.19
395.229	353.19
395.454	354.19
395.678	351.19
395.903	356.19
396.127	418.19
396.352	405.19
396.576	372.19
396.801	379.19
397.025	387.19
397.249	376.19
397.474	384.19
397.698	393.19
397.922	375.19
398.147	381.19
398.371	403.19
398.595	380.19
398.82	401.19
399.044	396.19
399.268	407.19
399.492	421.19
399.717	437.19
399.941	467.19
400.165	499.19
400.389	510.19
400.613	473.19
400.837	426.19
401.062	426.19
401.286	423.19
401.51	440.19
401.734	419.19
401.958	409.19
402.182	406.19
402.406	425.19
402.63	433.19
402.854	414.19
403.078	435.19
403.302	424.19
403.526	437.19
403.75	413.19
403.974	417.19
404.198	417.19
404.422	446.19
404.645	443.19
404.869	440.19
405.093	457.19
405.317	488.19
405.541	501.19
405.765	453.19
405.988	477.19
406.212	477.19
406.436	510.19
406.66	515.19
406.883	486.19
407.107	500.19
407.331	525.19
407.555	609.19
407.778	572.19
408.002	565.19
408.226	521.19
408.449	491.19
408.673	493.19
408.896	517.19
409.12	545.19
409.344	530.19
409.567	475.19
409.791	442.19
410.014	427.19
410.238	453.19
410.461	450.19
410.685	443.19
410.908	466.19
411.132	502.19
411.355	505.19
411.578	509.19
411.802	473.19
412.025	434.19
412.249	419.19
412.472	439.19
412.695	437.19
412.919	426.19
413.142	420.19
413.365	405.19
413.589	439.19
413.812	417.19
414.035	412.19
414.258	393.19
414.482	407.19
414.705	411.19
414.928	398.19
415.151	414.19
415.374	408.19
415.597	391.19
415.821	403.19
416.044	405.19
416.267	418.19
416.49	417.19
416.713	394.19
416.936	419.19
417.159	396.19
417.382	410.19
417.605	412.19
417.828	435.19
418.051	442.19
418.274	446.19
418.497	414.19
418.72	424.19
418.943	421.19
419.166	417.19
419.389	454.19
419.611	443.19
419.834	402.19
420.057	431.19
420.28	442.19
420.503	441.19
420.726	427.19
420.948	455.19
421.171	513.19
421.394	524.19
421.617	490.19
421.839	449.19
422.062	449.19
422.285	458.19
422.507	541.19
422.73	604.19
422.953	586.19
423.175	501.19
423.398	475.19
423.621	485.19
423.843	500.19
424.066	511.19
424.288	518.19
424.511	537.19
424.733	609.19
424.956	641.19
425.178	641.19
425.401	655.19
425.623	652.19
425.846	591.19
426.068	540.19
426.291	495.19
426.513	518.19
426.735	529.19
426.958	555.19
427.18	651.19
427.402	791.19
427.625	884.19
427.847	827.19
428.069	664.19
428.292	579.19
428.514	534.19
428.736	527.19
428.958	535.19
429.181	489.19
429.403	492.19
429.625	484.19
429.847	534.19
430.069	585.19
430.292	563.19
430.514	494.19
430.736	479.19
430.958	481.19
431.18	453.19
431.402	446.19
431.624	437.19
431.846	426.19
432.068	428.19
432.29	440.19
432.512	431.19
432.734	466.19
432.956	450.19
433.178	465.19
433.4	445.19
433.622	450.19
433.844	443.19
434.066	414.19
434.287	414.19
434.509	437.19
434.731	463.19
434.953	460.19
435.175	478.19
435.397	489.19
435.618	526.19
435.84	595.19
436.062	679.19
436.284	725.19
436.505	603.19
436.727	557.19
436.949	519.19
437.17	493.19
437.392	499.19
437.614	512.19
437.835	556.19
438.057	657.19
438.278	755.19
438.5	773.19
438.721	801.19
438.943	758.19
439.165	611.19
439.386	554.19
439.608	549.19
439.829	554.19
440.05	603.19
440.272	633.19
440.493	605.19
440.715	554.19
440.936	517.19
441.158	498.19
441.379	488.19
441.6	491.19
441.822	548.19
442.043	613.19
442.264	661.19
442.486	699.19
442.707	587.19
442.928	547.19
443.149	563.19
443.371	602.19
443.592	613.19
443.813	717.19
444.034	747.19
444.255	626.19
444.476	541.19
444.698	517.19
444.919	513.19
445.14	596.19
445.361	593.19
445.582	558.19
445.803	647.19
446.024	750.19
446.245	776.19
446.466	693.19
446.687	617.19
446.908	561.19
447.129	543.19
447.35	499.19
447.571	489.19
447.792	486.19
448.013	509.19
448.234	532.19
448.455	571.19
448.675	671.19
448.896	782.19
449.117	693.19
449.338	681.19
449.559	733.19
449.779	821.19
450	652.19
450.221	571.19
450.442	534.19
450.662	498.19
450.883	512.19
451.104	550.19
451.324	538.19
451.545	485.19
451.766	481.19
451.986	461.19
452.207	430.19
452.428	438.19
452.648	458.19
452.869	433.19
453.089	453.19
453.31	470.19
453.53	435.19
453.751	438.19
453.971	470.19
454.192	493.19
454.412	484.19
454.633	459.19
454.853	443.19
455.073	447.19
455.294	485.19
455.514	538.19
455.734	557.19
455.955	446.19
456.175	419.19
456.395	413.19
456.616	418.19
456.836	417.19
457.056	394.19
457.276	391.19
457.497	420.19
457.717	399.19
457.937	419.19
458.157	397.19
458.377	432.19
458.598	453.19
458.818	563.19
459.038	651.19
459.258	647.19
459.478	547.19
459.698	494.19
459.918	460.19
460.138	446.19
460.358	417.19
460.578	420.19
460.798	449.19
461.018	462.19
461.238	420.19
461.458	406.19
461.678	442.19
461.898	398.19
462.118	417.19
462.338	437.19
462.558	428.19
462.777	441.19
462.997	415.19
463.217	419.19
463.437	437.19
463.657	428.19
463.876	434.19
464.096	435.19
464.316	446.19
464.536	445.19
464.755	466.19
464.975	499.19
465.195	582.19
465.414	716.19
465.634	599.19
465.854	529.19
466.073	518.19
466.293	451.19
466.512	433.19
466.732	459.19
466.951	437.19
467.171	419.19
467.391	420.19
467.61	448.19
467.829	481.19
468.049	465.19
468.268	459.19
468.488	432.19
468.707	423.19
468.927	412.19
469.146	413.19
469.365	414.19
469.585	418.19
469.804	450.19
470.023	469.19
470.243	447.19
470.462	451.19
470.681	485.19
470.901	466.19
471.12	465.19
471.339	454.19
471.558	445.19
471.777	423.19
471.997	449.19
472.216	420.19
472.435	437.19
472.654	423.19
472.873	437.19
473.092	417.19
473.311	435.19
473.53	445.19
473.749	457.19
473.968	498.19
474.187	620.19
474.406	646.19
474.625	511.19
474.844	473.19
475.063	442.19
475.282	423.19
475.501	439.19
475.72	447.19
475.939	449.19
476.158	445.19
476.377	466.19
476.596	441.19
476.814	472.19
477.033	484.19
477.252	466.19
477.471	474.19
477.69	466.19
477.908	485.19
478.127	474.19
478.346	458.19
478.564	481.19
478.783	473.19
479.002	479.19
479.22	482.19
479.439	523.19
479.658	553.19
479.876	535.19
480.095	545.19
480.313	561.19
480.532	556.19
480.751	534.19
480.969	539.19
481.188	547.19
481.406	542.19
481.624	527.19
481.843	524.19
482.061	531.19
482.28	514.19
482.498	487.19
482.717	516.19
482.935	508.19
483.153	489.19
483.372	521.19
483.59	524.19
483.808	506.19
484.027	510.19
484.245	520.19
484.463	532.19
484.681	538.19
484.9	513.19
485.118	528.19
485.336	523.19
485.554	541.19
485.772	544.19
485.99	560.19
486.209	551.19
486.427	544.19
486.645	568.19
486.863	600.19
487.081	606.19
487.299	592.19
487.517	567.19
487.735	546.19
487.953	571.19
488.171	552.19
488.389	588.19
488.607	568.19
488.825	560.19
489.043	590.19
489.261	567.19
489.479	572.19
489.696	566.19
489.914	600.19
490.132	565.19
490.35	584.19
490.568	602.19
490.786	601.19
491.003	619.19
491.221	625.19
491.439	627.19
491.657	659.19
491.874	646.19
492.092	631.19
492.31	658.19
492.527	645.19
492.745	661.19
492.963	664.19
493.18	660.19
493.398	681.19
493.615	653.19
493.833	717.19
494.05	697.19
494.268	663.19
494.485	677.19
494.703	675.19
494.92	675.19
495.138	689.19
495.355	682.19
495.573	679.19
495.79	658.19
496.008	701.19
496.225	700.19
496.442	673.19
496.66	687.19
496.877	679.19
497.094	680.19
497.312	686.19
497.529	709.19
497.746	709.19
497.963	695.19
498.181	721.19
498.398	708.19
498.615	747.19
498.832	722.19
499.049	738.19
499.267	758.19
499.484	763.19
499.701	770.19
499.918	783.19
500.135	782.19
500.352	813.19
500.569	793.19
500.786	811.19
501.003	830.19
501.22	810.19
501.437	796.19
501.654	783.19
501.871	838.19
