Data from 1987.PennyLincolnUp.Lamp.En5.5.200Scan.071819.P2_HRD10591_17-13-50-971.txt Node
Date: Thu Jul 18 17:13:50 EDT 2019
User: cochatt
Spectrometer: HR+D1059
Trigger mode: 1
Integration Time (sec): 1.000000E-1
Scans to average: 1
Electric dark correction enabled: true
Nonlinearity correction enabled: false
Boxcar width: 0
XAxis mode: Wavelengths
Number of Pixels in Spectrum: 2048
>>>>>Begin Spectral Data<<<<<
223.165	-19.06
223.4	-19.06
223.635	-19.06
223.869	-21.06
224.104	-6.06
224.338	-18.06
224.573	-24.06
224.808	-7.06
225.042	-9.06
225.277	3.94
225.511	-6.06
225.746	4.94
225.98	-0.06
226.215	13.94
226.449	21.94
226.683	5.94
226.918	19.94
227.152	39.94
227.387	44.94
227.621	26.94
227.856	56.94
228.09	41.94
228.324	40.94
228.559	50.94
228.793	68.94
229.027	95.94
229.262	89.94
229.496	102.94
229.73	114.94
229.964	134.94
230.199	115.94
230.433	103.94
230.667	94.94
230.901	106.94
231.136	103.94
231.37	106.94
231.604	95.94
231.838	98.94
232.072	96.94
232.306	100.94
232.541	107.94
232.775	101.94
233.009	118.94
233.243	100.94
233.477	93.94
233.711	111.94
233.945	91.94
234.179	100.94
234.413	103.94
234.647	113.94
234.881	96.94
235.115	99.94
235.349	107.94
235.583	114.94
235.817	90.94
236.051	107.94
236.285	116.94
236.519	110.94
236.753	107.94
236.987	130.94
237.221	159.94
237.455	197.94
237.689	158.94
237.922	126.94
238.156	118.94
238.39	107.94
238.624	94.94
238.858	99.94
239.091	104.94
239.325	108.94
239.559	107.94
239.793	122.94
240.027	111.94
240.26	108.94
240.494	132.94
240.728	114.94
240.961	112.94
241.195	120.94
241.429	124.94
241.662	102.94
241.896	115.94
242.13	114.94
242.363	115.94
242.597	114.94
242.83	104.94
243.064	126.94
243.298	123.94
243.531	130.94
243.765	126.94
243.998	125.94
244.232	123.94
244.465	121.94
244.699	115.94
244.932	132.94
245.166	131.94
245.399	124.94
245.633	119.94
245.866	122.94
246.099	117.94
246.333	118.94
246.566	130.94
246.8	126.94
247.033	127.94
247.266	134.94
247.5	130.94
247.733	124.94
247.966	137.94
248.2	128.94
248.433	126.94
248.666	159.94
248.899	136.94
249.133	145.94
249.366	168.94
249.599	152.94
249.832	137.94
250.066	136.94
250.299	154.94
250.532	141.94
250.765	167.94
250.998	174.94
251.231	159.94
251.465	182.94
251.698	169.94
251.931	149.94
252.164	163.94
252.397	151.94
252.63	165.94
252.863	160.94
253.096	172.94
253.329	160.94
253.562	179.94
253.795	182.94
254.028	190.94
254.261	174.94
254.494	185.94
254.727	203.94
254.96	196.94
255.193	207.94
255.426	201.94
255.659	190.94
255.892	186.94
256.124	187.94
256.357	151.94
256.59	167.94
256.823	163.94
257.056	165.94
257.289	159.94
257.521	149.94
257.754	160.94
257.987	168.94
258.22	158.94
258.452	159.94
258.685	153.94
258.918	158.94
259.151	158.94
259.383	154.94
259.616	160.94
259.849	173.94
260.081	197.94
260.314	187.94
260.547	185.94
260.779	184.94
261.012	182.94
261.244	179.94
261.477	158.94
261.71	173.94
261.942	158.94
262.175	183.94
262.407	182.94
262.64	159.94
262.872	154.94
263.105	149.94
263.337	150.94
263.57	143.94
263.802	158.94
264.035	146.94
264.267	141.94
264.499	139.94
264.732	168.94
264.964	155.94
265.197	150.94
265.429	166.94
265.661	156.94
265.894	140.94
266.126	138.94
266.358	172.94
266.591	159.94
266.823	163.94
267.055	167.94
267.287	160.94
267.52	141.94
267.752	160.94
267.984	159.94
268.216	162.94
268.448	158.94
268.681	173.94
268.913	178.94
269.145	188.94
269.377	201.94
269.609	195.94
269.841	187.94
270.073	194.94
270.306	210.94
270.538	218.94
270.77	202.94
271.002	213.94
271.234	212.94
271.466	206.94
271.698	189.94
271.93	223.94
272.162	221.94
272.394	202.94
272.626	224.94
272.858	211.94
273.09	195.94
273.322	184.94
273.553	186.94
273.785	175.94
274.017	174.94
274.249	169.94
274.481	182.94
274.713	184.94
274.945	174.94
275.176	176.94
275.408	176.94
275.64	165.94
275.872	184.94
276.104	175.94
276.335	182.94
276.567	184.94
276.799	173.94
277.031	212.94
277.262	201.94
277.494	202.94
277.726	204.94
277.957	213.94
278.189	199.94
278.421	203.94
278.652	191.94
278.884	200.94
279.115	174.94
279.347	180.94
279.579	180.94
279.81	190.94
280.042	203.94
280.273	184.94
280.505	178.94
280.736	180.94
280.968	181.94
281.199	167.94
281.431	191.94
281.662	171.94
281.894	187.94
282.125	169.94
282.356	200.94
282.588	213.94
282.819	216.94
283.051	188.94
283.282	170.94
283.513	174.94
283.745	164.94
283.976	180.94
284.207	189.94
284.439	185.94
284.67	179.94
284.901	188.94
285.132	197.94
285.364	184.94
285.595	170.94
285.826	175.94
286.057	192.94
286.288	183.94
286.52	173.94
286.751	189.94
286.982	176.94
287.213	165.94
287.444	183.94
287.675	172.94
287.906	174.94
288.138	182.94
288.369	205.94
288.6	187.94
288.831	183.94
289.062	192.94
289.293	189.94
289.524	209.94
289.755	171.94
289.986	187.94
290.217	182.94
290.448	175.94
290.679	176.94
290.91	188.94
291.141	178.94
291.371	174.94
291.602	191.94
291.833	192.94
292.064	198.94
292.295	175.94
292.526	173.94
292.757	176.94
292.987	193.94
293.218	192.94
293.449	198.94
293.68	193.94
293.91	184.94
294.141	202.94
294.372	206.94
294.603	192.94
294.833	176.94
295.064	176.94
295.295	190.94
295.525	198.94
295.756	191.94
295.987	202.94
296.217	192.94
296.448	209.94
296.679	207.94
296.909	179.94
297.14	194.94
297.37	194.94
297.601	191.94
297.831	192.94
298.062	192.94
298.292	192.94
298.523	199.94
298.753	182.94
298.984	174.94
299.214	187.94
299.445	203.94
299.675	185.94
299.905	202.94
300.136	199.94
300.366	191.94
300.597	200.94
300.827	207.94
301.057	208.94
301.288	200.94
301.518	188.94
301.748	200.94
301.979	199.94
302.209	203.94
302.439	221.94
302.669	202.94
302.9	205.94
303.13	183.94
303.36	212.94
303.59	207.94
303.82	213.94
304.051	207.94
304.281	199.94
304.511	205.94
304.741	195.94
304.971	197.94
305.201	217.94
305.431	214.94
305.661	197.94
305.891	203.94
306.121	219.94
306.352	205.94
306.582	205.94
306.812	203.94
307.042	209.94
307.272	203.94
307.502	225.94
307.731	216.94
307.961	212.94
308.191	216.94
308.421	221.94
308.651	219.94
308.881	226.94
309.111	230.94
309.341	237.94
309.571	226.94
309.8	230.94
310.03	246.94
310.26	241.94
310.49	246.94
310.72	238.94
310.949	254.94
311.179	260.94
311.409	235.94
311.639	252.94
311.868	253.94
312.098	234.94
312.328	244.94
312.557	252.94
312.787	264.94
313.017	271.94
313.246	253.94
313.476	234.94
313.706	236.94
313.935	247.94
314.165	274.94
314.394	264.94
314.624	261.94
314.853	248.94
315.083	235.94
315.312	225.94
315.542	226.94
315.771	252.94
316.001	230.94
316.23	244.94
316.46	232.94
316.689	239.94
316.919	217.94
317.148	255.94
317.377	248.94
317.607	231.94
317.836	248.94
318.065	266.94
318.295	239.94
318.524	249.94
318.753	243.94
318.983	217.94
319.212	255.94
319.441	246.94
319.67	258.94
319.9	248.94
320.129	235.94
320.358	246.94
320.587	254.94
320.816	258.94
321.046	266.94
321.275	258.94
321.504	233.94
321.733	249.94
321.962	280.94
322.191	268.94
322.42	282.94
322.649	294.94
322.878	306.94
323.108	304.94
323.337	308.94
323.566	337.94
323.795	370.94
324.024	390.94
324.253	504.94
324.482	684.94
324.71	1034.94
324.939	1480.94
325.168	1313.94
325.397	744.94
325.626	477.94
325.855	400.94
326.084	362.94
326.313	331.94
326.542	354.94
326.77	399.94
326.999	447.94
327.228	599.94
327.457	927.94
327.686	1127.94
327.914	775.94
328.143	518.94
328.372	454.94
328.6	400.94
328.829	383.94
329.058	407.94
329.287	407.94
329.515	374.94
329.744	355.94
329.972	334.94
330.201	340.94
330.43	361.94
330.658	394.94
330.887	434.94
331.115	410.94
331.344	352.94
331.572	326.94
331.801	334.94
332.03	311.94
332.258	296.94
332.486	291.94
332.715	278.94
332.943	282.94
333.172	272.94
333.4	271.94
333.629	285.94
333.857	279.94
334.085	289.94
334.314	272.94
334.542	272.94
334.771	289.94
334.999	282.94
335.227	294.94
335.455	281.94
335.684	268.94
335.912	284.94
336.14	272.94
336.369	264.94
336.597	283.94
336.825	296.94
337.053	277.94
337.281	282.94
337.51	285.94
337.738	288.94
337.966	289.94
338.194	286.94
338.422	252.94
338.65	268.94
338.878	267.94
339.106	287.94
339.334	267.94
339.562	258.94
339.79	267.94
340.018	281.94
340.246	260.94
340.474	283.94
340.702	249.94
340.93	274.94
341.158	245.94
341.386	255.94
341.614	280.94
341.842	275.94
342.07	270.94
342.298	257.94
342.526	257.94
342.754	247.94
342.981	264.94
343.209	267.94
343.437	266.94
343.665	260.94
343.893	265.94
344.12	262.94
344.348	259.94
344.576	265.94
344.804	268.94
345.031	279.94
345.259	274.94
345.487	276.94
345.714	277.94
345.942	272.94
346.17	289.94
346.397	286.94
346.625	294.94
346.853	257.94
347.08	274.94
347.308	260.94
347.535	281.94
347.763	301.94
347.99	297.94
348.218	268.94
348.445	278.94
348.673	274.94
348.9	274.94
349.128	274.94
349.355	245.94
349.583	239.94
349.81	261.94
350.037	244.94
350.265	244.94
350.492	260.94
350.72	267.94
350.947	276.94
351.174	279.94
351.402	279.94
351.629	279.94
351.856	274.94
352.083	268.94
352.311	293.94
352.538	296.94
352.765	295.94
352.992	276.94
353.22	270.94
353.447	278.94
353.674	260.94
353.901	276.94
354.128	250.94
354.355	237.94
354.583	246.94
354.81	247.94
355.037	260.94
355.264	255.94
355.491	251.94
355.718	230.94
355.945	242.94
356.172	250.94
356.399	240.94
356.626	242.94
356.853	240.94
357.08	242.94
357.307	237.94
357.534	257.94
357.761	248.94
357.988	265.94
358.215	258.94
358.441	261.94
358.668	259.94
358.895	256.94
359.122	237.94
359.349	288.94
359.576	294.94
359.802	293.94
360.029	320.94
360.256	318.94
360.483	319.94
360.709	286.94
360.936	279.94
361.163	288.94
361.39	275.94
361.616	275.94
361.843	268.94
362.07	280.94
362.296	276.94
362.523	270.94
362.749	270.94
362.976	264.94
363.203	263.94
363.429	257.94
363.656	263.94
363.882	265.94
364.109	254.94
364.335	258.94
364.562	252.94
364.788	255.94
365.015	262.94
365.241	274.94
365.468	270.94
365.694	267.94
365.92	277.94
366.147	270.94
366.373	271.94
366.599	252.94
366.826	249.94
367.052	257.94
367.278	255.94
367.505	244.94
367.731	274.94
367.957	246.94
368.184	274.94
368.41	276.94
368.636	267.94
368.862	278.94
369.089	273.94
369.315	282.94
369.541	261.94
369.767	255.94
369.993	280.94
370.219	270.94
370.445	264.94
370.672	252.94
370.898	266.94
371.124	253.94
371.35	259.94
371.576	240.94
371.802	257.94
372.028	259.94
372.254	252.94
372.48	268.94
372.706	271.94
372.932	247.94
373.158	274.94
373.384	270.94
373.61	248.94
373.835	276.94
374.061	260.94
374.287	274.94
374.513	261.94
374.739	255.94
374.965	268.94
375.191	266.94
375.416	259.94
375.642	275.94
375.868	262.94
376.094	263.94
376.319	269.94
376.545	269.94
376.771	252.94
376.997	272.94
377.222	248.94
377.448	252.94
377.674	252.94
377.899	258.94
378.125	268.94
378.35	262.94
378.576	278.94
378.802	266.94
379.027	264.94
379.253	269.94
379.478	254.94
379.704	243.94
379.929	263.94
380.155	266.94
380.38	270.94
380.606	283.94
380.831	269.94
381.057	261.94
381.282	249.94
381.507	278.94
381.733	268.94
381.958	278.94
382.184	284.94
382.409	282.94
382.634	279.94
382.86	276.94
383.085	276.94
383.31	271.94
383.535	283.94
383.761	266.94
383.986	253.94
384.211	287.94
384.436	271.94
384.662	270.94
384.887	275.94
385.112	268.94
385.337	281.94
385.562	282.94
385.787	289.94
386.013	287.94
386.238	288.94
386.463	295.94
386.688	294.94
386.913	275.94
387.138	292.94
387.363	290.94
387.588	275.94
387.813	290.94
388.038	279.94
388.263	281.94
388.488	282.94
388.713	278.94
388.938	285.94
389.163	280.94
389.387	289.94
389.612	268.94
389.837	260.94
390.062	266.94
390.287	280.94
390.512	280.94
390.736	298.94
390.961	284.94
391.186	277.94
391.411	278.94
391.636	273.94
391.86	278.94
392.085	298.94
392.31	281.94
392.534	290.94
392.759	295.94
392.984	299.94
393.208	331.94
393.433	378.94
393.658	374.94
393.882	314.94
394.107	303.94
394.331	299.94
394.556	292.94
394.78	287.94
395.005	297.94
395.229	281.94
395.454	271.94
395.678	286.94
395.903	291.94
396.127	326.94
396.352	329.94
396.576	317.94
396.801	322.94
397.025	363.94
397.249	334.94
397.474	311.94
397.698	299.94
397.922	309.94
398.147	324.94
398.371	319.94
398.595	292.94
398.82	291.94
399.044	327.94
399.268	315.94
399.492	326.94
399.717	350.94
399.941	373.94
400.165	382.94
400.389	391.94
400.613	359.94
400.837	332.94
401.062	330.94
401.286	334.94
401.51	316.94
401.734	295.94
401.958	298.94
402.182	319.94
402.406	320.94
402.63	341.94
402.854	334.94
403.078	332.94
403.302	336.94
403.526	341.94
403.75	315.94
403.974	316.94
404.198	306.94
404.422	334.94
404.645	339.94
404.869	330.94
405.093	349.94
405.317	349.94
405.541	383.94
405.765	349.94
405.988	344.94
406.212	381.94
406.436	377.94
406.66	375.94
406.883	372.94
407.107	396.94
407.331	420.94
407.555	445.94
407.778	438.94
408.002	404.94
408.226	360.94
408.449	371.94
408.673	382.94
408.896	394.94
409.12	439.94
409.344	414.94
409.567	346.94
409.791	367.94
410.014	331.94
410.238	324.94
410.461	347.94
410.685	335.94
410.908	352.94
411.132	389.94
411.355	418.94
411.578	372.94
411.802	332.94
412.025	333.94
412.249	337.94
412.472	299.94
412.695	346.94
412.919	333.94
413.142	342.94
413.365	324.94
413.589	328.94
413.812	315.94
414.035	321.94
414.258	326.94
414.482	317.94
414.705	312.94
414.928	325.94
415.151	316.94
415.374	314.94
415.597	314.94
415.821	308.94
416.044	306.94
416.267	326.94
416.49	306.94
416.713	313.94
416.936	315.94
417.159	310.94
417.382	303.94
417.605	310.94
417.828	320.94
418.051	330.94
418.274	344.94
418.497	344.94
418.72	304.94
418.943	306.94
419.166	326.94
419.389	339.94
419.611	332.94
419.834	338.94
420.057	356.94
420.28	347.94
420.503	331.94
420.726	335.94
420.948	353.94
421.171	387.94
421.394	394.94
421.617	374.94
421.839	341.94
422.062	356.94
422.285	358.94
422.507	397.94
422.73	455.94
422.953	487.94
423.175	396.94
423.398	377.94
423.621	366.94
423.843	383.94
424.066	365.94
424.288	367.94
424.511	397.94
424.733	434.94
424.956	486.94
425.178	476.94
425.401	460.94
425.623	486.94
425.846	423.94
426.068	396.94
426.291	381.94
426.513	399.94
426.735	408.94
426.958	419.94
427.18	499.94
427.402	574.94
427.625	630.94
427.847	587.94
428.069	488.94
428.292	421.94
428.514	402.94
428.736	386.94
428.958	377.94
429.181	368.94
429.403	364.94
429.625	382.94
429.847	400.94
430.069	435.94
430.292	443.94
430.514	400.94
430.736	350.94
430.958	348.94
431.18	350.94
431.402	349.94
431.624	339.94
431.846	324.94
432.068	325.94
432.29	341.94
432.512	348.94
432.734	347.94
432.956	323.94
433.178	349.94
433.4	360.94
433.622	349.94
433.844	319.94
434.066	329.94
434.287	329.94
434.509	328.94
434.731	338.94
434.953	374.94
435.175	357.94
435.397	380.94
435.618	378.94
435.84	415.94
436.062	465.94
436.284	493.94
436.505	446.94
436.727	406.94
436.949	382.94
437.17	396.94
437.392	368.94
437.614	378.94
437.835	419.94
438.057	466.94
438.278	541.94
438.5	548.94
438.721	581.94
438.943	562.94
439.165	467.94
439.386	419.94
439.608	383.94
439.829	390.94
440.05	421.94
440.272	445.94
440.493	410.94
440.715	383.94
440.936	375.94
441.158	373.94
441.379	362.94
441.6	383.94
441.822	404.94
442.043	442.94
442.264	477.94
442.486	493.94
442.707	440.94
442.928	392.94
443.149	395.94
443.371	438.94
443.592	472.94
443.813	504.94
444.034	538.94
444.255	447.94
444.476	412.94
444.698	406.94
444.919	404.94
445.14	464.94
445.361	425.94
445.582	411.94
445.803	462.94
446.024	526.94
446.245	559.94
446.466	504.94
446.687	436.94
446.908	383.94
447.129	366.94
447.35	360.94
447.571	333.94
447.792	358.94
448.013	373.94
448.234	395.94
448.455	422.94
448.675	493.94
448.896	562.94
449.117	494.94
449.338	473.94
449.559	526.94
449.779	585.94
450	518.94
450.221	422.94
450.442	362.94
450.662	350.94
450.883	377.94
451.104	398.94
451.324	372.94
451.545	378.94
451.766	342.94
451.986	338.94
452.207	335.94
452.428	339.94
452.648	336.94
452.869	334.94
453.089	347.94
453.31	346.94
453.53	340.94
453.751	309.94
453.971	355.94
454.192	347.94
454.412	344.94
454.633	331.94
454.853	316.94
455.073	329.94
455.294	332.94
455.514	392.94
455.734	386.94
455.955	335.94
456.175	302.94
456.395	303.94
456.616	308.94
456.836	294.94
457.056	291.94
457.276	308.94
457.497	312.94
457.717	310.94
457.937	306.94
458.157	294.94
458.377	311.94
458.598	338.94
458.818	365.94
459.038	440.94
459.258	436.94
459.478	356.94
459.698	343.94
459.918	339.94
460.138	330.94
460.358	327.94
460.578	326.94
460.798	345.94
461.018	354.94
461.238	324.94
461.458	321.94
461.678	338.94
461.898	343.94
462.118	330.94
462.338	327.94
462.558	331.94
462.777	338.94
462.997	347.94
463.217	336.94
463.437	353.94
463.657	334.94
463.876	326.94
464.096	352.94
464.316	343.94
464.536	338.94
464.755	345.94
464.975	345.94
465.195	405.94
465.414	456.94
465.634	412.94
465.854	375.94
466.073	356.94
466.293	350.94
466.512	336.94
466.732	335.94
466.951	348.94
467.171	353.94
467.391	340.94
467.61	322.94
467.829	337.94
468.049	326.94
468.268	325.94
468.488	327.94
468.707	312.94
468.927	313.94
469.146	317.94
469.365	317.94
469.585	314.94
469.804	316.94
470.023	343.94
470.243	331.94
470.462	347.94
470.681	370.94
470.901	351.94
471.12	339.94
471.339	325.94
471.558	310.94
471.777	325.94
471.997	327.94
472.216	333.94
472.435	326.94
472.654	332.94
472.873	331.94
473.092	315.94
473.311	325.94
473.53	315.94
473.749	339.94
473.968	362.94
474.187	441.94
474.406	444.94
474.625	381.94
474.844	344.94
475.063	344.94
475.282	348.94
475.501	341.94
475.72	333.94
475.939	346.94
476.158	360.94
476.377	328.94
476.596	348.94
476.814	332.94
477.033	356.94
477.252	370.94
477.471	346.94
477.69	355.94
477.908	371.94
478.127	373.94
478.346	361.94
478.564	366.94
478.783	352.94
479.002	384.94
479.22	367.94
479.439	406.94
479.658	378.94
479.876	412.94
480.095	389.94
480.313	416.94
480.532	404.94
480.751	394.94
480.969	402.94
481.188	424.94
481.406	406.94
481.624	418.94
481.843	379.94
482.061	396.94
482.28	388.94
482.498	383.94
482.717	407.94
482.935	388.94
483.153	378.94
483.372	388.94
483.59	406.94
483.808	405.94
484.027	406.94
484.245	409.94
484.463	406.94
484.681	418.94
484.9	407.94
485.118	408.94
485.336	400.94
485.554	412.94
485.772	394.94
485.99	392.94
486.209	394.94
486.427	414.94
486.645	401.94
486.863	422.94
487.081	434.94
487.299	415.94
487.517	429.94
487.735	405.94
487.953	408.94
488.171	410.94
488.389	419.94
488.607	432.94
488.825	427.94
489.043	410.94
489.261	437.94
489.479	454.94
489.696	434.94
489.914	428.94
490.132	449.94
490.35	445.94
490.568	443.94
490.786	450.94
491.003	462.94
491.221	461.94
491.439	499.94
491.657	467.94
491.874	493.94
492.092	479.94
492.31	474.94
492.527	471.94
492.745	466.94
492.963	504.94
493.18	503.94
493.398	501.94
493.615	505.94
493.833	475.94
494.05	516.94
494.268	498.94
494.485	480.94
494.703	496.94
494.92	498.94
495.138	520.94
495.355	508.94
495.573	478.94
495.79	496.94
496.008	522.94
496.225	516.94
496.442	504.94
496.66	498.94
496.877	504.94
497.094	529.94
497.312	520.94
497.529	526.94
497.746	548.94
497.963	528.94
498.181	568.94
498.398	561.94
498.615	530.94
498.832	571.94
499.049	547.94
499.267	573.94
499.484	580.94
499.701	586.94
499.918	605.94
500.135	617.94
500.352	617.94
500.569	614.94
500.786	631.94
501.003	641.94
501.22	603.94
501.437	624.94
501.654	613.94
501.871	626.94
502.088	610.94
