Data from 1987.PennyLincolnUp.Lamp.En5.5.200Scan.071819.P2_HRD10591_17-16-17-972.txt Node
Date: Thu Jul 18 17:16:17 EDT 2019
User: cochatt
Spectrometer: HR+D1059
Trigger mode: 1
Integration Time (sec): 1.000000E-1
Scans to average: 1
Electric dark correction enabled: true
Nonlinearity correction enabled: false
Boxcar width: 0
XAxis mode: Wavelengths
Number of Pixels in Spectrum: 2048
>>>>>Begin Spectral Data<<<<<
223.165	-14.81
223.4	-14.81
223.635	-14.81
223.869	-12.81
224.104	-17.81
224.338	-26.81
224.573	-4.81
224.808	-6.81
225.042	-10.81
225.277	1.19
225.511	-7.81
225.746	-15.81
225.98	17.19
226.215	8.19
226.449	23.19
226.683	10.19
226.918	39.19
227.152	19.19
227.387	40.19
227.621	38.19
227.856	44.19
228.09	42.19
228.324	40.19
228.559	53.19
228.793	74.19
229.027	113.19
229.262	114.19
229.496	128.19
229.73	155.19
229.964	169.19
230.199	146.19
230.433	139.19
230.667	124.19
230.901	116.19
231.136	110.19
231.37	108.19
231.604	132.19
231.838	129.19
232.072	121.19
232.306	121.19
232.541	112.19
232.775	115.19
233.009	120.19
233.243	111.19
233.477	101.19
233.711	108.19
233.945	120.19
234.179	128.19
234.413	127.19
234.647	123.19
234.881	129.19
235.115	118.19
235.349	128.19
235.583	119.19
235.817	122.19
236.051	126.19
236.285	141.19
236.519	123.19
236.753	137.19
236.987	167.19
237.221	214.19
237.455	268.19
237.689	222.19
237.922	159.19
238.156	135.19
238.39	137.19
238.624	152.19
238.858	135.19
239.091	127.19
239.325	141.19
239.559	131.19
239.793	144.19
240.027	144.19
240.26	152.19
240.494	170.19
240.728	162.19
240.961	153.19
241.195	158.19
241.429	153.19
241.662	137.19
241.896	145.19
242.13	134.19
242.363	159.19
242.597	146.19
242.83	137.19
243.064	136.19
243.298	162.19
243.531	139.19
243.765	121.19
243.998	131.19
244.232	151.19
244.465	157.19
244.699	147.19
244.932	147.19
245.166	134.19
245.399	138.19
245.633	158.19
245.866	156.19
246.099	151.19
246.333	161.19
246.566	157.19
246.8	142.19
247.033	131.19
247.266	145.19
247.5	156.19
247.733	162.19
247.966	178.19
248.2	167.19
248.433	177.19
248.666	171.19
248.899	197.19
249.133	194.19
249.366	217.19
249.599	214.19
249.832	211.19
250.066	175.19
250.299	186.19
250.532	175.19
250.765	208.19
250.998	212.19
251.231	214.19
251.465	220.19
251.698	198.19
251.931	210.19
252.164	221.19
252.397	183.19
252.63	186.19
252.863	206.19
253.096	223.19
253.329	233.19
253.562	237.19
253.795	213.19
254.028	212.19
254.261	230.19
254.494	239.19
254.727	262.19
254.96	295.19
255.193	303.19
255.426	261.19
255.659	245.19
255.892	234.19
256.124	219.19
256.357	208.19
256.59	205.19
256.823	214.19
257.056	199.19
257.289	202.19
257.521	217.19
257.754	208.19
257.987	178.19
258.22	185.19
258.452	219.19
258.685	209.19
258.918	195.19
259.151	200.19
259.383	210.19
259.616	214.19
259.849	220.19
260.081	233.19
260.314	259.19
260.547	258.19
260.779	241.19
261.012	236.19
261.244	224.19
261.477	222.19
261.71	218.19
261.942	219.19
262.175	249.19
262.407	224.19
262.64	231.19
262.872	217.19
263.105	191.19
263.337	199.19
263.57	217.19
263.802	195.19
264.035	210.19
264.267	206.19
264.499	192.19
264.732	206.19
264.964	202.19
265.197	204.19
265.429	197.19
265.661	205.19
265.894	222.19
266.126	206.19
266.358	217.19
266.591	217.19
266.823	188.19
267.055	209.19
267.287	200.19
267.52	213.19
267.752	215.19
267.984	209.19
268.216	209.19
268.448	227.19
268.681	216.19
268.913	242.19
269.145	249.19
269.377	277.19
269.609	277.19
269.841	280.19
270.073	262.19
270.306	294.19
270.538	322.19
270.77	318.19
271.002	316.19
271.234	286.19
271.466	288.19
271.698	318.19
271.93	322.19
272.162	328.19
272.394	321.19
272.626	306.19
272.858	298.19
273.09	280.19
273.322	287.19
273.553	253.19
273.785	256.19
274.017	258.19
274.249	260.19
274.481	243.19
274.713	232.19
274.945	254.19
275.176	240.19
275.408	255.19
275.64	234.19
275.872	249.19
276.104	255.19
276.335	241.19
276.567	245.19
276.799	281.19
277.031	288.19
277.262	304.19
277.494	304.19
277.726	267.19
277.957	269.19
278.189	272.19
278.421	263.19
278.652	255.19
278.884	257.19
279.115	242.19
279.347	239.19
279.579	243.19
279.81	229.19
280.042	250.19
280.273	252.19
280.505	229.19
280.736	219.19
280.968	224.19
281.199	231.19
281.431	236.19
281.662	238.19
281.894	263.19
282.125	237.19
282.356	271.19
282.588	292.19
282.819	320.19
283.051	285.19
283.282	245.19
283.513	234.19
283.745	232.19
283.976	241.19
284.207	242.19
284.439	259.19
284.67	250.19
284.901	235.19
285.132	238.19
285.364	235.19
285.595	244.19
285.826	249.19
286.057	234.19
286.288	245.19
286.52	255.19
286.751	246.19
286.982	239.19
287.213	233.19
287.444	246.19
287.675	253.19
287.906	265.19
288.138	263.19
288.369	265.19
288.6	269.19
288.831	270.19
289.062	252.19
289.293	250.19
289.524	250.19
289.755	245.19
289.986	232.19
290.217	253.19
290.448	244.19
290.679	235.19
290.91	248.19
291.141	250.19
291.371	238.19
291.602	236.19
291.833	239.19
292.064	238.19
292.295	239.19
292.526	246.19
292.757	250.19
292.987	236.19
293.218	241.19
293.449	272.19
293.68	267.19
293.91	246.19
294.141	256.19
294.372	250.19
294.603	249.19
294.833	269.19
295.064	249.19
295.295	252.19
295.525	267.19
295.756	265.19
295.987	263.19
296.217	296.19
296.448	305.19
296.679	279.19
296.909	257.19
297.14	262.19
297.37	265.19
297.601	265.19
297.831	229.19
298.062	249.19
298.292	239.19
298.523	249.19
298.753	264.19
298.984	262.19
299.214	261.19
299.445	240.19
299.675	271.19
299.905	262.19
300.136	284.19
300.366	251.19
300.597	258.19
300.827	264.19
301.057	296.19
301.288	280.19
301.518	288.19
301.748	274.19
301.979	275.19
302.209	261.19
302.439	285.19
302.669	290.19
302.9	285.19
303.13	265.19
303.36	285.19
303.59	302.19
303.82	309.19
304.051	288.19
304.281	279.19
304.511	292.19
304.741	276.19
304.971	274.19
305.201	284.19
305.431	269.19
305.661	263.19
305.891	270.19
306.121	270.19
306.352	302.19
306.582	300.19
306.812	275.19
307.042	282.19
307.272	287.19
307.502	294.19
307.731	309.19
307.961	300.19
308.191	289.19
308.421	274.19
308.651	279.19
308.881	285.19
309.111	314.19
309.341	295.19
309.571	325.19
309.8	335.19
310.03	329.19
310.26	347.19
310.49	352.19
310.72	361.19
310.949	374.19
311.179	397.19
311.409	366.19
311.639	361.19
311.868	351.19
312.098	341.19
312.328	368.19
312.557	394.19
312.787	421.19
313.017	426.19
313.246	392.19
313.476	360.19
313.706	341.19
313.935	369.19
314.165	376.19
314.394	393.19
314.624	394.19
314.853	338.19
315.083	338.19
315.312	342.19
315.542	356.19
315.771	326.19
316.001	323.19
316.23	321.19
316.46	332.19
316.689	337.19
316.919	345.19
317.148	368.19
317.377	350.19
317.607	356.19
317.836	349.19
318.065	350.19
318.295	354.19
318.524	332.19
318.753	331.19
318.983	355.19
319.212	352.19
319.441	339.19
319.67	370.19
319.9	368.19
320.129	350.19
320.358	367.19
320.587	345.19
320.816	364.19
321.046	373.19
321.275	369.19
321.504	354.19
321.733	371.19
321.962	374.19
322.191	407.19
322.42	453.19
322.649	463.19
322.878	477.19
323.108	498.19
323.337	507.19
323.566	550.19
323.795	608.19
324.024	694.19
324.253	874.19
324.482	1303.19
324.71	1980.19
324.939	2786.19
325.168	2419.19
325.397	1326.19
325.626	843.19
325.855	650.19
326.084	582.19
326.313	543.19
326.542	581.19
326.77	643.19
326.999	779.19
327.228	1115.19
327.457	1773.19
327.686	2117.19
327.914	1465.19
328.143	907.19
328.372	768.19
328.6	699.19
328.829	653.19
329.058	686.19
329.287	679.19
329.515	614.19
329.744	559.19
329.972	525.19
330.201	544.19
330.43	553.19
330.658	617.19
330.887	713.19
331.115	688.19
331.344	538.19
331.572	504.19
331.801	533.19
332.03	485.19
332.258	466.19
332.486	431.19
332.715	427.19
332.943	413.19
333.172	397.19
333.4	386.19
333.629	402.19
333.857	417.19
334.085	419.19
334.314	387.19
334.542	401.19
334.771	417.19
334.999	400.19
335.227	401.19
335.455	392.19
335.684	395.19
335.912	394.19
336.14	382.19
336.369	383.19
336.597	391.19
336.825	403.19
337.053	418.19
337.281	396.19
337.51	391.19
337.738	370.19
337.966	391.19
338.194	419.19
338.422	399.19
338.65	379.19
338.878	401.19
339.106	362.19
339.334	363.19
339.562	366.19
339.79	374.19
340.018	389.19
340.246	383.19
340.474	402.19
340.702	407.19
340.93	396.19
341.158	380.19
341.386	371.19
341.614	403.19
341.842	388.19
342.07	385.19
342.298	365.19
342.526	342.19
342.754	365.19
342.981	373.19
343.209	335.19
343.437	355.19
343.665	364.19
343.893	362.19
344.12	368.19
344.348	370.19
344.576	376.19
344.804	390.19
345.031	412.19
345.259	440.19
345.487	413.19
345.714	399.19
345.942	365.19
346.17	375.19
346.397	381.19
346.625	394.19
346.853	383.19
347.08	381.19
347.308	392.19
347.535	393.19
347.763	393.19
347.99	394.19
348.218	408.19
348.445	431.19
348.673	424.19
348.9	389.19
349.128	388.19
349.355	370.19
349.583	358.19
349.81	370.19
350.037	351.19
350.265	360.19
350.492	375.19
350.72	382.19
350.947	375.19
351.174	410.19
351.402	422.19
351.629	404.19
351.856	406.19
352.083	388.19
352.311	435.19
352.538	462.19
352.765	400.19
352.992	399.19
353.22	382.19
353.447	405.19
353.674	397.19
353.901	377.19
354.128	362.19
354.355	344.19
354.583	367.19
354.81	354.19
355.037	338.19
355.264	326.19
355.491	333.19
355.718	342.19
355.945	339.19
356.172	338.19
356.399	330.19
356.626	342.19
356.853	315.19
357.08	336.19
357.307	339.19
357.534	327.19
357.761	329.19
357.988	338.19
358.215	330.19
358.441	340.19
358.668	330.19
358.895	358.19
359.122	378.19
359.349	349.19
359.576	383.19
359.802	420.19
360.029	477.19
360.256	513.19
360.483	460.19
360.709	424.19
360.936	402.19
361.163	409.19
361.39	394.19
361.616	403.19
361.843	375.19
362.07	392.19
362.296	389.19
362.523	387.19
362.749	393.19
362.976	366.19
363.203	380.19
363.429	383.19
363.656	373.19
363.882	364.19
364.109	355.19
364.335	360.19
364.562	349.19
364.788	358.19
365.015	358.19
365.241	370.19
365.468	355.19
365.694	386.19
365.92	378.19
366.147	357.19
366.373	380.19
366.599	344.19
366.826	361.19
367.052	363.19
367.278	359.19
367.505	335.19
367.731	333.19
367.957	350.19
368.184	362.19
368.41	382.19
368.636	379.19
368.862	365.19
369.089	376.19
369.315	369.19
369.541	346.19
369.767	351.19
369.993	353.19
370.219	349.19
370.445	344.19
370.672	347.19
370.898	347.19
371.124	337.19
371.35	336.19
371.576	338.19
371.802	327.19
372.028	336.19
372.254	342.19
372.48	336.19
372.706	338.19
372.932	335.19
373.158	332.19
373.384	343.19
373.61	347.19
373.835	345.19
374.061	330.19
374.287	343.19
374.513	339.19
374.739	355.19
374.965	349.19
375.191	337.19
375.416	344.19
375.642	348.19
375.868	341.19
376.094	343.19
376.319	337.19
376.545	331.19
376.771	327.19
376.997	359.19
377.222	346.19
377.448	338.19
377.674	337.19
377.899	334.19
378.125	326.19
378.35	336.19
378.576	335.19
378.802	335.19
379.027	335.19
379.253	349.19
379.478	326.19
379.704	330.19
379.929	344.19
380.155	345.19
380.38	334.19
380.606	337.19
380.831	359.19
381.057	344.19
381.282	360.19
381.507	348.19
381.733	344.19
381.958	323.19
382.184	365.19
382.409	359.19
382.634	357.19
382.86	338.19
383.085	354.19
383.31	345.19
383.535	331.19
383.761	365.19
383.986	342.19
384.211	328.19
384.436	358.19
384.662	357.19
384.887	360.19
385.112	355.19
385.337	345.19
385.562	357.19
385.787	349.19
386.013	369.19
386.238	353.19
386.463	369.19
386.688	345.19
386.913	365.19
387.138	354.19
387.363	339.19
387.588	364.19
387.813	352.19
388.038	355.19
388.263	361.19
388.488	366.19
388.713	353.19
388.938	381.19
389.163	364.19
389.387	367.19
389.612	370.19
389.837	349.19
390.062	365.19
390.287	358.19
390.512	357.19
390.736	345.19
390.961	351.19
391.186	349.19
391.411	361.19
391.636	365.19
391.86	326.19
392.085	355.19
392.31	359.19
392.534	373.19
392.759	343.19
392.984	367.19
393.208	347.19
393.433	358.19
393.658	355.19
393.882	353.19
394.107	351.19
394.331	336.19
394.556	357.19
394.78	359.19
395.005	373.19
395.229	346.19
395.454	361.19
395.678	369.19
395.903	390.19
396.127	397.19
396.352	408.19
396.576	383.19
396.801	356.19
397.025	377.19
397.249	365.19
397.474	384.19
397.698	384.19
397.922	383.19
398.147	404.19
398.371	435.19
398.595	415.19
398.82	396.19
399.044	410.19
399.268	411.19
399.492	409.19
399.717	430.19
399.941	451.19
400.165	486.19
400.389	515.19
400.613	504.19
400.837	434.19
401.062	431.19
401.286	398.19
401.51	413.19
401.734	409.19
401.958	425.19
402.182	417.19
402.406	452.19
402.63	443.19
402.854	425.19
403.078	420.19
403.302	416.19
403.526	440.19
403.75	466.19
403.974	420.19
404.198	409.19
404.422	437.19
404.645	437.19
404.869	440.19
405.093	462.19
405.317	514.19
405.541	510.19
405.765	489.19
405.988	472.19
406.212	475.19
406.436	519.19
406.66	507.19
406.883	510.19
407.107	491.19
407.331	557.19
407.555	594.19
407.778	597.19
408.002	559.19
408.226	504.19
408.449	494.19
408.673	495.19
408.896	517.19
409.12	557.19
409.344	553.19
409.567	472.19
409.791	466.19
410.014	445.19
410.238	421.19
410.461	456.19
410.685	452.19
410.908	438.19
411.132	505.19
411.355	552.19
411.578	525.19
411.802	450.19
412.025	446.19
412.249	442.19
412.472	457.19
412.695	437.19
412.919	434.19
413.142	424.19
413.365	409.19
413.589	402.19
413.812	412.19
414.035	416.19
414.258	391.19
414.482	391.19
414.705	411.19
414.928	393.19
415.151	394.19
415.374	395.19
415.597	402.19
415.821	397.19
416.044	425.19
416.267	401.19
416.49	417.19
416.713	414.19
416.936	416.19
417.159	413.19
417.382	398.19
417.605	423.19
417.828	444.19
418.051	456.19
418.274	450.19
418.497	437.19
418.72	435.19
418.943	410.19
419.166	427.19
419.389	426.19
419.611	459.19
419.834	443.19
420.057	455.19
420.28	427.19
420.503	435.19
420.726	443.19
420.948	466.19
421.171	482.19
421.394	533.19
421.617	501.19
421.839	450.19
422.062	460.19
422.285	489.19
422.507	552.19
422.73	585.19
422.953	602.19
423.175	509.19
423.398	494.19
423.621	490.19
423.843	490.19
424.066	509.19
424.288	496.19
424.511	528.19
424.733	597.19
424.956	695.19
425.178	642.19
425.401	645.19
425.623	661.19
425.846	588.19
426.068	537.19
426.291	556.19
426.513	512.19
426.735	546.19
426.958	585.19
427.18	659.19
427.402	783.19
427.625	858.19
427.847	831.19
428.069	704.19
428.292	616.19
428.514	544.19
428.736	511.19
428.958	513.19
429.181	509.19
429.403	481.19
429.625	480.19
429.847	518.19
430.069	594.19
430.292	612.19
430.514	527.19
430.736	498.19
430.958	491.19
431.18	470.19
431.402	447.19
431.624	430.19
431.846	449.19
432.068	440.19
432.29	455.19
432.512	433.19
432.734	470.19
432.956	452.19
433.178	457.19
433.4	467.19
433.622	448.19
433.844	447.19
434.066	430.19
434.287	437.19
434.509	429.19
434.731	459.19
434.953	459.19
435.175	467.19
435.397	496.19
435.618	527.19
435.84	565.19
436.062	659.19
436.284	723.19
436.505	600.19
436.727	555.19
436.949	529.19
437.17	480.19
437.392	497.19
437.614	519.19
437.835	555.19
438.057	680.19
438.278	774.19
438.5	753.19
438.721	805.19
438.943	766.19
439.165	608.19
439.386	571.19
439.608	552.19
439.829	573.19
440.05	617.19
440.272	635.19
440.493	605.19
440.715	565.19
440.936	530.19
441.158	523.19
441.379	523.19
441.6	525.19
441.822	539.19
442.043	597.19
442.264	666.19
442.486	684.19
442.707	606.19
442.928	564.19
443.149	567.19
443.371	602.19
443.592	608.19
443.813	719.19
444.034	777.19
444.255	642.19
444.476	560.19
444.698	531.19
444.919	491.19
445.14	598.19
445.361	578.19
445.582	583.19
445.803	651.19
446.024	737.19
446.245	756.19
446.466	707.19
446.687	588.19
446.908	542.19
447.129	530.19
447.35	521.19
447.571	509.19
447.792	510.19
448.013	515.19
448.234	538.19
448.455	565.19
448.675	694.19
448.896	806.19
449.117	689.19
449.338	666.19
449.559	761.19
449.779	845.19
450	686.19
450.221	589.19
450.442	539.19
450.662	496.19
450.883	523.19
451.104	541.19
451.324	529.19
451.545	508.19
451.766	469.19
451.986	464.19
452.207	462.19
452.428	438.19
452.648	448.19
452.869	467.19
453.089	480.19
453.31	487.19
453.53	482.19
453.751	450.19
453.971	461.19
454.192	490.19
454.412	479.19
454.633	452.19
454.853	459.19
455.073	449.19
455.294	506.19
455.514	557.19
455.734	529.19
455.955	447.19
456.175	422.19
456.395	401.19
456.616	390.19
456.836	398.19
457.056	394.19
457.276	387.19
457.497	413.19
457.717	410.19
457.937	407.19
458.157	429.19
458.377	431.19
458.598	458.19
458.818	532.19
459.038	659.19
459.258	649.19
459.478	554.19
459.698	473.19
459.918	449.19
460.138	459.19
460.358	431.19
460.578	419.19
460.798	443.19
461.018	431.19
461.238	419.19
461.458	416.19
461.678	433.19
461.898	425.19
462.118	408.19
462.338	434.19
462.558	425.19
462.777	421.19
462.997	439.19
463.217	437.19
463.437	444.19
463.657	446.19
463.876	445.19
464.096	436.19
464.316	454.19
464.536	467.19
464.755	469.19
464.975	482.19
465.195	580.19
465.414	707.19
465.634	592.19
465.854	538.19
466.073	487.19
466.293	474.19
466.512	453.19
466.732	449.19
466.951	443.19
467.171	455.19
467.391	444.19
467.61	469.19
467.829	505.19
468.049	496.19
468.268	458.19
468.488	449.19
468.707	412.19
468.927	423.19
469.146	393.19
469.365	434.19
469.585	414.19
469.804	426.19
470.023	473.19
470.243	458.19
470.462	457.19
470.681	493.19
470.901	484.19
471.12	453.19
471.339	432.19
471.558	449.19
471.777	445.19
471.997	428.19
472.216	447.19
472.435	434.19
472.654	443.19
472.873	439.19
473.092	447.19
473.311	440.19
473.53	451.19
473.749	456.19
473.968	507.19
474.187	639.19
474.406	662.19
474.625	502.19
474.844	490.19
475.063	490.19
475.282	462.19
475.501	456.19
475.72	463.19
475.939	462.19
476.158	461.19
476.377	476.19
476.596	457.19
476.814	467.19
477.033	481.19
477.252	489.19
477.471	476.19
477.69	480.19
477.908	462.19
478.127	483.19
478.346	479.19
478.564	464.19
478.783	486.19
479.002	506.19
479.22	487.19
479.439	529.19
479.658	529.19
479.876	528.19
480.095	551.19
480.313	592.19
480.532	556.19
480.751	543.19
480.969	529.19
481.188	562.19
481.406	545.19
481.624	533.19
481.843	542.19
482.061	535.19
482.28	535.19
482.498	535.19
482.717	515.19
482.935	532.19
483.153	513.19
483.372	491.19
483.59	515.19
483.808	514.19
484.027	521.19
484.245	518.19
484.463	531.19
484.681	536.19
484.9	544.19
485.118	545.19
485.336	552.19
485.554	550.19
485.772	558.19
485.99	519.19
486.209	556.19
486.427	571.19
486.645	603.19
486.863	592.19
487.081	604.19
487.299	593.19
487.517	587.19
487.735	581.19
487.953	577.19
488.171	572.19
488.389	554.19
488.607	569.19
488.825	594.19
489.043	574.19
489.261	589.19
489.479	585.19
489.696	585.19
489.914	598.19
490.132	589.19
490.35	600.19
490.568	605.19
490.786	616.19
491.003	626.19
491.221	637.19
491.439	649.19
491.657	647.19
491.874	659.19
492.092	659.19
492.31	654.19
492.527	658.19
492.745	670.19
492.963	676.19
493.18	668.19
493.398	678.19
493.615	681.19
493.833	672.19
494.05	696.19
494.268	677.19
494.485	678.19
494.703	658.19
494.92	692.19
495.138	691.19
495.355	687.19
495.573	693.19
495.79	701.19
496.008	700.19
496.225	707.19
496.442	694.19
496.66	708.19
496.877	702.19
497.094	723.19
497.312	700.19
497.529	706.19
497.746	722.19
497.963	723.19
498.181	749.19
498.398	737.19
498.615	737.19
498.832	746.19
499.049	749.19
499.267	741.19
499.484	748.19
499.701	769.19
499.918	775.19
500.135	790.19
500.352	794.19
500.569	782.19
500.786	824.19
501.003	807.19
501.22	782.19
501.437	808.19
501.654	826.19
501.871	838.19
