Data from 1987.PennyLincolnUp.Lamp.En5.5.200Scan.071819.P2_HRD10591_17-16-49-971.txt Node
Date: Thu Jul 18 17:16:49 EDT 2019
User: cochatt
Spectrometer: HR+D1059
Trigger mode: 1
Integration Time (sec): 1.000000E-1
Scans to average: 1
Electric dark correction enabled: true
Nonlinearity correction enabled: false
Boxcar width: 0
XAxis mode: Wavelengths
Number of Pixels in Spectrum: 2048
>>>>>Begin Spectral Data<<<<<
223.165	-12.75
223.4	-12.75
223.635	-12.75
223.869	-25.75
224.104	-12.75
224.338	-16.75
224.573	-10.75
224.808	-3.75
225.042	-13.75
225.277	-7.75
225.511	-1.75
225.746	-13.75
225.98	-2.75
226.215	10.25
226.449	13.25
226.683	18.25
226.918	41.25
227.152	39.25
227.387	37.25
227.621	27.25
227.856	36.25
228.09	45.25
228.324	53.25
228.559	59.25
228.793	60.25
229.027	114.25
229.262	119.25
229.496	144.25
229.73	156.25
229.964	185.25
230.199	152.25
230.433	118.25
230.667	119.25
230.901	108.25
231.136	99.25
231.37	110.25
231.604	113.25
231.838	114.25
232.072	124.25
232.306	101.25
232.541	120.25
232.775	105.25
233.009	115.25
233.243	105.25
233.477	113.25
233.711	124.25
233.945	114.25
234.179	99.25
234.413	123.25
234.647	113.25
234.881	105.25
235.115	111.25
235.349	113.25
235.583	128.25
235.817	129.25
236.051	124.25
236.285	134.25
236.519	124.25
236.753	131.25
236.987	163.25
237.221	232.25
237.455	269.25
237.689	212.25
237.922	139.25
238.156	143.25
238.39	151.25
238.624	133.25
238.858	111.25
239.091	125.25
239.325	116.25
239.559	128.25
239.793	133.25
240.027	119.25
240.26	143.25
240.494	175.25
240.728	154.25
240.961	177.25
241.195	147.25
241.429	123.25
241.662	138.25
241.896	140.25
242.13	136.25
242.363	129.25
242.597	140.25
242.83	148.25
243.064	146.25
243.298	133.25
243.531	147.25
243.765	131.25
243.998	125.25
244.232	127.25
244.465	138.25
244.699	129.25
244.932	141.25
245.166	146.25
245.399	129.25
245.633	147.25
245.866	127.25
246.099	137.25
246.333	133.25
246.566	150.25
246.8	131.25
247.033	138.25
247.266	158.25
247.5	136.25
247.733	163.25
247.966	181.25
248.2	176.25
248.433	187.25
248.666	171.25
248.899	173.25
249.133	200.25
249.366	212.25
249.599	212.25
249.832	187.25
250.066	166.25
250.299	178.25
250.532	177.25
250.765	179.25
250.998	212.25
251.231	218.25
251.465	215.25
251.698	200.25
251.931	192.25
252.164	187.25
252.397	153.25
252.63	188.25
252.863	197.25
253.096	212.25
253.329	231.25
253.562	234.25
253.795	208.25
254.028	222.25
254.261	217.25
254.494	223.25
254.727	260.25
254.96	296.25
255.193	278.25
255.426	244.25
255.659	219.25
255.892	214.25
256.124	228.25
256.357	227.25
256.59	201.25
256.823	198.25
257.056	219.25
257.289	199.25
257.521	197.25
257.754	206.25
257.987	187.25
258.22	194.25
258.452	186.25
258.685	185.25
258.918	185.25
259.151	216.25
259.383	218.25
259.616	214.25
259.849	223.25
260.081	224.25
260.314	247.25
260.547	259.25
260.779	249.25
261.012	233.25
261.244	213.25
261.477	225.25
261.71	221.25
261.942	209.25
262.175	235.25
262.407	236.25
262.64	218.25
262.872	204.25
263.105	214.25
263.337	210.25
263.57	206.25
263.802	209.25
264.035	195.25
264.267	204.25
264.499	182.25
264.732	195.25
264.964	197.25
265.197	196.25
265.429	181.25
265.661	189.25
265.894	195.25
266.126	199.25
266.358	193.25
266.591	205.25
266.823	196.25
267.055	205.25
267.287	211.25
267.52	190.25
267.752	202.25
267.984	201.25
268.216	194.25
268.448	215.25
268.681	209.25
268.913	233.25
269.145	255.25
269.377	249.25
269.609	256.25
269.841	255.25
270.073	254.25
270.306	285.25
270.538	316.25
270.77	307.25
271.002	295.25
271.234	295.25
271.466	304.25
271.698	292.25
271.93	316.25
272.162	299.25
272.394	310.25
272.626	310.25
272.858	267.25
273.09	279.25
273.322	267.25
273.553	236.25
273.785	254.25
274.017	232.25
274.249	233.25
274.481	240.25
274.713	227.25
274.945	254.25
275.176	244.25
275.408	247.25
275.64	234.25
275.872	223.25
276.104	223.25
276.335	245.25
276.567	249.25
276.799	265.25
277.031	291.25
277.262	293.25
277.494	306.25
277.726	275.25
277.957	260.25
278.189	256.25
278.421	251.25
278.652	243.25
278.884	244.25
279.115	234.25
279.347	234.25
279.579	233.25
279.81	232.25
280.042	220.25
280.273	217.25
280.505	223.25
280.736	199.25
280.968	226.25
281.199	201.25
281.431	227.25
281.662	205.25
281.894	230.25
282.125	238.25
282.356	261.25
282.588	279.25
282.819	281.25
283.051	249.25
283.282	230.25
283.513	241.25
283.745	239.25
283.976	229.25
284.207	233.25
284.439	229.25
284.67	232.25
284.901	236.25
285.132	235.25
285.364	235.25
285.595	225.25
285.826	235.25
286.057	223.25
286.288	225.25
286.52	232.25
286.751	233.25
286.982	232.25
287.213	211.25
287.444	218.25
287.675	231.25
287.906	245.25
288.138	246.25
288.369	263.25
288.6	266.25
288.831	233.25
289.062	236.25
289.293	250.25
289.524	225.25
289.755	243.25
289.986	222.25
290.217	220.25
290.448	235.25
290.679	248.25
290.91	237.25
291.141	221.25
291.371	221.25
291.602	236.25
291.833	231.25
292.064	231.25
292.295	237.25
292.526	251.25
292.757	222.25
292.987	236.25
293.218	233.25
293.449	235.25
293.68	227.25
293.91	248.25
294.141	255.25
294.372	236.25
294.603	223.25
294.833	229.25
295.064	234.25
295.295	251.25
295.525	250.25
295.756	255.25
295.987	258.25
296.217	279.25
296.448	305.25
296.679	264.25
296.909	234.25
297.14	257.25
297.37	229.25
297.601	234.25
297.831	265.25
298.062	258.25
298.292	254.25
298.523	250.25
298.753	243.25
298.984	256.25
299.214	253.25
299.445	252.25
299.675	238.25
299.905	252.25
300.136	249.25
300.366	270.25
300.597	259.25
300.827	274.25
301.057	281.25
301.288	271.25
301.518	268.25
301.748	274.25
301.979	277.25
302.209	279.25
302.439	252.25
302.669	258.25
302.9	279.25
303.13	259.25
303.36	261.25
303.59	278.25
303.82	275.25
304.051	251.25
304.281	257.25
304.511	267.25
304.741	244.25
304.971	264.25
305.201	239.25
305.431	267.25
305.661	266.25
305.891	277.25
306.121	269.25
306.352	267.25
306.582	283.25
306.812	280.25
307.042	267.25
307.272	265.25
307.502	276.25
307.731	293.25
307.961	264.25
308.191	265.25
308.421	285.25
308.651	277.25
308.881	263.25
309.111	287.25
309.341	280.25
309.571	300.25
309.8	315.25
310.03	321.25
310.26	342.25
310.49	329.25
310.72	371.25
310.949	392.25
311.179	399.25
311.409	356.25
311.639	351.25
311.868	360.25
312.098	361.25
312.328	360.25
312.557	377.25
312.787	389.25
313.017	393.25
313.246	354.25
313.476	353.25
313.706	350.25
313.935	356.25
314.165	343.25
314.394	385.25
314.624	363.25
314.853	346.25
315.083	344.25
315.312	329.25
315.542	330.25
315.771	323.25
316.001	300.25
316.23	312.25
316.46	318.25
316.689	339.25
316.919	340.25
317.148	346.25
317.377	335.25
317.607	329.25
317.836	335.25
318.065	336.25
318.295	327.25
318.524	311.25
318.753	319.25
318.983	316.25
319.212	331.25
319.441	332.25
319.67	342.25
319.9	333.25
320.129	353.25
320.358	332.25
320.587	337.25
320.816	347.25
321.046	364.25
321.275	367.25
321.504	360.25
321.733	357.25
321.962	367.25
322.191	401.25
322.42	420.25
322.649	449.25
322.878	462.25
323.108	475.25
323.337	502.25
323.566	559.25
323.795	609.25
324.024	677.25
324.253	857.25
324.482	1287.25
324.71	1967.25
324.939	2743.25
325.168	2392.25
325.397	1325.25
325.626	860.25
325.855	666.25
326.084	574.25
326.313	543.25
326.542	552.25
326.77	627.25
326.999	769.25
327.228	1089.25
327.457	1689.25
327.686	2073.25
327.914	1428.25
328.143	923.25
328.372	777.25
328.6	689.25
328.829	631.25
329.058	662.25
329.287	699.25
329.515	620.25
329.744	545.25
329.972	511.25
330.201	521.25
330.43	568.25
330.658	638.25
330.887	712.25
331.115	671.25
331.344	535.25
331.572	496.25
331.801	498.25
332.03	468.25
332.258	426.25
332.486	418.25
332.715	407.25
332.943	385.25
333.172	395.25
333.4	380.25
333.629	402.25
333.857	412.25
334.085	426.25
334.314	396.25
334.542	413.25
334.771	408.25
334.999	413.25
335.227	414.25
335.455	376.25
335.684	351.25
335.912	377.25
336.14	343.25
336.369	379.25
336.597	367.25
336.825	398.25
337.053	382.25
337.281	356.25
337.51	354.25
337.738	373.25
337.966	383.25
338.194	378.25
338.422	401.25
338.65	368.25
338.878	360.25
339.106	358.25
339.334	377.25
339.562	364.25
339.79	366.25
340.018	362.25
340.246	359.25
340.474	391.25
340.702	375.25
340.93	377.25
341.158	381.25
341.386	380.25
341.614	396.25
341.842	384.25
342.07	374.25
342.298	355.25
342.526	355.25
342.754	353.25
342.981	348.25
343.209	343.25
343.437	349.25
343.665	358.25
343.893	344.25
344.12	353.25
344.348	347.25
344.576	346.25
344.804	375.25
345.031	403.25
345.259	399.25
345.487	412.25
345.714	396.25
345.942	370.25
346.17	361.25
346.397	363.25
346.625	375.25
346.853	364.25
347.08	395.25
347.308	368.25
347.535	377.25
347.763	389.25
347.99	396.25
348.218	398.25
348.445	401.25
348.673	394.25
348.9	362.25
349.128	378.25
349.355	346.25
349.583	357.25
349.81	328.25
350.037	346.25
350.265	361.25
350.492	348.25
350.72	359.25
350.947	376.25
351.174	393.25
351.402	380.25
351.629	377.25
351.856	403.25
352.083	385.25
352.311	403.25
352.538	411.25
352.765	408.25
352.992	386.25
353.22	387.25
353.447	370.25
353.674	376.25
353.901	352.25
354.128	362.25
354.355	335.25
354.583	335.25
354.81	349.25
355.037	320.25
355.264	309.25
355.491	320.25
355.718	319.25
355.945	336.25
356.172	327.25
356.399	323.25
356.626	325.25
356.853	340.25
357.08	336.25
357.307	324.25
357.534	332.25
357.761	319.25
357.988	324.25
358.215	341.25
358.441	331.25
358.668	328.25
358.895	348.25
359.122	332.25
359.349	362.25
359.576	404.25
359.802	426.25
360.029	469.25
360.256	499.25
360.483	450.25
360.709	414.25
360.936	377.25
361.163	383.25
361.39	390.25
361.616	408.25
361.843	389.25
362.07	382.25
362.296	371.25
362.523	373.25
362.749	364.25
362.976	362.25
363.203	369.25
363.429	360.25
363.656	345.25
363.882	341.25
364.109	341.25
364.335	335.25
364.562	345.25
364.788	329.25
365.015	345.25
365.241	342.25
365.468	358.25
365.694	357.25
365.92	381.25
366.147	367.25
366.373	338.25
366.599	334.25
366.826	327.25
367.052	328.25
367.278	334.25
367.505	339.25
367.731	337.25
367.957	329.25
368.184	333.25
368.41	351.25
368.636	358.25
368.862	376.25
369.089	358.25
369.315	325.25
369.541	317.25
369.767	338.25
369.993	339.25
370.219	365.25
370.445	328.25
370.672	314.25
370.898	325.25
371.124	341.25
371.35	319.25
371.576	308.25
371.802	315.25
372.028	332.25
372.254	334.25
372.48	330.25
372.706	314.25
372.932	311.25
373.158	316.25
373.384	343.25
373.61	327.25
373.835	317.25
374.061	314.25
374.287	324.25
374.513	336.25
374.739	332.25
374.965	331.25
375.191	338.25
375.416	318.25
375.642	330.25
375.868	327.25
376.094	309.25
376.319	325.25
376.545	287.25
376.771	321.25
376.997	333.25
377.222	319.25
377.448	324.25
377.674	324.25
377.899	305.25
378.125	303.25
378.35	324.25
378.576	320.25
378.802	319.25
379.027	299.25
379.253	312.25
379.478	307.25
379.704	326.25
379.929	319.25
380.155	320.25
380.38	324.25
380.606	319.25
380.831	339.25
381.057	324.25
381.282	316.25
381.507	340.25
381.733	343.25
381.958	334.25
382.184	347.25
382.409	340.25
382.634	343.25
382.86	336.25
383.085	315.25
383.31	328.25
383.535	328.25
383.761	332.25
383.986	352.25
384.211	333.25
384.436	336.25
384.662	306.25
384.887	321.25
385.112	342.25
385.337	338.25
385.562	337.25
385.787	343.25
386.013	351.25
386.238	366.25
386.463	339.25
386.688	340.25
386.913	324.25
387.138	328.25
387.363	348.25
387.588	329.25
387.813	360.25
388.038	342.25
388.263	329.25
388.488	336.25
388.713	344.25
388.938	348.25
389.163	333.25
389.387	338.25
389.612	329.25
389.837	349.25
390.062	360.25
390.287	328.25
390.512	333.25
390.736	336.25
390.961	352.25
391.186	330.25
391.411	343.25
391.636	347.25
391.86	327.25
392.085	340.25
392.31	328.25
392.534	356.25
392.759	343.25
392.984	327.25
393.208	330.25
393.433	356.25
393.658	345.25
393.882	353.25
394.107	343.25
394.331	344.25
394.556	352.25
394.78	319.25
395.005	346.25
395.229	346.25
395.454	340.25
395.678	360.25
395.903	376.25
396.127	395.25
396.352	395.25
396.576	387.25
396.801	373.25
397.025	370.25
397.249	367.25
397.474	387.25
397.698	371.25
397.922	389.25
398.147	392.25
398.371	377.25
398.595	387.25
398.82	374.25
399.044	371.25
399.268	367.25
399.492	376.25
399.717	413.25
399.941	442.25
400.165	455.25
400.389	469.25
400.613	442.25
400.837	387.25
401.062	382.25
401.286	397.25
401.51	393.25
401.734	410.25
401.958	394.25
402.182	403.25
402.406	417.25
402.63	418.25
402.854	401.25
403.078	407.25
403.302	398.25
403.526	410.25
403.75	427.25
403.974	406.25
404.198	401.25
404.422	402.25
404.645	416.25
404.869	420.25
405.093	443.25
405.317	462.25
405.541	499.25
405.765	445.25
405.988	440.25
406.212	447.25
406.436	498.25
406.66	498.25
406.883	469.25
407.107	473.25
407.331	524.25
407.555	573.25
407.778	579.25
408.002	515.25
408.226	455.25
408.449	459.25
408.673	477.25
408.896	499.25
409.12	524.25
409.344	521.25
409.567	426.25
409.791	420.25
410.014	419.25
410.238	419.25
410.461	417.25
410.685	418.25
410.908	449.25
411.132	476.25
411.355	499.25
411.578	469.25
411.802	424.25
412.025	399.25
412.249	398.25
412.472	431.25
412.695	453.25
412.919	421.25
413.142	390.25
413.365	408.25
413.589	400.25
413.812	392.25
414.035	379.25
414.258	385.25
414.482	369.25
414.705	366.25
414.928	399.25
415.151	392.25
415.374	376.25
415.597	386.25
415.821	393.25
416.044	411.25
416.267	393.25
416.49	395.25
416.713	392.25
416.936	366.25
417.159	390.25
417.382	379.25
417.605	415.25
417.828	408.25
418.051	421.25
418.274	423.25
418.497	396.25
418.72	403.25
418.943	414.25
419.166	407.25
419.389	417.25
419.611	423.25
419.834	435.25
420.057	421.25
420.28	429.25
420.503	417.25
420.726	431.25
420.948	453.25
421.171	480.25
421.394	528.25
421.617	461.25
421.839	425.25
422.062	450.25
422.285	473.25
422.507	519.25
422.73	563.25
422.953	550.25
423.175	476.25
423.398	477.25
423.621	472.25
423.843	481.25
424.066	506.25
424.288	493.25
424.511	504.25
424.733	573.25
424.956	618.25
425.178	617.25
425.401	626.25
425.623	643.25
425.846	545.25
426.068	525.25
426.291	498.25
426.513	504.25
426.735	515.25
426.958	559.25
427.18	654.25
427.402	744.25
427.625	840.25
427.847	807.25
428.069	649.25
428.292	576.25
428.514	521.25
428.736	512.25
428.958	489.25
429.181	467.25
429.403	454.25
429.625	459.25
429.847	520.25
430.069	601.25
430.292	565.25
430.514	480.25
430.736	452.25
430.958	448.25
431.18	429.25
431.402	443.25
431.624	422.25
431.846	430.25
432.068	414.25
432.29	419.25
432.512	418.25
432.734	423.25
432.956	412.25
433.178	436.25
433.4	445.25
433.622	442.25
433.844	454.25
434.066	435.25
434.287	422.25
434.509	425.25
434.731	435.25
434.953	450.25
435.175	440.25
435.397	507.25
435.618	517.25
435.84	562.25
436.062	634.25
436.284	701.25
436.505	583.25
436.727	515.25
436.949	489.25
437.17	485.25
437.392	469.25
437.614	494.25
437.835	542.25
438.057	651.25
438.278	731.25
438.5	742.25
438.721	768.25
438.943	737.25
439.165	632.25
439.386	557.25
439.608	547.25
439.829	533.25
440.05	580.25
440.272	591.25
440.493	601.25
440.715	519.25
440.936	505.25
441.158	489.25
441.379	471.25
441.6	474.25
441.822	521.25
442.043	547.25
442.264	633.25
442.486	667.25
442.707	578.25
442.928	552.25
443.149	548.25
443.371	567.25
443.592	631.25
443.813	687.25
444.034	732.25
444.255	599.25
444.476	532.25
444.698	522.25
444.919	507.25
445.14	612.25
445.361	565.25
445.582	583.25
445.803	614.25
446.024	742.25
446.245	755.25
446.466	663.25
446.687	585.25
446.908	535.25
447.129	509.25
447.35	468.25
447.571	483.25
447.792	490.25
448.013	486.25
448.234	524.25
448.455	583.25
448.675	676.25
448.896	737.25
449.117	652.25
449.338	634.25
449.559	732.25
449.779	767.25
450	659.25
450.221	544.25
450.442	512.25
450.662	514.25
450.883	497.25
451.104	542.25
451.324	514.25
451.545	487.25
451.766	478.25
451.986	434.25
452.207	437.25
452.428	439.25
452.648	424.25
452.869	440.25
453.089	442.25
453.31	453.25
453.53	437.25
453.751	421.25
453.971	448.25
454.192	496.25
454.412	445.25
454.633	451.25
454.853	451.25
455.073	443.25
455.294	446.25
455.514	551.25
455.734	537.25
455.955	447.25
456.175	415.25
456.395	396.25
456.616	383.25
456.836	395.25
457.056	395.25
457.276	395.25
457.497	389.25
457.717	387.25
457.937	401.25
458.157	397.25
458.377	405.25
458.598	448.25
458.818	547.25
459.038	657.25
459.258	665.25
459.478	508.25
459.698	470.25
459.918	447.25
460.138	422.25
460.358	417.25
460.578	412.25
460.798	446.25
461.018	443.25
461.238	411.25
461.458	399.25
461.678	399.25
461.898	404.25
462.118	394.25
462.338	416.25
462.558	418.25
462.777	419.25
462.997	410.25
463.217	401.25
463.437	442.25
463.657	412.25
463.876	420.25
464.096	428.25
464.316	432.25
464.536	443.25
464.755	457.25
464.975	458.25
465.195	559.25
465.414	688.25
465.634	571.25
465.854	525.25
466.073	476.25
466.293	445.25
466.512	415.25
466.732	415.25
466.951	427.25
467.171	419.25
467.391	441.25
467.61	442.25
467.829	464.25
468.049	449.25
468.268	431.25
468.488	421.25
468.707	397.25
468.927	395.25
469.146	401.25
469.365	409.25
469.585	407.25
469.804	422.25
470.023	456.25
470.243	424.25
470.462	444.25
470.681	448.25
470.901	457.25
471.12	424.25
471.339	434.25
471.558	435.25
471.777	449.25
471.997	408.25
472.216	424.25
472.435	408.25
472.654	410.25
472.873	404.25
473.092	418.25
473.311	411.25
473.53	423.25
473.749	451.25
473.968	485.25
474.187	610.25
474.406	637.25
474.625	515.25
474.844	451.25
475.063	436.25
475.282	435.25
475.501	433.25
475.72	443.25
475.939	444.25
476.158	423.25
476.377	462.25
476.596	438.25
476.814	471.25
477.033	467.25
477.252	447.25
477.471	465.25
477.69	446.25
477.908	447.25
478.127	433.25
478.346	457.25
478.564	457.25
478.783	485.25
479.002	475.25
479.22	488.25
479.439	500.25
479.658	539.25
479.876	529.25
480.095	552.25
480.313	549.25
480.532	536.25
480.751	508.25
480.969	519.25
481.188	536.25
481.406	548.25
481.624	515.25
481.843	507.25
482.061	518.25
482.28	513.25
482.498	521.25
482.717	495.25
482.935	506.25
483.153	485.25
483.372	515.25
483.59	517.25
483.808	507.25
484.027	503.25
484.245	485.25
484.463	497.25
484.681	537.25
484.9	515.25
485.118	513.25
485.336	507.25
485.554	520.25
485.772	518.25
485.99	506.25
486.209	513.25
486.427	529.25
486.645	553.25
486.863	576.25
487.081	567.25
487.299	554.25
487.517	568.25
487.735	554.25
487.953	532.25
488.171	567.25
488.389	531.25
488.607	554.25
488.825	535.25
489.043	541.25
489.261	556.25
489.479	538.25
489.696	555.25
489.914	573.25
490.132	590.25
490.35	575.25
490.568	559.25
490.786	598.25
491.003	589.25
491.221	628.25
491.439	637.25
491.657	630.25
491.874	625.25
492.092	632.25
492.31	661.25
492.527	639.25
492.745	647.25
492.963	659.25
493.18	664.25
493.398	652.25
493.615	662.25
493.833	658.25
494.05	661.25
494.268	681.25
494.485	658.25
494.703	673.25
494.92	653.25
495.138	680.25
495.355	664.25
495.573	676.25
495.79	661.25
496.008	696.25
496.225	681.25
496.442	661.25
496.66	680.25
496.877	659.25
497.094	671.25
497.312	673.25
497.529	662.25
497.746	665.25
497.963	681.25
498.181	684.25
498.398	700.25
498.615	727.25
498.832	714.25
499.049	705.25
499.267	721.25
499.484	716.25
499.701	740.25
499.918	742.25
500.135	752.25
500.352	774.25
500.569	768.25
500.786	752.25
501.003	764.25
501.22	788.25
501.437	781.25
501.654	790.25
501.871	796.25
