Data from 1987.PennyLincolnUp.Lamp.En5.5.200Scan.071819.P2_HRD10591_17-16-16-971.txt Node
Date: Thu Jul 18 17:16:16 EDT 2019
User: cochatt
Spectrometer: HR+D1059
Trigger mode: 1
Integration Time (sec): 1.000000E-1
Scans to average: 1
Electric dark correction enabled: true
Nonlinearity correction enabled: false
Boxcar width: 0
XAxis mode: Wavelengths
Number of Pixels in Spectrum: 2048
>>>>>Begin Spectral Data<<<<<
223.165	-13.44
223.4	-13.44
223.635	-13.44
223.869	-13.44
224.104	-23.44
224.338	-7.44
224.573	-17.44
224.808	-10.44
225.042	-5.44
225.277	-10.44
225.511	-2.44
225.746	6.56
225.98	3.56
226.215	13.56
226.449	16.56
226.683	23.56
226.918	21.56
227.152	18.56
227.387	41.56
227.621	37.56
227.856	53.56
228.09	42.56
228.324	46.56
228.559	59.56
228.793	67.56
229.027	112.56
229.262	125.56
229.496	131.56
229.73	156.56
229.964	164.56
230.199	135.56
230.433	141.56
230.667	121.56
230.901	123.56
231.136	113.56
231.37	115.56
231.604	111.56
231.838	108.56
232.072	116.56
232.306	111.56
232.541	101.56
232.775	97.56
233.009	114.56
233.243	124.56
233.477	110.56
233.711	119.56
233.945	119.56
234.179	127.56
234.413	116.56
234.647	123.56
234.881	113.56
235.115	116.56
235.349	119.56
235.583	123.56
235.817	122.56
236.051	130.56
236.285	130.56
236.519	127.56
236.753	133.56
236.987	158.56
237.221	189.56
237.455	281.56
237.689	202.56
237.922	145.56
238.156	132.56
238.39	148.56
238.624	133.56
238.858	141.56
239.091	134.56
239.325	122.56
239.559	120.56
239.793	142.56
240.027	132.56
240.26	147.56
240.494	159.56
240.728	161.56
240.961	169.56
241.195	147.56
241.429	130.56
241.662	124.56
241.896	135.56
242.13	146.56
242.363	127.56
242.597	129.56
242.83	134.56
243.064	130.56
243.298	148.56
243.531	125.56
243.765	139.56
243.998	129.56
244.232	129.56
244.465	144.56
244.699	129.56
244.932	143.56
245.166	131.56
245.399	138.56
245.633	124.56
245.866	130.56
246.099	135.56
246.333	145.56
246.566	144.56
246.8	142.56
247.033	138.56
247.266	162.56
247.5	159.56
247.733	171.56
247.966	154.56
248.2	169.56
248.433	179.56
248.666	171.56
248.899	178.56
249.133	187.56
249.366	228.56
249.599	195.56
249.832	181.56
250.066	181.56
250.299	167.56
250.532	183.56
250.765	182.56
250.998	214.56
251.231	227.56
251.465	218.56
251.698	205.56
251.931	210.56
252.164	198.56
252.397	204.56
252.63	205.56
252.863	197.56
253.096	235.56
253.329	230.56
253.562	232.56
253.795	243.56
254.028	216.56
254.261	201.56
254.494	229.56
254.727	248.56
254.96	288.56
255.193	277.56
255.426	265.56
255.659	223.56
255.892	228.56
256.124	225.56
256.357	226.56
256.59	195.56
256.823	201.56
257.056	214.56
257.289	193.56
257.521	215.56
257.754	209.56
257.987	211.56
258.22	189.56
258.452	193.56
258.685	189.56
258.918	207.56
259.151	221.56
259.383	203.56
259.616	203.56
259.849	220.56
260.081	212.56
260.314	234.56
260.547	235.56
260.779	246.56
261.012	222.56
261.244	206.56
261.477	217.56
261.71	205.56
261.942	217.56
262.175	232.56
262.407	232.56
262.64	217.56
262.872	193.56
263.105	206.56
263.337	196.56
263.57	210.56
263.802	205.56
264.035	187.56
264.267	209.56
264.499	189.56
264.732	189.56
264.964	188.56
265.197	184.56
265.429	196.56
265.661	179.56
265.894	186.56
266.126	204.56
266.358	173.56
266.591	191.56
266.823	191.56
267.055	201.56
267.287	211.56
267.52	201.56
267.752	196.56
267.984	231.56
268.216	202.56
268.448	217.56
268.681	213.56
268.913	218.56
269.145	245.56
269.377	279.56
269.609	253.56
269.841	249.56
270.073	246.56
270.306	267.56
270.538	302.56
270.77	307.56
271.002	303.56
271.234	266.56
271.466	297.56
271.698	325.56
271.93	300.56
272.162	322.56
272.394	314.56
272.626	302.56
272.858	285.56
273.09	272.56
273.322	259.56
273.553	248.56
273.785	268.56
274.017	238.56
274.249	236.56
274.481	229.56
274.713	250.56
274.945	244.56
275.176	244.56
275.408	234.56
275.64	237.56
275.872	227.56
276.104	241.56
276.335	246.56
276.567	247.56
276.799	260.56
277.031	290.56
277.262	285.56
277.494	294.56
277.726	270.56
277.957	252.56
278.189	261.56
278.421	268.56
278.652	231.56
278.884	228.56
279.115	247.56
279.347	235.56
279.579	247.56
279.81	227.56
280.042	228.56
280.273	235.56
280.505	229.56
280.736	218.56
280.968	226.56
281.199	238.56
281.431	238.56
281.662	223.56
281.894	235.56
282.125	212.56
282.356	248.56
282.588	283.56
282.819	293.56
283.051	249.56
283.282	225.56
283.513	235.56
283.745	223.56
283.976	218.56
284.207	235.56
284.439	229.56
284.67	228.56
284.901	238.56
285.132	230.56
285.364	217.56
285.595	233.56
285.826	252.56
286.057	229.56
286.288	231.56
286.52	229.56
286.751	235.56
286.982	213.56
287.213	235.56
287.444	238.56
287.675	220.56
287.906	251.56
288.138	260.56
288.369	269.56
288.6	245.56
288.831	263.56
289.062	257.56
289.293	246.56
289.524	238.56
289.755	243.56
289.986	239.56
290.217	235.56
290.448	247.56
290.679	241.56
290.91	249.56
291.141	237.56
291.371	254.56
291.602	225.56
291.833	235.56
292.064	232.56
292.295	255.56
292.526	241.56
292.757	246.56
292.987	243.56
293.218	222.56
293.449	249.56
293.68	233.56
293.91	242.56
294.141	235.56
294.372	227.56
294.603	222.56
294.833	235.56
295.064	237.56
295.295	241.56
295.525	245.56
295.756	258.56
295.987	261.56
296.217	293.56
296.448	295.56
296.679	264.56
296.909	267.56
297.14	243.56
297.37	242.56
297.601	255.56
297.831	242.56
298.062	236.56
298.292	256.56
298.523	236.56
298.753	257.56
298.984	249.56
299.214	228.56
299.445	249.56
299.675	261.56
299.905	269.56
300.136	269.56
300.366	250.56
300.597	261.56
300.827	265.56
301.057	254.56
301.288	259.56
301.518	283.56
301.748	273.56
301.979	254.56
302.209	265.56
302.439	263.56
302.669	256.56
302.9	267.56
303.13	264.56
303.36	272.56
303.59	283.56
303.82	297.56
304.051	284.56
304.281	262.56
304.511	277.56
304.741	270.56
304.971	259.56
305.201	259.56
305.431	263.56
305.661	276.56
305.891	258.56
306.121	277.56
306.352	290.56
306.582	293.56
306.812	288.56
307.042	257.56
307.272	272.56
307.502	272.56
307.731	270.56
307.961	285.56
308.191	269.56
308.421	280.56
308.651	295.56
308.881	287.56
309.111	289.56
309.341	305.56
309.571	319.56
309.8	305.56
310.03	332.56
310.26	346.56
310.49	338.56
310.72	336.56
310.949	380.56
311.179	398.56
311.409	358.56
311.639	347.56
311.868	374.56
312.098	349.56
312.328	356.56
312.557	380.56
312.787	405.56
313.017	383.56
313.246	374.56
313.476	350.56
313.706	348.56
313.935	363.56
314.165	357.56
314.394	371.56
314.624	364.56
314.853	366.56
315.083	343.56
315.312	335.56
315.542	328.56
315.771	327.56
316.001	334.56
316.23	340.56
316.46	331.56
316.689	327.56
316.919	342.56
317.148	341.56
317.377	360.56
317.607	345.56
317.836	366.56
318.065	336.56
318.295	336.56
318.524	329.56
318.753	315.56
318.983	301.56
319.212	346.56
319.441	328.56
319.67	349.56
319.9	342.56
320.129	345.56
320.358	344.56
320.587	345.56
320.816	361.56
321.046	382.56
321.275	383.56
321.504	344.56
321.733	375.56
321.962	394.56
322.191	414.56
322.42	420.56
322.649	441.56
322.878	466.56
323.108	475.56
323.337	524.56
323.566	542.56
323.795	614.56
324.024	690.56
324.253	872.56
324.482	1249.56
324.71	1922.56
324.939	2701.56
325.168	2391.56
325.397	1284.56
325.626	837.56
325.855	651.56
326.084	578.56
326.313	561.56
326.542	554.56
326.77	630.56
326.999	756.56
327.228	1089.56
327.457	1681.56
327.686	2053.56
327.914	1429.56
328.143	909.56
328.372	746.56
328.6	659.56
328.829	673.56
329.058	672.56
329.287	692.56
329.515	598.56
329.744	532.56
329.972	501.56
330.201	513.56
330.43	565.56
330.658	605.56
330.887	709.56
331.115	716.56
331.344	553.56
331.572	487.56
331.801	482.56
332.03	487.56
332.258	483.56
332.486	413.56
332.715	387.56
332.943	405.56
333.172	413.56
333.4	393.56
333.629	398.56
333.857	403.56
334.085	420.56
334.314	401.56
334.542	414.56
334.771	417.56
334.999	401.56
335.227	406.56
335.455	375.56
335.684	385.56
335.912	365.56
336.14	345.56
336.369	387.56
336.597	383.56
336.825	405.56
337.053	389.56
337.281	379.56
337.51	362.56
337.738	387.56
337.966	396.56
338.194	424.56
338.422	395.56
338.65	369.56
338.878	357.56
339.106	361.56
339.334	376.56
339.562	359.56
339.79	348.56
340.018	359.56
340.246	374.56
340.474	363.56
340.702	387.56
340.93	369.56
341.158	373.56
341.386	378.56
341.614	373.56
341.842	370.56
342.07	373.56
342.298	365.56
342.526	362.56
342.754	343.56
342.981	345.56
343.209	344.56
343.437	347.56
343.665	353.56
343.893	364.56
344.12	356.56
344.348	373.56
344.576	358.56
344.804	385.56
345.031	395.56
345.259	398.56
345.487	412.56
345.714	398.56
345.942	380.56
346.17	358.56
346.397	375.56
346.625	377.56
346.853	370.56
347.08	375.56
347.308	386.56
347.535	395.56
347.763	401.56
347.99	402.56
348.218	401.56
348.445	391.56
348.673	422.56
348.9	371.56
349.128	366.56
349.355	350.56
349.583	363.56
349.81	373.56
350.037	359.56
350.265	354.56
350.492	357.56
350.72	372.56
350.947	347.56
351.174	388.56
351.402	395.56
351.629	383.56
351.856	373.56
352.083	396.56
352.311	398.56
352.538	414.56
352.765	412.56
352.992	399.56
353.22	407.56
353.447	370.56
353.674	369.56
353.901	354.56
354.128	350.56
354.355	339.56
354.583	339.56
354.81	348.56
355.037	340.56
355.264	337.56
355.491	328.56
355.718	333.56
355.945	323.56
356.172	323.56
356.399	335.56
356.626	334.56
356.853	339.56
357.08	326.56
357.307	325.56
357.534	316.56
357.761	315.56
357.988	341.56
358.215	318.56
358.441	323.56
358.668	327.56
358.895	340.56
359.122	357.56
359.349	359.56
359.576	384.56
359.802	407.56
360.029	472.56
360.256	469.56
360.483	433.56
360.709	392.56
360.936	401.56
361.163	395.56
361.39	378.56
361.616	381.56
361.843	378.56
362.07	361.56
362.296	389.56
362.523	385.56
362.749	394.56
362.976	377.56
363.203	350.56
363.429	377.56
363.656	349.56
363.882	346.56
364.109	347.56
364.335	354.56
364.562	343.56
364.788	343.56
365.015	353.56
365.241	349.56
365.468	353.56
365.694	373.56
365.92	366.56
366.147	348.56
366.373	345.56
366.599	370.56
366.826	349.56
367.052	351.56
367.278	340.56
367.505	330.56
367.731	347.56
367.957	353.56
368.184	359.56
368.41	345.56
368.636	343.56
368.862	377.56
369.089	358.56
369.315	351.56
369.541	322.56
369.767	326.56
369.993	361.56
370.219	350.56
370.445	345.56
370.672	321.56
370.898	332.56
371.124	333.56
371.35	322.56
371.576	341.56
371.802	345.56
372.028	305.56
372.254	327.56
372.48	337.56
372.706	331.56
372.932	333.56
373.158	339.56
373.384	342.56
373.61	314.56
373.835	324.56
374.061	323.56
374.287	337.56
374.513	325.56
374.739	328.56
374.965	321.56
375.191	338.56
375.416	329.56
375.642	319.56
375.868	334.56
376.094	325.56
376.319	343.56
376.545	331.56
376.771	322.56
376.997	319.56
377.222	324.56
377.448	330.56
377.674	323.56
377.899	321.56
378.125	322.56
378.35	328.56
378.576	322.56
378.802	317.56
379.027	331.56
379.253	334.56
379.478	334.56
379.704	328.56
379.929	332.56
380.155	345.56
380.38	321.56
380.606	331.56
380.831	348.56
381.057	334.56
381.282	317.56
381.507	321.56
381.733	359.56
381.958	327.56
382.184	335.56
382.409	322.56
382.634	327.56
382.86	317.56
383.085	329.56
383.31	306.56
383.535	322.56
383.761	334.56
383.986	354.56
384.211	318.56
384.436	329.56
384.662	326.56
384.887	332.56
385.112	363.56
385.337	344.56
385.562	333.56
385.787	354.56
386.013	361.56
386.238	383.56
386.463	362.56
386.688	377.56
386.913	341.56
387.138	346.56
387.363	353.56
387.588	360.56
387.813	361.56
388.038	330.56
388.263	353.56
388.488	354.56
388.713	347.56
388.938	355.56
389.163	344.56
389.387	357.56
389.612	357.56
389.837	336.56
390.062	340.56
390.287	341.56
390.512	327.56
390.736	339.56
390.961	359.56
391.186	332.56
391.411	340.56
391.636	335.56
391.86	344.56
392.085	353.56
392.31	350.56
392.534	359.56
392.759	366.56
392.984	346.56
393.208	336.56
393.433	345.56
393.658	343.56
393.882	346.56
394.107	362.56
394.331	346.56
394.556	331.56
394.78	344.56
395.005	359.56
395.229	360.56
395.454	358.56
395.678	356.56
395.903	371.56
396.127	381.56
396.352	395.56
396.576	369.56
396.801	381.56
397.025	357.56
397.249	381.56
397.474	381.56
397.698	370.56
397.922	384.56
398.147	393.56
398.371	401.56
398.595	388.56
398.82	387.56
399.044	384.56
399.268	403.56
399.492	409.56
399.717	423.56
399.941	443.56
400.165	468.56
400.389	483.56
400.613	446.56
400.837	414.56
401.062	430.56
401.286	403.56
401.51	400.56
401.734	417.56
401.958	425.56
402.182	380.56
402.406	417.56
402.63	433.56
402.854	415.56
403.078	402.56
403.302	423.56
403.526	399.56
403.75	398.56
403.974	421.56
404.198	399.56
404.422	414.56
404.645	419.56
404.869	409.56
405.093	457.56
405.317	455.56
405.541	490.56
405.765	472.56
405.988	458.56
406.212	463.56
406.436	492.56
406.66	498.56
406.883	474.56
407.107	501.56
407.331	531.56
407.555	590.56
407.778	588.56
408.002	506.56
408.226	484.56
408.449	461.56
408.673	486.56
408.896	517.56
409.12	533.56
409.344	517.56
409.567	456.56
409.791	443.56
410.014	424.56
410.238	434.56
410.461	451.56
410.685	428.56
410.908	459.56
411.132	492.56
411.355	526.56
411.578	477.56
411.802	428.56
412.025	436.56
412.249	421.56
412.472	405.56
412.695	406.56
412.919	430.56
413.142	414.56
413.365	387.56
413.589	417.56
413.812	396.56
414.035	398.56
414.258	399.56
414.482	386.56
414.705	389.56
414.928	398.56
415.151	380.56
415.374	391.56
415.597	408.56
415.821	403.56
416.044	408.56
416.267	406.56
416.49	404.56
416.713	388.56
416.936	403.56
417.159	407.56
417.382	399.56
417.605	413.56
417.828	441.56
418.051	441.56
418.274	434.56
418.497	414.56
418.72	405.56
418.943	403.56
419.166	412.56
419.389	420.56
419.611	426.56
419.834	452.56
420.057	416.56
420.28	431.56
420.503	411.56
420.726	403.56
420.948	462.56
421.171	493.56
421.394	545.56
421.617	470.56
421.839	446.56
422.062	437.56
422.285	457.56
422.507	497.56
422.73	585.56
422.953	568.56
423.175	534.56
423.398	478.56
423.621	469.56
423.843	478.56
424.066	503.56
424.288	515.56
424.511	511.56
424.733	579.56
424.956	656.56
425.178	643.56
425.401	609.56
425.623	652.56
425.846	574.56
426.068	526.56
426.291	507.56
426.513	514.56
426.735	551.56
426.958	573.56
427.18	659.56
427.402	745.56
427.625	850.56
427.847	808.56
428.069	654.56
428.292	574.56
428.514	521.56
428.736	479.56
428.958	497.56
429.181	474.56
429.403	484.56
429.625	474.56
429.847	508.56
430.069	614.56
430.292	606.56
430.514	486.56
430.736	475.56
430.958	467.56
431.18	424.56
431.402	439.56
431.624	417.56
431.846	408.56
432.068	408.56
432.29	422.56
432.512	427.56
432.734	443.56
432.956	429.56
433.178	465.56
433.4	469.56
433.622	453.56
433.844	428.56
434.066	439.56
434.287	418.56
434.509	438.56
434.731	457.56
434.953	426.56
435.175	453.56
435.397	485.56
435.618	506.56
435.84	559.56
436.062	643.56
436.284	708.56
436.505	609.56
436.727	567.56
436.949	518.56
437.17	491.56
437.392	495.56
437.614	494.56
437.835	558.56
438.057	649.56
438.278	760.56
438.5	739.56
438.721	774.56
438.943	773.56
439.165	613.56
439.386	566.56
439.608	562.56
439.829	578.56
440.05	573.56
440.272	625.56
440.493	552.56
440.715	516.56
440.936	509.56
441.158	493.56
441.379	490.56
441.6	497.56
441.822	533.56
442.043	578.56
442.264	644.56
442.486	691.56
442.707	585.56
442.928	553.56
443.149	554.56
443.371	586.56
443.592	610.56
443.813	699.56
444.034	743.56
444.255	592.56
444.476	533.56
444.698	527.56
444.919	521.56
445.14	590.56
445.361	596.56
445.582	538.56
445.803	654.56
446.024	739.56
446.245	759.56
446.466	676.56
446.687	598.56
446.908	536.56
447.129	499.56
447.35	479.56
447.571	481.56
447.792	482.56
448.013	491.56
448.234	511.56
448.455	577.56
448.675	665.56
448.896	763.56
449.117	652.56
449.338	631.56
449.559	734.56
449.779	809.56
450	665.56
450.221	574.56
450.442	505.56
450.662	494.56
450.883	515.56
451.104	543.56
451.324	534.56
451.545	498.56
451.766	461.56
451.986	457.56
452.207	445.56
452.428	429.56
452.648	429.56
452.869	447.56
453.089	443.56
453.31	460.56
453.53	461.56
453.751	448.56
453.971	459.56
454.192	484.56
454.412	489.56
454.633	466.56
454.853	435.56
455.073	437.56
455.294	462.56
455.514	535.56
455.734	531.56
455.955	427.56
456.175	428.56
456.395	381.56
456.616	382.56
456.836	402.56
457.056	376.56
457.276	384.56
457.497	398.56
457.717	389.56
457.937	397.56
458.157	400.56
458.377	409.56
458.598	450.56
458.818	509.56
459.038	644.56
459.258	643.56
459.478	526.56
459.698	464.56
459.918	442.56
460.138	440.56
460.358	436.56
460.578	400.56
460.798	405.56
461.018	439.56
461.238	409.56
461.458	449.56
461.678	415.56
461.898	414.56
462.118	407.56
462.338	414.56
462.558	399.56
462.777	417.56
462.997	432.56
463.217	437.56
463.437	445.56
463.657	414.56
463.876	439.56
464.096	421.56
464.316	439.56
464.536	451.56
464.755	474.56
464.975	466.56
465.195	571.56
465.414	688.56
465.634	579.56
465.854	515.56
466.073	479.56
466.293	448.56
466.512	437.56
466.732	417.56
466.951	438.56
467.171	427.56
467.391	444.56
467.61	449.56
467.829	464.56
468.049	414.56
468.268	423.56
468.488	431.56
468.707	397.56
468.927	405.56
469.146	417.56
469.365	421.56
469.585	395.56
469.804	422.56
470.023	445.56
470.243	445.56
470.462	448.56
470.681	474.56
470.901	477.56
471.12	450.56
471.339	437.56
471.558	464.56
471.777	427.56
471.997	424.56
472.216	418.56
472.435	421.56
472.654	425.56
472.873	403.56
473.092	413.56
473.311	436.56
473.53	429.56
473.749	429.56
473.968	501.56
474.187	636.56
474.406	635.56
474.625	513.56
474.844	455.56
475.063	443.56
475.282	431.56
475.501	455.56
475.72	458.56
475.939	433.56
476.158	433.56
476.377	443.56
476.596	452.56
476.814	461.56
477.033	468.56
477.252	446.56
477.471	449.56
477.69	468.56
477.908	452.56
478.127	464.56
478.346	478.56
478.564	473.56
478.783	473.56
479.002	466.56
479.22	466.56
479.439	501.56
479.658	537.56
479.876	567.56
480.095	551.56
480.313	549.56
480.532	560.56
480.751	513.56
480.969	511.56
481.188	529.56
481.406	543.56
481.624	531.56
481.843	523.56
482.061	509.56
482.28	513.56
482.498	483.56
482.717	499.56
482.935	512.56
483.153	509.56
483.372	485.56
483.59	490.56
483.808	532.56
484.027	516.56
484.245	503.56
484.463	522.56
484.681	526.56
484.9	519.56
485.118	511.56
485.336	513.56
485.554	517.56
485.772	514.56
485.99	523.56
486.209	547.56
486.427	553.56
486.645	561.56
486.863	590.56
487.081	585.56
487.299	585.56
487.517	545.56
487.735	549.56
487.953	553.56
488.171	568.56
488.389	561.56
488.607	559.56
488.825	569.56
489.043	555.56
489.261	542.56
489.479	565.56
489.696	580.56
489.914	575.56
490.132	565.56
490.35	577.56
490.568	601.56
490.786	597.56
491.003	604.56
491.221	625.56
491.439	645.56
491.657	640.56
491.874	647.56
492.092	635.56
492.31	645.56
492.527	641.56
492.745	666.56
492.963	647.56
493.18	662.56
493.398	670.56
493.615	661.56
493.833	650.56
494.05	689.56
494.268	667.56
494.485	684.56
494.703	651.56
494.92	680.56
495.138	679.56
495.355	679.56
495.573	668.56
495.79	686.56
496.008	668.56
496.225	679.56
496.442	682.56
496.66	704.56
496.877	689.56
497.094	665.56
497.312	676.56
497.529	692.56
497.746	671.56
497.963	706.56
498.181	736.56
498.398	736.56
498.615	736.56
498.832	748.56
499.049	703.56
499.267	740.56
499.484	748.56
499.701	732.56
499.918	755.56
500.135	773.56
500.352	775.56
500.569	778.56
500.786	812.56
501.003	802.56
501.22	793.56
501.437	778.56
501.654	784.56
501.871	777.56
