Data from 1987.PennyLincolnUp.Lamp.En5.5.200Scan.071819.P2_HRD10591_17-16-55-971.txt Node
Date: Thu Jul 18 17:16:55 EDT 2019
User: cochatt
Spectrometer: HR+D1059
Trigger mode: 1
Integration Time (sec): 1.000000E-1
Scans to average: 1
Electric dark correction enabled: true
Nonlinearity correction enabled: false
Boxcar width: 0
XAxis mode: Wavelengths
Number of Pixels in Spectrum: 2048
>>>>>Begin Spectral Data<<<<<
223.165	-16.69
223.4	-16.69
223.635	-16.69
223.869	-15.69
224.104	-13.69
224.338	-16.69
224.573	-17.69
224.808	-4.69
225.042	-7.69
225.277	-15.69
225.511	-0.69
225.746	-6.69
225.98	6.31
226.215	26.31
226.449	23.31
226.683	22.31
226.918	10.31
227.152	27.31
227.387	43.31
227.621	49.31
227.856	49.31
228.09	44.31
228.324	46.31
228.559	59.31
228.793	61.31
229.027	97.31
229.262	131.31
229.496	134.31
229.73	149.31
229.964	185.31
230.199	165.31
230.433	129.31
230.667	130.31
230.901	133.31
231.136	120.31
231.37	117.31
231.604	120.31
231.838	112.31
232.072	124.31
232.306	125.31
232.541	109.31
232.775	123.31
233.009	117.31
233.243	116.31
233.477	115.31
233.711	111.31
233.945	120.31
234.179	128.31
234.413	125.31
234.647	114.31
234.881	118.31
235.115	113.31
235.349	128.31
235.583	128.31
235.817	130.31
236.051	121.31
236.285	120.31
236.519	134.31
236.753	144.31
236.987	157.31
237.221	216.31
237.455	270.31
237.689	217.31
237.922	147.31
238.156	147.31
238.39	130.31
238.624	125.31
238.858	125.31
239.091	127.31
239.325	128.31
239.559	135.31
239.793	133.31
240.027	143.31
240.26	139.31
240.494	158.31
240.728	147.31
240.961	154.31
241.195	158.31
241.429	145.31
241.662	147.31
241.896	149.31
242.13	143.31
242.363	125.31
242.597	125.31
242.83	138.31
243.064	153.31
243.298	120.31
243.531	142.31
243.765	143.31
243.998	147.31
244.232	144.31
244.465	140.31
244.699	159.31
244.932	150.31
245.166	135.31
245.399	145.31
245.633	146.31
245.866	150.31
246.099	137.31
246.333	154.31
246.566	141.31
246.8	139.31
247.033	163.31
247.266	156.31
247.5	149.31
247.733	170.31
247.966	175.31
248.2	174.31
248.433	166.31
248.666	178.31
248.899	176.31
249.133	204.31
249.366	216.31
249.599	209.31
249.832	197.31
250.066	205.31
250.299	167.31
250.532	188.31
250.765	185.31
250.998	209.31
251.231	233.31
251.465	212.31
251.698	221.31
251.931	212.31
252.164	184.31
252.397	195.31
252.63	209.31
252.863	212.31
253.096	219.31
253.329	226.31
253.562	236.31
253.795	229.31
254.028	222.31
254.261	224.31
254.494	238.31
254.727	259.31
254.96	298.31
255.193	278.31
255.426	276.31
255.659	228.31
255.892	241.31
256.124	224.31
256.357	237.31
256.59	215.31
256.823	214.31
257.056	214.31
257.289	202.31
257.521	192.31
257.754	199.31
257.987	224.31
258.22	207.31
258.452	213.31
258.685	209.31
258.918	201.31
259.151	206.31
259.383	212.31
259.616	210.31
259.849	222.31
260.081	241.31
260.314	257.31
260.547	268.31
260.779	238.31
261.012	231.31
261.244	225.31
261.477	229.31
261.71	219.31
261.942	217.31
262.175	251.31
262.407	237.31
262.64	213.31
262.872	199.31
263.105	230.31
263.337	206.31
263.57	217.31
263.802	205.31
264.035	193.31
264.267	185.31
264.499	214.31
264.732	217.31
264.964	207.31
265.197	213.31
265.429	197.31
265.661	201.31
265.894	194.31
266.126	195.31
266.358	212.31
266.591	190.31
266.823	212.31
267.055	209.31
267.287	214.31
267.52	209.31
267.752	232.31
267.984	199.31
268.216	215.31
268.448	221.31
268.681	216.31
268.913	202.31
269.145	248.31
269.377	281.31
269.609	253.31
269.841	273.31
270.073	279.31
270.306	287.31
270.538	312.31
270.77	309.31
271.002	305.31
271.234	287.31
271.466	321.31
271.698	320.31
271.93	314.31
272.162	321.31
272.394	315.31
272.626	310.31
272.858	284.31
273.09	281.31
273.322	270.31
273.553	257.31
273.785	249.31
274.017	237.31
274.249	255.31
274.481	252.31
274.713	240.31
274.945	246.31
275.176	249.31
275.408	240.31
275.64	247.31
275.872	239.31
276.104	248.31
276.335	245.31
276.567	254.31
276.799	289.31
277.031	316.31
277.262	309.31
277.494	299.31
277.726	303.31
277.957	265.31
278.189	265.31
278.421	246.31
278.652	252.31
278.884	246.31
279.115	231.31
279.347	237.31
279.579	241.31
279.81	241.31
280.042	233.31
280.273	220.31
280.505	225.31
280.736	216.31
280.968	229.31
281.199	228.31
281.431	232.31
281.662	210.31
281.894	235.31
282.125	247.31
282.356	256.31
282.588	293.31
282.819	301.31
283.051	255.31
283.282	239.31
283.513	238.31
283.745	223.31
283.976	232.31
284.207	244.31
284.439	238.31
284.67	240.31
284.901	226.31
285.132	227.31
285.364	235.31
285.595	222.31
285.826	224.31
286.057	241.31
286.288	247.31
286.52	231.31
286.751	229.31
286.982	232.31
287.213	225.31
287.444	234.31
287.675	242.31
287.906	245.31
288.138	255.31
288.369	264.31
288.6	273.31
288.831	245.31
289.062	242.31
289.293	258.31
289.524	255.31
289.755	264.31
289.986	246.31
290.217	232.31
290.448	231.31
290.679	249.31
290.91	249.31
291.141	252.31
291.371	240.31
291.602	235.31
291.833	247.31
292.064	221.31
292.295	240.31
292.526	245.31
292.757	249.31
292.987	247.31
293.218	231.31
293.449	254.31
293.68	252.31
293.91	235.31
294.141	233.31
294.372	225.31
294.603	234.31
294.833	226.31
295.064	253.31
295.295	238.31
295.525	221.31
295.756	262.31
295.987	265.31
296.217	292.31
296.448	305.31
296.679	273.31
296.909	263.31
297.14	251.31
297.37	266.31
297.601	250.31
297.831	248.31
298.062	237.31
298.292	247.31
298.523	261.31
298.753	247.31
298.984	255.31
299.214	259.31
299.445	243.31
299.675	271.31
299.905	267.31
300.136	266.31
300.366	263.31
300.597	264.31
300.827	262.31
301.057	294.31
301.288	303.31
301.518	290.31
301.748	291.31
301.979	280.31
302.209	271.31
302.439	281.31
302.669	291.31
302.9	284.31
303.13	270.31
303.36	299.31
303.59	286.31
303.82	283.31
304.051	281.31
304.281	287.31
304.511	270.31
304.741	282.31
304.971	283.31
305.201	289.31
305.431	272.31
305.661	279.31
305.891	279.31
306.121	271.31
306.352	297.31
306.582	287.31
306.812	281.31
307.042	268.31
307.272	270.31
307.502	287.31
307.731	284.31
307.961	270.31
308.191	285.31
308.421	282.31
308.651	292.31
308.881	278.31
309.111	295.31
309.341	313.31
309.571	318.31
309.8	321.31
310.03	339.31
310.26	354.31
310.49	367.31
310.72	346.31
310.949	397.31
311.179	395.31
311.409	349.31
311.639	346.31
311.868	354.31
312.098	337.31
312.328	361.31
312.557	401.31
312.787	405.31
313.017	391.31
313.246	379.31
313.476	348.31
313.706	349.31
313.935	353.31
314.165	374.31
314.394	399.31
314.624	375.31
314.853	381.31
315.083	364.31
315.312	323.31
315.542	346.31
315.771	338.31
316.001	339.31
316.23	316.31
316.46	341.31
316.689	343.31
316.919	344.31
317.148	351.31
317.377	348.31
317.607	341.31
317.836	345.31
318.065	355.31
318.295	329.31
318.524	319.31
318.753	340.31
318.983	333.31
319.212	357.31
319.441	349.31
319.67	368.31
319.9	346.31
320.129	335.31
320.358	350.31
320.587	343.31
320.816	352.31
321.046	361.31
321.275	372.31
321.504	377.31
321.733	390.31
321.962	408.31
322.191	409.31
322.42	434.31
322.649	449.31
322.878	464.31
323.108	474.31
323.337	512.31
323.566	547.31
323.795	615.31
324.024	685.31
324.253	883.31
324.482	1270.31
324.71	1966.31
324.939	2782.31
325.168	2380.31
325.397	1286.31
325.626	833.31
325.855	664.31
326.084	591.31
326.313	537.31
326.542	583.31
326.77	645.31
326.999	765.31
327.228	1097.31
327.457	1699.31
327.686	2078.31
327.914	1426.31
328.143	895.31
328.372	749.31
328.6	702.31
328.829	621.31
329.058	677.31
329.287	713.31
329.515	612.31
329.744	547.31
329.972	534.31
330.201	515.31
330.43	559.31
330.658	636.31
330.887	674.31
331.115	670.31
331.344	553.31
331.572	509.31
331.801	503.31
332.03	474.31
332.258	432.31
332.486	419.31
332.715	412.31
332.943	404.31
333.172	403.31
333.4	411.31
333.629	412.31
333.857	407.31
334.085	416.31
334.314	377.31
334.542	399.31
334.771	416.31
334.999	394.31
335.227	407.31
335.455	387.31
335.684	398.31
335.912	377.31
336.14	383.31
336.369	399.31
336.597	410.31
336.825	395.31
337.053	395.31
337.281	374.31
337.51	358.31
337.738	391.31
337.966	381.31
338.194	385.31
338.422	396.31
338.65	380.31
338.878	375.31
339.106	381.31
339.334	366.31
339.562	379.31
339.79	387.31
340.018	382.31
340.246	392.31
340.474	378.31
340.702	382.31
340.93	374.31
341.158	380.31
341.386	374.31
341.614	384.31
341.842	393.31
342.07	382.31
342.298	346.31
342.526	361.31
342.754	343.31
342.981	350.31
343.209	332.31
343.437	356.31
343.665	350.31
343.893	353.31
344.12	376.31
344.348	370.31
344.576	369.31
344.804	383.31
345.031	404.31
345.259	421.31
345.487	404.31
345.714	395.31
345.942	390.31
346.17	370.31
346.397	386.31
346.625	373.31
346.853	381.31
347.08	382.31
347.308	373.31
347.535	399.31
347.763	417.31
347.99	388.31
348.218	401.31
348.445	416.31
348.673	412.31
348.9	395.31
349.128	378.31
349.355	371.31
349.583	366.31
349.81	353.31
350.037	377.31
350.265	373.31
350.492	365.31
350.72	366.31
350.947	366.31
351.174	375.31
351.402	408.31
351.629	387.31
351.856	415.31
352.083	425.31
352.311	417.31
352.538	445.31
352.765	422.31
352.992	395.31
353.22	405.31
353.447	380.31
353.674	370.31
353.901	347.31
354.128	362.31
354.355	334.31
354.583	347.31
354.81	347.31
355.037	335.31
355.264	335.31
355.491	323.31
355.718	327.31
355.945	314.31
356.172	331.31
356.399	338.31
356.626	336.31
356.853	327.31
357.08	329.31
357.307	329.31
357.534	322.31
357.761	314.31
357.988	322.31
358.215	336.31
358.441	329.31
358.668	328.31
358.895	353.31
359.122	339.31
359.349	352.31
359.576	398.31
359.802	425.31
360.029	495.31
360.256	507.31
360.483	458.31
360.709	405.31
360.936	381.31
361.163	389.31
361.39	393.31
361.616	396.31
361.843	386.31
362.07	389.31
362.296	408.31
362.523	398.31
362.749	389.31
362.976	381.31
363.203	338.31
363.429	375.31
363.656	357.31
363.882	366.31
364.109	351.31
364.335	357.31
364.562	352.31
364.788	383.31
365.015	364.31
365.241	351.31
365.468	363.31
365.694	361.31
365.92	363.31
366.147	385.31
366.373	357.31
366.599	361.31
366.826	351.31
367.052	344.31
367.278	335.31
367.505	352.31
367.731	368.31
367.957	351.31
368.184	357.31
368.41	339.31
368.636	389.31
368.862	390.31
369.089	366.31
369.315	350.31
369.541	335.31
369.767	335.31
369.993	349.31
370.219	337.31
370.445	329.31
370.672	317.31
370.898	351.31
371.124	334.31
371.35	328.31
371.576	343.31
371.802	319.31
372.028	334.31
372.254	329.31
372.48	332.31
372.706	336.31
372.932	335.31
373.158	338.31
373.384	318.31
373.61	331.31
373.835	352.31
374.061	331.31
374.287	331.31
374.513	336.31
374.739	332.31
374.965	350.31
375.191	348.31
375.416	337.31
375.642	315.31
375.868	329.31
376.094	350.31
376.319	336.31
376.545	328.31
376.771	336.31
376.997	326.31
377.222	319.31
377.448	343.31
377.674	349.31
377.899	340.31
378.125	325.31
378.35	355.31
378.576	345.31
378.802	338.31
379.027	335.31
379.253	332.31
379.478	341.31
379.704	343.31
379.929	350.31
380.155	336.31
380.38	327.31
380.606	336.31
380.831	347.31
381.057	333.31
381.282	328.31
381.507	323.31
381.733	317.31
381.958	328.31
382.184	330.31
382.409	347.31
382.634	339.31
382.86	335.31
383.085	358.31
383.31	339.31
383.535	350.31
383.761	337.31
383.986	338.31
384.211	344.31
384.436	339.31
384.662	340.31
384.887	356.31
385.112	351.31
385.337	328.31
385.562	341.31
385.787	341.31
386.013	364.31
386.238	373.31
386.463	367.31
386.688	349.31
386.913	348.31
387.138	371.31
387.363	381.31
387.588	371.31
387.813	363.31
388.038	363.31
388.263	348.31
388.488	353.31
388.713	355.31
388.938	342.31
389.163	357.31
389.387	362.31
389.612	332.31
389.837	339.31
390.062	365.31
390.287	361.31
390.512	352.31
390.736	360.31
390.961	341.31
391.186	344.31
391.411	350.31
391.636	359.31
391.86	343.31
392.085	337.31
392.31	353.31
392.534	365.31
392.759	345.31
392.984	354.31
393.208	351.31
393.433	362.31
393.658	352.31
393.882	360.31
394.107	349.31
394.331	359.31
394.556	344.31
394.78	345.31
395.005	351.31
395.229	332.31
395.454	354.31
395.678	341.31
395.903	370.31
396.127	395.31
396.352	379.31
396.576	384.31
396.801	339.31
397.025	354.31
397.249	365.31
397.474	357.31
397.698	377.31
397.922	389.31
398.147	387.31
398.371	395.31
398.595	390.31
398.82	384.31
399.044	387.31
399.268	393.31
399.492	405.31
399.717	433.31
399.941	448.31
400.165	491.31
400.389	489.31
400.613	437.31
400.837	449.31
401.062	420.31
401.286	399.31
401.51	398.31
401.734	387.31
401.958	399.31
402.182	393.31
402.406	429.31
402.63	438.31
402.854	406.31
403.078	401.31
403.302	418.31
403.526	411.31
403.75	445.31
403.974	413.31
404.198	423.31
404.422	410.31
404.645	419.31
404.869	423.31
405.093	458.31
405.317	479.31
405.541	514.31
405.765	455.31
405.988	447.31
406.212	486.31
406.436	492.31
406.66	501.31
406.883	471.31
407.107	510.31
407.331	555.31
407.555	615.31
407.778	599.31
408.002	547.31
408.226	482.31
408.449	468.31
408.673	466.31
408.896	498.31
409.12	542.31
409.344	537.31
409.567	465.31
409.791	450.31
410.014	452.31
410.238	412.31
410.461	433.31
410.685	423.31
410.908	457.31
411.132	501.31
411.355	529.31
411.578	507.31
411.802	450.31
412.025	431.31
412.249	431.31
412.472	441.31
412.695	443.31
412.919	445.31
413.142	418.31
413.365	402.31
413.589	404.31
413.812	406.31
414.035	402.31
414.258	409.31
414.482	389.31
414.705	396.31
414.928	379.31
415.151	387.31
415.374	391.31
415.597	397.31
415.821	398.31
416.044	392.31
416.267	416.31
416.49	417.31
416.713	435.31
416.936	412.31
417.159	389.31
417.382	411.31
417.605	413.31
417.828	412.31
418.051	441.31
418.274	428.31
418.497	423.31
418.72	445.31
418.943	408.31
419.166	417.31
419.389	416.31
419.611	430.31
419.834	411.31
420.057	440.31
420.28	429.31
420.503	442.31
420.726	429.31
420.948	440.31
421.171	475.31
421.394	535.31
421.617	494.31
421.839	462.31
422.062	453.31
422.285	466.31
422.507	516.31
422.73	601.31
422.953	590.31
423.175	511.31
423.398	468.31
423.621	465.31
423.843	493.31
424.066	499.31
424.288	498.31
424.511	527.31
424.733	562.31
424.956	647.31
425.178	640.31
425.401	630.31
425.623	645.31
425.846	570.31
426.068	535.31
426.291	517.31
426.513	509.31
426.735	531.31
426.958	589.31
427.18	691.31
427.402	773.31
427.625	868.31
427.847	830.31
428.069	661.31
428.292	584.31
428.514	525.31
428.736	498.31
428.958	487.31
429.181	447.31
429.403	464.31
429.625	491.31
429.847	530.31
430.069	571.31
430.292	592.31
430.514	498.31
430.736	460.31
430.958	461.31
431.18	443.31
431.402	451.31
431.624	430.31
431.846	435.31
432.068	432.31
432.29	430.31
432.512	439.31
432.734	445.31
432.956	469.31
433.178	464.31
433.4	442.31
433.622	444.31
433.844	431.31
434.066	431.31
434.287	429.31
434.509	423.31
434.731	434.31
434.953	436.31
435.175	471.31
435.397	494.31
435.618	507.31
435.84	577.31
436.062	651.31
436.284	706.31
436.505	587.31
436.727	538.31
436.949	513.31
437.17	493.31
437.392	494.31
437.614	489.31
437.835	553.31
438.057	681.31
438.278	761.31
438.5	754.31
438.721	795.31
438.943	745.31
439.165	613.31
439.386	563.31
439.608	554.31
439.829	550.31
440.05	590.31
440.272	633.31
440.493	605.31
440.715	538.31
440.936	522.31
441.158	487.31
441.379	492.31
441.6	501.31
441.822	532.31
442.043	572.31
442.264	629.31
442.486	689.31
442.707	583.31
442.928	535.31
443.149	550.31
443.371	569.31
443.592	625.31
443.813	688.31
444.034	745.31
444.255	629.31
444.476	556.31
444.698	521.31
444.919	520.31
445.14	591.31
445.361	545.31
445.582	581.31
445.803	661.31
446.024	758.31
446.245	749.31
446.466	661.31
446.687	585.31
446.908	545.31
447.129	496.31
447.35	481.31
447.571	500.31
447.792	492.31
448.013	486.31
448.234	525.31
448.455	569.31
448.675	676.31
448.896	773.31
449.117	667.31
449.338	641.31
449.559	718.31
449.779	805.31
450	665.31
450.221	588.31
450.442	529.31
450.662	495.31
450.883	504.31
451.104	536.31
451.324	529.31
451.545	489.31
451.766	466.31
451.986	437.31
452.207	433.31
452.428	433.31
452.648	426.31
452.869	461.31
453.089	460.31
453.31	464.31
453.53	456.31
453.751	452.31
453.971	451.31
454.192	497.31
454.412	496.31
454.633	465.31
454.853	443.31
455.073	442.31
455.294	475.31
455.514	531.31
455.734	521.31
455.955	446.31
456.175	415.31
456.395	393.31
456.616	387.31
456.836	394.31
457.056	401.31
457.276	396.31
457.497	409.31
457.717	401.31
457.937	407.31
458.157	413.31
458.377	423.31
458.598	458.31
458.818	549.31
459.038	647.31
459.258	659.31
459.478	519.31
459.698	450.31
459.918	462.31
460.138	440.31
460.358	423.31
460.578	426.31
460.798	425.31
461.018	440.31
461.238	416.31
461.458	423.31
461.678	420.31
461.898	420.31
462.118	424.31
462.338	422.31
462.558	418.31
462.777	454.31
462.997	420.31
463.217	421.31
463.437	444.31
463.657	414.31
463.876	433.31
464.096	439.31
464.316	442.31
464.536	446.31
464.755	467.31
464.975	468.31
465.195	553.31
465.414	693.31
465.634	607.31
465.854	518.31
466.073	483.31
466.293	464.31
466.512	464.31
466.732	443.31
466.951	437.31
467.171	417.31
467.391	439.31
467.61	454.31
467.829	473.31
468.049	439.31
468.268	427.31
468.488	416.31
468.707	437.31
468.927	411.31
469.146	423.31
469.365	407.31
469.585	410.31
469.804	429.31
470.023	443.31
470.243	458.31
470.462	437.31
470.681	498.31
470.901	485.31
471.12	440.31
471.339	454.31
471.558	443.31
471.777	438.31
471.997	440.31
472.216	430.31
472.435	426.31
472.654	427.31
472.873	427.31
473.092	431.31
473.311	395.31
473.53	431.31
473.749	439.31
473.968	491.31
474.187	626.31
474.406	633.31
474.625	521.31
474.844	473.31
475.063	460.31
475.282	439.31
475.501	428.31
475.72	443.31
475.939	459.31
476.158	443.31
476.377	450.31
476.596	449.31
476.814	466.31
477.033	477.31
477.252	464.31
477.471	456.31
477.69	446.31
477.908	462.31
478.127	482.31
478.346	466.31
478.564	472.31
478.783	455.31
479.002	498.31
479.22	495.31
479.439	490.31
479.658	554.31
479.876	556.31
480.095	534.31
480.313	574.31
480.532	557.31
480.751	520.31
480.969	526.31
481.188	554.31
481.406	565.31
481.624	529.31
481.843	507.31
482.061	510.31
482.28	518.31
482.498	492.31
482.717	507.31
482.935	480.31
483.153	483.31
483.372	503.31
483.59	502.31
483.808	499.31
484.027	520.31
484.245	505.31
484.463	527.31
484.681	528.31
484.9	511.31
485.118	507.31
485.336	526.31
485.554	526.31
485.772	544.31
485.99	558.31
486.209	529.31
486.427	537.31
486.645	545.31
486.863	604.31
487.081	610.31
487.299	606.31
487.517	573.31
487.735	573.31
487.953	543.31
488.171	572.31
488.389	557.31
488.607	551.31
488.825	561.31
489.043	562.31
489.261	574.31
489.479	585.31
489.696	573.31
489.914	597.31
490.132	598.31
490.35	595.31
490.568	583.31
490.786	606.31
491.003	600.31
491.221	602.31
491.439	642.31
491.657	643.31
491.874	619.31
492.092	636.31
492.31	641.31
492.527	656.31
492.745	660.31
492.963	647.31
493.18	660.31
493.398	674.31
493.615	677.31
493.833	679.31
494.05	704.31
494.268	685.31
494.485	656.31
494.703	700.31
494.92	671.31
495.138	669.31
495.355	690.31
495.573	705.31
495.79	673.31
496.008	694.31
496.225	680.31
496.442	705.31
496.66	680.31
496.877	691.31
497.094	671.31
497.312	663.31
497.529	698.31
497.746	726.31
497.963	698.31
498.181	730.31
498.398	721.31
498.615	741.31
498.832	736.31
499.049	739.31
499.267	709.31
499.484	714.31
499.701	746.31
499.918	726.31
500.135	752.31
500.352	774.31
500.569	787.31
500.786	769.31
501.003	805.31
501.22	775.31
501.437	783.31
501.654	801.31
501.871	817.31
