Data from 1987.PennyLincolnUp.Lamp.En5.5.200Scan.071819.P2_HRD10591_17-14-52-970.txt Node
Date: Thu Jul 18 17:14:52 EDT 2019
User: cochatt
Spectrometer: HR+D1059
Trigger mode: 1
Integration Time (sec): 1.000000E-1
Scans to average: 1
Electric dark correction enabled: true
Nonlinearity correction enabled: false
Boxcar width: 0
XAxis mode: Wavelengths
Number of Pixels in Spectrum: 2048
>>>>>Begin Spectral Data<<<<<
223.165	-20.56
223.4	-20.56
223.635	-20.56
223.869	-11.56
224.104	-26.56
224.338	4.44
224.573	-15.56
224.808	-25.56
225.042	-4.56
225.277	5.44
225.511	4.44
225.746	0.44
225.98	4.44
226.215	-3.56
226.449	22.44
226.683	28.44
226.918	19.44
227.152	18.44
227.387	27.44
227.621	32.44
227.856	51.44
228.09	47.44
228.324	53.44
228.559	59.44
228.793	70.44
229.027	116.44
229.262	124.44
229.496	128.44
229.73	155.44
229.964	174.44
230.199	152.44
230.433	121.44
230.667	123.44
230.901	114.44
231.136	106.44
231.37	111.44
231.604	115.44
231.838	126.44
232.072	113.44
232.306	113.44
232.541	116.44
232.775	101.44
233.009	110.44
233.243	124.44
233.477	110.44
233.711	108.44
233.945	113.44
234.179	116.44
234.413	106.44
234.647	129.44
234.881	130.44
235.115	120.44
235.349	123.44
235.583	121.44
235.817	131.44
236.051	124.44
236.285	121.44
236.519	136.44
236.753	149.44
236.987	140.44
237.221	198.44
237.455	269.44
237.689	210.44
237.922	170.44
238.156	127.44
238.39	140.44
238.624	127.44
238.858	149.44
239.091	123.44
239.325	132.44
239.559	127.44
239.793	131.44
240.027	143.44
240.26	160.44
240.494	155.44
240.728	150.44
240.961	145.44
241.195	137.44
241.429	132.44
241.662	123.44
241.896	135.44
242.13	145.44
242.363	138.44
242.597	152.44
242.83	146.44
243.064	138.44
243.298	133.44
243.531	128.44
243.765	136.44
243.998	120.44
244.232	131.44
244.465	154.44
244.699	133.44
244.932	132.44
245.166	143.44
245.399	137.44
245.633	155.44
245.866	152.44
246.099	134.44
246.333	154.44
246.566	159.44
246.8	160.44
247.033	141.44
247.266	138.44
247.5	166.44
247.733	171.44
247.966	170.44
248.2	170.44
248.433	177.44
248.666	166.44
248.899	198.44
249.133	206.44
249.366	225.44
249.599	182.44
249.832	174.44
250.066	189.44
250.299	178.44
250.532	169.44
250.765	190.44
250.998	220.44
251.231	210.44
251.465	208.44
251.698	215.44
251.931	218.44
252.164	199.44
252.397	174.44
252.63	200.44
252.863	196.44
253.096	205.44
253.329	201.44
253.562	249.44
253.795	230.44
254.028	221.44
254.261	221.44
254.494	217.44
254.727	265.44
254.96	278.44
255.193	281.44
255.426	252.44
255.659	232.44
255.892	244.44
256.124	213.44
256.357	230.44
256.59	215.44
256.823	198.44
257.056	203.44
257.289	208.44
257.521	205.44
257.754	211.44
257.987	208.44
258.22	200.44
258.452	199.44
258.685	192.44
258.918	206.44
259.151	183.44
259.383	209.44
259.616	194.44
259.849	217.44
260.081	223.44
260.314	247.44
260.547	248.44
260.779	246.44
261.012	225.44
261.244	226.44
261.477	207.44
261.71	208.44
261.942	248.44
262.175	236.44
262.407	236.44
262.64	216.44
262.872	201.44
263.105	197.44
263.337	194.44
263.57	196.44
263.802	190.44
264.035	201.44
264.267	201.44
264.499	198.44
264.732	203.44
264.964	191.44
265.197	194.44
265.429	192.44
265.661	181.44
265.894	194.44
266.126	188.44
266.358	191.44
266.591	193.44
266.823	209.44
267.055	197.44
267.287	194.44
267.52	204.44
267.752	198.44
267.984	207.44
268.216	215.44
268.448	223.44
268.681	218.44
268.913	213.44
269.145	244.44
269.377	270.44
269.609	249.44
269.841	260.44
270.073	258.44
270.306	286.44
270.538	299.44
270.77	298.44
271.002	290.44
271.234	295.44
271.466	303.44
271.698	312.44
271.93	312.44
272.162	312.44
272.394	294.44
272.626	282.44
272.858	289.44
273.09	280.44
273.322	257.44
273.553	242.44
273.785	225.44
274.017	236.44
274.249	252.44
274.481	244.44
274.713	250.44
274.945	211.44
275.176	256.44
275.408	239.44
275.64	232.44
275.872	219.44
276.104	230.44
276.335	244.44
276.567	240.44
276.799	260.44
277.031	286.44
277.262	312.44
277.494	290.44
277.726	258.44
277.957	265.44
278.189	277.44
278.421	238.44
278.652	239.44
278.884	239.44
279.115	241.44
279.347	238.44
279.579	228.44
279.81	205.44
280.042	238.44
280.273	228.44
280.505	236.44
280.736	221.44
280.968	225.44
281.199	212.44
281.431	223.44
281.662	217.44
281.894	232.44
282.125	234.44
282.356	250.44
282.588	262.44
282.819	270.44
283.051	245.44
283.282	243.44
283.513	230.44
283.745	215.44
283.976	245.44
284.207	233.44
284.439	241.44
284.67	242.44
284.901	221.44
285.132	225.44
285.364	210.44
285.595	245.44
285.826	224.44
286.057	226.44
286.288	237.44
286.52	242.44
286.751	232.44
286.982	232.44
287.213	224.44
287.444	225.44
287.675	247.44
287.906	232.44
288.138	258.44
288.369	246.44
288.6	232.44
288.831	241.44
289.062	246.44
289.293	236.44
289.524	237.44
289.755	239.44
289.986	250.44
290.217	223.44
290.448	244.44
290.679	233.44
290.91	262.44
291.141	218.44
291.371	240.44
291.602	231.44
291.833	218.44
292.064	236.44
292.295	246.44
292.526	252.44
292.757	237.44
292.987	233.44
293.218	251.44
293.449	245.44
293.68	244.44
293.91	228.44
294.141	236.44
294.372	237.44
294.603	232.44
294.833	229.44
295.064	233.44
295.295	241.44
295.525	250.44
295.756	253.44
295.987	257.44
296.217	291.44
296.448	312.44
296.679	267.44
296.909	215.44
297.14	251.44
297.37	226.44
297.601	236.44
297.831	233.44
298.062	254.44
298.292	241.44
298.523	250.44
298.753	230.44
298.984	238.44
299.214	244.44
299.445	260.44
299.675	253.44
299.905	244.44
300.136	272.44
300.366	238.44
300.597	256.44
300.827	228.44
301.057	264.44
301.288	270.44
301.518	271.44
301.748	273.44
301.979	264.44
302.209	255.44
302.439	270.44
302.669	261.44
302.9	268.44
303.13	270.44
303.36	266.44
303.59	290.44
303.82	288.44
304.051	268.44
304.281	269.44
304.511	256.44
304.741	272.44
304.971	268.44
305.201	260.44
305.431	255.44
305.661	262.44
305.891	239.44
306.121	260.44
306.352	264.44
306.582	276.44
306.812	276.44
307.042	272.44
307.272	264.44
307.502	273.44
307.731	272.44
307.961	283.44
308.191	270.44
308.421	272.44
308.651	277.44
308.881	295.44
309.111	272.44
309.341	304.44
309.571	316.44
309.8	310.44
310.03	314.44
310.26	342.44
310.49	338.44
310.72	361.44
310.949	364.44
311.179	364.44
311.409	345.44
311.639	340.44
311.868	339.44
312.098	340.44
312.328	341.44
312.557	365.44
312.787	400.44
313.017	398.44
313.246	354.44
313.476	346.44
313.706	337.44
313.935	349.44
314.165	350.44
314.394	358.44
314.624	365.44
314.853	364.44
315.083	341.44
315.312	328.44
315.542	316.44
315.771	320.44
316.001	308.44
316.23	326.44
316.46	315.44
316.689	330.44
316.919	348.44
317.148	357.44
317.377	349.44
317.607	344.44
317.836	341.44
318.065	323.44
318.295	328.44
318.524	323.44
318.753	320.44
318.983	315.44
319.212	330.44
319.441	346.44
319.67	356.44
319.9	337.44
320.129	322.44
320.358	323.44
320.587	341.44
320.816	343.44
321.046	349.44
321.275	349.44
321.504	355.44
321.733	374.44
321.962	368.44
322.191	428.44
322.42	418.44
322.649	429.44
322.878	443.44
323.108	453.44
323.337	485.44
323.566	516.44
323.795	575.44
324.024	662.44
324.253	778.44
324.482	1162.44
324.71	1810.44
324.939	2489.44
325.168	2203.44
325.397	1202.44
325.626	795.44
325.855	617.44
326.084	550.44
326.313	544.44
326.542	538.44
326.77	594.44
326.999	728.44
327.228	1023.44
327.457	1556.44
327.686	1882.44
327.914	1334.44
328.143	865.44
328.372	705.44
328.6	650.44
328.829	622.44
329.058	616.44
329.287	654.44
329.515	604.44
329.744	504.44
329.972	491.44
330.201	489.44
330.43	530.44
330.658	616.44
330.887	665.44
331.115	626.44
331.344	520.44
331.572	466.44
331.801	457.44
332.03	471.44
332.258	434.44
332.486	400.44
332.715	389.44
332.943	394.44
333.172	388.44
333.4	375.44
333.629	380.44
333.857	402.44
334.085	404.44
334.314	374.44
334.542	367.44
334.771	388.44
334.999	394.44
335.227	397.44
335.455	382.44
335.684	382.44
335.912	351.44
336.14	376.44
336.369	368.44
336.597	382.44
336.825	390.44
337.053	392.44
337.281	390.44
337.51	363.44
337.738	358.44
337.966	364.44
338.194	375.44
338.422	381.44
338.65	376.44
338.878	376.44
339.106	337.44
339.334	351.44
339.562	358.44
339.79	368.44
340.018	350.44
340.246	353.44
340.474	377.44
340.702	353.44
340.93	352.44
341.158	353.44
341.386	372.44
341.614	370.44
341.842	364.44
342.07	359.44
342.298	358.44
342.526	364.44
342.754	343.44
342.981	346.44
343.209	343.44
343.437	348.44
343.665	318.44
343.893	338.44
344.12	368.44
344.348	365.44
344.576	365.44
344.804	368.44
345.031	392.44
345.259	408.44
345.487	402.44
345.714	354.44
345.942	369.44
346.17	364.44
346.397	365.44
346.625	377.44
346.853	373.44
347.08	372.44
347.308	385.44
347.535	368.44
347.763	379.44
347.99	382.44
348.218	390.44
348.445	386.44
348.673	397.44
348.9	376.44
349.128	348.44
349.355	348.44
349.583	338.44
349.81	348.44
350.037	350.44
350.265	330.44
350.492	356.44
350.72	344.44
350.947	352.44
351.174	354.44
351.402	380.44
351.629	388.44
351.856	385.44
352.083	374.44
352.311	410.44
352.538	406.44
352.765	384.44
352.992	386.44
353.22	373.44
353.447	381.44
353.674	360.44
353.901	342.44
354.128	348.44
354.355	342.44
354.583	326.44
354.81	330.44
355.037	317.44
355.264	319.44
355.491	328.44
355.718	312.44
355.945	329.44
356.172	305.44
356.399	335.44
356.626	315.44
356.853	295.44
357.08	323.44
357.307	327.44
357.534	315.44
357.761	304.44
357.988	352.44
358.215	333.44
358.441	325.44
358.668	318.44
358.895	353.44
359.122	345.44
359.349	326.44
359.576	383.44
359.802	412.44
360.029	459.44
360.256	479.44
360.483	435.44
360.709	392.44
360.936	384.44
361.163	375.44
361.39	373.44
361.616	365.44
361.843	380.44
362.07	368.44
362.296	383.44
362.523	373.44
362.749	391.44
362.976	357.44
363.203	358.44
363.429	349.44
363.656	350.44
363.882	340.44
364.109	336.44
364.335	339.44
364.562	370.44
364.788	327.44
365.015	345.44
365.241	349.44
365.468	352.44
365.694	368.44
365.92	364.44
366.147	366.44
366.373	350.44
366.599	344.44
366.826	339.44
367.052	339.44
367.278	342.44
367.505	328.44
367.731	341.44
367.957	336.44
368.184	338.44
368.41	341.44
368.636	371.44
368.862	361.44
369.089	381.44
369.315	340.44
369.541	345.44
369.767	335.44
369.993	343.44
370.219	329.44
370.445	349.44
370.672	333.44
370.898	326.44
371.124	329.44
371.35	338.44
371.576	320.44
371.802	311.44
372.028	322.44
372.254	337.44
372.48	319.44
372.706	323.44
372.932	327.44
373.158	319.44
373.384	318.44
373.61	336.44
373.835	330.44
374.061	322.44
374.287	341.44
374.513	340.44
374.739	312.44
374.965	326.44
375.191	339.44
375.416	324.44
375.642	318.44
375.868	337.44
376.094	325.44
376.319	331.44
376.545	319.44
376.771	341.44
376.997	306.44
377.222	332.44
377.448	338.44
377.674	329.44
377.899	308.44
378.125	336.44
378.35	345.44
378.576	321.44
378.802	317.44
379.027	326.44
379.253	317.44
379.478	326.44
379.704	321.44
379.929	333.44
380.155	326.44
380.38	340.44
380.606	333.44
380.831	312.44
381.057	331.44
381.282	332.44
381.507	342.44
381.733	321.44
381.958	308.44
382.184	328.44
382.409	312.44
382.634	334.44
382.86	323.44
383.085	339.44
383.31	315.44
383.535	347.44
383.761	345.44
383.986	337.44
384.211	330.44
384.436	319.44
384.662	327.44
384.887	337.44
385.112	340.44
385.337	348.44
385.562	331.44
385.787	348.44
386.013	358.44
386.238	358.44
386.463	344.44
386.688	362.44
386.913	343.44
387.138	354.44
387.363	347.44
387.588	350.44
387.813	342.44
388.038	334.44
388.263	354.44
388.488	343.44
388.713	338.44
388.938	328.44
389.163	362.44
389.387	356.44
389.612	347.44
389.837	357.44
390.062	362.44
390.287	354.44
390.512	332.44
390.736	328.44
390.961	332.44
391.186	334.44
391.411	330.44
391.636	346.44
391.86	345.44
392.085	350.44
392.31	332.44
392.534	337.44
392.759	352.44
392.984	339.44
393.208	343.44
393.433	355.44
393.658	359.44
393.882	347.44
394.107	353.44
394.331	337.44
394.556	363.44
394.78	336.44
395.005	365.44
395.229	331.44
395.454	348.44
395.678	356.44
395.903	342.44
396.127	377.44
396.352	394.44
396.576	381.44
396.801	359.44
397.025	351.44
397.249	376.44
397.474	363.44
397.698	369.44
397.922	379.44
398.147	384.44
398.371	416.44
398.595	389.44
398.82	396.44
399.044	383.44
399.268	380.44
399.492	390.44
399.717	403.44
399.941	440.44
400.165	471.44
400.389	494.44
400.613	449.44
400.837	411.44
401.062	421.44
401.286	395.44
401.51	386.44
401.734	373.44
401.958	381.44
402.182	404.44
402.406	425.44
402.63	428.44
402.854	402.44
403.078	396.44
403.302	413.44
403.526	426.44
403.75	401.44
403.974	393.44
404.198	418.44
404.422	411.44
404.645	438.44
404.869	425.44
405.093	434.44
405.317	458.44
405.541	483.44
405.765	459.44
405.988	445.44
406.212	443.44
406.436	474.44
406.66	509.44
406.883	478.44
407.107	481.44
407.331	521.44
407.555	575.44
407.778	559.44
408.002	528.44
408.226	481.44
408.449	478.44
408.673	466.44
408.896	469.44
409.12	502.44
409.344	510.44
409.567	456.44
409.791	445.44
410.014	408.44
410.238	419.44
410.461	415.44
410.685	439.44
410.908	433.44
411.132	476.44
411.355	510.44
411.578	495.44
411.802	432.44
412.025	448.44
412.249	413.44
412.472	430.44
412.695	448.44
412.919	426.44
413.142	406.44
413.365	378.44
413.589	393.44
413.812	386.44
414.035	392.44
414.258	388.44
414.482	390.44
414.705	401.44
414.928	398.44
415.151	379.44
415.374	372.44
415.597	406.44
415.821	388.44
416.044	392.44
416.267	368.44
416.49	396.44
416.713	387.44
416.936	410.44
417.159	384.44
417.382	403.44
417.605	410.44
417.828	410.44
418.051	434.44
418.274	446.44
418.497	410.44
418.72	393.44
418.943	401.44
419.166	425.44
419.389	433.44
419.611	433.44
419.834	413.44
420.057	412.44
420.28	434.44
420.503	415.44
420.726	412.44
420.948	436.44
421.171	486.44
421.394	514.44
421.617	470.44
421.839	452.44
422.062	449.44
422.285	448.44
422.507	502.44
422.73	571.44
422.953	550.44
423.175	500.44
423.398	471.44
423.621	474.44
423.843	498.44
424.066	489.44
424.288	474.44
424.511	533.44
424.733	558.44
424.956	652.44
425.178	612.44
425.401	619.44
425.623	621.44
425.846	566.44
426.068	498.44
426.291	516.44
426.513	512.44
426.735	508.44
426.958	566.44
427.18	662.44
427.402	723.44
427.625	829.44
427.847	805.44
428.069	650.44
428.292	585.44
428.514	531.44
428.736	497.44
428.958	485.44
429.181	466.44
429.403	457.44
429.625	487.44
429.847	531.44
430.069	588.44
430.292	590.44
430.514	494.44
430.736	444.44
430.958	461.44
431.18	415.44
431.402	433.44
431.624	423.44
431.846	415.44
432.068	421.44
432.29	430.44
432.512	438.44
432.734	432.44
432.956	424.44
433.178	433.44
433.4	429.44
433.622	422.44
433.844	429.44
434.066	413.44
434.287	426.44
434.509	431.44
434.731	429.44
434.953	420.44
435.175	462.44
435.397	470.44
435.618	500.44
435.84	557.44
436.062	634.44
436.284	685.44
436.505	614.44
436.727	522.44
436.949	487.44
437.17	458.44
437.392	491.44
437.614	500.44
437.835	529.44
438.057	636.44
438.278	713.44
438.5	730.44
438.721	751.44
438.943	714.44
439.165	629.44
439.386	554.44
439.608	544.44
439.829	539.44
440.05	550.44
440.272	600.44
440.493	578.44
440.715	525.44
440.936	497.44
441.158	483.44
441.379	481.44
441.6	486.44
441.822	503.44
442.043	560.44
442.264	631.44
442.486	673.44
442.707	580.44
442.928	561.44
443.149	534.44
443.371	576.44
443.592	577.44
443.813	695.44
444.034	703.44
444.255	593.44
444.476	518.44
444.698	520.44
444.919	491.44
445.14	582.44
445.361	554.44
445.582	557.44
445.803	631.44
446.024	730.44
446.245	740.44
446.466	684.44
446.687	529.44
446.908	539.44
447.129	495.44
447.35	500.44
447.571	455.44
447.792	470.44
448.013	477.44
448.234	522.44
448.455	557.44
448.675	657.44
448.896	768.44
449.117	658.44
449.338	621.44
449.559	716.44
449.779	753.44
450	658.44
450.221	561.44
450.442	497.44
450.662	485.44
450.883	492.44
451.104	511.44
451.324	512.44
451.545	485.44
451.766	455.44
451.986	442.44
452.207	433.44
452.428	424.44
452.648	431.44
452.869	433.44
453.089	435.44
453.31	453.44
453.53	441.44
453.751	433.44
453.971	445.44
454.192	488.44
454.412	473.44
454.633	431.44
454.853	443.44
455.073	425.44
455.294	468.44
455.514	516.44
455.734	509.44
455.955	445.44
456.175	410.44
456.395	395.44
456.616	371.44
456.836	388.44
457.056	410.44
457.276	400.44
457.497	390.44
457.717	384.44
457.937	392.44
458.157	413.44
458.377	407.44
458.598	434.44
458.818	516.44
459.038	604.44
459.258	615.44
459.478	524.44
459.698	457.44
459.918	431.44
460.138	421.44
460.358	430.44
460.578	415.44
460.798	450.44
461.018	415.44
461.238	418.44
461.458	404.44
461.678	401.44
461.898	421.44
462.118	398.44
462.338	399.44
462.558	418.44
462.777	412.44
462.997	429.44
463.217	444.44
463.437	418.44
463.657	433.44
463.876	430.44
464.096	424.44
464.316	413.44
464.536	449.44
464.755	448.44
464.975	456.44
465.195	530.44
465.414	648.44
465.634	554.44
465.854	499.44
466.073	473.44
466.293	456.44
466.512	408.44
466.732	434.44
466.951	433.44
467.171	421.44
467.391	428.44
467.61	431.44
467.829	453.44
468.049	432.44
468.268	428.44
468.488	389.44
468.707	384.44
468.927	398.44
469.146	399.44
469.365	425.44
469.585	420.44
469.804	417.44
470.023	430.44
470.243	440.44
470.462	445.44
470.681	459.44
470.901	474.44
471.12	438.44
471.339	404.44
471.558	437.44
471.777	432.44
471.997	412.44
472.216	432.44
472.435	425.44
472.654	410.44
472.873	431.44
473.092	423.44
473.311	427.44
473.53	429.44
473.749	456.44
473.968	471.44
474.187	577.44
474.406	604.44
474.625	487.44
474.844	460.44
475.063	432.44
475.282	420.44
475.501	443.44
475.72	461.44
475.939	451.44
476.158	455.44
476.377	426.44
476.596	433.44
476.814	420.44
477.033	458.44
477.252	450.44
477.471	462.44
477.69	454.44
477.908	461.44
478.127	462.44
478.346	473.44
478.564	458.44
478.783	453.44
479.002	468.44
479.22	479.44
479.439	501.44
479.658	540.44
479.876	538.44
480.095	516.44
480.313	539.44
480.532	527.44
480.751	508.44
480.969	492.44
481.188	525.44
481.406	555.44
481.624	533.44
481.843	495.44
482.061	505.44
482.28	492.44
482.498	473.44
482.717	487.44
482.935	494.44
483.153	501.44
483.372	488.44
483.59	496.44
483.808	522.44
484.027	510.44
484.245	530.44
484.463	513.44
484.681	511.44
484.9	513.44
485.118	517.44
485.336	516.44
485.554	514.44
485.772	528.44
485.99	524.44
486.209	550.44
486.427	525.44
486.645	546.44
486.863	573.44
487.081	556.44
487.299	567.44
487.517	551.44
487.735	537.44
487.953	557.44
488.171	534.44
488.389	544.44
488.607	545.44
488.825	569.44
489.043	518.44
489.261	554.44
489.479	560.44
489.696	549.44
489.914	581.44
490.132	588.44
490.35	579.44
490.568	588.44
490.786	586.44
491.003	598.44
491.221	599.44
491.439	604.44
491.657	620.44
491.874	621.44
492.092	609.44
492.31	615.44
492.527	638.44
492.745	646.44
492.963	651.44
493.18	644.44
493.398	637.44
493.615	670.44
493.833	655.44
494.05	667.44
494.268	644.44
494.485	652.44
494.703	659.44
494.92	671.44
495.138	648.44
495.355	662.44
495.573	679.44
495.79	677.44
496.008	671.44
496.225	660.44
496.442	665.44
496.66	657.44
496.877	648.44
497.094	650.44
497.312	655.44
497.529	682.44
497.746	665.44
497.963	696.44
498.181	714.44
498.398	726.44
498.615	705.44
498.832	705.44
499.049	719.44
499.267	706.44
499.484	729.44
499.701	730.44
499.918	737.44
500.135	755.44
500.352	767.44
500.569	791.44
500.786	776.44
501.003	782.44
501.22	785.44
501.437	765.44
501.654	778.44
501.871	796.44
