Data from 1987.PennyLincolnUp.Lamp.En5.5.200Scan.071819.P2_HRD10591_17-14-08-972.txt Node
Date: Thu Jul 18 17:14:08 EDT 2019
User: cochatt
Spectrometer: HR+D1059
Trigger mode: 1
Integration Time (sec): 1.000000E-1
Scans to average: 1
Electric dark correction enabled: true
Nonlinearity correction enabled: false
Boxcar width: 0
XAxis mode: Wavelengths
Number of Pixels in Spectrum: 2048
>>>>>Begin Spectral Data<<<<<
223.165	-22.44
223.4	-22.44
223.635	-22.44
223.869	-15.44
224.104	-20.44
224.338	-4.44
224.573	-23.44
224.808	-9.44
225.042	11.56
225.277	-10.44
225.511	-6.44
225.746	7.56
225.98	15.56
226.215	10.56
226.449	2.56
226.683	22.56
226.918	26.56
227.152	15.56
227.387	42.56
227.621	38.56
227.856	37.56
228.09	37.56
228.324	62.56
228.559	67.56
228.793	71.56
229.027	99.56
229.262	123.56
229.496	120.56
229.73	143.56
229.964	162.56
230.199	113.56
230.433	104.56
230.667	115.56
230.901	106.56
231.136	115.56
231.37	105.56
231.604	106.56
231.838	113.56
232.072	115.56
232.306	117.56
232.541	115.56
232.775	123.56
233.009	114.56
233.243	110.56
233.477	110.56
233.711	109.56
233.945	121.56
234.179	109.56
234.413	118.56
234.647	92.56
234.881	107.56
235.115	100.56
235.349	106.56
235.583	122.56
235.817	124.56
236.051	122.56
236.285	127.56
236.519	115.56
236.753	121.56
236.987	116.56
237.221	172.56
237.455	233.56
237.689	187.56
237.922	131.56
238.156	133.56
238.39	133.56
238.624	129.56
238.858	116.56
239.091	120.56
239.325	130.56
239.559	102.56
239.793	114.56
240.027	122.56
240.26	146.56
240.494	141.56
240.728	129.56
240.961	134.56
241.195	161.56
241.429	144.56
241.662	125.56
241.896	138.56
242.13	121.56
242.363	121.56
242.597	134.56
242.83	125.56
243.064	126.56
243.298	128.56
243.531	125.56
243.765	116.56
243.998	125.56
244.232	133.56
244.465	139.56
244.699	133.56
244.932	133.56
245.166	124.56
245.399	149.56
245.633	139.56
245.866	127.56
246.099	145.56
246.333	135.56
246.566	142.56
246.8	137.56
247.033	148.56
247.266	159.56
247.5	152.56
247.733	130.56
247.966	167.56
248.2	149.56
248.433	148.56
248.666	149.56
248.899	170.56
249.133	180.56
249.366	182.56
249.599	202.56
249.832	170.56
250.066	162.56
250.299	171.56
250.532	179.56
250.765	177.56
250.998	206.56
251.231	197.56
251.465	184.56
251.698	186.56
251.931	197.56
252.164	180.56
252.397	187.56
252.63	191.56
252.863	200.56
253.096	187.56
253.329	198.56
253.562	185.56
253.795	199.56
254.028	192.56
254.261	201.56
254.494	216.56
254.727	245.56
254.96	238.56
255.193	241.56
255.426	241.56
255.659	213.56
255.892	223.56
256.124	192.56
256.357	189.56
256.59	205.56
256.823	173.56
257.056	179.56
257.289	189.56
257.521	185.56
257.754	175.56
257.987	184.56
258.22	196.56
258.452	183.56
258.685	184.56
258.918	181.56
259.151	206.56
259.383	191.56
259.616	189.56
259.849	195.56
260.081	194.56
260.314	220.56
260.547	233.56
260.779	210.56
261.012	204.56
261.244	206.56
261.477	193.56
261.71	205.56
261.942	195.56
262.175	203.56
262.407	223.56
262.64	205.56
262.872	179.56
263.105	166.56
263.337	182.56
263.57	171.56
263.802	181.56
264.035	185.56
264.267	187.56
264.499	170.56
264.732	173.56
264.964	179.56
265.197	178.56
265.429	191.56
265.661	162.56
265.894	188.56
266.126	174.56
266.358	178.56
266.591	182.56
266.823	191.56
267.055	184.56
267.287	210.56
267.52	177.56
267.752	196.56
267.984	208.56
268.216	193.56
268.448	191.56
268.681	203.56
268.913	197.56
269.145	217.56
269.377	233.56
269.609	230.56
269.841	231.56
270.073	222.56
270.306	238.56
270.538	254.56
270.77	263.56
271.002	263.56
271.234	259.56
271.466	263.56
271.698	270.56
271.93	257.56
272.162	266.56
272.394	260.56
272.626	233.56
272.858	251.56
273.09	236.56
273.322	243.56
273.553	234.56
273.785	245.56
274.017	230.56
274.249	214.56
274.481	214.56
274.713	218.56
274.945	231.56
275.176	226.56
275.408	226.56
275.64	223.56
275.872	216.56
276.104	223.56
276.335	197.56
276.567	214.56
276.799	227.56
277.031	253.56
277.262	269.56
277.494	251.56
277.726	237.56
277.957	234.56
278.189	235.56
278.421	220.56
278.652	215.56
278.884	226.56
279.115	221.56
279.347	207.56
279.579	210.56
279.81	220.56
280.042	199.56
280.273	208.56
280.505	219.56
280.736	213.56
280.968	199.56
281.199	205.56
281.431	218.56
281.662	201.56
281.894	203.56
282.125	201.56
282.356	226.56
282.588	251.56
282.819	251.56
283.051	226.56
283.282	223.56
283.513	222.56
283.745	213.56
283.976	205.56
284.207	213.56
284.439	222.56
284.67	240.56
284.901	210.56
285.132	208.56
285.364	215.56
285.595	210.56
285.826	206.56
286.057	207.56
286.288	205.56
286.52	215.56
286.751	219.56
286.982	214.56
287.213	233.56
287.444	204.56
287.675	211.56
287.906	226.56
288.138	209.56
288.369	244.56
288.6	228.56
288.831	239.56
289.062	220.56
289.293	235.56
289.524	244.56
289.755	213.56
289.986	219.56
290.217	220.56
290.448	219.56
290.679	208.56
290.91	200.56
291.141	207.56
291.371	215.56
291.602	216.56
291.833	229.56
292.064	228.56
292.295	216.56
292.526	223.56
292.757	223.56
292.987	210.56
293.218	218.56
293.449	220.56
293.68	221.56
293.91	226.56
294.141	212.56
294.372	210.56
294.603	235.56
294.833	226.56
295.064	218.56
295.295	225.56
295.525	219.56
295.756	238.56
295.987	247.56
296.217	261.56
296.448	252.56
296.679	246.56
296.909	220.56
297.14	228.56
297.37	238.56
297.601	218.56
297.831	217.56
298.062	228.56
298.292	237.56
298.523	233.56
298.753	221.56
298.984	233.56
299.214	234.56
299.445	213.56
299.675	212.56
299.905	218.56
300.136	215.56
300.366	232.56
300.597	235.56
300.827	238.56
301.057	261.56
301.288	247.56
301.518	221.56
301.748	259.56
301.979	241.56
302.209	253.56
302.439	247.56
302.669	238.56
302.9	249.56
303.13	223.56
303.36	229.56
303.59	228.56
303.82	249.56
304.051	246.56
304.281	237.56
304.511	237.56
304.741	233.56
304.971	243.56
305.201	252.56
305.431	245.56
305.661	246.56
305.891	243.56
306.121	247.56
306.352	260.56
306.582	268.56
306.812	248.56
307.042	245.56
307.272	250.56
307.502	254.56
307.731	257.56
307.961	231.56
308.191	248.56
308.421	269.56
308.651	264.56
308.881	248.56
309.111	270.56
309.341	270.56
309.571	264.56
309.8	295.56
310.03	281.56
310.26	290.56
310.49	285.56
310.72	305.56
310.949	309.56
311.179	309.56
311.409	307.56
311.639	279.56
311.868	301.56
312.098	290.56
312.328	309.56
312.557	309.56
312.787	322.56
313.017	342.56
313.246	313.56
313.476	315.56
313.706	290.56
313.935	312.56
314.165	288.56
314.394	317.56
314.624	324.56
314.853	322.56
315.083	313.56
315.312	302.56
315.542	291.56
315.771	260.56
316.001	280.56
316.23	287.56
316.46	308.56
316.689	306.56
316.919	255.56
317.148	291.56
317.377	291.56
317.607	292.56
317.836	297.56
318.065	300.56
318.295	285.56
318.524	283.56
318.753	278.56
318.983	294.56
319.212	284.56
319.441	287.56
319.67	308.56
319.9	317.56
320.129	315.56
320.358	301.56
320.587	301.56
320.816	310.56
321.046	329.56
321.275	323.56
321.504	319.56
321.733	303.56
321.962	319.56
322.191	326.56
322.42	344.56
322.649	353.56
322.878	403.56
323.108	385.56
323.337	442.56
323.566	437.56
323.795	473.56
324.024	523.56
324.253	665.56
324.482	949.56
324.71	1416.56
324.939	2020.56
325.168	1769.56
325.397	980.56
325.626	642.56
325.855	537.56
326.084	446.56
326.313	462.56
326.542	463.56
326.77	507.56
326.999	571.56
327.228	806.56
327.457	1265.56
327.686	1527.56
327.914	1060.56
328.143	693.56
328.372	581.56
328.6	534.56
328.829	501.56
329.058	535.56
329.287	512.56
329.515	496.56
329.744	452.56
329.972	437.56
330.201	441.56
330.43	434.56
330.658	483.56
330.887	553.56
331.115	533.56
331.344	431.56
331.572	403.56
331.801	392.56
332.03	406.56
332.258	399.56
332.486	370.56
332.715	348.56
332.943	337.56
333.172	345.56
333.4	342.56
333.629	361.56
333.857	358.56
334.085	344.56
334.314	347.56
334.542	341.56
334.771	377.56
334.999	350.56
335.227	321.56
335.455	336.56
335.684	345.56
335.912	310.56
336.14	330.56
336.369	335.56
336.597	356.56
336.825	336.56
337.053	340.56
337.281	330.56
337.51	350.56
337.738	345.56
337.966	346.56
338.194	347.56
338.422	323.56
338.65	347.56
338.878	333.56
339.106	326.56
339.334	340.56
339.562	316.56
339.79	316.56
340.018	345.56
340.246	339.56
340.474	333.56
340.702	332.56
340.93	326.56
341.158	334.56
341.386	321.56
341.614	321.56
341.842	318.56
342.07	318.56
342.298	324.56
342.526	322.56
342.754	310.56
342.981	318.56
343.209	311.56
343.437	313.56
343.665	300.56
343.893	328.56
344.12	316.56
344.348	323.56
344.576	343.56
344.804	329.56
345.031	339.56
345.259	341.56
345.487	322.56
345.714	343.56
345.942	330.56
346.17	339.56
346.397	321.56
346.625	325.56
346.853	325.56
347.08	324.56
347.308	344.56
347.535	333.56
347.763	346.56
347.99	356.56
348.218	340.56
348.445	351.56
348.673	332.56
348.9	344.56
349.128	323.56
349.355	322.56
349.583	309.56
349.81	305.56
350.037	302.56
350.265	320.56
350.492	327.56
350.72	302.56
350.947	325.56
351.174	345.56
351.402	346.56
351.629	330.56
351.856	339.56
352.083	352.56
352.311	356.56
352.538	342.56
352.765	363.56
352.992	353.56
353.22	340.56
353.447	339.56
353.674	324.56
353.901	305.56
354.128	315.56
354.355	314.56
354.583	297.56
354.81	312.56
355.037	289.56
355.264	289.56
355.491	293.56
355.718	301.56
355.945	302.56
356.172	308.56
356.399	287.56
356.626	302.56
356.853	277.56
357.08	289.56
357.307	285.56
357.534	291.56
357.761	299.56
357.988	311.56
358.215	295.56
358.441	298.56
358.668	300.56
358.895	287.56
359.122	307.56
359.349	322.56
359.576	313.56
359.802	363.56
360.029	397.56
360.256	387.56
360.483	382.56
360.709	342.56
360.936	322.56
361.163	333.56
361.39	345.56
361.616	356.56
361.843	345.56
362.07	325.56
362.296	347.56
362.523	341.56
362.749	351.56
362.976	331.56
363.203	324.56
363.429	319.56
363.656	307.56
363.882	321.56
364.109	305.56
364.335	317.56
364.562	330.56
364.788	311.56
365.015	327.56
365.241	314.56
365.468	315.56
365.694	326.56
365.92	319.56
366.147	317.56
366.373	323.56
366.599	314.56
366.826	302.56
367.052	310.56
367.278	326.56
367.505	321.56
367.731	308.56
367.957	318.56
368.184	303.56
368.41	336.56
368.636	327.56
368.862	308.56
369.089	326.56
369.315	308.56
369.541	309.56
369.767	298.56
369.993	300.56
370.219	322.56
370.445	311.56
370.672	307.56
370.898	309.56
371.124	314.56
371.35	319.56
371.576	284.56
371.802	302.56
372.028	318.56
372.254	312.56
372.48	309.56
372.706	309.56
372.932	331.56
373.158	305.56
373.384	308.56
373.61	306.56
373.835	319.56
374.061	289.56
374.287	300.56
374.513	318.56
374.739	311.56
374.965	295.56
375.191	291.56
375.416	301.56
375.642	307.56
375.868	311.56
376.094	315.56
376.319	327.56
376.545	334.56
376.771	314.56
376.997	295.56
377.222	302.56
377.448	305.56
377.674	307.56
377.899	287.56
378.125	293.56
378.35	302.56
378.576	315.56
378.802	308.56
379.027	304.56
379.253	310.56
379.478	287.56
379.704	302.56
379.929	298.56
380.155	316.56
380.38	310.56
380.606	318.56
380.831	302.56
381.057	315.56
381.282	309.56
381.507	333.56
381.733	305.56
381.958	290.56
382.184	293.56
382.409	319.56
382.634	306.56
382.86	299.56
383.085	310.56
383.31	308.56
383.535	315.56
383.761	316.56
383.986	307.56
384.211	315.56
384.436	329.56
384.662	325.56
384.887	330.56
385.112	313.56
385.337	315.56
385.562	326.56
385.787	319.56
386.013	337.56
386.238	341.56
386.463	329.56
386.688	344.56
386.913	330.56
387.138	339.56
387.363	326.56
387.588	319.56
387.813	323.56
388.038	322.56
388.263	321.56
388.488	337.56
388.713	332.56
388.938	334.56
389.163	341.56
389.387	323.56
389.612	343.56
389.837	321.56
390.062	329.56
390.287	310.56
390.512	322.56
390.736	326.56
390.961	343.56
391.186	315.56
391.411	353.56
391.636	322.56
391.86	348.56
392.085	325.56
392.31	324.56
392.534	328.56
392.759	330.56
392.984	331.56
393.208	322.56
393.433	342.56
393.658	354.56
393.882	334.56
394.107	347.56
394.331	331.56
394.556	332.56
394.78	343.56
395.005	333.56
395.229	315.56
395.454	325.56
395.678	339.56
395.903	350.56
396.127	342.56
396.352	370.56
396.576	350.56
396.801	368.56
397.025	344.56
397.249	357.56
397.474	350.56
397.698	345.56
397.922	364.56
398.147	372.56
398.371	362.56
398.595	351.56
398.82	348.56
399.044	373.56
399.268	373.56
399.492	381.56
399.717	406.56
399.941	419.56
400.165	429.56
400.389	442.56
400.613	433.56
400.837	412.56
401.062	364.56
401.286	375.56
401.51	379.56
401.734	379.56
401.958	364.56
402.182	375.56
402.406	400.56
402.63	381.56
402.854	388.56
403.078	385.56
403.302	381.56
403.526	378.56
403.75	379.56
403.974	385.56
404.198	389.56
404.422	378.56
404.645	383.56
404.869	397.56
405.093	397.56
405.317	426.56
405.541	451.56
405.765	441.56
405.988	403.56
406.212	417.56
406.436	446.56
406.66	466.56
406.883	439.56
407.107	458.56
407.331	478.56
407.555	522.56
407.778	533.56
408.002	470.56
408.226	437.56
408.449	410.56
408.673	426.56
408.896	483.56
409.12	513.56
409.344	461.56
409.567	435.56
409.791	408.56
410.014	400.56
410.238	406.56
410.461	391.56
410.685	402.56
410.908	418.56
411.132	445.56
411.355	481.56
411.578	435.56
411.802	408.56
412.025	402.56
412.249	415.56
412.472	381.56
412.695	420.56
412.919	400.56
413.142	378.56
413.365	380.56
413.589	364.56
413.812	362.56
414.035	371.56
414.258	354.56
414.482	362.56
414.705	384.56
414.928	379.56
415.151	367.56
415.374	365.56
415.597	361.56
415.821	369.56
416.044	373.56
416.267	396.56
416.49	378.56
416.713	372.56
416.936	371.56
417.159	389.56
417.382	387.56
417.605	380.56
417.828	394.56
418.051	387.56
418.274	415.56
418.497	391.56
418.72	390.56
418.943	387.56
419.166	378.56
419.389	405.56
419.611	405.56
419.834	429.56
420.057	394.56
420.28	403.56
420.503	417.56
420.726	401.56
420.948	406.56
421.171	456.56
421.394	475.56
421.617	425.56
421.839	413.56
422.062	417.56
422.285	430.56
422.507	469.56
422.73	571.56
422.953	552.56
423.175	480.56
423.398	425.56
423.621	430.56
423.843	454.56
424.066	459.56
424.288	446.56
424.511	469.56
424.733	516.56
424.956	601.56
425.178	583.56
425.401	561.56
425.623	580.56
425.846	532.56
426.068	484.56
426.291	461.56
426.513	492.56
426.735	476.56
426.958	499.56
427.18	587.56
427.402	707.56
427.625	745.56
427.847	697.56
428.069	595.56
428.292	522.56
428.514	478.56
428.736	468.56
428.958	442.56
429.181	432.56
429.403	419.56
429.625	447.56
429.847	453.56
430.069	527.56
430.292	537.56
430.514	463.56
430.736	439.56
430.958	416.56
431.18	417.56
431.402	398.56
431.624	399.56
431.846	389.56
432.068	415.56
432.29	417.56
432.512	393.56
432.734	399.56
432.956	415.56
433.178	413.56
433.4	427.56
433.622	398.56
433.844	412.56
434.066	399.56
434.287	397.56
434.509	394.56
434.731	403.56
434.953	401.56
435.175	410.56
435.397	436.56
435.618	441.56
435.84	510.56
436.062	555.56
436.284	620.56
436.505	547.56
436.727	491.56
436.949	443.56
437.17	426.56
437.392	435.56
437.614	437.56
437.835	483.56
438.057	563.56
438.278	673.56
438.5	669.56
438.721	719.56
438.943	705.56
439.165	554.56
439.386	488.56
439.608	481.56
439.829	499.56
440.05	518.56
440.272	550.56
440.493	518.56
440.715	478.56
440.936	457.56
441.158	448.56
441.379	428.56
441.6	447.56
441.822	462.56
442.043	488.56
442.264	563.56
442.486	629.56
442.707	526.56
442.928	507.56
443.149	479.56
443.371	517.56
443.592	555.56
443.813	626.56
444.034	685.56
444.255	570.56
444.476	506.56
444.698	455.56
444.919	453.56
445.14	546.56
445.361	505.56
445.582	508.56
445.803	574.56
446.024	647.56
446.245	643.56
446.466	595.56
446.687	521.56
446.908	477.56
447.129	460.56
447.35	454.56
447.571	438.56
447.792	445.56
448.013	443.56
448.234	470.56
448.455	524.56
448.675	611.56
448.896	692.56
449.117	618.56
449.338	572.56
449.559	663.56
449.779	732.56
450	604.56
450.221	524.56
450.442	463.56
450.662	441.56
450.883	470.56
451.104	476.56
451.324	475.56
451.545	440.56
451.766	398.56
451.986	411.56
452.207	398.56
452.428	393.56
452.648	392.56
452.869	391.56
453.089	417.56
453.31	436.56
453.53	386.56
453.751	407.56
453.971	393.56
454.192	413.56
454.412	407.56
454.633	410.56
454.853	396.56
455.073	379.56
455.294	418.56
455.514	465.56
455.734	481.56
455.955	407.56
456.175	378.56
456.395	351.56
456.616	371.56
456.836	354.56
457.056	383.56
457.276	357.56
457.497	360.56
457.717	363.56
457.937	376.56
458.157	355.56
458.377	388.56
458.598	401.56
458.818	468.56
459.038	531.56
459.258	563.56
459.478	443.56
459.698	437.56
459.918	403.56
460.138	401.56
460.358	377.56
460.578	397.56
460.798	381.56
461.018	393.56
461.238	405.56
461.458	397.56
461.678	385.56
461.898	386.56
462.118	381.56
462.338	393.56
462.558	405.56
462.777	384.56
462.997	404.56
463.217	390.56
463.437	423.56
463.657	433.56
463.876	401.56
464.096	397.56
464.316	409.56
464.536	408.56
464.755	439.56
464.975	437.56
465.195	470.56
465.414	571.56
465.634	498.56
465.854	452.56
466.073	428.56
466.293	413.56
466.512	411.56
466.732	393.56
466.951	394.56
467.171	386.56
467.391	384.56
467.61	405.56
467.829	407.56
468.049	393.56
468.268	381.56
468.488	401.56
468.707	358.56
468.927	362.56
469.146	374.56
469.365	385.56
469.585	399.56
469.804	387.56
470.023	395.56
470.243	382.56
470.462	396.56
470.681	409.56
470.901	414.56
471.12	406.56
471.339	387.56
471.558	432.56
471.777	409.56
471.997	388.56
472.216	395.56
472.435	401.56
472.654	401.56
472.873	369.56
473.092	393.56
473.311	393.56
473.53	395.56
473.749	411.56
473.968	464.56
474.187	543.56
474.406	548.56
474.625	470.56
474.844	410.56
475.063	424.56
475.282	422.56
475.501	397.56
475.72	415.56
475.939	422.56
476.158	413.56
476.377	427.56
476.596	426.56
476.814	427.56
477.033	403.56
477.252	422.56
477.471	437.56
477.69	445.56
477.908	415.56
478.127	435.56
478.346	425.56
478.564	427.56
478.783	428.56
479.002	449.56
479.22	444.56
479.439	451.56
479.658	475.56
479.876	489.56
480.095	486.56
480.313	511.56
480.532	496.56
480.751	488.56
480.969	491.56
481.188	491.56
481.406	494.56
481.624	490.56
481.843	475.56
482.061	473.56
482.28	452.56
482.498	476.56
482.717	463.56
482.935	490.56
483.153	492.56
483.372	467.56
483.59	452.56
483.808	461.56
484.027	462.56
484.245	466.56
484.463	472.56
484.681	499.56
484.9	479.56
485.118	505.56
485.336	454.56
485.554	500.56
485.772	484.56
485.99	495.56
486.209	489.56
486.427	493.56
486.645	474.56
486.863	527.56
487.081	521.56
487.299	519.56
487.517	543.56
487.735	527.56
487.953	519.56
488.171	507.56
488.389	510.56
488.607	529.56
488.825	535.56
489.043	503.56
489.261	508.56
489.479	514.56
489.696	533.56
489.914	535.56
490.132	536.56
490.35	534.56
490.568	555.56
490.786	539.56
491.003	568.56
491.221	554.56
491.439	558.56
491.657	583.56
491.874	595.56
492.092	575.56
492.31	595.56
492.527	606.56
492.745	606.56
492.963	605.56
493.18	620.56
493.398	600.56
493.615	620.56
493.833	600.56
494.05	609.56
494.268	606.56
494.485	625.56
494.703	595.56
494.92	630.56
495.138	616.56
495.355	617.56
495.573	638.56
495.79	624.56
496.008	615.56
496.225	620.56
496.442	601.56
496.66	620.56
496.877	595.56
497.094	652.56
497.312	628.56
497.529	621.56
497.746	637.56
497.963	657.56
498.181	655.56
498.398	647.56
498.615	657.56
498.832	675.56
499.049	681.56
499.267	695.56
499.484	700.56
499.701	696.56
499.918	723.56
500.135	710.56
500.352	721.56
500.569	749.56
500.786	736.56
501.003	747.56
501.22	743.56
501.437	719.56
501.654	729.56
501.871	751.56
