Data from 1987.PennyLincolnUp.Lamp.En5.5.200Scan.071819.P2_HRD10591_17-15-51-972.txt Node
Date: Thu Jul 18 17:15:51 EDT 2019
User: cochatt
Spectrometer: HR+D1059
Trigger mode: 1
Integration Time (sec): 1.000000E-1
Scans to average: 1
Electric dark correction enabled: true
Nonlinearity correction enabled: false
Boxcar width: 0
XAxis mode: Wavelengths
Number of Pixels in Spectrum: 2048
>>>>>Begin Spectral Data<<<<<
223.165	-6.25
223.4	-6.25
223.635	-6.25
223.869	-15.25
224.104	-18.25
224.338	-15.25
224.573	-20.25
224.808	-10.25
225.042	-14.25
225.277	-6.25
225.511	-2.25
225.746	5.75
225.98	9.75
226.215	9.75
226.449	20.75
226.683	20.75
226.918	12.75
227.152	28.75
227.387	25.75
227.621	31.75
227.856	44.75
228.09	54.75
228.324	48.75
228.559	56.75
228.793	61.75
229.027	118.75
229.262	104.75
229.496	132.75
229.73	159.75
229.964	161.75
230.199	152.75
230.433	127.75
230.667	116.75
230.901	122.75
231.136	116.75
231.37	118.75
231.604	127.75
231.838	114.75
232.072	104.75
232.306	133.75
232.541	129.75
232.775	113.75
233.009	127.75
233.243	110.75
233.477	113.75
233.711	117.75
233.945	113.75
234.179	112.75
234.413	130.75
234.647	122.75
234.881	115.75
235.115	105.75
235.349	115.75
235.583	109.75
235.817	122.75
236.051	131.75
236.285	136.75
236.519	111.75
236.753	127.75
236.987	149.75
237.221	198.75
237.455	265.75
237.689	211.75
237.922	143.75
238.156	119.75
238.39	142.75
238.624	104.75
238.858	117.75
239.091	129.75
239.325	119.75
239.559	116.75
239.793	127.75
240.027	131.75
240.26	144.75
240.494	161.75
240.728	157.75
240.961	149.75
241.195	156.75
241.429	140.75
241.662	136.75
241.896	140.75
242.13	132.75
242.363	125.75
242.597	134.75
242.83	131.75
243.064	133.75
243.298	141.75
243.531	137.75
243.765	129.75
243.998	140.75
244.232	138.75
244.465	151.75
244.699	131.75
244.932	150.75
245.166	145.75
245.399	144.75
245.633	124.75
245.866	146.75
246.099	138.75
246.333	147.75
246.566	143.75
246.8	151.75
247.033	159.75
247.266	149.75
247.5	156.75
247.733	164.75
247.966	135.75
248.2	165.75
248.433	175.75
248.666	163.75
248.899	195.75
249.133	189.75
249.366	227.75
249.599	213.75
249.832	189.75
250.066	159.75
250.299	180.75
250.532	203.75
250.765	196.75
250.998	209.75
251.231	221.75
251.465	226.75
251.698	194.75
251.931	187.75
252.164	187.75
252.397	189.75
252.63	201.75
252.863	212.75
253.096	224.75
253.329	223.75
253.562	219.75
253.795	220.75
254.028	219.75
254.261	220.75
254.494	214.75
254.727	266.75
254.96	291.75
255.193	277.75
255.426	243.75
255.659	225.75
255.892	225.75
256.124	214.75
256.357	206.75
256.59	197.75
256.823	183.75
257.056	195.75
257.289	200.75
257.521	191.75
257.754	205.75
257.987	200.75
258.22	197.75
258.452	197.75
258.685	205.75
258.918	199.75
259.151	214.75
259.383	217.75
259.616	216.75
259.849	213.75
260.081	221.75
260.314	249.75
260.547	261.75
260.779	247.75
261.012	225.75
261.244	210.75
261.477	197.75
261.71	223.75
261.942	212.75
262.175	227.75
262.407	219.75
262.64	215.75
262.872	187.75
263.105	197.75
263.337	179.75
263.57	181.75
263.802	189.75
264.035	196.75
264.267	190.75
264.499	187.75
264.732	201.75
264.964	183.75
265.197	179.75
265.429	192.75
265.661	191.75
265.894	193.75
266.126	199.75
266.358	193.75
266.591	187.75
266.823	201.75
267.055	220.75
267.287	214.75
267.52	201.75
267.752	208.75
267.984	198.75
268.216	203.75
268.448	212.75
268.681	208.75
268.913	233.75
269.145	233.75
269.377	260.75
269.609	256.75
269.841	266.75
270.073	262.75
270.306	280.75
270.538	323.75
270.77	309.75
271.002	298.75
271.234	298.75
271.466	283.75
271.698	311.75
271.93	305.75
272.162	309.75
272.394	302.75
272.626	297.75
272.858	270.75
273.09	283.75
273.322	269.75
273.553	259.75
273.785	241.75
274.017	244.75
274.249	223.75
274.481	223.75
274.713	237.75
274.945	229.75
275.176	249.75
275.408	232.75
275.64	239.75
275.872	241.75
276.104	237.75
276.335	249.75
276.567	243.75
276.799	263.75
277.031	292.75
277.262	291.75
277.494	293.75
277.726	278.75
277.957	248.75
278.189	271.75
278.421	263.75
278.652	243.75
278.884	232.75
279.115	239.75
279.347	244.75
279.579	226.75
279.81	244.75
280.042	215.75
280.273	232.75
280.505	221.75
280.736	240.75
280.968	235.75
281.199	233.75
281.431	219.75
281.662	212.75
281.894	235.75
282.125	228.75
282.356	272.75
282.588	276.75
282.819	306.75
283.051	255.75
283.282	230.75
283.513	229.75
283.745	235.75
283.976	236.75
284.207	236.75
284.439	239.75
284.67	223.75
284.901	225.75
285.132	231.75
285.364	235.75
285.595	240.75
285.826	233.75
286.057	242.75
286.288	240.75
286.52	243.75
286.751	255.75
286.982	233.75
287.213	229.75
287.444	227.75
287.675	220.75
287.906	252.75
288.138	264.75
288.369	254.75
288.6	269.75
288.831	234.75
289.062	253.75
289.293	251.75
289.524	220.75
289.755	220.75
289.986	249.75
290.217	245.75
290.448	228.75
290.679	226.75
290.91	232.75
291.141	240.75
291.371	222.75
291.602	246.75
291.833	221.75
292.064	255.75
292.295	228.75
292.526	223.75
292.757	230.75
292.987	239.75
293.218	226.75
293.449	232.75
293.68	240.75
293.91	235.75
294.141	233.75
294.372	227.75
294.603	254.75
294.833	241.75
295.064	256.75
295.295	238.75
295.525	243.75
295.756	251.75
295.987	248.75
296.217	287.75
296.448	300.75
296.679	257.75
296.909	240.75
297.14	245.75
297.37	275.75
297.601	247.75
297.831	267.75
298.062	245.75
298.292	261.75
298.523	256.75
298.753	269.75
298.984	264.75
299.214	246.75
299.445	234.75
299.675	241.75
299.905	263.75
300.136	273.75
300.366	248.75
300.597	246.75
300.827	266.75
301.057	260.75
301.288	291.75
301.518	277.75
301.748	279.75
301.979	265.75
302.209	261.75
302.439	276.75
302.669	284.75
302.9	256.75
303.13	272.75
303.36	272.75
303.59	285.75
303.82	302.75
304.051	277.75
304.281	273.75
304.511	253.75
304.741	245.75
304.971	264.75
305.201	271.75
305.431	247.75
305.661	260.75
305.891	275.75
306.121	286.75
306.352	296.75
306.582	295.75
306.812	294.75
307.042	285.75
307.272	270.75
307.502	290.75
307.731	276.75
307.961	272.75
308.191	263.75
308.421	280.75
308.651	276.75
308.881	293.75
309.111	295.75
309.341	308.75
309.571	315.75
309.8	337.75
310.03	337.75
310.26	358.75
310.49	322.75
310.72	351.75
310.949	396.75
311.179	375.75
311.409	356.75
311.639	343.75
311.868	353.75
312.098	338.75
312.328	343.75
312.557	380.75
312.787	403.75
313.017	417.75
313.246	364.75
313.476	322.75
313.706	344.75
313.935	324.75
314.165	362.75
314.394	373.75
314.624	366.75
314.853	342.75
315.083	344.75
315.312	312.75
315.542	322.75
315.771	320.75
316.001	314.75
316.23	335.75
316.46	302.75
316.689	335.75
316.919	351.75
317.148	331.75
317.377	351.75
317.607	358.75
317.836	348.75
318.065	342.75
318.295	330.75
318.524	324.75
318.753	321.75
318.983	333.75
319.212	311.75
319.441	344.75
319.67	347.75
319.9	340.75
320.129	340.75
320.358	359.75
320.587	345.75
320.816	338.75
321.046	363.75
321.275	388.75
321.504	359.75
321.733	367.75
321.962	385.75
322.191	404.75
322.42	421.75
322.649	456.75
322.878	457.75
323.108	488.75
323.337	526.75
323.566	543.75
323.795	603.75
324.024	635.75
324.253	856.75
324.482	1243.75
324.71	1898.75
324.939	2679.75
325.168	2357.75
325.397	1271.75
325.626	849.75
325.855	653.75
326.084	568.75
326.313	557.75
326.542	550.75
326.77	607.75
326.999	751.75
327.228	1062.75
327.457	1642.75
327.686	2067.75
327.914	1418.75
328.143	882.75
328.372	739.75
328.6	684.75
328.829	634.75
329.058	676.75
329.287	673.75
329.515	631.75
329.744	518.75
329.972	513.75
330.201	520.75
330.43	566.75
330.658	614.75
330.887	681.75
331.115	677.75
331.344	571.75
331.572	499.75
331.801	514.75
332.03	508.75
332.258	426.75
332.486	413.75
332.715	387.75
332.943	401.75
333.172	409.75
333.4	398.75
333.629	418.75
333.857	412.75
334.085	402.75
334.314	377.75
334.542	393.75
334.771	409.75
334.999	397.75
335.227	394.75
335.455	385.75
335.684	394.75
335.912	374.75
336.14	369.75
336.369	385.75
336.597	394.75
336.825	389.75
337.053	381.75
337.281	376.75
337.51	367.75
337.738	381.75
337.966	397.75
338.194	395.75
338.422	384.75
338.65	360.75
338.878	393.75
339.106	365.75
339.334	360.75
339.562	378.75
339.79	383.75
340.018	386.75
340.246	369.75
340.474	388.75
340.702	378.75
340.93	380.75
341.158	372.75
341.386	362.75
341.614	395.75
341.842	388.75
342.07	349.75
342.298	374.75
342.526	383.75
342.754	370.75
342.981	345.75
343.209	352.75
343.437	323.75
343.665	363.75
343.893	350.75
344.12	349.75
344.348	359.75
344.576	367.75
344.804	407.75
345.031	406.75
345.259	398.75
345.487	382.75
345.714	386.75
345.942	370.75
346.17	381.75
346.397	379.75
346.625	377.75
346.853	378.75
347.08	364.75
347.308	371.75
347.535	379.75
347.763	397.75
347.99	365.75
348.218	398.75
348.445	394.75
348.673	414.75
348.9	396.75
349.128	390.75
349.355	362.75
349.583	345.75
349.81	337.75
350.037	356.75
350.265	371.75
350.492	367.75
350.72	369.75
350.947	373.75
351.174	372.75
351.402	395.75
351.629	404.75
351.856	383.75
352.083	410.75
352.311	409.75
352.538	426.75
352.765	419.75
352.992	400.75
353.22	399.75
353.447	390.75
353.674	379.75
353.901	356.75
354.128	328.75
354.355	343.75
354.583	357.75
354.81	336.75
355.037	338.75
355.264	324.75
355.491	350.75
355.718	337.75
355.945	332.75
356.172	342.75
356.399	325.75
356.626	325.75
356.853	348.75
357.08	331.75
357.307	319.75
357.534	332.75
357.761	336.75
357.988	335.75
358.215	343.75
358.441	327.75
358.668	363.75
358.895	357.75
359.122	371.75
359.349	368.75
359.576	382.75
359.802	428.75
360.029	456.75
360.256	470.75
360.483	443.75
360.709	390.75
360.936	388.75
361.163	361.75
361.39	397.75
361.616	385.75
361.843	382.75
362.07	372.75
362.296	395.75
362.523	389.75
362.749	387.75
362.976	383.75
363.203	372.75
363.429	343.75
363.656	361.75
363.882	366.75
364.109	335.75
364.335	350.75
364.562	357.75
364.788	361.75
365.015	346.75
365.241	336.75
365.468	351.75
365.694	350.75
365.92	360.75
366.147	338.75
366.373	330.75
366.599	345.75
366.826	359.75
367.052	363.75
367.278	342.75
367.505	354.75
367.731	353.75
367.957	353.75
368.184	337.75
368.41	361.75
368.636	375.75
368.862	357.75
369.089	356.75
369.315	344.75
369.541	368.75
369.767	352.75
369.993	350.75
370.219	358.75
370.445	330.75
370.672	309.75
370.898	325.75
371.124	320.75
371.35	308.75
371.576	324.75
371.802	318.75
372.028	317.75
372.254	332.75
372.48	315.75
372.706	317.75
372.932	332.75
373.158	320.75
373.384	332.75
373.61	321.75
373.835	322.75
374.061	330.75
374.287	345.75
374.513	342.75
374.739	333.75
374.965	343.75
375.191	341.75
375.416	339.75
375.642	321.75
375.868	344.75
376.094	316.75
376.319	336.75
376.545	320.75
376.771	344.75
376.997	316.75
377.222	320.75
377.448	338.75
377.674	327.75
377.899	329.75
378.125	333.75
378.35	327.75
378.576	332.75
378.802	348.75
379.027	318.75
379.253	326.75
379.478	327.75
379.704	321.75
379.929	329.75
380.155	342.75
380.38	328.75
380.606	338.75
380.831	332.75
381.057	315.75
381.282	331.75
381.507	343.75
381.733	333.75
381.958	331.75
382.184	337.75
382.409	345.75
382.634	331.75
382.86	338.75
383.085	327.75
383.31	340.75
383.535	333.75
383.761	333.75
383.986	372.75
384.211	347.75
384.436	341.75
384.662	332.75
384.887	320.75
385.112	340.75
385.337	332.75
385.562	371.75
385.787	349.75
386.013	379.75
386.238	374.75
386.463	354.75
386.688	352.75
386.913	370.75
387.138	343.75
387.363	351.75
387.588	350.75
387.813	368.75
388.038	341.75
388.263	335.75
388.488	354.75
388.713	320.75
388.938	352.75
389.163	353.75
389.387	348.75
389.612	368.75
389.837	351.75
390.062	358.75
390.287	343.75
390.512	338.75
390.736	340.75
390.961	358.75
391.186	343.75
391.411	346.75
391.636	364.75
391.86	361.75
392.085	355.75
392.31	357.75
392.534	358.75
392.759	347.75
392.984	338.75
393.208	364.75
393.433	375.75
393.658	351.75
393.882	343.75
394.107	370.75
394.331	351.75
394.556	352.75
394.78	331.75
395.005	348.75
395.229	359.75
395.454	354.75
395.678	352.75
395.903	378.75
396.127	385.75
396.352	397.75
396.576	386.75
396.801	379.75
397.025	372.75
397.249	360.75
397.474	357.75
397.698	372.75
397.922	393.75
398.147	394.75
398.371	404.75
398.595	380.75
398.82	383.75
399.044	392.75
399.268	389.75
399.492	413.75
399.717	429.75
399.941	455.75
400.165	487.75
400.389	489.75
400.613	481.75
400.837	429.75
401.062	406.75
401.286	393.75
401.51	406.75
401.734	409.75
401.958	409.75
402.182	393.75
402.406	440.75
402.63	437.75
402.854	428.75
403.078	409.75
403.302	415.75
403.526	442.75
403.75	424.75
403.974	435.75
404.198	423.75
404.422	430.75
404.645	414.75
404.869	424.75
405.093	416.75
405.317	457.75
405.541	505.75
405.765	451.75
405.988	439.75
406.212	454.75
406.436	495.75
406.66	522.75
406.883	491.75
407.107	519.75
407.331	542.75
407.555	603.75
407.778	588.75
408.002	543.75
408.226	486.75
408.449	462.75
408.673	497.75
408.896	513.75
409.12	564.75
409.344	501.75
409.567	463.75
409.791	435.75
410.014	436.75
410.238	442.75
410.461	450.75
410.685	429.75
410.908	465.75
411.132	487.75
411.355	537.75
411.578	487.75
411.802	451.75
412.025	473.75
412.249	427.75
412.472	441.75
412.695	444.75
412.919	439.75
413.142	437.75
413.365	424.75
413.589	426.75
413.812	420.75
414.035	394.75
414.258	408.75
414.482	395.75
414.705	380.75
414.928	396.75
415.151	416.75
415.374	405.75
415.597	379.75
415.821	396.75
416.044	421.75
416.267	411.75
416.49	401.75
416.713	396.75
416.936	404.75
417.159	400.75
417.382	416.75
417.605	421.75
417.828	417.75
418.051	428.75
418.274	457.75
418.497	439.75
418.72	446.75
418.943	403.75
419.166	419.75
419.389	447.75
419.611	435.75
419.834	424.75
420.057	418.75
420.28	431.75
420.503	426.75
420.726	431.75
420.948	443.75
421.171	487.75
421.394	541.75
421.617	483.75
421.839	449.75
422.062	464.75
422.285	472.75
422.507	524.75
422.73	596.75
422.953	583.75
423.175	500.75
423.398	497.75
423.621	497.75
423.843	502.75
424.066	496.75
424.288	511.75
424.511	521.75
424.733	576.75
424.956	641.75
425.178	657.75
425.401	640.75
425.623	633.75
425.846	568.75
426.068	525.75
426.291	531.75
426.513	541.75
426.735	530.75
426.958	575.75
427.18	660.75
427.402	759.75
427.625	855.75
427.847	802.75
428.069	664.75
428.292	579.75
428.514	539.75
428.736	493.75
428.958	517.75
429.181	481.75
429.403	474.75
429.625	497.75
429.847	523.75
430.069	595.75
430.292	607.75
430.514	518.75
430.736	472.75
430.958	458.75
431.18	461.75
431.402	461.75
431.624	441.75
431.846	432.75
432.068	421.75
432.29	428.75
432.512	433.75
432.734	437.75
432.956	432.75
433.178	443.75
433.4	479.75
433.622	473.75
433.844	437.75
434.066	446.75
434.287	424.75
434.509	449.75
434.731	454.75
434.953	455.75
435.175	487.75
435.397	516.75
435.618	531.75
435.84	557.75
436.062	660.75
436.284	733.75
436.505	625.75
436.727	545.75
436.949	501.75
437.17	487.75
437.392	500.75
437.614	515.75
437.835	553.75
438.057	669.75
438.278	728.75
438.5	754.75
438.721	789.75
438.943	740.75
439.165	619.75
439.386	572.75
439.608	567.75
439.829	568.75
440.05	601.75
440.272	623.75
440.493	595.75
440.715	536.75
440.936	498.75
441.158	511.75
441.379	482.75
441.6	509.75
441.822	535.75
442.043	583.75
442.264	643.75
442.486	697.75
442.707	600.75
442.928	548.75
443.149	546.75
443.371	593.75
443.592	641.75
443.813	713.75
444.034	738.75
444.255	630.75
444.476	550.75
444.698	499.75
444.919	500.75
445.14	602.75
445.361	569.75
445.582	561.75
445.803	642.75
446.024	733.75
446.245	755.75
446.466	690.75
446.687	597.75
446.908	576.75
447.129	496.75
447.35	483.75
447.571	511.75
447.792	482.75
448.013	508.75
448.234	538.75
448.455	602.75
448.675	690.75
448.896	779.75
449.117	699.75
449.338	649.75
449.559	727.75
449.779	809.75
450	657.75
450.221	579.75
450.442	523.75
450.662	487.75
450.883	503.75
451.104	541.75
451.324	515.75
451.545	496.75
451.766	475.75
451.986	441.75
452.207	422.75
452.428	449.75
452.648	454.75
452.869	439.75
453.089	448.75
453.31	471.75
453.53	461.75
453.751	431.75
453.971	450.75
454.192	499.75
454.412	469.75
454.633	443.75
454.853	454.75
455.073	464.75
455.294	483.75
455.514	549.75
455.734	534.75
455.955	433.75
456.175	420.75
456.395	411.75
456.616	409.75
456.836	393.75
457.056	402.75
457.276	395.75
457.497	399.75
457.717	397.75
457.937	385.75
458.157	416.75
458.377	413.75
458.598	441.75
458.818	533.75
459.038	654.75
459.258	639.75
459.478	540.75
459.698	450.75
459.918	458.75
460.138	443.75
460.358	440.75
460.578	446.75
460.798	443.75
461.018	434.75
461.238	414.75
461.458	401.75
461.678	419.75
461.898	431.75
462.118	429.75
462.338	432.75
462.558	435.75
462.777	405.75
462.997	447.75
463.217	436.75
463.437	430.75
463.657	433.75
463.876	442.75
464.096	435.75
464.316	437.75
464.536	464.75
464.755	467.75
464.975	452.75
465.195	569.75
465.414	697.75
465.634	588.75
465.854	531.75
466.073	479.75
466.293	455.75
466.512	439.75
466.732	438.75
466.951	426.75
467.171	423.75
467.391	432.75
467.61	452.75
467.829	463.75
468.049	469.75
468.268	433.75
468.488	434.75
468.707	407.75
468.927	396.75
469.146	425.75
469.365	417.75
469.585	422.75
469.804	427.75
470.023	436.75
470.243	449.75
470.462	443.75
470.681	477.75
470.901	460.75
471.12	444.75
471.339	437.75
471.558	435.75
471.777	437.75
471.997	418.75
472.216	427.75
472.435	445.75
472.654	443.75
472.873	426.75
473.092	435.75
473.311	429.75
473.53	415.75
473.749	466.75
473.968	484.75
474.187	610.75
474.406	643.75
474.625	504.75
474.844	451.75
475.063	443.75
475.282	412.75
475.501	451.75
475.72	451.75
475.939	443.75
476.158	475.75
476.377	434.75
476.596	451.75
476.814	454.75
477.033	469.75
477.252	468.75
477.471	456.75
477.69	466.75
477.908	453.75
478.127	454.75
478.346	461.75
478.564	442.75
478.783	451.75
479.002	489.75
479.22	497.75
479.439	521.75
479.658	551.75
479.876	537.75
480.095	537.75
480.313	578.75
480.532	535.75
480.751	520.75
480.969	532.75
481.188	531.75
481.406	540.75
481.624	533.75
481.843	508.75
482.061	519.75
482.28	504.75
482.498	513.75
482.717	510.75
482.935	506.75
483.153	495.75
483.372	492.75
483.59	511.75
483.808	496.75
484.027	488.75
484.245	523.75
484.463	533.75
484.681	522.75
484.9	524.75
485.118	520.75
485.336	549.75
485.554	525.75
485.772	548.75
485.99	540.75
486.209	549.75
486.427	534.75
486.645	578.75
486.863	595.75
487.081	570.75
487.299	573.75
487.517	575.75
487.735	570.75
487.953	559.75
488.171	584.75
488.389	571.75
488.607	561.75
488.825	562.75
489.043	561.75
489.261	554.75
489.479	580.75
489.696	570.75
489.914	589.75
490.132	573.75
490.35	597.75
490.568	602.75
490.786	595.75
491.003	602.75
491.221	599.75
491.439	639.75
491.657	665.75
491.874	640.75
492.092	661.75
492.31	660.75
492.527	656.75
492.745	652.75
492.963	653.75
493.18	673.75
493.398	671.75
493.615	675.75
493.833	684.75
494.05	664.75
494.268	701.75
494.485	658.75
494.703	685.75
494.92	672.75
495.138	674.75
495.355	668.75
495.573	665.75
495.79	680.75
496.008	691.75
496.225	691.75
496.442	696.75
496.66	683.75
496.877	692.75
497.094	669.75
497.312	677.75
497.529	704.75
497.746	679.75
497.963	702.75
498.181	730.75
498.398	740.75
498.615	732.75
498.832	745.75
499.049	712.75
499.267	730.75
499.484	742.75
499.701	755.75
499.918	774.75
500.135	767.75
500.352	816.75
500.569	787.75
500.786	791.75
501.003	808.75
501.22	794.75
501.437	788.75
501.654	767.75
501.871	797.75
