Data from 1987.PennyLincolnUp.Lamp.En5.5.200Scan.071819.P2_HRD10591_17-14-17-971.txt Node
Date: Thu Jul 18 17:14:17 EDT 2019
User: cochatt
Spectrometer: HR+D1059
Trigger mode: 1
Integration Time (sec): 1.000000E-1
Scans to average: 1
Electric dark correction enabled: true
Nonlinearity correction enabled: false
Boxcar width: 0
XAxis mode: Wavelengths
Number of Pixels in Spectrum: 2048
>>>>>Begin Spectral Data<<<<<
223.165	-10.06
223.4	-10.06
223.635	-10.06
223.869	-8.06
224.104	2.94
224.338	-17.06
224.573	-21.06
224.808	-16.06
225.042	-9.06
225.277	-15.06
225.511	2.94
225.746	-1.06
225.98	9.94
226.215	16.94
226.449	16.94
226.683	-0.06
226.918	13.94
227.152	33.94
227.387	47.94
227.621	49.94
227.856	40.94
228.09	58.94
228.324	43.94
228.559	52.94
228.793	63.94
229.027	97.94
229.262	119.94
229.496	110.94
229.73	142.94
229.964	156.94
230.199	144.94
230.433	120.94
230.667	118.94
230.901	109.94
231.136	107.94
231.37	103.94
231.604	109.94
231.838	98.94
232.072	110.94
232.306	124.94
232.541	112.94
232.775	124.94
233.009	113.94
233.243	123.94
233.477	126.94
233.711	114.94
233.945	127.94
234.179	104.94
234.413	126.94
234.647	126.94
234.881	112.94
235.115	106.94
235.349	119.94
235.583	130.94
235.817	119.94
236.051	130.94
236.285	113.94
236.519	129.94
236.753	129.94
236.987	156.94
237.221	196.94
237.455	210.94
237.689	172.94
237.922	154.94
238.156	140.94
238.39	144.94
238.624	108.94
238.858	122.94
239.091	131.94
239.325	136.94
239.559	119.94
239.793	127.94
240.027	138.94
240.26	138.94
240.494	149.94
240.728	158.94
240.961	137.94
241.195	153.94
241.429	137.94
241.662	136.94
241.896	132.94
242.13	135.94
242.363	124.94
242.597	119.94
242.83	128.94
243.064	127.94
243.298	126.94
243.531	119.94
243.765	127.94
243.998	132.94
244.232	126.94
244.465	129.94
244.699	125.94
244.932	137.94
245.166	146.94
245.399	155.94
245.633	139.94
245.866	156.94
246.099	130.94
246.333	134.94
246.566	142.94
246.8	142.94
247.033	133.94
247.266	153.94
247.5	164.94
247.733	146.94
247.966	152.94
248.2	165.94
248.433	157.94
248.666	172.94
248.899	166.94
249.133	186.94
249.366	190.94
249.599	188.94
249.832	166.94
250.066	168.94
250.299	160.94
250.532	182.94
250.765	183.94
250.998	214.94
251.231	207.94
251.465	202.94
251.698	201.94
251.931	194.94
252.164	188.94
252.397	190.94
252.63	195.94
252.863	195.94
253.096	199.94
253.329	218.94
253.562	217.94
253.795	216.94
254.028	204.94
254.261	216.94
254.494	228.94
254.727	245.94
254.96	269.94
255.193	268.94
255.426	221.94
255.659	205.94
255.892	222.94
256.124	201.94
256.357	201.94
256.59	190.94
256.823	184.94
257.056	188.94
257.289	191.94
257.521	202.94
257.754	186.94
257.987	188.94
258.22	192.94
258.452	189.94
258.685	189.94
258.918	192.94
259.151	184.94
259.383	202.94
259.616	192.94
259.849	194.94
260.081	215.94
260.314	236.94
260.547	236.94
260.779	228.94
261.012	218.94
261.244	206.94
261.477	214.94
261.71	215.94
261.942	206.94
262.175	218.94
262.407	198.94
262.64	203.94
262.872	180.94
263.105	184.94
263.337	190.94
263.57	180.94
263.802	191.94
264.035	191.94
264.267	184.94
264.499	189.94
264.732	185.94
264.964	188.94
265.197	179.94
265.429	185.94
265.661	199.94
265.894	176.94
266.126	182.94
266.358	196.94
266.591	183.94
266.823	180.94
267.055	190.94
267.287	193.94
267.52	177.94
267.752	193.94
267.984	200.94
268.216	192.94
268.448	188.94
268.681	211.94
268.913	201.94
269.145	231.94
269.377	224.94
269.609	238.94
269.841	226.94
270.073	241.94
270.306	260.94
270.538	268.94
270.77	274.94
271.002	280.94
271.234	265.94
271.466	282.94
271.698	284.94
271.93	278.94
272.162	282.94
272.394	296.94
272.626	272.94
272.858	257.94
273.09	257.94
273.322	232.94
273.553	225.94
273.785	220.94
274.017	235.94
274.249	224.94
274.481	218.94
274.713	231.94
274.945	205.94
275.176	229.94
275.408	230.94
275.64	220.94
275.872	210.94
276.104	230.94
276.335	218.94
276.567	235.94
276.799	238.94
277.031	272.94
277.262	258.94
277.494	269.94
277.726	261.94
277.957	273.94
278.189	234.94
278.421	229.94
278.652	230.94
278.884	224.94
279.115	226.94
279.347	206.94
279.579	225.94
279.81	212.94
280.042	219.94
280.273	212.94
280.505	209.94
280.736	204.94
280.968	205.94
281.199	208.94
281.431	211.94
281.662	215.94
281.894	221.94
282.125	215.94
282.356	235.94
282.588	260.94
282.819	244.94
283.051	238.94
283.282	227.94
283.513	217.94
283.745	220.94
283.976	217.94
284.207	216.94
284.439	224.94
284.67	221.94
284.901	223.94
285.132	222.94
285.364	216.94
285.595	224.94
285.826	205.94
286.057	229.94
286.288	213.94
286.52	222.94
286.751	216.94
286.982	203.94
287.213	225.94
287.444	218.94
287.675	224.94
287.906	221.94
288.138	229.94
288.369	236.94
288.6	229.94
288.831	226.94
289.062	218.94
289.293	231.94
289.524	218.94
289.755	233.94
289.986	209.94
290.217	230.94
290.448	202.94
290.679	224.94
290.91	233.94
291.141	199.94
291.371	210.94
291.602	221.94
291.833	225.94
292.064	227.94
292.295	217.94
292.526	216.94
292.757	215.94
292.987	207.94
293.218	222.94
293.449	223.94
293.68	223.94
293.91	216.94
294.141	222.94
294.372	211.94
294.603	226.94
294.833	231.94
295.064	238.94
295.295	231.94
295.525	212.94
295.756	234.94
295.987	229.94
296.217	268.94
296.448	255.94
296.679	228.94
296.909	223.94
297.14	249.94
297.37	237.94
297.601	238.94
297.831	231.94
298.062	236.94
298.292	235.94
298.523	228.94
298.753	225.94
298.984	229.94
299.214	237.94
299.445	239.94
299.675	248.94
299.905	254.94
300.136	241.94
300.366	234.94
300.597	245.94
300.827	252.94
301.057	264.94
301.288	258.94
301.518	250.94
301.748	274.94
301.979	252.94
302.209	232.94
302.439	242.94
302.669	254.94
302.9	230.94
303.13	231.94
303.36	240.94
303.59	264.94
303.82	265.94
304.051	256.94
304.281	261.94
304.511	262.94
304.741	226.94
304.971	237.94
305.201	253.94
305.431	232.94
305.661	257.94
305.891	242.94
306.121	250.94
306.352	268.94
306.582	265.94
306.812	254.94
307.042	257.94
307.272	245.94
307.502	250.94
307.731	245.94
307.961	245.94
308.191	244.94
308.421	263.94
308.651	274.94
308.881	259.94
309.111	262.94
309.341	285.94
309.571	278.94
309.8	281.94
310.03	291.94
310.26	316.94
310.49	308.94
310.72	302.94
310.949	330.94
311.179	343.94
311.409	310.94
311.639	305.94
311.868	325.94
312.098	307.94
312.328	321.94
312.557	333.94
312.787	349.94
313.017	340.94
313.246	327.94
313.476	305.94
313.706	303.94
313.935	315.94
314.165	316.94
314.394	336.94
314.624	334.94
314.853	301.94
315.083	326.94
315.312	314.94
315.542	315.94
315.771	272.94
316.001	292.94
316.23	271.94
316.46	312.94
316.689	311.94
316.919	314.94
317.148	308.94
317.377	316.94
317.607	295.94
317.836	321.94
318.065	308.94
318.295	300.94
318.524	288.94
318.753	272.94
318.983	293.94
319.212	297.94
319.441	321.94
319.67	324.94
319.9	293.94
320.129	303.94
320.358	311.94
320.587	324.94
320.816	320.94
321.046	332.94
321.275	353.94
321.504	330.94
321.733	327.94
321.962	335.94
322.191	356.94
322.42	376.94
322.649	380.94
322.878	377.94
323.108	402.94
323.337	441.94
323.566	455.94
323.795	500.94
324.024	556.94
324.253	682.94
324.482	970.94
324.71	1488.94
324.939	2123.94
325.168	1863.94
325.397	1042.94
325.626	689.94
325.855	536.94
326.084	487.94
326.313	457.94
326.542	453.94
326.77	527.94
326.999	646.94
327.228	863.94
327.457	1308.94
327.686	1596.94
327.914	1084.94
328.143	743.94
328.372	639.94
328.6	548.94
328.829	526.94
329.058	552.94
329.287	552.94
329.515	506.94
329.744	458.94
329.972	413.94
330.201	445.94
330.43	468.94
330.658	507.94
330.887	570.94
331.115	552.94
331.344	478.94
331.572	416.94
331.801	433.94
332.03	417.94
332.258	385.94
332.486	364.94
332.715	372.94
332.943	369.94
333.172	356.94
333.4	362.94
333.629	338.94
333.857	333.94
334.085	369.94
334.314	363.94
334.542	363.94
334.771	362.94
334.999	339.94
335.227	358.94
335.455	346.94
335.684	351.94
335.912	353.94
336.14	339.94
336.369	350.94
336.597	331.94
336.825	362.94
337.053	331.94
337.281	348.94
337.51	355.94
337.738	330.94
337.966	325.94
338.194	347.94
338.422	328.94
338.65	341.94
338.878	348.94
339.106	328.94
339.334	329.94
339.562	331.94
339.79	338.94
340.018	340.94
340.246	337.94
340.474	364.94
340.702	347.94
340.93	332.94
341.158	334.94
341.386	331.94
341.614	341.94
341.842	346.94
342.07	330.94
342.298	333.94
342.526	324.94
342.754	334.94
342.981	319.94
343.209	304.94
343.437	309.94
343.665	319.94
343.893	322.94
344.12	333.94
344.348	328.94
344.576	334.94
344.804	324.94
345.031	347.94
345.259	380.94
345.487	364.94
345.714	338.94
345.942	347.94
346.17	338.94
346.397	336.94
346.625	321.94
346.853	328.94
347.08	344.94
347.308	344.94
347.535	364.94
347.763	348.94
347.99	347.94
348.218	338.94
348.445	356.94
348.673	354.94
348.9	326.94
349.128	325.94
349.355	296.94
349.583	312.94
349.81	322.94
350.037	338.94
350.265	315.94
350.492	292.94
350.72	325.94
350.947	339.94
351.174	345.94
351.402	347.94
351.629	353.94
351.856	346.94
352.083	362.94
352.311	378.94
352.538	372.94
352.765	362.94
352.992	351.94
353.22	361.94
353.447	347.94
353.674	343.94
353.901	324.94
354.128	318.94
354.355	314.94
354.583	319.94
354.81	312.94
355.037	305.94
355.264	303.94
355.491	304.94
355.718	301.94
355.945	312.94
356.172	303.94
356.399	311.94
356.626	317.94
356.853	298.94
357.08	302.94
357.307	295.94
357.534	304.94
357.761	305.94
357.988	310.94
358.215	300.94
358.441	299.94
358.668	315.94
358.895	308.94
359.122	328.94
359.349	305.94
359.576	360.94
359.802	378.94
360.029	394.94
360.256	400.94
360.483	406.94
360.709	376.94
360.936	361.94
361.163	337.94
361.39	327.94
361.616	356.94
361.843	338.94
362.07	353.94
362.296	357.94
362.523	345.94
362.749	328.94
362.976	324.94
363.203	341.94
363.429	344.94
363.656	314.94
363.882	325.94
364.109	324.94
364.335	326.94
364.562	313.94
364.788	310.94
365.015	324.94
365.241	332.94
365.468	334.94
365.694	323.94
365.92	334.94
366.147	332.94
366.373	314.94
366.599	316.94
366.826	316.94
367.052	325.94
367.278	308.94
367.505	305.94
367.731	320.94
367.957	318.94
368.184	340.94
368.41	326.94
368.636	334.94
368.862	324.94
369.089	338.94
369.315	325.94
369.541	310.94
369.767	309.94
369.993	335.94
370.219	312.94
370.445	305.94
370.672	314.94
370.898	330.94
371.124	315.94
371.35	310.94
371.576	316.94
371.802	303.94
372.028	298.94
372.254	294.94
372.48	312.94
372.706	314.94
372.932	309.94
373.158	303.94
373.384	318.94
373.61	318.94
373.835	313.94
374.061	316.94
374.287	329.94
374.513	320.94
374.739	328.94
374.965	304.94
375.191	320.94
375.416	340.94
375.642	305.94
375.868	322.94
376.094	311.94
376.319	310.94
376.545	329.94
376.771	316.94
376.997	294.94
377.222	312.94
377.448	295.94
377.674	304.94
377.899	308.94
378.125	298.94
378.35	312.94
378.576	325.94
378.802	318.94
379.027	322.94
379.253	309.94
379.478	311.94
379.704	321.94
379.929	313.94
380.155	325.94
380.38	318.94
380.606	313.94
380.831	297.94
381.057	322.94
381.282	343.94
381.507	295.94
381.733	312.94
381.958	300.94
382.184	310.94
382.409	320.94
382.634	313.94
382.86	305.94
383.085	340.94
383.31	318.94
383.535	348.94
383.761	324.94
383.986	310.94
384.211	319.94
384.436	329.94
384.662	322.94
384.887	337.94
385.112	333.94
385.337	305.94
385.562	328.94
385.787	326.94
386.013	338.94
386.238	341.94
386.463	337.94
386.688	341.94
386.913	324.94
387.138	320.94
387.363	335.94
387.588	333.94
387.813	327.94
388.038	323.94
388.263	325.94
388.488	333.94
388.713	322.94
388.938	334.94
389.163	331.94
389.387	335.94
389.612	333.94
389.837	322.94
390.062	324.94
390.287	306.94
390.512	333.94
390.736	324.94
390.961	324.94
391.186	327.94
391.411	337.94
391.636	331.94
391.86	330.94
392.085	333.94
392.31	325.94
392.534	337.94
392.759	340.94
392.984	332.94
393.208	336.94
393.433	350.94
393.658	350.94
393.882	324.94
394.107	340.94
394.331	340.94
394.556	337.94
394.78	340.94
395.005	335.94
395.229	337.94
395.454	327.94
395.678	333.94
395.903	368.94
396.127	359.94
396.352	394.94
396.576	346.94
396.801	361.94
397.025	344.94
397.249	357.94
397.474	349.94
397.698	331.94
397.922	363.94
398.147	362.94
398.371	377.94
398.595	380.94
398.82	358.94
399.044	357.94
399.268	378.94
399.492	392.94
399.717	417.94
399.941	446.94
400.165	439.94
400.389	464.94
400.613	449.94
400.837	390.94
401.062	396.94
401.286	375.94
401.51	358.94
401.734	366.94
401.958	363.94
402.182	376.94
402.406	384.94
402.63	377.94
402.854	384.94
403.078	386.94
403.302	389.94
403.526	401.94
403.75	398.94
403.974	392.94
404.198	376.94
404.422	378.94
404.645	391.94
404.869	377.94
405.093	399.94
405.317	433.94
405.541	467.94
405.765	438.94
405.988	410.94
406.212	411.94
406.436	440.94
406.66	463.94
406.883	449.94
407.107	469.94
407.331	472.94
407.555	546.94
407.778	558.94
408.002	493.94
408.226	448.94
408.449	456.94
408.673	446.94
408.896	477.94
409.12	506.94
409.344	478.94
409.567	423.94
409.791	418.94
410.014	416.94
410.238	406.94
410.461	386.94
410.685	406.94
410.908	434.94
411.132	462.94
411.355	491.94
411.578	471.94
411.802	410.94
412.025	396.94
412.249	394.94
412.472	408.94
412.695	396.94
412.919	398.94
413.142	373.94
413.365	377.94
413.589	378.94
413.812	381.94
414.035	377.94
414.258	385.94
414.482	365.94
414.705	375.94
414.928	364.94
415.151	367.94
415.374	346.94
415.597	361.94
415.821	365.94
416.044	368.94
416.267	388.94
416.49	361.94
416.713	372.94
416.936	362.94
417.159	385.94
417.382	392.94
417.605	379.94
417.828	396.94
418.051	409.94
418.274	416.94
418.497	381.94
418.72	393.94
418.943	363.94
419.166	391.94
419.389	418.94
419.611	406.94
419.834	392.94
420.057	413.94
420.28	414.94
420.503	400.94
420.726	394.94
420.948	417.94
421.171	462.94
421.394	469.94
421.617	441.94
421.839	422.94
422.062	419.94
422.285	440.94
422.507	500.94
422.73	543.94
422.953	540.94
423.175	499.94
423.398	436.94
423.621	434.94
423.843	446.94
424.066	461.94
424.288	450.94
424.511	483.94
424.733	523.94
424.956	589.94
425.178	585.94
425.401	551.94
425.623	597.94
425.846	520.94
426.068	486.94
426.291	480.94
426.513	474.94
426.735	488.94
426.958	531.94
427.18	608.94
427.402	696.94
427.625	782.94
427.847	705.94
428.069	590.94
428.292	530.94
428.514	500.94
428.736	472.94
428.958	460.94
429.181	423.94
429.403	444.94
429.625	462.94
429.847	488.94
430.069	546.94
430.292	520.94
430.514	460.94
430.736	447.94
430.958	416.94
431.18	423.94
431.402	398.94
431.624	406.94
431.846	390.94
432.068	417.94
432.29	392.94
432.512	392.94
432.734	418.94
432.956	425.94
433.178	408.94
433.4	432.94
433.622	440.94
433.844	415.94
434.066	412.94
434.287	392.94
434.509	398.94
434.731	400.94
434.953	410.94
435.175	440.94
435.397	470.94
435.618	509.94
435.84	523.94
436.062	576.94
436.284	636.94
436.505	561.94
436.727	498.94
436.949	462.94
437.17	462.94
437.392	435.94
437.614	473.94
437.835	488.94
438.057	588.94
438.278	679.94
438.5	666.94
438.721	702.94
438.943	672.94
439.165	549.94
439.386	525.94
439.608	517.94
439.829	509.94
440.05	537.94
440.272	560.94
440.493	526.94
440.715	501.94
440.936	461.94
441.158	440.94
441.379	444.94
441.6	465.94
441.822	474.94
442.043	522.94
442.264	588.94
442.486	641.94
442.707	544.94
442.928	490.94
443.149	514.94
443.371	522.94
443.592	552.94
443.813	641.94
444.034	678.94
444.255	573.94
444.476	490.94
444.698	476.94
444.919	459.94
445.14	572.94
445.361	534.94
445.582	518.94
445.803	559.94
446.024	652.94
446.245	664.94
446.466	625.94
446.687	516.94
446.908	490.94
447.129	484.94
447.35	464.94
447.571	416.94
447.792	450.94
448.013	440.94
448.234	478.94
448.455	512.94
448.675	618.94
448.896	689.94
449.117	612.94
449.338	602.94
449.559	667.94
449.779	702.94
450	593.94
450.221	516.94
450.442	478.94
450.662	449.94
450.883	463.94
451.104	480.94
451.324	454.94
451.545	472.94
451.766	426.94
451.986	420.94
452.207	393.94
452.428	400.94
452.648	408.94
452.869	386.94
453.089	415.94
453.31	418.94
453.53	393.94
453.751	420.94
453.971	414.94
454.192	438.94
454.412	420.94
454.633	412.94
454.853	411.94
455.073	414.94
455.294	409.94
455.514	489.94
455.734	475.94
455.955	403.94
456.175	383.94
456.395	385.94
456.616	359.94
456.836	384.94
457.056	372.94
457.276	364.94
457.497	399.94
457.717	381.94
457.937	366.94
458.157	383.94
458.377	370.94
458.598	406.94
458.818	466.94
459.038	565.94
459.258	567.94
459.478	474.94
459.698	447.94
459.918	406.94
460.138	395.94
460.358	399.94
460.578	384.94
460.798	401.94
461.018	388.94
461.238	376.94
461.458	374.94
461.678	399.94
461.898	382.94
462.118	388.94
462.338	406.94
462.558	386.94
462.777	398.94
462.997	402.94
463.217	420.94
463.437	395.94
463.657	408.94
463.876	403.94
464.096	414.94
464.316	398.94
464.536	424.94
464.755	440.94
464.975	415.94
465.195	502.94
465.414	574.94
465.634	529.94
465.854	466.94
466.073	426.94
466.293	429.94
466.512	414.94
466.732	401.94
466.951	429.94
467.171	397.94
467.391	394.94
467.61	396.94
467.829	399.94
468.049	417.94
468.268	401.94
468.488	381.94
468.707	375.94
468.927	384.94
469.146	364.94
469.365	385.94
469.585	366.94
469.804	396.94
470.023	405.94
470.243	398.94
470.462	407.94
470.681	426.94
470.901	441.94
471.12	412.94
471.339	401.94
471.558	421.94
471.777	392.94
471.997	399.94
472.216	404.94
472.435	392.94
472.654	386.94
472.873	384.94
473.092	391.94
473.311	382.94
473.53	416.94
473.749	394.94
473.968	441.94
474.187	560.94
474.406	580.94
474.625	465.94
474.844	442.94
475.063	419.94
475.282	421.94
475.501	398.94
475.72	424.94
475.939	408.94
476.158	423.94
476.377	429.94
476.596	407.94
476.814	431.94
477.033	430.94
477.252	410.94
477.471	431.94
477.69	412.94
477.908	447.94
478.127	412.94
478.346	439.94
478.564	430.94
478.783	452.94
479.002	447.94
479.22	448.94
479.439	489.94
479.658	479.94
479.876	482.94
480.095	497.94
480.313	517.94
480.532	484.94
480.751	465.94
480.969	506.94
481.188	484.94
481.406	508.94
481.624	501.94
481.843	459.94
482.061	462.94
482.28	463.94
482.498	471.94
482.717	458.94
482.935	482.94
483.153	467.94
483.372	467.94
483.59	490.94
483.808	492.94
484.027	484.94
484.245	487.94
484.463	490.94
484.681	505.94
484.9	475.94
485.118	474.94
485.336	493.94
485.554	487.94
485.772	476.94
485.99	487.94
486.209	486.94
486.427	513.94
486.645	495.94
486.863	536.94
487.081	524.94
487.299	530.94
487.517	526.94
487.735	524.94
487.953	524.94
488.171	544.94
488.389	520.94
488.607	504.94
488.825	517.94
489.043	530.94
489.261	539.94
489.479	523.94
489.696	528.94
489.914	522.94
490.132	540.94
490.35	522.94
490.568	553.94
490.786	536.94
491.003	561.94
491.221	561.94
491.439	592.94
491.657	605.94
491.874	600.94
492.092	579.94
492.31	598.94
492.527	619.94
492.745	602.94
492.963	623.94
493.18	590.94
493.398	612.94
493.615	616.94
493.833	612.94
494.05	627.94
494.268	616.94
494.485	630.94
494.703	601.94
494.92	615.94
495.138	633.94
495.355	604.94
495.573	634.94
495.79	606.94
496.008	628.94
496.225	616.94
496.442	639.94
496.66	622.94
496.877	637.94
497.094	624.94
497.312	648.94
497.529	644.94
497.746	634.94
497.963	678.94
498.181	656.94
498.398	649.94
498.615	690.94
498.832	679.94
499.049	689.94
499.267	680.94
499.484	692.94
499.701	693.94
499.918	686.94
500.135	712.94
500.352	760.94
500.569	730.94
500.786	742.94
501.003	743.94
501.22	737.94
501.437	735.94
501.654	730.94
501.871	747.94
