Data from 1987.PennyLincolnUp.Lamp.En5.5.200Scan.071819.P2_HRD10591_17-14-42-971.txt Node
Date: Thu Jul 18 17:14:42 EDT 2019
User: cochatt
Spectrometer: HR+D1059
Trigger mode: 1
Integration Time (sec): 1.000000E-1
Scans to average: 1
Electric dark correction enabled: true
Nonlinearity correction enabled: false
Boxcar width: 0
XAxis mode: Wavelengths
Number of Pixels in Spectrum: 2048
>>>>>Begin Spectral Data<<<<<
223.165	-20.62
223.4	-20.62
223.635	-20.62
223.869	-18.62
224.104	-20.62
224.338	-20.62
224.573	-16.62
224.808	-2.62
225.042	-12.62
225.277	3.38
225.511	3.38
225.746	5.38
225.98	5.38
226.215	13.38
226.449	14.38
226.683	15.38
226.918	29.38
227.152	22.38
227.387	39.38
227.621	22.38
227.856	47.38
228.09	43.38
228.324	40.38
228.559	58.38
228.793	69.38
229.027	97.38
229.262	112.38
229.496	125.38
229.73	159.38
229.964	165.38
230.199	136.38
230.433	122.38
230.667	113.38
230.901	113.38
231.136	118.38
231.37	108.38
231.604	103.38
231.838	114.38
232.072	108.38
232.306	105.38
232.541	111.38
232.775	104.38
233.009	107.38
233.243	116.38
233.477	104.38
233.711	122.38
233.945	118.38
234.179	121.38
234.413	123.38
234.647	121.38
234.881	119.38
235.115	111.38
235.349	125.38
235.583	118.38
235.817	122.38
236.051	121.38
236.285	125.38
236.519	130.38
236.753	130.38
236.987	135.38
237.221	186.38
237.455	222.38
237.689	209.38
237.922	146.38
238.156	127.38
238.39	130.38
238.624	111.38
238.858	130.38
239.091	132.38
239.325	127.38
239.559	125.38
239.793	158.38
240.027	135.38
240.26	128.38
240.494	151.38
240.728	163.38
240.961	137.38
241.195	135.38
241.429	141.38
241.662	128.38
241.896	125.38
242.13	133.38
242.363	122.38
242.597	142.38
242.83	122.38
243.064	132.38
243.298	142.38
243.531	138.38
243.765	139.38
243.998	130.38
244.232	140.38
244.465	123.38
244.699	145.38
244.932	121.38
245.166	125.38
245.399	138.38
245.633	127.38
245.866	156.38
246.099	133.38
246.333	147.38
246.566	147.38
246.8	147.38
247.033	148.38
247.266	150.38
247.5	143.38
247.733	148.38
247.966	155.38
248.2	169.38
248.433	155.38
248.666	153.38
248.899	175.38
249.133	172.38
249.366	211.38
249.599	191.38
249.832	182.38
250.066	167.38
250.299	158.38
250.532	178.38
250.765	186.38
250.998	217.38
251.231	210.38
251.465	204.38
251.698	193.38
251.931	202.38
252.164	186.38
252.397	188.38
252.63	181.38
252.863	197.38
253.096	200.38
253.329	216.38
253.562	208.38
253.795	212.38
254.028	212.38
254.261	242.38
254.494	218.38
254.727	246.38
254.96	279.38
255.193	266.38
255.426	243.38
255.659	237.38
255.892	213.38
256.124	199.38
256.357	189.38
256.59	197.38
256.823	202.38
257.056	197.38
257.289	178.38
257.521	194.38
257.754	199.38
257.987	167.38
258.22	194.38
258.452	194.38
258.685	196.38
258.918	190.38
259.151	199.38
259.383	198.38
259.616	188.38
259.849	214.38
260.081	218.38
260.314	215.38
260.547	234.38
260.779	236.38
261.012	207.38
261.244	214.38
261.477	201.38
261.71	212.38
261.942	211.38
262.175	219.38
262.407	242.38
262.64	199.38
262.872	190.38
263.105	182.38
263.337	199.38
263.57	201.38
263.802	187.38
264.035	183.38
264.267	189.38
264.499	201.38
264.732	165.38
264.964	204.38
265.197	182.38
265.429	187.38
265.661	194.38
265.894	180.38
266.126	197.38
266.358	194.38
266.591	182.38
266.823	183.38
267.055	187.38
267.287	192.38
267.52	208.38
267.752	210.38
267.984	206.38
268.216	206.38
268.448	190.38
268.681	190.38
268.913	225.38
269.145	226.38
269.377	258.38
269.609	244.38
269.841	249.38
270.073	234.38
270.306	267.38
270.538	274.38
270.77	274.38
271.002	279.38
271.234	274.38
271.466	266.38
271.698	275.38
271.93	284.38
272.162	309.38
272.394	292.38
272.626	287.38
272.858	282.38
273.09	247.38
273.322	240.38
273.553	243.38
273.785	235.38
274.017	207.38
274.249	231.38
274.481	215.38
274.713	223.38
274.945	222.38
275.176	221.38
275.408	229.38
275.64	237.38
275.872	221.38
276.104	232.38
276.335	236.38
276.567	237.38
276.799	248.38
277.031	270.38
277.262	276.38
277.494	282.38
277.726	255.38
277.957	260.38
278.189	244.38
278.421	221.38
278.652	238.38
278.884	222.38
279.115	224.38
279.347	229.38
279.579	234.38
279.81	229.38
280.042	209.38
280.273	218.38
280.505	222.38
280.736	210.38
280.968	222.38
281.199	185.38
281.431	215.38
281.662	211.38
281.894	201.38
282.125	212.38
282.356	235.38
282.588	264.38
282.819	266.38
283.051	239.38
283.282	209.38
283.513	218.38
283.745	227.38
283.976	237.38
284.207	238.38
284.439	217.38
284.67	229.38
284.901	214.38
285.132	236.38
285.364	214.38
285.595	231.38
285.826	207.38
286.057	210.38
286.288	222.38
286.52	216.38
286.751	224.38
286.982	240.38
287.213	211.38
287.444	233.38
287.675	230.38
287.906	227.38
288.138	235.38
288.369	231.38
288.6	254.38
288.831	237.38
289.062	223.38
289.293	224.38
289.524	227.38
289.755	228.38
289.986	218.38
290.217	226.38
290.448	229.38
290.679	219.38
290.91	224.38
291.141	228.38
291.371	222.38
291.602	222.38
291.833	228.38
292.064	222.38
292.295	225.38
292.526	223.38
292.757	219.38
292.987	231.38
293.218	221.38
293.449	238.38
293.68	215.38
293.91	234.38
294.141	214.38
294.372	226.38
294.603	219.38
294.833	219.38
295.064	214.38
295.295	238.38
295.525	237.38
295.756	236.38
295.987	234.38
296.217	275.38
296.448	286.38
296.679	250.38
296.909	231.38
297.14	230.38
297.37	247.38
297.601	231.38
297.831	239.38
298.062	231.38
298.292	227.38
298.523	244.38
298.753	231.38
298.984	232.38
299.214	254.38
299.445	225.38
299.675	237.38
299.905	247.38
300.136	252.38
300.366	242.38
300.597	242.38
300.827	233.38
301.057	266.38
301.288	268.38
301.518	267.38
301.748	237.38
301.979	260.38
302.209	257.38
302.439	264.38
302.669	248.38
302.9	251.38
303.13	254.38
303.36	259.38
303.59	254.38
303.82	264.38
304.051	253.38
304.281	272.38
304.511	256.38
304.741	261.38
304.971	248.38
305.201	228.38
305.431	268.38
305.661	261.38
305.891	243.38
306.121	247.38
306.352	254.38
306.582	272.38
306.812	254.38
307.042	269.38
307.272	251.38
307.502	258.38
307.731	246.38
307.961	278.38
308.191	265.38
308.421	266.38
308.651	269.38
308.881	258.38
309.111	275.38
309.341	286.38
309.571	301.38
309.8	300.38
310.03	299.38
310.26	297.38
310.49	330.38
310.72	319.38
310.949	346.38
311.179	347.38
311.409	312.38
311.639	318.38
311.868	317.38
312.098	316.38
312.328	333.38
312.557	325.38
312.787	354.38
313.017	361.38
313.246	329.38
313.476	310.38
313.706	329.38
313.935	318.38
314.165	319.38
314.394	348.38
314.624	349.38
314.853	335.38
315.083	314.38
315.312	312.38
315.542	300.38
315.771	301.38
316.001	312.38
316.23	316.38
316.46	312.38
316.689	309.38
316.919	296.38
317.148	319.38
317.377	318.38
317.607	327.38
317.836	330.38
318.065	310.38
318.295	302.38
318.524	309.38
318.753	290.38
318.983	314.38
319.212	310.38
319.441	317.38
319.67	321.38
319.9	310.38
320.129	302.38
320.358	327.38
320.587	332.38
320.816	329.38
321.046	333.38
321.275	340.38
321.504	346.38
321.733	346.38
321.962	341.38
322.191	370.38
322.42	381.38
322.649	408.38
322.878	423.38
323.108	400.38
323.337	456.38
323.566	492.38
323.795	522.38
324.024	609.38
324.253	759.38
324.482	1080.38
324.71	1664.38
324.939	2274.38
325.168	1998.38
325.397	1081.38
325.626	732.38
325.855	586.38
326.084	525.38
326.313	495.38
326.542	504.38
326.77	530.38
326.999	683.38
327.228	942.38
327.457	1426.38
327.686	1751.38
327.914	1224.38
328.143	796.38
328.372	652.38
328.6	591.38
328.829	565.38
329.058	568.38
329.287	599.38
329.515	558.38
329.744	476.38
329.972	477.38
330.201	471.38
330.43	478.38
330.658	556.38
330.887	595.38
331.115	583.38
331.344	498.38
331.572	437.38
331.801	442.38
332.03	436.38
332.258	430.38
332.486	380.38
332.715	343.38
332.943	361.38
333.172	360.38
333.4	359.38
333.629	378.38
333.857	375.38
334.085	376.38
334.314	372.38
334.542	365.38
334.771	380.38
334.999	378.38
335.227	358.38
335.455	359.38
335.684	349.38
335.912	333.38
336.14	347.38
336.369	363.38
336.597	375.38
336.825	374.38
337.053	351.38
337.281	338.38
337.51	357.38
337.738	347.38
337.966	341.38
338.194	351.38
338.422	359.38
338.65	354.38
338.878	360.38
339.106	337.38
339.334	333.38
339.562	341.38
339.79	340.38
340.018	356.38
340.246	337.38
340.474	376.38
340.702	372.38
340.93	331.38
341.158	340.38
341.386	348.38
341.614	349.38
341.842	341.38
342.07	334.38
342.298	309.38
342.526	351.38
342.754	300.38
342.981	315.38
343.209	311.38
343.437	329.38
343.665	314.38
343.893	334.38
344.12	324.38
344.348	325.38
344.576	345.38
344.804	349.38
345.031	390.38
345.259	368.38
345.487	372.38
345.714	366.38
345.942	351.38
346.17	352.38
346.397	360.38
346.625	356.38
346.853	325.38
347.08	357.38
347.308	374.38
347.535	354.38
347.763	376.38
347.99	384.38
348.218	384.38
348.445	374.38
348.673	380.38
348.9	338.38
349.128	342.38
349.355	325.38
349.583	322.38
349.81	329.38
350.037	317.38
350.265	314.38
350.492	333.38
350.72	350.38
350.947	340.38
351.174	362.38
351.402	379.38
351.629	366.38
351.856	364.38
352.083	347.38
352.311	367.38
352.538	383.38
352.765	382.38
352.992	399.38
353.22	363.38
353.447	359.38
353.674	338.38
353.901	337.38
354.128	331.38
354.355	315.38
354.583	317.38
354.81	322.38
355.037	314.38
355.264	321.38
355.491	326.38
355.718	310.38
355.945	303.38
356.172	311.38
356.399	284.38
356.626	283.38
356.853	310.38
357.08	312.38
357.307	312.38
357.534	296.38
357.761	300.38
357.988	310.38
358.215	312.38
358.441	299.38
358.668	308.38
358.895	320.38
359.122	337.38
359.349	338.38
359.576	359.38
359.802	380.38
360.029	406.38
360.256	434.38
360.483	399.38
360.709	371.38
360.936	357.38
361.163	358.38
361.39	379.38
361.616	374.38
361.843	367.38
362.07	344.38
362.296	351.38
362.523	343.38
362.749	349.38
362.976	342.38
363.203	327.38
363.429	352.38
363.656	337.38
363.882	336.38
364.109	328.38
364.335	318.38
364.562	327.38
364.788	329.38
365.015	333.38
365.241	317.38
365.468	326.38
365.694	341.38
365.92	324.38
366.147	329.38
366.373	308.38
366.599	318.38
366.826	330.38
367.052	325.38
367.278	317.38
367.505	316.38
367.731	337.38
367.957	330.38
368.184	319.38
368.41	331.38
368.636	358.38
368.862	348.38
369.089	337.38
369.315	311.38
369.541	306.38
369.767	318.38
369.993	342.38
370.219	334.38
370.445	341.38
370.672	314.38
370.898	310.38
371.124	330.38
371.35	316.38
371.576	328.38
371.802	292.38
372.028	311.38
372.254	292.38
372.48	296.38
372.706	302.38
372.932	304.38
373.158	295.38
373.384	321.38
373.61	311.38
373.835	301.38
374.061	304.38
374.287	316.38
374.513	327.38
374.739	331.38
374.965	322.38
375.191	327.38
375.416	324.38
375.642	332.38
375.868	308.38
376.094	314.38
376.319	291.38
376.545	321.38
376.771	299.38
376.997	289.38
377.222	310.38
377.448	310.38
377.674	300.38
377.899	306.38
378.125	327.38
378.35	311.38
378.576	304.38
378.802	301.38
379.027	314.38
379.253	299.38
379.478	292.38
379.704	314.38
379.929	311.38
380.155	314.38
380.38	312.38
380.606	330.38
380.831	304.38
381.057	325.38
381.282	326.38
381.507	316.38
381.733	309.38
381.958	315.38
382.184	303.38
382.409	300.38
382.634	298.38
382.86	307.38
383.085	320.38
383.31	316.38
383.535	317.38
383.761	319.38
383.986	332.38
384.211	326.38
384.436	316.38
384.662	329.38
384.887	324.38
385.112	333.38
385.337	306.38
385.562	317.38
385.787	326.38
386.013	342.38
386.238	341.38
386.463	328.38
386.688	340.38
386.913	336.38
387.138	324.38
387.363	326.38
387.588	326.38
387.813	346.38
388.038	329.38
388.263	324.38
388.488	346.38
388.713	338.38
388.938	314.38
389.163	349.38
389.387	329.38
389.612	335.38
389.837	335.38
390.062	331.38
390.287	325.38
390.512	316.38
390.736	328.38
390.961	332.38
391.186	329.38
391.411	329.38
391.636	333.38
391.86	336.38
392.085	325.38
392.31	346.38
392.534	348.38
392.759	335.38
392.984	343.38
393.208	326.38
393.433	339.38
393.658	358.38
393.882	316.38
394.107	326.38
394.331	306.38
394.556	331.38
394.78	335.38
395.005	323.38
395.229	334.38
395.454	340.38
395.678	340.38
395.903	361.38
396.127	382.38
396.352	372.38
396.576	356.38
396.801	339.38
397.025	342.38
397.249	359.38
397.474	359.38
397.698	344.38
397.922	350.38
398.147	374.38
398.371	376.38
398.595	366.38
398.82	357.38
399.044	383.38
399.268	390.38
399.492	386.38
399.717	407.38
399.941	438.38
400.165	443.38
400.389	458.38
400.613	420.38
400.837	405.38
401.062	364.38
401.286	398.38
401.51	386.38
401.734	398.38
401.958	386.38
402.182	389.38
402.406	389.38
402.63	402.38
402.854	378.38
403.078	400.38
403.302	388.38
403.526	391.38
403.75	380.38
403.974	379.38
404.198	380.38
404.422	394.38
404.645	413.38
404.869	407.38
405.093	421.38
405.317	440.38
405.541	458.38
405.765	426.38
405.988	422.38
406.212	448.38
406.436	471.38
406.66	495.38
406.883	449.38
407.107	469.38
407.331	490.38
407.555	556.38
407.778	575.38
408.002	485.38
408.226	443.38
408.449	438.38
408.673	450.38
408.896	466.38
409.12	511.38
409.344	468.38
409.567	419.38
409.791	417.38
410.014	410.38
410.238	387.38
410.461	404.38
410.685	412.38
410.908	398.38
411.132	463.38
411.355	475.38
411.578	464.38
411.802	429.38
412.025	411.38
412.249	403.38
412.472	426.38
412.695	426.38
412.919	423.38
413.142	387.38
413.365	389.38
413.589	396.38
413.812	385.38
414.035	379.38
414.258	390.38
414.482	384.38
414.705	381.38
414.928	368.38
415.151	360.38
415.374	366.38
415.597	348.38
415.821	351.38
416.044	399.38
416.267	398.38
416.49	390.38
416.713	382.38
416.936	385.38
417.159	369.38
417.382	385.38
417.605	398.38
417.828	415.38
418.051	418.38
418.274	406.38
418.497	390.38
418.72	387.38
418.943	390.38
419.166	389.38
419.389	402.38
419.611	420.38
419.834	424.38
420.057	400.38
420.28	415.38
420.503	408.38
420.726	400.38
420.948	428.38
421.171	475.38
421.394	477.38
421.617	449.38
421.839	422.38
422.062	420.38
422.285	437.38
422.507	505.38
422.73	570.38
422.953	551.38
423.175	475.38
423.398	449.38
423.621	431.38
423.843	452.38
424.066	447.38
424.288	438.38
424.511	492.38
424.733	530.38
424.956	593.38
425.178	601.38
425.401	579.38
425.623	594.38
425.846	522.38
426.068	467.38
426.291	482.38
426.513	470.38
426.735	496.38
426.958	520.38
427.18	615.38
427.402	696.38
427.625	778.38
427.847	745.38
428.069	639.38
428.292	557.38
428.514	514.38
428.736	468.38
428.958	468.38
429.181	442.38
429.403	446.38
429.625	475.38
429.847	499.38
430.069	540.38
430.292	538.38
430.514	498.38
430.736	436.38
430.958	444.38
431.18	399.38
431.402	418.38
431.624	403.38
431.846	402.38
432.068	400.38
432.29	391.38
432.512	383.38
432.734	416.38
432.956	421.38
433.178	423.38
433.4	435.38
433.622	423.38
433.844	391.38
434.066	419.38
434.287	394.38
434.509	407.38
434.731	425.38
434.953	424.38
435.175	436.38
435.397	468.38
435.618	498.38
435.84	546.38
436.062	602.38
436.284	649.38
436.505	576.38
436.727	532.38
436.949	469.38
437.17	456.38
437.392	456.38
437.614	457.38
437.835	525.38
438.057	628.38
438.278	685.38
438.5	686.38
438.721	711.38
438.943	690.38
439.165	583.38
439.386	527.38
439.608	510.38
439.829	518.38
440.05	523.38
440.272	607.38
440.493	538.38
440.715	501.38
440.936	471.38
441.158	458.38
441.379	433.38
441.6	475.38
441.822	483.38
442.043	516.38
442.264	599.38
442.486	670.38
442.707	570.38
442.928	514.38
443.149	528.38
443.371	511.38
443.592	579.38
443.813	642.38
444.034	690.38
444.255	587.38
444.476	518.38
444.698	474.38
444.919	469.38
445.14	565.38
445.361	550.38
445.582	511.38
445.803	609.38
446.024	678.38
446.245	687.38
446.466	632.38
446.687	547.38
446.908	503.38
447.129	484.38
447.35	475.38
447.571	473.38
447.792	452.38
448.013	454.38
448.234	487.38
448.455	543.38
448.675	631.38
448.896	734.38
449.117	625.38
449.338	602.38
449.559	668.38
449.779	747.38
450	619.38
450.221	532.38
450.442	502.38
450.662	458.38
450.883	466.38
451.104	486.38
451.324	486.38
451.545	473.38
451.766	447.38
451.986	429.38
452.207	409.38
452.428	395.38
452.648	410.38
452.869	400.38
453.089	429.38
453.31	439.38
453.53	411.38
453.751	414.38
453.971	424.38
454.192	468.38
454.412	444.38
454.633	426.38
454.853	424.38
455.073	428.38
455.294	434.38
455.514	496.38
455.734	475.38
455.955	425.38
456.175	386.38
456.395	379.38
456.616	383.38
456.836	383.38
457.056	360.38
457.276	362.38
457.497	379.38
457.717	362.38
457.937	359.38
458.157	380.38
458.377	386.38
458.598	414.38
458.818	488.38
459.038	568.38
459.258	580.38
459.478	491.38
459.698	428.38
459.918	438.38
460.138	404.38
460.358	399.38
460.578	386.38
460.798	390.38
461.018	392.38
461.238	394.38
461.458	386.38
461.678	397.38
461.898	390.38
462.118	400.38
462.338	415.38
462.558	408.38
462.777	394.38
462.997	387.38
463.217	411.38
463.437	409.38
463.657	406.38
463.876	396.38
464.096	415.38
464.316	398.38
464.536	418.38
464.755	444.38
464.975	451.38
465.195	488.38
465.414	622.38
465.634	523.38
465.854	485.38
466.073	444.38
466.293	437.38
466.512	404.38
466.732	414.38
466.951	413.38
467.171	392.38
467.391	430.38
467.61	430.38
467.829	422.38
468.049	413.38
468.268	383.38
468.488	376.38
468.707	387.38
468.927	382.38
469.146	382.38
469.365	389.38
469.585	392.38
469.804	385.38
470.023	412.38
470.243	392.38
470.462	426.38
470.681	444.38
470.901	422.38
471.12	427.38
471.339	414.38
471.558	407.38
471.777	416.38
471.997	414.38
472.216	386.38
472.435	389.38
472.654	409.38
472.873	413.38
473.092	418.38
473.311	403.38
473.53	386.38
473.749	415.38
473.968	485.38
474.187	548.38
474.406	560.38
474.625	478.38
474.844	444.38
475.063	440.38
475.282	384.38
475.501	388.38
475.72	425.38
475.939	407.38
476.158	419.38
476.377	429.38
476.596	415.38
476.814	421.38
477.033	450.38
477.252	446.38
477.471	411.38
477.69	427.38
477.908	439.38
478.127	431.38
478.346	452.38
478.564	443.38
478.783	452.38
479.002	468.38
479.22	463.38
479.439	477.38
479.658	495.38
479.876	505.38
480.095	491.38
480.313	544.38
480.532	504.38
480.751	503.38
480.969	472.38
481.188	498.38
481.406	523.38
481.624	488.38
481.843	487.38
482.061	484.38
482.28	477.38
482.498	476.38
482.717	462.38
482.935	478.38
483.153	483.38
483.372	478.38
483.59	486.38
483.808	469.38
484.027	470.38
484.245	494.38
484.463	495.38
484.681	481.38
484.9	538.38
485.118	502.38
485.336	486.38
485.554	490.38
485.772	518.38
485.99	487.38
486.209	501.38
486.427	516.38
486.645	542.38
486.863	559.38
487.081	562.38
487.299	538.38
487.517	534.38
487.735	533.38
487.953	506.38
488.171	548.38
488.389	534.38
488.607	536.38
488.825	540.38
489.043	542.38
489.261	519.38
489.479	540.38
489.696	567.38
489.914	533.38
490.132	533.38
490.35	554.38
490.568	555.38
490.786	557.38
491.003	585.38
491.221	587.38
491.439	596.38
491.657	607.38
491.874	613.38
492.092	618.38
492.31	589.38
492.527	622.38
492.745	610.38
492.963	652.38
493.18	611.38
493.398	610.38
493.615	610.38
493.833	602.38
494.05	633.38
494.268	636.38
494.485	613.38
494.703	602.38
494.92	620.38
495.138	627.38
495.355	662.38
495.573	631.38
495.79	613.38
496.008	617.38
496.225	618.38
496.442	652.38
496.66	652.38
496.877	639.38
497.094	634.38
497.312	660.38
497.529	631.38
497.746	655.38
497.963	655.38
498.181	661.38
498.398	680.38
498.615	697.38
498.832	687.38
499.049	686.38
499.267	670.38
499.484	692.38
499.701	703.38
499.918	739.38
500.135	722.38
500.352	729.38
500.569	748.38
500.786	740.38
501.003	744.38
501.22	731.38
501.437	745.38
501.654	735.38
501.871	769.38
