Data from 1987.PennyLincolnUp.Lamp.En5.5.200Scan.071819.P2_HRD10591_17-13-47-972.txt Node
Date: Thu Jul 18 17:13:47 EDT 2019
User: cochatt
Spectrometer: HR+D1059
Trigger mode: 1
Integration Time (sec): 1.000000E-1
Scans to average: 1
Electric dark correction enabled: true
Nonlinearity correction enabled: false
Boxcar width: 0
XAxis mode: Wavelengths
Number of Pixels in Spectrum: 2048
>>>>>Begin Spectral Data<<<<<
223.165	-8.94
223.4	-8.94
223.635	-8.94
223.869	-7.94
224.104	-12.94
224.338	-19.94
224.573	-13.94
224.808	-31.94
225.042	-6.94
225.277	-2.94
225.511	-11.94
225.746	6.06
225.98	0.06
226.215	12.06
226.449	15.06
226.683	23.06
226.918	31.06
227.152	30.06
227.387	12.06
227.621	34.06
227.856	41.06
228.09	35.06
228.324	64.06
228.559	59.06
228.793	90.06
229.027	112.06
229.262	126.06
229.496	143.06
229.73	162.06
229.964	204.06
230.199	144.06
230.433	137.06
230.667	138.06
230.901	142.06
231.136	126.06
231.37	108.06
231.604	126.06
231.838	116.06
232.072	109.06
232.306	127.06
232.541	109.06
232.775	103.06
233.009	128.06
233.243	110.06
233.477	105.06
233.711	117.06
233.945	123.06
234.179	111.06
234.413	115.06
234.647	115.06
234.881	114.06
235.115	118.06
235.349	122.06
235.583	119.06
235.817	121.06
236.051	125.06
236.285	127.06
236.519	146.06
236.753	130.06
236.987	157.06
237.221	182.06
237.455	230.06
237.689	201.06
237.922	154.06
238.156	146.06
238.39	150.06
238.624	141.06
238.858	127.06
239.091	127.06
239.325	124.06
239.559	138.06
239.793	138.06
240.027	140.06
240.26	152.06
240.494	166.06
240.728	144.06
240.961	155.06
241.195	156.06
241.429	126.06
241.662	129.06
241.896	135.06
242.13	124.06
242.363	125.06
242.597	120.06
242.83	134.06
243.064	130.06
243.298	147.06
243.531	128.06
243.765	127.06
243.998	120.06
244.232	127.06
244.465	140.06
244.699	140.06
244.932	144.06
245.166	143.06
245.399	138.06
245.633	131.06
245.866	134.06
246.099	140.06
246.333	135.06
246.566	137.06
246.8	134.06
247.033	157.06
247.266	167.06
247.5	143.06
247.733	145.06
247.966	163.06
248.2	170.06
248.433	174.06
248.666	166.06
248.899	150.06
249.133	195.06
249.366	185.06
249.599	205.06
249.832	197.06
250.066	155.06
250.299	161.06
250.532	159.06
250.765	182.06
250.998	186.06
251.231	203.06
251.465	193.06
251.698	184.06
251.931	190.06
252.164	188.06
252.397	186.06
252.63	183.06
252.863	196.06
253.096	191.06
253.329	198.06
253.562	191.06
253.795	213.06
254.028	198.06
254.261	207.06
254.494	182.06
254.727	230.06
254.96	245.06
255.193	241.06
255.426	229.06
255.659	201.06
255.892	190.06
256.124	206.06
256.357	210.06
256.59	200.06
256.823	175.06
257.056	188.06
257.289	186.06
257.521	203.06
257.754	180.06
257.987	184.06
258.22	179.06
258.452	196.06
258.685	182.06
258.918	197.06
259.151	196.06
259.383	189.06
259.616	199.06
259.849	212.06
260.081	211.06
260.314	239.06
260.547	227.06
260.779	249.06
261.012	210.06
261.244	219.06
261.477	204.06
261.71	222.06
261.942	265.06
262.175	323.06
262.407	308.06
262.64	229.06
262.872	211.06
263.105	218.06
263.337	232.06
263.57	208.06
263.802	211.06
264.035	195.06
264.267	188.06
264.499	198.06
264.732	209.06
264.964	191.06
265.197	196.06
265.429	198.06
265.661	208.06
265.894	194.06
266.126	205.06
266.358	192.06
266.591	199.06
266.823	205.06
267.055	191.06
267.287	203.06
267.52	192.06
267.752	208.06
267.984	202.06
268.216	198.06
268.448	208.06
268.681	221.06
268.913	221.06
269.145	219.06
269.377	259.06
269.609	259.06
269.841	246.06
270.073	238.06
270.306	249.06
270.538	256.06
270.77	281.06
271.002	276.06
271.234	253.06
271.466	263.06
271.698	271.06
271.93	278.06
272.162	294.06
272.394	294.06
272.626	293.06
272.858	278.06
273.09	285.06
273.322	258.06
273.553	261.06
273.785	239.06
274.017	248.06
274.249	251.06
274.481	251.06
274.713	253.06
274.945	265.06
275.176	253.06
275.408	266.06
275.64	255.06
275.872	247.06
276.104	270.06
276.335	264.06
276.567	281.06
276.799	322.06
277.031	331.06
277.262	329.06
277.494	310.06
277.726	286.06
277.957	285.06
278.189	267.06
278.421	256.06
278.652	261.06
278.884	247.06
279.115	249.06
279.347	302.06
279.579	364.06
279.81	411.06
280.042	370.06
280.273	332.06
280.505	342.06
280.736	292.06
280.968	270.06
281.199	255.06
281.431	252.06
281.662	246.06
281.894	239.06
282.125	260.06
282.356	294.06
282.588	374.06
282.819	368.06
283.051	284.06
283.282	248.06
283.513	253.06
283.745	234.06
283.976	248.06
284.207	250.06
284.439	265.06
284.67	247.06
284.901	249.06
285.132	275.06
285.364	310.06
285.595	295.06
285.826	256.06
286.057	250.06
286.288	236.06
286.52	250.06
286.751	258.06
286.982	240.06
287.213	264.06
287.444	260.06
287.675	264.06
287.906	270.06
288.138	278.06
288.369	314.06
288.6	307.06
288.831	265.06
289.062	252.06
289.293	263.06
289.524	245.06
289.755	252.06
289.986	250.06
290.217	233.06
290.448	232.06
290.679	239.06
290.91	249.06
291.141	238.06
291.371	240.06
291.602	242.06
291.833	244.06
292.064	252.06
292.295	247.06
292.526	256.06
292.757	248.06
292.987	226.06
293.218	268.06
293.449	258.06
293.68	258.06
293.91	253.06
294.141	250.06
294.372	244.06
294.603	263.06
294.833	241.06
295.064	269.06
295.295	258.06
295.525	253.06
295.756	273.06
295.987	311.06
296.217	372.06
296.448	390.06
296.679	317.06
296.909	269.06
297.14	285.06
297.37	277.06
297.601	261.06
297.831	262.06
298.062	246.06
298.292	245.06
298.523	270.06
298.753	278.06
298.984	268.06
299.214	265.06
299.445	263.06
299.675	281.06
299.905	296.06
300.136	300.06
300.366	280.06
300.597	301.06
300.827	290.06
301.057	317.06
301.288	348.06
301.518	329.06
301.748	299.06
301.979	278.06
302.209	297.06
302.439	306.06
302.669	307.06
302.9	309.06
303.13	308.06
303.36	293.06
303.59	308.06
303.82	336.06
304.051	338.06
304.281	291.06
304.511	259.06
304.741	277.06
304.971	280.06
305.201	288.06
305.431	293.06
305.661	288.06
305.891	287.06
306.121	290.06
306.352	300.06
306.582	334.06
306.812	323.06
307.042	301.06
307.272	309.06
307.502	316.06
307.731	336.06
307.961	321.06
308.191	312.06
308.421	316.06
308.651	322.06
308.881	333.06
309.111	347.06
309.341	370.06
309.571	401.06
309.8	415.06
310.03	430.06
310.26	450.06
310.49	456.06
310.72	471.06
310.949	518.06
311.179	548.06
311.409	453.06
311.639	442.06
311.868	427.06
312.098	438.06
312.328	456.06
312.557	485.06
312.787	538.06
313.017	534.06
313.246	451.06
313.476	422.06
313.706	420.06
313.935	442.06
314.165	462.06
314.394	515.06
314.624	495.06
314.853	452.06
315.083	438.06
315.312	362.06
315.542	382.06
315.771	398.06
316.001	405.06
316.23	418.06
316.46	425.06
316.689	407.06
316.919	434.06
317.148	432.06
317.377	437.06
317.607	459.06
317.836	466.06
318.065	459.06
318.295	478.06
318.524	443.06
318.753	418.06
318.983	413.06
319.212	409.06
319.441	446.06
319.67	470.06
319.9	399.06
320.129	423.06
320.358	397.06
320.587	419.06
320.816	460.06
321.046	465.06
321.275	488.06
321.504	466.06
321.733	458.06
321.962	489.06
322.191	540.06
322.42	592.06
322.649	638.06
322.878	652.06
323.108	714.06
323.337	793.06
323.566	861.06
323.795	987.06
324.024	1154.06
324.253	1501.06
324.482	2214.06
324.71	3157.06
324.939	4138.06
325.168	3630.06
325.397	2215.06
325.626	1438.06
325.855	1081.06
326.084	893.06
326.313	839.06
326.542	891.06
326.77	1004.06
326.999	1252.06
327.228	1847.06
327.457	2767.06
327.686	3300.06
327.914	2388.06
328.143	1576.06
328.372	1250.06
328.6	1095.06
328.829	988.06
329.058	1046.06
329.287	1048.06
329.515	927.06
329.744	784.06
329.972	758.06
330.201	742.06
330.43	849.06
330.658	954.06
330.887	1079.06
331.115	1018.06
331.344	784.06
331.572	691.06
331.801	714.06
332.03	641.06
332.258	615.06
332.486	525.06
332.715	476.06
332.943	488.06
333.172	511.06
333.4	504.06
333.629	502.06
333.857	550.06
334.085	557.06
334.314	515.06
334.542	541.06
334.771	573.06
334.999	546.06
335.227	496.06
335.455	471.06
335.684	433.06
335.912	444.06
336.14	443.06
336.369	473.06
336.597	488.06
336.825	498.06
337.053	474.06
337.281	442.06
337.51	437.06
337.738	448.06
337.966	424.06
338.194	468.06
338.422	478.06
338.65	459.06
338.878	419.06
339.106	399.06
339.334	426.06
339.562	420.06
339.79	421.06
340.018	445.06
340.246	431.06
340.474	444.06
340.702	460.06
340.93	445.06
341.158	428.06
341.386	456.06
341.614	453.06
341.842	452.06
342.07	449.06
342.298	422.06
342.526	410.06
342.754	397.06
342.981	346.06
343.209	391.06
343.437	377.06
343.665	391.06
343.893	379.06
344.12	379.06
344.348	406.06
344.576	421.06
344.804	461.06
345.031	484.06
345.259	516.06
345.487	524.06
345.714	477.06
345.942	464.06
346.17	455.06
346.397	444.06
346.625	436.06
346.853	424.06
347.08	430.06
347.308	447.06
347.535	483.06
347.763	494.06
347.99	472.06
348.218	489.06
348.445	526.06
348.673	488.06
348.9	460.06
349.128	446.06
349.355	406.06
349.583	422.06
349.81	407.06
350.037	414.06
350.265	418.06
350.492	414.06
350.72	416.06
350.947	439.06
351.174	476.06
351.402	488.06
351.629	494.06
351.856	514.06
352.083	506.06
352.311	540.06
352.538	541.06
352.765	555.06
352.992	525.06
353.22	502.06
353.447	463.06
353.674	437.06
353.901	402.06
354.128	378.06
354.355	375.06
354.583	373.06
354.81	379.06
355.037	365.06
355.264	326.06
355.491	348.06
355.718	351.06
355.945	345.06
356.172	330.06
356.399	334.06
356.626	364.06
356.853	353.06
357.08	370.06
357.307	365.06
357.534	354.06
357.761	348.06
357.988	377.06
358.215	389.06
358.441	395.06
358.668	378.06
358.895	378.06
359.122	398.06
359.349	423.06
359.576	479.06
359.802	556.06
360.029	661.06
360.256	702.06
360.483	607.06
360.709	518.06
360.936	474.06
361.163	466.06
361.39	502.06
361.616	481.06
361.843	475.06
362.07	514.06
362.296	507.06
362.523	501.06
362.749	458.06
362.976	430.06
363.203	427.06
363.429	418.06
363.656	399.06
363.882	413.06
364.109	421.06
364.335	415.06
364.562	408.06
364.788	400.06
365.015	405.06
365.241	396.06
365.468	415.06
365.694	438.06
365.92	442.06
366.147	406.06
366.373	396.06
366.599	381.06
366.826	366.06
367.052	399.06
367.278	383.06
367.505	391.06
367.731	395.06
367.957	377.06
368.184	400.06
368.41	405.06
368.636	419.06
368.862	411.06
369.089	392.06
369.315	373.06
369.541	400.06
369.767	363.06
369.993	380.06
370.219	391.06
370.445	363.06
370.672	365.06
370.898	364.06
371.124	357.06
371.35	349.06
371.576	329.06
371.802	346.06
372.028	352.06
372.254	339.06
372.48	349.06
372.706	337.06
372.932	315.06
373.158	332.06
373.384	352.06
373.61	365.06
373.835	392.06
374.061	384.06
374.287	405.06
374.513	365.06
374.739	370.06
374.965	378.06
375.191	376.06
375.416	346.06
375.642	330.06
375.868	356.06
376.094	355.06
376.319	339.06
376.545	329.06
376.771	353.06
376.997	336.06
377.222	338.06
377.448	344.06
377.674	327.06
377.899	319.06
378.125	314.06
378.35	316.06
378.576	317.06
378.802	300.06
379.027	317.06
379.253	314.06
379.478	307.06
379.704	332.06
379.929	333.06
380.155	347.06
380.38	358.06
380.606	361.06
380.831	322.06
381.057	335.06
381.282	350.06
381.507	344.06
381.733	343.06
381.958	339.06
382.184	372.06
382.409	348.06
382.634	364.06
382.86	345.06
383.085	373.06
383.31	352.06
383.535	368.06
383.761	363.06
383.986	365.06
384.211	366.06
384.436	332.06
384.662	324.06
384.887	346.06
385.112	348.06
385.337	344.06
385.562	363.06
385.787	377.06
386.013	380.06
386.238	417.06
386.463	404.06
386.688	378.06
386.913	366.06
387.138	360.06
387.363	366.06
387.588	347.06
387.813	328.06
388.038	361.06
388.263	363.06
388.488	358.06
388.713	352.06
388.938	338.06
389.163	343.06
389.387	365.06
389.612	341.06
389.837	331.06
390.062	322.06
390.287	351.06
390.512	350.06
390.736	366.06
390.961	350.06
391.186	349.06
391.411	369.06
391.636	382.06
391.86	374.06
392.085	372.06
392.31	407.06
392.534	421.06
392.759	518.06
392.984	609.06
393.208	957.06
393.433	1577.06
393.658	1725.06
393.882	837.06
394.107	537.06
394.331	446.06
394.556	446.06
394.78	428.06
395.005	386.06
395.229	399.06
395.454	378.06
395.678	397.06
395.903	407.06
396.127	475.06
396.352	549.06
396.576	628.06
396.801	919.06
397.025	1322.06
397.249	968.06
397.474	516.06
397.698	448.06
397.922	421.06
398.147	410.06
398.371	419.06
398.595	376.06
398.82	377.06
399.044	387.06
399.268	401.06
399.492	390.06
399.717	413.06
399.941	442.06
400.165	460.06
400.389	463.06
400.613	441.06
400.837	411.06
401.062	416.06
401.286	406.06
401.51	399.06
401.734	419.06
401.958	419.06
402.182	422.06
402.406	471.06
402.63	477.06
402.854	443.06
403.078	420.06
403.302	442.06
403.526	426.06
403.75	422.06
403.974	408.06
404.198	403.06
404.422	428.06
404.645	427.06
404.869	466.06
405.093	453.06
405.317	477.06
405.541	518.06
405.765	482.06
405.988	468.06
406.212	524.06
406.436	581.06
406.66	596.06
406.883	509.06
407.107	510.06
407.331	539.06
407.555	586.06
407.778	582.06
408.002	535.06
408.226	470.06
408.449	475.06
408.673	484.06
408.896	465.06
409.12	488.06
409.344	459.06
409.567	447.06
409.791	424.06
410.014	398.06
410.238	391.06
410.461	396.06
410.685	406.06
410.908	427.06
411.132	466.06
411.355	471.06
411.578	462.06
411.802	420.06
412.025	417.06
412.249	415.06
412.472	423.06
412.695	446.06
412.919	426.06
413.142	394.06
413.365	375.06
413.589	378.06
413.812	372.06
414.035	363.06
414.258	357.06
414.482	368.06
414.705	358.06
414.928	362.06
415.151	367.06
415.374	350.06
415.597	364.06
415.821	362.06
416.044	344.06
416.267	374.06
416.49	354.06
416.713	374.06
416.936	370.06
417.159	367.06
417.382	390.06
417.605	380.06
417.828	404.06
418.051	420.06
418.274	415.06
418.497	386.06
418.72	392.06
418.943	370.06
419.166	382.06
419.389	402.06
419.611	375.06
419.834	389.06
420.057	388.06
420.28	386.06
420.503	394.06
420.726	379.06
420.948	398.06
421.171	446.06
421.394	477.06
421.617	414.06
421.839	402.06
422.062	402.06
422.285	444.06
422.507	590.06
422.73	892.06
422.953	1069.06
423.175	660.06
423.398	471.06
423.621	434.06
423.843	436.06
424.066	438.06
424.288	435.06
424.511	485.06
424.733	540.06
424.956	591.06
425.178	589.06
425.401	582.06
425.623	567.06
425.846	495.06
426.068	498.06
426.291	527.06
426.513	492.06
426.735	488.06
426.958	526.06
427.18	601.06
427.402	741.06
427.625	928.06
427.847	1007.06
428.069	788.06
428.292	634.06
428.514	568.06
428.736	564.06
428.958	514.06
429.181	477.06
429.403	469.06
429.625	466.06
429.847	507.06
430.069	570.06
430.292	616.06
430.514	579.06
430.736	505.06
430.958	471.06
431.18	457.06
431.402	421.06
431.624	405.06
431.846	393.06
432.068	410.06
432.29	420.06
432.512	401.06
432.734	398.06
432.956	414.06
433.178	412.06
433.4	436.06
433.622	421.06
433.844	419.06
434.066	398.06
434.287	392.06
434.509	409.06
434.731	413.06
434.953	401.06
435.175	428.06
435.397	447.06
435.618	483.06
435.84	521.06
436.062	585.06
436.284	613.06
436.505	543.06
436.727	506.06
436.949	450.06
437.17	468.06
437.392	455.06
437.614	462.06
437.835	563.06
438.057	733.06
438.278	761.06
438.5	692.06
438.721	735.06
438.943	679.06
439.165	578.06
439.386	543.06
439.608	550.06
439.829	530.06
440.05	574.06
440.272	621.06
440.493	583.06
440.715	527.06
440.936	510.06
441.158	490.06
441.379	488.06
441.6	507.06
441.822	562.06
442.043	561.06
442.264	586.06
442.486	627.06
442.707	594.06
442.928	548.06
443.149	545.06
443.371	558.06
443.592	605.06
443.813	673.06
444.034	655.06
444.255	594.06
444.476	519.06
444.698	499.06
444.919	492.06
445.14	590.06
445.361	588.06
445.582	627.06
445.803	695.06
446.024	735.06
446.245	688.06
446.466	635.06
446.687	568.06
446.908	506.06
447.129	518.06
447.35	468.06
447.571	469.06
447.792	463.06
448.013	475.06
448.234	508.06
448.455	554.06
448.675	601.06
448.896	672.06
449.117	602.06
449.338	567.06
449.559	655.06
449.779	703.06
450	620.06
450.221	532.06
450.442	518.06
450.662	519.06
450.883	606.06
451.104	668.06
451.324	644.06
451.545	566.06
451.766	518.06
451.986	469.06
452.207	479.06
452.428	461.06
452.648	468.06
452.869	479.06
453.089	495.06
453.31	510.06
453.53	534.06
453.751	530.06
453.971	549.06
454.192	622.06
454.412	591.06
454.633	528.06
454.853	483.06
455.073	478.06
455.294	501.06
455.514	584.06
455.734	565.06
455.955	436.06
456.175	413.06
456.395	413.06
456.616	399.06
456.836	390.06
457.056	389.06
457.276	390.06
457.497	403.06
457.717	395.06
457.937	415.06
458.157	411.06
458.377	454.06
458.598	493.06
458.818	688.06
459.038	859.06
459.258	775.06
459.478	617.06
459.698	534.06
459.918	470.06
460.138	453.06
460.358	424.06
460.578	449.06
460.798	434.06
461.018	422.06
461.238	417.06
461.458	403.06
461.678	407.06
461.898	424.06
462.118	389.06
462.338	414.06
462.558	388.06
462.777	397.06
462.997	406.06
463.217	417.06
463.437	405.06
463.657	403.06
463.876	410.06
464.096	425.06
464.316	470.06
464.536	499.06
464.755	506.06
464.975	544.06
465.195	736.06
465.414	1074.06
465.634	864.06
465.854	670.06
466.073	559.06
466.293	527.06
466.512	485.06
466.732	462.06
466.951	452.06
467.171	440.06
467.391	460.06
467.61	492.06
467.829	564.06
468.049	498.06
468.268	468.06
468.488	466.06
468.707	426.06
468.927	406.06
469.146	427.06
469.365	410.06
469.585	422.06
469.804	426.06
470.023	477.06
470.243	489.06
470.462	514.06
470.681	603.06
470.901	582.06
471.12	498.06
471.339	483.06
471.558	447.06
471.777	450.06
471.997	432.06
472.216	444.06
472.435	446.06
472.654	472.06
472.873	421.06
473.092	426.06
473.311	430.06
473.53	418.06
473.749	449.06
473.968	459.06
474.187	554.06
474.406	580.06
474.625	500.06
474.844	435.06
475.063	429.06
475.282	455.06
475.501	423.06
475.72	404.06
475.939	428.06
476.158	427.06
476.377	454.06
476.596	429.06
476.814	467.06
477.033	520.06
477.252	477.06
477.471	464.06
477.69	454.06
477.908	447.06
478.127	458.06
478.346	462.06
478.564	445.06
478.783	457.06
479.002	460.06
479.22	499.06
479.439	528.06
479.658	599.06
479.876	586.06
480.095	574.06
480.313	570.06
480.532	552.06
480.751	534.06
480.969	530.06
481.188	586.06
481.406	655.06
481.624	564.06
481.843	520.06
482.061	525.06
482.28	509.06
482.498	482.06
482.717	517.06
482.935	490.06
483.153	483.06
483.372	500.06
483.59	508.06
483.808	478.06
484.027	491.06
484.245	498.06
484.463	494.06
484.681	506.06
484.9	496.06
485.118	490.06
485.336	512.06
485.554	494.06
485.772	487.06
485.99	519.06
486.209	500.06
486.427	527.06
486.645	558.06
486.863	603.06
487.081	622.06
487.299	592.06
487.517	545.06
487.735	534.06
487.953	532.06
488.171	542.06
488.389	539.06
488.607	559.06
488.825	549.06
489.043	542.06
489.261	525.06
489.479	499.06
489.696	527.06
489.914	516.06
490.132	535.06
490.35	553.06
490.568	543.06
490.786	546.06
491.003	524.06
491.221	572.06
491.439	557.06
491.657	550.06
491.874	549.06
492.092	566.06
492.31	557.06
492.527	567.06
492.745	565.06
492.963	576.06
493.18	587.06
493.398	579.06
493.615	630.06
493.833	580.06
494.05	581.06
494.268	574.06
494.485	583.06
494.703	566.06
494.92	563.06
495.138	582.06
495.355	597.06
495.573	583.06
495.79	598.06
496.008	612.06
496.225	590.06
496.442	565.06
496.66	594.06
496.877	584.06
497.094	594.06
497.312	610.06
497.529	620.06
497.746	594.06
497.963	630.06
498.181	648.06
498.398	658.06
498.615	656.06
498.832	646.06
499.049	649.06
499.267	637.06
499.484	641.06
499.701	646.06
499.918	655.06
500.135	664.06
500.352	678.06
500.569	675.06
500.786	688.06
501.003	696.06
501.22	678.06
501.437	675.06
501.654	707.06
