Data from 1987.PennyLincolnUp.Lamp.En5.5.200Scan.071819.P2_HRD10591_17-14-36-971.txt Node
Date: Thu Jul 18 17:14:36 EDT 2019
User: cochatt
Spectrometer: HR+D1059
Trigger mode: 1
Integration Time (sec): 1.000000E-1
Scans to average: 1
Electric dark correction enabled: true
Nonlinearity correction enabled: false
Boxcar width: 0
XAxis mode: Wavelengths
Number of Pixels in Spectrum: 2048
>>>>>Begin Spectral Data<<<<<
223.165	1.69
223.4	1.69
223.635	1.69
223.869	-12.31
224.104	-27.31
224.338	7.69
224.573	-15.31
224.808	-25.31
225.042	-11.31
225.277	-8.31
225.511	-22.31
225.746	-9.31
225.98	14.69
226.215	15.69
226.449	10.69
226.683	15.69
226.918	34.69
227.152	30.69
227.387	27.69
227.621	28.69
227.856	41.69
228.09	34.69
228.324	44.69
228.559	44.69
228.793	53.69
229.027	96.69
229.262	109.69
229.496	119.69
229.73	128.69
229.964	162.69
230.199	141.69
230.433	123.69
230.667	124.69
230.901	134.69
231.136	110.69
231.37	99.69
231.604	94.69
231.838	117.69
232.072	130.69
232.306	106.69
232.541	123.69
232.775	105.69
233.009	119.69
233.243	120.69
233.477	116.69
233.711	109.69
233.945	115.69
234.179	102.69
234.413	114.69
234.647	120.69
234.881	114.69
235.115	112.69
235.349	109.69
235.583	115.69
235.817	116.69
236.051	122.69
236.285	129.69
236.519	124.69
236.753	126.69
236.987	144.69
237.221	183.69
237.455	245.69
237.689	189.69
237.922	138.69
238.156	130.69
238.39	140.69
238.624	121.69
238.858	128.69
239.091	108.69
239.325	131.69
239.559	130.69
239.793	128.69
240.027	142.69
240.26	148.69
240.494	155.69
240.728	134.69
240.961	134.69
241.195	142.69
241.429	148.69
241.662	135.69
241.896	121.69
242.13	127.69
242.363	130.69
242.597	138.69
242.83	129.69
243.064	130.69
243.298	127.69
243.531	137.69
243.765	120.69
243.998	137.69
244.232	129.69
244.465	136.69
244.699	132.69
244.932	128.69
245.166	129.69
245.399	135.69
245.633	136.69
245.866	135.69
246.099	131.69
246.333	140.69
246.566	133.69
246.8	155.69
247.033	147.69
247.266	141.69
247.5	146.69
247.733	163.69
247.966	155.69
248.2	161.69
248.433	149.69
248.666	168.69
248.899	176.69
249.133	191.69
249.366	196.69
249.599	214.69
249.832	176.69
250.066	172.69
250.299	169.69
250.532	181.69
250.765	179.69
250.998	200.69
251.231	219.69
251.465	198.69
251.698	178.69
251.931	205.69
252.164	190.69
252.397	197.69
252.63	173.69
252.863	202.69
253.096	187.69
253.329	223.69
253.562	212.69
253.795	219.69
254.028	196.69
254.261	202.69
254.494	224.69
254.727	232.69
254.96	266.69
255.193	254.69
255.426	222.69
255.659	228.69
255.892	198.69
256.124	217.69
256.357	195.69
256.59	205.69
256.823	188.69
257.056	186.69
257.289	179.69
257.521	199.69
257.754	181.69
257.987	188.69
258.22	186.69
258.452	182.69
258.685	200.69
258.918	202.69
259.151	216.69
259.383	180.69
259.616	181.69
259.849	190.69
260.081	209.69
260.314	224.69
260.547	248.69
260.779	221.69
261.012	212.69
261.244	201.69
261.477	205.69
261.71	201.69
261.942	217.69
262.175	216.69
262.407	210.69
262.64	204.69
262.872	198.69
263.105	194.69
263.337	210.69
263.57	200.69
263.802	183.69
264.035	187.69
264.267	182.69
264.499	176.69
264.732	180.69
264.964	170.69
265.197	176.69
265.429	188.69
265.661	190.69
265.894	184.69
266.126	199.69
266.358	186.69
266.591	184.69
266.823	187.69
267.055	180.69
267.287	201.69
267.52	212.69
267.752	178.69
267.984	195.69
268.216	205.69
268.448	208.69
268.681	205.69
268.913	216.69
269.145	221.69
269.377	239.69
269.609	245.69
269.841	236.69
270.073	240.69
270.306	245.69
270.538	264.69
270.77	280.69
271.002	261.69
271.234	250.69
271.466	258.69
271.698	280.69
271.93	299.69
272.162	286.69
272.394	302.69
272.626	274.69
272.858	264.69
273.09	260.69
273.322	249.69
273.553	228.69
273.785	233.69
274.017	240.69
274.249	228.69
274.481	220.69
274.713	225.69
274.945	236.69
275.176	222.69
275.408	233.69
275.64	237.69
275.872	208.69
276.104	230.69
276.335	217.69
276.567	240.69
276.799	248.69
277.031	279.69
277.262	267.69
277.494	261.69
277.726	258.69
277.957	259.69
278.189	246.69
278.421	217.69
278.652	221.69
278.884	213.69
279.115	223.69
279.347	227.69
279.579	222.69
279.81	210.69
280.042	217.69
280.273	212.69
280.505	213.69
280.736	206.69
280.968	231.69
281.199	208.69
281.431	218.69
281.662	199.69
281.894	222.69
282.125	231.69
282.356	258.69
282.588	274.69
282.819	248.69
283.051	235.69
283.282	210.69
283.513	229.69
283.745	224.69
283.976	218.69
284.207	222.69
284.439	238.69
284.67	224.69
284.901	220.69
285.132	220.69
285.364	224.69
285.595	237.69
285.826	217.69
286.057	230.69
286.288	210.69
286.52	213.69
286.751	222.69
286.982	231.69
287.213	221.69
287.444	230.69
287.675	228.69
287.906	225.69
288.138	238.69
288.369	229.69
288.6	246.69
288.831	236.69
289.062	229.69
289.293	211.69
289.524	216.69
289.755	241.69
289.986	221.69
290.217	232.69
290.448	219.69
290.679	220.69
290.91	224.69
291.141	219.69
291.371	231.69
291.602	255.69
291.833	232.69
292.064	220.69
292.295	225.69
292.526	235.69
292.757	236.69
292.987	223.69
293.218	231.69
293.449	212.69
293.68	248.69
293.91	226.69
294.141	218.69
294.372	225.69
294.603	229.69
294.833	214.69
295.064	224.69
295.295	231.69
295.525	249.69
295.756	232.69
295.987	238.69
296.217	266.69
296.448	283.69
296.679	253.69
296.909	231.69
297.14	235.69
297.37	244.69
297.601	233.69
297.831	229.69
298.062	244.69
298.292	230.69
298.523	243.69
298.753	240.69
298.984	229.69
299.214	217.69
299.445	231.69
299.675	232.69
299.905	242.69
300.136	246.69
300.366	255.69
300.597	246.69
300.827	243.69
301.057	256.69
301.288	267.69
301.518	277.69
301.748	258.69
301.979	234.69
302.209	270.69
302.439	258.69
302.669	243.69
302.9	260.69
303.13	267.69
303.36	254.69
303.59	269.69
303.82	262.69
304.051	280.69
304.281	253.69
304.511	269.69
304.741	271.69
304.971	233.69
305.201	252.69
305.431	254.69
305.661	259.69
305.891	257.69
306.121	252.69
306.352	261.69
306.582	273.69
306.812	244.69
307.042	238.69
307.272	256.69
307.502	266.69
307.731	249.69
307.961	272.69
308.191	261.69
308.421	256.69
308.651	250.69
308.881	263.69
309.111	260.69
309.341	284.69
309.571	292.69
309.8	294.69
310.03	324.69
310.26	297.69
310.49	329.69
310.72	307.69
310.949	333.69
311.179	368.69
311.409	333.69
311.639	324.69
311.868	325.69
312.098	318.69
312.328	344.69
312.557	347.69
312.787	368.69
313.017	369.69
313.246	340.69
313.476	298.69
313.706	335.69
313.935	329.69
314.165	324.69
314.394	339.69
314.624	355.69
314.853	338.69
315.083	313.69
315.312	306.69
315.542	296.69
315.771	310.69
316.001	306.69
316.23	313.69
316.46	307.69
316.689	310.69
316.919	329.69
317.148	336.69
317.377	331.69
317.607	332.69
317.836	332.69
318.065	321.69
318.295	312.69
318.524	322.69
318.753	306.69
318.983	314.69
319.212	324.69
319.441	324.69
319.67	333.69
319.9	321.69
320.129	321.69
320.358	319.69
320.587	338.69
320.816	326.69
321.046	352.69
321.275	310.69
321.504	341.69
321.733	347.69
321.962	374.69
322.191	382.69
322.42	390.69
322.649	418.69
322.878	408.69
323.108	443.69
323.337	478.69
323.566	496.69
323.795	549.69
324.024	600.69
324.253	758.69
324.482	1084.69
324.71	1663.69
324.939	2308.69
325.168	2030.69
325.397	1109.69
325.626	725.69
325.855	603.69
326.084	513.69
326.313	492.69
326.542	501.69
326.77	584.69
326.999	667.69
327.228	928.69
327.457	1434.69
327.686	1709.69
327.914	1227.69
328.143	786.69
328.372	649.69
328.6	603.69
328.829	550.69
329.058	580.69
329.287	602.69
329.515	537.69
329.744	491.69
329.972	448.69
330.201	472.69
330.43	507.69
330.658	567.69
330.887	622.69
331.115	598.69
331.344	492.69
331.572	451.69
331.801	450.69
332.03	443.69
332.258	417.69
332.486	383.69
332.715	350.69
332.943	360.69
333.172	376.69
333.4	374.69
333.629	372.69
333.857	371.69
334.085	386.69
334.314	379.69
334.542	360.69
334.771	392.69
334.999	372.69
335.227	378.69
335.455	358.69
335.684	352.69
335.912	341.69
336.14	364.69
336.369	351.69
336.597	349.69
336.825	366.69
337.053	350.69
337.281	354.69
337.51	356.69
337.738	362.69
337.966	361.69
338.194	360.69
338.422	375.69
338.65	382.69
338.878	358.69
339.106	353.69
339.334	343.69
339.562	328.69
339.79	336.69
340.018	350.69
340.246	373.69
340.474	363.69
340.702	380.69
340.93	353.69
341.158	342.69
341.386	339.69
341.614	364.69
341.842	362.69
342.07	343.69
342.298	331.69
342.526	332.69
342.754	337.69
342.981	322.69
343.209	343.69
343.437	344.69
343.665	331.69
343.893	334.69
344.12	363.69
344.348	340.69
344.576	350.69
344.804	372.69
345.031	378.69
345.259	404.69
345.487	370.69
345.714	364.69
345.942	367.69
346.17	342.69
346.397	340.69
346.625	328.69
346.853	355.69
347.08	332.69
347.308	354.69
347.535	361.69
347.763	370.69
347.99	370.69
348.218	359.69
348.445	381.69
348.673	377.69
348.9	352.69
349.128	326.69
349.355	344.69
349.583	336.69
349.81	342.69
350.037	331.69
350.265	347.69
350.492	348.69
350.72	349.69
350.947	369.69
351.174	361.69
351.402	380.69
351.629	372.69
351.856	368.69
352.083	372.69
352.311	382.69
352.538	373.69
352.765	390.69
352.992	393.69
353.22	370.69
353.447	351.69
353.674	334.69
353.901	334.69
354.128	339.69
354.355	330.69
354.583	335.69
354.81	318.69
355.037	312.69
355.264	332.69
355.491	329.69
355.718	302.69
355.945	302.69
356.172	304.69
356.399	298.69
356.626	312.69
356.853	315.69
357.08	322.69
357.307	306.69
357.534	299.69
357.761	318.69
357.988	320.69
358.215	324.69
358.441	339.69
358.668	323.69
358.895	332.69
359.122	335.69
359.349	346.69
359.576	349.69
359.802	407.69
360.029	421.69
360.256	474.69
360.483	426.69
360.709	363.69
360.936	356.69
361.163	354.69
361.39	358.69
361.616	379.69
361.843	352.69
362.07	376.69
362.296	356.69
362.523	354.69
362.749	353.69
362.976	333.69
363.203	358.69
363.429	352.69
363.656	345.69
363.882	329.69
364.109	344.69
364.335	319.69
364.562	330.69
364.788	338.69
365.015	350.69
365.241	338.69
365.468	353.69
365.694	329.69
365.92	337.69
366.147	337.69
366.373	328.69
366.599	321.69
366.826	328.69
367.052	333.69
367.278	324.69
367.505	326.69
367.731	339.69
367.957	324.69
368.184	351.69
368.41	340.69
368.636	347.69
368.862	345.69
369.089	337.69
369.315	326.69
369.541	312.69
369.767	308.69
369.993	321.69
370.219	325.69
370.445	312.69
370.672	323.69
370.898	328.69
371.124	318.69
371.35	300.69
371.576	302.69
371.802	304.69
372.028	306.69
372.254	297.69
372.48	318.69
372.706	323.69
372.932	325.69
373.158	307.69
373.384	320.69
373.61	328.69
373.835	324.69
374.061	326.69
374.287	333.69
374.513	317.69
374.739	328.69
374.965	308.69
375.191	329.69
375.416	330.69
375.642	321.69
375.868	347.69
376.094	328.69
376.319	340.69
376.545	323.69
376.771	326.69
376.997	312.69
377.222	320.69
377.448	318.69
377.674	316.69
377.899	305.69
378.125	330.69
378.35	308.69
378.576	311.69
378.802	315.69
379.027	320.69
379.253	306.69
379.478	310.69
379.704	316.69
379.929	317.69
380.155	307.69
380.38	315.69
380.606	317.69
380.831	312.69
381.057	336.69
381.282	322.69
381.507	344.69
381.733	327.69
381.958	334.69
382.184	325.69
382.409	332.69
382.634	320.69
382.86	322.69
383.085	333.69
383.31	338.69
383.535	328.69
383.761	325.69
383.986	332.69
384.211	332.69
384.436	329.69
384.662	337.69
384.887	336.69
385.112	333.69
385.337	330.69
385.562	345.69
385.787	348.69
386.013	323.69
386.238	345.69
386.463	344.69
386.688	341.69
386.913	341.69
387.138	335.69
387.363	346.69
387.588	345.69
387.813	332.69
388.038	339.69
388.263	326.69
388.488	334.69
388.713	332.69
388.938	336.69
389.163	336.69
389.387	347.69
389.612	319.69
389.837	333.69
390.062	348.69
390.287	333.69
390.512	345.69
390.736	342.69
390.961	330.69
391.186	324.69
391.411	334.69
391.636	326.69
391.86	338.69
392.085	368.69
392.31	356.69
392.534	356.69
392.759	355.69
392.984	355.69
393.208	328.69
393.433	338.69
393.658	363.69
393.882	326.69
394.107	336.69
394.331	336.69
394.556	334.69
394.78	335.69
395.005	346.69
395.229	352.69
395.454	354.69
395.678	349.69
395.903	358.69
396.127	384.69
396.352	364.69
396.576	360.69
396.801	353.69
397.025	377.69
397.249	345.69
397.474	337.69
397.698	340.69
397.922	366.69
398.147	391.69
398.371	417.69
398.595	390.69
398.82	395.69
399.044	368.69
399.268	388.69
399.492	382.69
399.717	425.69
399.941	422.69
400.165	475.69
400.389	472.69
400.613	441.69
400.837	401.69
401.062	394.69
401.286	408.69
401.51	398.69
401.734	392.69
401.958	381.69
402.182	405.69
402.406	391.69
402.63	404.69
402.854	384.69
403.078	390.69
403.302	385.69
403.526	411.69
403.75	429.69
403.974	388.69
404.198	397.69
404.422	394.69
404.645	403.69
404.869	395.69
405.093	423.69
405.317	457.69
405.541	461.69
405.765	438.69
405.988	434.69
406.212	444.69
406.436	470.69
406.66	482.69
406.883	479.69
407.107	462.69
407.331	491.69
407.555	562.69
407.778	552.69
408.002	500.69
408.226	470.69
408.449	444.69
408.673	442.69
408.896	482.69
409.12	554.69
409.344	505.69
409.567	456.69
409.791	419.69
410.014	425.69
410.238	436.69
410.461	399.69
410.685	424.69
410.908	437.69
411.132	470.69
411.355	483.69
411.578	488.69
411.802	436.69
412.025	413.69
412.249	421.69
412.472	413.69
412.695	433.69
412.919	405.69
413.142	393.69
413.365	394.69
413.589	391.69
413.812	383.69
414.035	391.69
414.258	387.69
414.482	387.69
414.705	381.69
414.928	376.69
415.151	362.69
415.374	397.69
415.597	378.69
415.821	380.69
416.044	384.69
416.267	378.69
416.49	389.69
416.713	384.69
416.936	394.69
417.159	387.69
417.382	394.69
417.605	404.69
417.828	422.69
418.051	407.69
418.274	408.69
418.497	400.69
418.72	403.69
418.943	381.69
419.166	438.69
419.389	425.69
419.611	416.69
419.834	424.69
420.057	418.69
420.28	402.69
420.503	419.69
420.726	414.69
420.948	421.69
421.171	461.69
421.394	497.69
421.617	466.69
421.839	437.69
422.062	454.69
422.285	449.69
422.507	491.69
422.73	560.69
422.953	542.69
423.175	492.69
423.398	457.69
423.621	467.69
423.843	472.69
424.066	491.69
424.288	478.69
424.511	497.69
424.733	560.69
424.956	624.69
425.178	583.69
425.401	589.69
425.623	605.69
425.846	532.69
426.068	487.69
426.291	499.69
426.513	508.69
426.735	498.69
426.958	527.69
427.18	631.69
427.402	737.69
427.625	816.69
427.847	749.69
428.069	597.69
428.292	538.69
428.514	485.69
428.736	518.69
428.958	474.69
429.181	466.69
429.403	452.69
429.625	457.69
429.847	481.69
430.069	536.69
430.292	540.69
430.514	484.69
430.736	440.69
430.958	434.69
431.18	420.69
431.402	429.69
431.624	404.69
431.846	406.69
432.068	413.69
432.29	419.69
432.512	424.69
432.734	435.69
432.956	426.69
433.178	445.69
433.4	454.69
433.622	441.69
433.844	410.69
434.066	417.69
434.287	409.69
434.509	421.69
434.731	406.69
434.953	416.69
435.175	428.69
435.397	476.69
435.618	488.69
435.84	542.69
436.062	600.69
436.284	669.69
436.505	558.69
436.727	540.69
436.949	470.69
437.17	465.69
437.392	457.69
437.614	476.69
437.835	516.69
438.057	608.69
438.278	712.69
438.5	709.69
438.721	757.69
438.943	729.69
439.165	581.69
439.386	539.69
439.608	538.69
439.829	523.69
440.05	545.69
440.272	585.69
440.493	549.69
440.715	520.69
440.936	483.69
441.158	460.69
441.379	451.69
441.6	455.69
441.822	470.69
442.043	547.69
442.264	604.69
442.486	640.69
442.707	553.69
442.928	516.69
443.149	531.69
443.371	532.69
443.592	590.69
443.813	630.69
444.034	697.69
444.255	571.69
444.476	527.69
444.698	500.69
444.919	483.69
445.14	574.69
445.361	527.69
445.582	508.69
445.803	617.69
446.024	702.69
446.245	689.69
446.466	647.69
446.687	560.69
446.908	518.69
447.129	467.69
447.35	476.69
447.571	470.69
447.792	452.69
448.013	464.69
448.234	476.69
448.455	516.69
448.675	658.69
448.896	744.69
449.117	634.69
449.338	631.69
449.559	675.69
449.779	750.69
450	631.69
450.221	521.69
450.442	488.69
450.662	486.69
450.883	474.69
451.104	514.69
451.324	494.69
451.545	441.69
451.766	443.69
451.986	426.69
452.207	410.69
452.428	396.69
452.648	392.69
452.869	415.69
453.089	416.69
453.31	468.69
453.53	425.69
453.751	424.69
453.971	437.69
454.192	458.69
454.412	442.69
454.633	437.69
454.853	419.69
455.073	402.69
455.294	456.69
455.514	513.69
455.734	502.69
455.955	406.69
456.175	399.69
456.395	376.69
456.616	372.69
456.836	379.69
457.056	377.69
457.276	366.69
457.497	369.69
457.717	386.69
457.937	399.69
458.157	388.69
458.377	386.69
458.598	416.69
458.818	505.69
459.038	632.69
459.258	614.69
459.478	504.69
459.698	429.69
459.918	439.69
460.138	426.69
460.358	417.69
460.578	395.69
460.798	398.69
461.018	415.69
461.238	413.69
461.458	415.69
461.678	410.69
461.898	404.69
462.118	401.69
462.338	403.69
462.558	415.69
462.777	402.69
462.997	433.69
463.217	420.69
463.437	429.69
463.657	418.69
463.876	413.69
464.096	436.69
464.316	416.69
464.536	434.69
464.755	460.69
464.975	451.69
465.195	533.69
465.414	640.69
465.634	540.69
465.854	482.69
466.073	465.69
466.293	428.69
466.512	416.69
466.732	416.69
466.951	411.69
467.171	398.69
467.391	418.69
467.61	453.69
467.829	446.69
468.049	423.69
468.268	405.69
468.488	401.69
468.707	406.69
468.927	404.69
469.146	400.69
469.365	394.69
469.585	377.69
469.804	390.69
470.023	425.69
470.243	411.69
470.462	424.69
470.681	445.69
470.901	452.69
471.12	427.69
471.339	418.69
471.558	425.69
471.777	411.69
471.997	412.69
472.216	381.69
472.435	407.69
472.654	409.69
472.873	416.69
473.092	408.69
473.311	407.69
473.53	427.69
473.749	425.69
473.968	475.69
474.187	557.69
474.406	592.69
474.625	508.69
474.844	442.69
475.063	425.69
475.282	409.69
475.501	409.69
475.72	416.69
475.939	424.69
476.158	420.69
476.377	445.69
476.596	434.69
476.814	442.69
477.033	453.69
477.252	437.69
477.471	432.69
477.69	458.69
477.908	466.69
478.127	451.69
478.346	451.69
478.564	469.69
478.783	469.69
479.002	455.69
479.22	451.69
479.439	490.69
479.658	501.69
479.876	515.69
480.095	501.69
480.313	516.69
480.532	505.69
480.751	506.69
480.969	504.69
481.188	521.69
481.406	513.69
481.624	509.69
481.843	496.69
482.061	485.69
482.28	498.69
482.498	485.69
482.717	496.69
482.935	480.69
483.153	485.69
483.372	480.69
483.59	479.69
483.808	476.69
484.027	482.69
484.245	505.69
484.463	502.69
484.681	491.69
484.9	521.69
485.118	492.69
485.336	499.69
485.554	503.69
485.772	518.69
485.99	508.69
486.209	508.69
486.427	512.69
486.645	527.69
486.863	552.69
487.081	557.69
487.299	531.69
487.517	546.69
487.735	540.69
487.953	514.69
488.171	530.69
488.389	530.69
488.607	556.69
488.825	546.69
489.043	528.69
489.261	571.69
489.479	548.69
489.696	564.69
489.914	537.69
490.132	575.69
490.35	570.69
490.568	568.69
490.786	572.69
491.003	562.69
491.221	600.69
491.439	616.69
491.657	609.69
491.874	592.69
492.092	625.69
492.31	615.69
492.527	615.69
492.745	642.69
492.963	626.69
493.18	637.69
493.398	637.69
493.615	637.69
493.833	635.69
494.05	629.69
494.268	648.69
494.485	628.69
494.703	635.69
494.92	630.69
495.138	632.69
495.355	630.69
495.573	644.69
495.79	635.69
496.008	644.69
496.225	636.69
496.442	655.69
496.66	643.69
496.877	629.69
497.094	643.69
497.312	646.69
497.529	654.69
497.746	672.69
497.963	667.69
498.181	662.69
498.398	701.69
498.615	692.69
498.832	655.69
499.049	710.69
499.267	724.69
499.484	731.69
499.701	709.69
499.918	706.69
500.135	769.69
500.352	754.69
500.569	756.69
500.786	786.69
501.003	797.69
501.22	748.69
501.437	774.69
501.654	742.69
501.871	800.69
502.088	757.69
