Data from 1987.PennyLincolnUp.Lamp.En5.5.200Scan.071819.P2_HRD10591_17-14-58-970.txt Node
Date: Thu Jul 18 17:14:58 EDT 2019
User: cochatt
Spectrometer: HR+D1059
Trigger mode: 1
Integration Time (sec): 1.000000E-1
Scans to average: 1
Electric dark correction enabled: true
Nonlinearity correction enabled: false
Boxcar width: 0
XAxis mode: Wavelengths
Number of Pixels in Spectrum: 2048
>>>>>Begin Spectral Data<<<<<
223.165	-5.62
223.4	-5.62
223.635	-5.62
223.869	-9.62
224.104	-9.62
224.338	-21.62
224.573	-14.62
224.808	-25.62
225.042	-8.62
225.277	-2.62
225.511	-7.62
225.746	-8.62
225.98	1.38
226.215	10.38
226.449	17.38
226.683	24.38
226.918	32.38
227.152	28.38
227.387	38.38
227.621	45.38
227.856	43.38
228.09	27.38
228.324	52.38
228.559	38.38
228.793	54.38
229.027	97.38
229.262	121.38
229.496	115.38
229.73	142.38
229.964	179.38
230.199	123.38
230.433	125.38
230.667	123.38
230.901	121.38
231.136	116.38
231.37	91.38
231.604	125.38
231.838	109.38
232.072	114.38
232.306	113.38
232.541	105.38
232.775	111.38
233.009	117.38
233.243	121.38
233.477	107.38
233.711	110.38
233.945	111.38
234.179	118.38
234.413	122.38
234.647	122.38
234.881	106.38
235.115	118.38
235.349	127.38
235.583	114.38
235.817	118.38
236.051	133.38
236.285	135.38
236.519	122.38
236.753	137.38
236.987	143.38
237.221	193.38
237.455	234.38
237.689	194.38
237.922	150.38
238.156	125.38
238.39	133.38
238.624	129.38
238.858	128.38
239.091	133.38
239.325	123.38
239.559	127.38
239.793	131.38
240.027	130.38
240.26	148.38
240.494	163.38
240.728	152.38
240.961	148.38
241.195	143.38
241.429	148.38
241.662	137.38
241.896	129.38
242.13	128.38
242.363	119.38
242.597	101.38
242.83	125.38
243.064	136.38
243.298	129.38
243.531	133.38
243.765	144.38
243.998	158.38
244.232	132.38
244.465	129.38
244.699	147.38
244.932	126.38
245.166	122.38
245.399	138.38
245.633	138.38
245.866	139.38
246.099	151.38
246.333	130.38
246.566	143.38
246.8	150.38
247.033	153.38
247.266	145.38
247.5	148.38
247.733	147.38
247.966	177.38
248.2	160.38
248.433	164.38
248.666	176.38
248.899	173.38
249.133	184.38
249.366	224.38
249.599	190.38
249.832	181.38
250.066	175.38
250.299	165.38
250.532	184.38
250.765	179.38
250.998	209.38
251.231	216.38
251.465	213.38
251.698	196.38
251.931	203.38
252.164	199.38
252.397	186.38
252.63	190.38
252.863	208.38
253.096	214.38
253.329	204.38
253.562	210.38
253.795	225.38
254.028	189.38
254.261	202.38
254.494	213.38
254.727	253.38
254.96	285.38
255.193	272.38
255.426	257.38
255.659	243.38
255.892	218.38
256.124	204.38
256.357	216.38
256.59	206.38
256.823	193.38
257.056	190.38
257.289	203.38
257.521	189.38
257.754	195.38
257.987	206.38
258.22	187.38
258.452	181.38
258.685	198.38
258.918	182.38
259.151	202.38
259.383	197.38
259.616	197.38
259.849	222.38
260.081	223.38
260.314	256.38
260.547	246.38
260.779	245.38
261.012	207.38
261.244	221.38
261.477	211.38
261.71	216.38
261.942	229.38
262.175	230.38
262.407	227.38
262.64	223.38
262.872	198.38
263.105	202.38
263.337	189.38
263.57	175.38
263.802	188.38
264.035	201.38
264.267	190.38
264.499	181.38
264.732	195.38
264.964	199.38
265.197	200.38
265.429	177.38
265.661	191.38
265.894	201.38
266.126	187.38
266.358	191.38
266.591	194.38
266.823	207.38
267.055	204.38
267.287	203.38
267.52	190.38
267.752	198.38
267.984	217.38
268.216	195.38
268.448	221.38
268.681	213.38
268.913	215.38
269.145	230.38
269.377	242.38
269.609	241.38
269.841	235.38
270.073	261.38
270.306	278.38
270.538	290.38
270.77	306.38
271.002	279.38
271.234	284.38
271.466	281.38
271.698	278.38
271.93	309.38
272.162	299.38
272.394	284.38
272.626	286.38
272.858	276.38
273.09	242.38
273.322	251.38
273.553	243.38
273.785	235.38
274.017	235.38
274.249	244.38
274.481	229.38
274.713	242.38
274.945	228.38
275.176	248.38
275.408	230.38
275.64	220.38
275.872	242.38
276.104	236.38
276.335	231.38
276.567	241.38
276.799	267.38
277.031	284.38
277.262	298.38
277.494	287.38
277.726	264.38
277.957	262.38
278.189	258.38
278.421	253.38
278.652	249.38
278.884	237.38
279.115	225.38
279.347	220.38
279.579	237.38
279.81	217.38
280.042	243.38
280.273	229.38
280.505	227.38
280.736	207.38
280.968	230.38
281.199	231.38
281.431	229.38
281.662	205.38
281.894	231.38
282.125	216.38
282.356	228.38
282.588	289.38
282.819	269.38
283.051	246.38
283.282	226.38
283.513	242.38
283.745	238.38
283.976	235.38
284.207	215.38
284.439	237.38
284.67	227.38
284.901	220.38
285.132	230.38
285.364	218.38
285.595	220.38
285.826	228.38
286.057	233.38
286.288	233.38
286.52	222.38
286.751	234.38
286.982	237.38
287.213	217.38
287.444	213.38
287.675	230.38
287.906	238.38
288.138	257.38
288.369	247.38
288.6	249.38
288.831	239.38
289.062	246.38
289.293	259.38
289.524	246.38
289.755	230.38
289.986	240.38
290.217	225.38
290.448	249.38
290.679	234.38
290.91	233.38
291.141	229.38
291.371	237.38
291.602	224.38
291.833	230.38
292.064	241.38
292.295	234.38
292.526	235.38
292.757	242.38
292.987	234.38
293.218	219.38
293.449	229.38
293.68	257.38
293.91	241.38
294.141	221.38
294.372	245.38
294.603	228.38
294.833	232.38
295.064	228.38
295.295	234.38
295.525	208.38
295.756	234.38
295.987	261.38
296.217	279.38
296.448	311.38
296.679	249.38
296.909	227.38
297.14	232.38
297.37	244.38
297.601	245.38
297.831	229.38
298.062	234.38
298.292	236.38
298.523	233.38
298.753	232.38
298.984	256.38
299.214	239.38
299.445	242.38
299.675	266.38
299.905	256.38
300.136	254.38
300.366	243.38
300.597	246.38
300.827	257.38
301.057	265.38
301.288	278.38
301.518	261.38
301.748	269.38
301.979	261.38
302.209	267.38
302.439	258.38
302.669	266.38
302.9	274.38
303.13	271.38
303.36	271.38
303.59	270.38
303.82	279.38
304.051	274.38
304.281	258.38
304.511	270.38
304.741	257.38
304.971	244.38
305.201	255.38
305.431	262.38
305.661	265.38
305.891	262.38
306.121	259.38
306.352	263.38
306.582	279.38
306.812	273.38
307.042	275.38
307.272	270.38
307.502	280.38
307.731	267.38
307.961	285.38
308.191	265.38
308.421	262.38
308.651	298.38
308.881	261.38
309.111	295.38
309.341	290.38
309.571	299.38
309.8	307.38
310.03	325.38
310.26	320.38
310.49	328.38
310.72	350.38
310.949	362.38
311.179	383.38
311.409	335.38
311.639	343.38
311.868	332.38
312.098	339.38
312.328	365.38
312.557	369.38
312.787	398.38
313.017	378.38
313.246	346.38
313.476	309.38
313.706	334.38
313.935	349.38
314.165	347.38
314.394	365.38
314.624	356.38
314.853	353.38
315.083	339.38
315.312	320.38
315.542	299.38
315.771	323.38
316.001	316.38
316.23	298.38
316.46	328.38
316.689	331.38
316.919	340.38
317.148	353.38
317.377	349.38
317.607	339.38
317.836	322.38
318.065	325.38
318.295	307.38
318.524	312.38
318.753	316.38
318.983	322.38
319.212	312.38
319.441	339.38
319.67	330.38
319.9	337.38
320.129	344.38
320.358	328.38
320.587	324.38
320.816	348.38
321.046	369.38
321.275	341.38
321.504	357.38
321.733	345.38
321.962	355.38
322.191	380.38
322.42	417.38
322.649	427.38
322.878	428.38
323.108	437.38
323.337	490.38
323.566	519.38
323.795	573.38
324.024	625.38
324.253	790.38
324.482	1145.38
324.71	1765.38
324.939	2491.38
325.168	2170.38
325.397	1167.38
325.626	758.38
325.855	605.38
326.084	555.38
326.313	515.38
326.542	532.38
326.77	597.38
326.999	704.38
327.228	1013.38
327.457	1518.38
327.686	1925.38
327.914	1270.38
328.143	869.38
328.372	694.38
328.6	672.38
328.829	598.38
329.058	625.38
329.287	620.38
329.515	558.38
329.744	516.38
329.972	494.38
330.201	472.38
330.43	522.38
330.658	584.38
330.887	642.38
331.115	609.38
331.344	525.38
331.572	467.38
331.801	470.38
332.03	456.38
332.258	443.38
332.486	401.38
332.715	395.38
332.943	385.38
333.172	380.38
333.4	385.38
333.629	389.38
333.857	408.38
334.085	385.38
334.314	367.38
334.542	389.38
334.771	392.38
334.999	390.38
335.227	400.38
335.455	370.38
335.684	374.38
335.912	374.38
336.14	363.38
336.369	373.38
336.597	368.38
336.825	363.38
337.053	371.38
337.281	361.38
337.51	356.38
337.738	371.38
337.966	373.38
338.194	355.38
338.422	373.38
338.65	365.38
338.878	365.38
339.106	342.38
339.334	347.38
339.562	351.38
339.79	369.38
340.018	358.38
340.246	375.38
340.474	381.38
340.702	365.38
340.93	371.38
341.158	385.38
341.386	377.38
341.614	378.38
341.842	360.38
342.07	361.38
342.298	351.38
342.526	355.38
342.754	356.38
342.981	345.38
343.209	338.38
343.437	334.38
343.665	344.38
343.893	349.38
344.12	353.38
344.348	350.38
344.576	354.38
344.804	365.38
345.031	407.38
345.259	403.38
345.487	382.38
345.714	375.38
345.942	379.38
346.17	367.38
346.397	360.38
346.625	356.38
346.853	354.38
347.08	353.38
347.308	373.38
347.535	363.38
347.763	417.38
347.99	369.38
348.218	385.38
348.445	401.38
348.673	386.38
348.9	362.38
349.128	373.38
349.355	341.38
349.583	330.38
349.81	336.38
350.037	348.38
350.265	341.38
350.492	354.38
350.72	349.38
350.947	351.38
351.174	366.38
351.402	381.38
351.629	367.38
351.856	364.38
352.083	379.38
352.311	385.38
352.538	410.38
352.765	387.38
352.992	395.38
353.22	378.38
353.447	377.38
353.674	347.38
353.901	354.38
354.128	334.38
354.355	343.38
354.583	332.38
354.81	312.38
355.037	303.38
355.264	321.38
355.491	326.38
355.718	330.38
355.945	314.38
356.172	306.38
356.399	311.38
356.626	325.38
356.853	316.38
357.08	329.38
357.307	322.38
357.534	323.38
357.761	315.38
357.988	332.38
358.215	312.38
358.441	307.38
358.668	338.38
358.895	318.38
359.122	351.38
359.349	350.38
359.576	378.38
359.802	436.38
360.029	457.38
360.256	469.38
360.483	413.38
360.709	377.38
360.936	371.38
361.163	371.38
361.39	369.38
361.616	369.38
361.843	367.38
362.07	379.38
362.296	377.38
362.523	363.38
362.749	366.38
362.976	369.38
363.203	343.38
363.429	350.38
363.656	357.38
363.882	338.38
364.109	337.38
364.335	349.38
364.562	338.38
364.788	339.38
365.015	358.38
365.241	347.38
365.468	353.38
365.694	357.38
365.92	369.38
366.147	349.38
366.373	359.38
366.599	337.38
366.826	330.38
367.052	350.38
367.278	329.38
367.505	323.38
367.731	323.38
367.957	333.38
368.184	344.38
368.41	316.38
368.636	366.38
368.862	350.38
369.089	345.38
369.315	348.38
369.541	346.38
369.767	339.38
369.993	331.38
370.219	313.38
370.445	342.38
370.672	328.38
370.898	318.38
371.124	342.38
371.35	324.38
371.576	322.38
371.802	316.38
372.028	323.38
372.254	315.38
372.48	308.38
372.706	311.38
372.932	307.38
373.158	330.38
373.384	333.38
373.61	339.38
373.835	329.38
374.061	310.38
374.287	334.38
374.513	328.38
374.739	318.38
374.965	324.38
375.191	317.38
375.416	335.38
375.642	323.38
375.868	346.38
376.094	323.38
376.319	318.38
376.545	322.38
376.771	315.38
376.997	311.38
377.222	321.38
377.448	344.38
377.674	337.38
377.899	339.38
378.125	318.38
378.35	339.38
378.576	320.38
378.802	301.38
379.027	310.38
379.253	318.38
379.478	322.38
379.704	333.38
379.929	330.38
380.155	326.38
380.38	353.38
380.606	329.38
380.831	346.38
381.057	326.38
381.282	301.38
381.507	341.38
381.733	330.38
381.958	325.38
382.184	326.38
382.409	346.38
382.634	330.38
382.86	331.38
383.085	315.38
383.31	333.38
383.535	339.38
383.761	337.38
383.986	319.38
384.211	331.38
384.436	340.38
384.662	334.38
384.887	342.38
385.112	335.38
385.337	328.38
385.562	335.38
385.787	342.38
386.013	369.38
386.238	343.38
386.463	375.38
386.688	377.38
386.913	351.38
387.138	332.38
387.363	353.38
387.588	338.38
387.813	340.38
388.038	343.38
388.263	342.38
388.488	339.38
388.713	349.38
388.938	350.38
389.163	366.38
389.387	332.38
389.612	338.38
389.837	334.38
390.062	341.38
390.287	351.38
390.512	340.38
390.736	320.38
390.961	343.38
391.186	333.38
391.411	364.38
391.636	332.38
391.86	356.38
392.085	335.38
392.31	338.38
392.534	338.38
392.759	344.38
392.984	341.38
393.208	364.38
393.433	357.38
393.658	353.38
393.882	345.38
394.107	332.38
394.331	356.38
394.556	354.38
394.78	326.38
395.005	346.38
395.229	326.38
395.454	338.38
395.678	347.38
395.903	377.38
396.127	397.38
396.352	415.38
396.576	378.38
396.801	359.38
397.025	358.38
397.249	357.38
397.474	373.38
397.698	364.38
397.922	361.38
398.147	398.38
398.371	421.38
398.595	377.38
398.82	379.38
399.044	389.38
399.268	385.38
399.492	415.38
399.717	424.38
399.941	441.38
400.165	476.38
400.389	485.38
400.613	450.38
400.837	410.38
401.062	402.38
401.286	380.38
401.51	395.38
401.734	391.38
401.958	391.38
402.182	402.38
402.406	405.38
402.63	437.38
402.854	417.38
403.078	407.38
403.302	402.38
403.526	432.38
403.75	419.38
403.974	398.38
404.198	405.38
404.422	414.38
404.645	408.38
404.869	421.38
405.093	425.38
405.317	479.38
405.541	480.38
405.765	445.38
405.988	438.38
406.212	468.38
406.436	489.38
406.66	502.38
406.883	464.38
407.107	471.38
407.331	504.38
407.555	593.38
407.778	581.38
408.002	533.38
408.226	488.38
408.449	478.38
408.673	454.38
408.896	489.38
409.12	536.38
409.344	513.38
409.567	454.38
409.791	439.38
410.014	418.38
410.238	401.38
410.461	431.38
410.685	422.38
410.908	448.38
411.132	479.38
411.355	515.38
411.578	506.38
411.802	450.38
412.025	420.38
412.249	416.38
412.472	420.38
412.695	420.38
412.919	408.38
413.142	409.38
413.365	411.38
413.589	385.38
413.812	402.38
414.035	395.38
414.258	399.38
414.482	395.38
414.705	381.38
414.928	379.38
415.151	379.38
415.374	392.38
415.597	390.38
415.821	378.38
416.044	399.38
416.267	373.38
416.49	400.38
416.713	397.38
416.936	407.38
417.159	414.38
417.382	417.38
417.605	420.38
417.828	423.38
418.051	435.38
418.274	437.38
418.497	402.38
418.72	402.38
418.943	393.38
419.166	430.38
419.389	440.38
419.611	422.38
419.834	403.38
420.057	417.38
420.28	409.38
420.503	400.38
420.726	428.38
420.948	430.38
421.171	500.38
421.394	520.38
421.617	467.38
421.839	437.38
422.062	441.38
422.285	456.38
422.507	509.38
422.73	590.38
422.953	586.38
423.175	478.38
423.398	466.38
423.621	460.38
423.843	474.38
424.066	478.38
424.288	469.38
424.511	484.38
424.733	585.38
424.956	636.38
425.178	612.38
425.401	605.38
425.623	618.38
425.846	567.38
426.068	506.38
426.291	504.38
426.513	499.38
426.735	534.38
426.958	543.38
427.18	640.38
427.402	735.38
427.625	848.38
427.847	792.38
428.069	659.38
428.292	577.38
428.514	513.38
428.736	486.38
428.958	483.38
429.181	453.38
429.403	474.38
429.625	471.38
429.847	524.38
430.069	577.38
430.292	569.38
430.514	487.38
430.736	479.38
430.958	438.38
431.18	450.38
431.402	443.38
431.624	433.38
431.846	405.38
432.068	409.38
432.29	416.38
432.512	425.38
432.734	446.38
432.956	423.38
433.178	428.38
433.4	460.38
433.622	405.38
433.844	421.38
434.066	390.38
434.287	408.38
434.509	423.38
434.731	413.38
434.953	437.38
435.175	440.38
435.397	487.38
435.618	491.38
435.84	553.38
436.062	629.38
436.284	683.38
436.505	604.38
436.727	549.38
436.949	495.38
437.17	471.38
437.392	476.38
437.614	505.38
437.835	524.38
438.057	656.38
438.278	732.38
438.5	730.38
438.721	777.38
438.943	730.38
439.165	591.38
439.386	567.38
439.608	546.38
439.829	535.38
440.05	577.38
440.272	608.38
440.493	561.38
440.715	514.38
440.936	474.38
441.158	452.38
441.379	485.38
441.6	475.38
441.822	533.38
442.043	543.38
442.264	630.38
442.486	673.38
442.707	579.38
442.928	535.38
443.149	520.38
443.371	538.38
443.592	607.38
443.813	673.38
444.034	729.38
444.255	602.38
444.476	551.38
444.698	489.38
444.919	496.38
445.14	603.38
445.361	560.38
445.582	559.38
445.803	627.38
446.024	731.38
446.245	754.38
446.466	661.38
446.687	588.38
446.908	522.38
447.129	487.38
447.35	485.38
447.571	486.38
447.792	475.38
448.013	462.38
448.234	499.38
448.455	556.38
448.675	662.38
448.896	765.38
449.117	688.38
449.338	638.38
449.559	719.38
449.779	769.38
450	653.38
450.221	554.38
450.442	505.38
450.662	487.38
450.883	489.38
451.104	530.38
451.324	490.38
451.545	460.38
451.766	435.38
451.986	445.38
452.207	438.38
452.428	409.38
452.648	438.38
452.869	421.38
453.089	446.38
453.31	464.38
453.53	453.38
453.751	455.38
453.971	459.38
454.192	464.38
454.412	443.38
454.633	445.38
454.853	447.38
455.073	410.38
455.294	456.38
455.514	545.38
455.734	520.38
455.955	436.38
456.175	413.38
456.395	378.38
456.616	409.38
456.836	385.38
457.056	376.38
457.276	386.38
457.497	389.38
457.717	381.38
457.937	381.38
458.157	406.38
458.377	402.38
458.598	451.38
458.818	530.38
459.038	630.38
459.258	628.38
459.478	521.38
459.698	453.38
459.918	423.38
460.138	409.38
460.358	401.38
460.578	411.38
460.798	436.38
461.018	439.38
461.238	417.38
461.458	426.38
461.678	400.38
461.898	425.38
462.118	416.38
462.338	419.38
462.558	410.38
462.777	428.38
462.997	426.38
463.217	398.38
463.437	435.38
463.657	407.38
463.876	409.38
464.096	437.38
464.316	443.38
464.536	440.38
464.755	485.38
464.975	449.38
465.195	534.38
465.414	687.38
465.634	561.38
465.854	505.38
466.073	470.38
466.293	433.38
466.512	441.38
466.732	427.38
466.951	421.38
467.171	420.38
467.391	430.38
467.61	449.38
467.829	473.38
468.049	423.38
468.268	419.38
468.488	395.38
468.707	405.38
468.927	392.38
469.146	409.38
469.365	422.38
469.585	399.38
469.804	429.38
470.023	415.38
470.243	431.38
470.462	443.38
470.681	475.38
470.901	448.38
471.12	444.38
471.339	425.38
471.558	429.38
471.777	427.38
471.997	437.38
472.216	430.38
472.435	426.38
472.654	415.38
472.873	430.38
473.092	414.38
473.311	419.38
473.53	433.38
473.749	423.38
473.968	488.38
474.187	595.38
474.406	610.38
474.625	506.38
474.844	459.38
475.063	448.38
475.282	455.38
475.501	448.38
475.72	449.38
475.939	442.38
476.158	423.38
476.377	445.38
476.596	439.38
476.814	448.38
477.033	451.38
477.252	465.38
477.471	452.38
477.69	441.38
477.908	436.38
478.127	433.38
478.346	470.38
478.564	465.38
478.783	456.38
479.002	462.38
479.22	487.38
479.439	505.38
479.658	531.38
479.876	527.38
480.095	524.38
480.313	553.38
480.532	523.38
480.751	498.38
480.969	523.38
481.188	514.38
481.406	535.38
481.624	499.38
481.843	497.38
482.061	481.38
482.28	483.38
482.498	512.38
482.717	498.38
482.935	511.38
483.153	498.38
483.372	494.38
483.59	491.38
483.808	500.38
484.027	505.38
484.245	491.38
484.463	498.38
484.681	503.38
484.9	516.38
485.118	519.38
485.336	525.38
485.554	510.38
485.772	523.38
485.99	515.38
486.209	530.38
486.427	524.38
486.645	548.38
486.863	555.38
487.081	560.38
487.299	565.38
487.517	552.38
487.735	534.38
487.953	542.38
488.171	534.38
488.389	543.38
488.607	535.38
488.825	543.38
489.043	546.38
489.261	542.38
489.479	549.38
489.696	566.38
489.914	574.38
490.132	566.38
490.35	573.38
490.568	568.38
490.786	589.38
491.003	605.38
491.221	625.38
491.439	617.38
491.657	621.38
491.874	613.38
492.092	614.38
492.31	615.38
492.527	616.38
492.745	635.38
492.963	631.38
493.18	633.38
493.398	634.38
493.615	654.38
493.833	668.38
494.05	642.38
494.268	672.38
494.485	678.38
494.703	649.38
494.92	675.38
495.138	684.38
495.355	652.38
495.573	649.38
495.79	662.38
496.008	641.38
496.225	651.38
496.442	684.38
496.66	651.38
496.877	677.38
497.094	685.38
497.312	676.38
497.529	670.38
497.746	677.38
497.963	670.38
498.181	720.38
498.398	715.38
498.615	730.38
498.832	719.38
499.049	734.38
499.267	730.38
499.484	711.38
499.701	729.38
499.918	753.38
500.135	759.38
500.352	754.38
500.569	799.38
500.786	781.38
501.003	785.38
501.22	785.38
501.437	765.38
501.654	795.38
501.871	788.38
