Data from 1987.PennyLincolnUp.Lamp.En5.5.200Scan.071819.P2_HRD10591_17-16-33-972.txt Node
Date: Thu Jul 18 17:16:33 EDT 2019
User: cochatt
Spectrometer: HR+D1059
Trigger mode: 1
Integration Time (sec): 1.000000E-1
Scans to average: 1
Electric dark correction enabled: true
Nonlinearity correction enabled: false
Boxcar width: 0
XAxis mode: Wavelengths
Number of Pixels in Spectrum: 2048
>>>>>Begin Spectral Data<<<<<
223.165	6.81
223.4	6.81
223.635	6.81
223.869	-16.19
224.104	-10.19
224.338	-20.19
224.573	-6.19
224.808	-20.19
225.042	-9.19
225.277	-5.19
225.511	-13.19
225.746	6.81
225.98	-8.19
226.215	7.81
226.449	15.81
226.683	22.81
226.918	20.81
227.152	27.81
227.387	19.81
227.621	43.81
227.856	39.81
228.09	48.81
228.324	45.81
228.559	44.81
228.793	60.81
229.027	109.81
229.262	121.81
229.496	119.81
229.73	155.81
229.964	196.81
230.199	137.81
230.433	122.81
230.667	127.81
230.901	126.81
231.136	120.81
231.37	117.81
231.604	109.81
231.838	114.81
232.072	109.81
232.306	118.81
232.541	106.81
232.775	110.81
233.009	108.81
233.243	103.81
233.477	118.81
233.711	120.81
233.945	119.81
234.179	124.81
234.413	117.81
234.647	108.81
234.881	116.81
235.115	130.81
235.349	116.81
235.583	131.81
235.817	115.81
236.051	124.81
236.285	134.81
236.519	138.81
236.753	118.81
236.987	150.81
237.221	179.81
237.455	264.81
237.689	207.81
237.922	159.81
238.156	144.81
238.39	144.81
238.624	133.81
238.858	132.81
239.091	126.81
239.325	115.81
239.559	135.81
239.793	147.81
240.027	144.81
240.26	158.81
240.494	180.81
240.728	148.81
240.961	152.81
241.195	156.81
241.429	148.81
241.662	128.81
241.896	134.81
242.13	125.81
242.363	127.81
242.597	136.81
242.83	134.81
243.064	134.81
243.298	137.81
243.531	125.81
243.765	146.81
243.998	143.81
244.232	148.81
244.465	139.81
244.699	138.81
244.932	138.81
245.166	137.81
245.399	143.81
245.633	139.81
245.866	146.81
246.099	144.81
246.333	147.81
246.566	144.81
246.8	142.81
247.033	162.81
247.266	150.81
247.5	155.81
247.733	160.81
247.966	152.81
248.2	159.81
248.433	166.81
248.666	182.81
248.899	191.81
249.133	211.81
249.366	227.81
249.599	223.81
249.832	189.81
250.066	184.81
250.299	183.81
250.532	185.81
250.765	201.81
250.998	208.81
251.231	245.81
251.465	226.81
251.698	202.81
251.931	200.81
252.164	199.81
252.397	190.81
252.63	182.81
252.863	206.81
253.096	201.81
253.329	232.81
253.562	220.81
253.795	216.81
254.028	215.81
254.261	232.81
254.494	224.81
254.727	275.81
254.96	290.81
255.193	288.81
255.426	254.81
255.659	234.81
255.892	231.81
256.124	213.81
256.357	226.81
256.59	223.81
256.823	218.81
257.056	189.81
257.289	204.81
257.521	200.81
257.754	211.81
257.987	200.81
258.22	209.81
258.452	187.81
258.685	191.81
258.918	185.81
259.151	199.81
259.383	218.81
259.616	217.81
259.849	222.81
260.081	236.81
260.314	245.81
260.547	254.81
260.779	240.81
261.012	241.81
261.244	226.81
261.477	199.81
261.71	216.81
261.942	212.81
262.175	235.81
262.407	222.81
262.64	198.81
262.872	229.81
263.105	229.81
263.337	206.81
263.57	200.81
263.802	184.81
264.035	204.81
264.267	193.81
264.499	179.81
264.732	187.81
264.964	202.81
265.197	205.81
265.429	174.81
265.661	196.81
265.894	200.81
266.126	194.81
266.358	183.81
266.591	190.81
266.823	189.81
267.055	214.81
267.287	211.81
267.52	195.81
267.752	210.81
267.984	217.81
268.216	216.81
268.448	190.81
268.681	211.81
268.913	215.81
269.145	242.81
269.377	252.81
269.609	252.81
269.841	252.81
270.073	258.81
270.306	263.81
270.538	300.81
270.77	301.81
271.002	296.81
271.234	290.81
271.466	296.81
271.698	295.81
271.93	309.81
272.162	298.81
272.394	300.81
272.626	286.81
272.858	287.81
273.09	274.81
273.322	254.81
273.553	258.81
273.785	250.81
274.017	253.81
274.249	263.81
274.481	254.81
274.713	260.81
274.945	263.81
275.176	253.81
275.408	246.81
275.64	220.81
275.872	238.81
276.104	250.81
276.335	242.81
276.567	256.81
276.799	266.81
277.031	297.81
277.262	292.81
277.494	306.81
277.726	293.81
277.957	265.81
278.189	270.81
278.421	248.81
278.652	247.81
278.884	249.81
279.115	252.81
279.347	232.81
279.579	241.81
279.81	223.81
280.042	225.81
280.273	227.81
280.505	243.81
280.736	231.81
280.968	193.81
281.199	236.81
281.431	239.81
281.662	232.81
281.894	246.81
282.125	227.81
282.356	261.81
282.588	296.81
282.819	302.81
283.051	244.81
283.282	239.81
283.513	233.81
283.745	219.81
283.976	244.81
284.207	259.81
284.439	237.81
284.67	225.81
284.901	211.81
285.132	237.81
285.364	219.81
285.595	220.81
285.826	242.81
286.057	245.81
286.288	239.81
286.52	255.81
286.751	223.81
286.982	226.81
287.213	236.81
287.444	222.81
287.675	246.81
287.906	237.81
288.138	246.81
288.369	248.81
288.6	265.81
288.831	264.81
289.062	266.81
289.293	246.81
289.524	239.81
289.755	242.81
289.986	251.81
290.217	230.81
290.448	224.81
290.679	235.81
290.91	244.81
291.141	238.81
291.371	226.81
291.602	223.81
291.833	241.81
292.064	235.81
292.295	254.81
292.526	256.81
292.757	250.81
292.987	242.81
293.218	240.81
293.449	234.81
293.68	230.81
293.91	244.81
294.141	228.81
294.372	224.81
294.603	253.81
294.833	250.81
295.064	259.81
295.295	248.81
295.525	243.81
295.756	238.81
295.987	256.81
296.217	290.81
296.448	311.81
296.679	281.81
296.909	235.81
297.14	240.81
297.37	239.81
297.601	244.81
297.831	260.81
298.062	244.81
298.292	239.81
298.523	246.81
298.753	248.81
298.984	259.81
299.214	249.81
299.445	252.81
299.675	252.81
299.905	276.81
300.136	270.81
300.366	247.81
300.597	252.81
300.827	248.81
301.057	279.81
301.288	283.81
301.518	276.81
301.748	276.81
301.979	284.81
302.209	267.81
302.439	294.81
302.669	282.81
302.9	267.81
303.13	271.81
303.36	278.81
303.59	282.81
303.82	287.81
304.051	327.81
304.281	278.81
304.511	270.81
304.741	266.81
304.971	267.81
305.201	262.81
305.431	262.81
305.661	279.81
305.891	268.81
306.121	278.81
306.352	286.81
306.582	319.81
306.812	287.81
307.042	288.81
307.272	270.81
307.502	260.81
307.731	276.81
307.961	282.81
308.191	282.81
308.421	281.81
308.651	285.81
308.881	284.81
309.111	286.81
309.341	306.81
309.571	308.81
309.8	324.81
310.03	350.81
310.26	358.81
310.49	356.81
310.72	357.81
310.949	382.81
311.179	374.81
311.409	342.81
311.639	355.81
311.868	343.81
312.098	349.81
312.328	361.81
312.557	375.81
312.787	406.81
313.017	390.81
313.246	353.81
313.476	358.81
313.706	343.81
313.935	354.81
314.165	367.81
314.394	380.81
314.624	391.81
314.853	360.81
315.083	364.81
315.312	359.81
315.542	315.81
315.771	320.81
316.001	325.81
316.23	339.81
316.46	325.81
316.689	313.81
316.919	344.81
317.148	344.81
317.377	358.81
317.607	362.81
317.836	344.81
318.065	331.81
318.295	323.81
318.524	318.81
318.753	318.81
318.983	315.81
319.212	326.81
319.441	335.81
319.67	355.81
319.9	351.81
320.129	335.81
320.358	349.81
320.587	344.81
320.816	377.81
321.046	374.81
321.275	382.81
321.504	380.81
321.733	378.81
321.962	381.81
322.191	395.81
322.42	416.81
322.649	451.81
322.878	444.81
323.108	461.81
323.337	512.81
323.566	557.81
323.795	582.81
324.024	662.81
324.253	878.81
324.482	1244.81
324.71	1965.81
324.939	2728.81
325.168	2343.81
325.397	1321.81
325.626	808.81
325.855	662.81
326.084	582.81
326.313	548.81
326.542	576.81
326.77	630.81
326.999	776.81
327.228	1093.81
327.457	1680.81
327.686	2046.81
327.914	1424.81
328.143	905.81
328.372	739.81
328.6	696.81
328.829	640.81
329.058	677.81
329.287	684.81
329.515	621.81
329.744	498.81
329.972	502.81
330.201	508.81
330.43	574.81
330.658	626.81
330.887	709.81
331.115	689.81
331.344	566.81
331.572	502.81
331.801	482.81
332.03	479.81
332.258	467.81
332.486	398.81
332.715	395.81
332.943	392.81
333.172	391.81
333.4	406.81
333.629	377.81
333.857	410.81
334.085	416.81
334.314	395.81
334.542	408.81
334.771	393.81
334.999	399.81
335.227	407.81
335.455	384.81
335.684	401.81
335.912	378.81
336.14	369.81
336.369	363.81
336.597	404.81
336.825	412.81
337.053	395.81
337.281	391.81
337.51	364.81
337.738	391.81
337.966	394.81
338.194	394.81
338.422	399.81
338.65	400.81
338.878	374.81
339.106	374.81
339.334	359.81
339.562	359.81
339.79	379.81
340.018	355.81
340.246	367.81
340.474	375.81
340.702	383.81
340.93	383.81
341.158	368.81
341.386	374.81
341.614	394.81
341.842	367.81
342.07	354.81
342.298	357.81
342.526	346.81
342.754	354.81
342.981	357.81
343.209	342.81
343.437	359.81
343.665	355.81
343.893	343.81
344.12	364.81
344.348	364.81
344.576	369.81
344.804	396.81
345.031	413.81
345.259	406.81
345.487	390.81
345.714	379.81
345.942	352.81
346.17	358.81
346.397	353.81
346.625	367.81
346.853	375.81
347.08	344.81
347.308	365.81
347.535	406.81
347.763	386.81
347.99	398.81
348.218	389.81
348.445	392.81
348.673	396.81
348.9	381.81
349.128	363.81
349.355	355.81
349.583	353.81
349.81	363.81
350.037	352.81
350.265	366.81
350.492	341.81
350.72	332.81
350.947	363.81
351.174	371.81
351.402	403.81
351.629	390.81
351.856	397.81
352.083	403.81
352.311	417.81
352.538	401.81
352.765	412.81
352.992	401.81
353.22	395.81
353.447	374.81
353.674	372.81
353.901	355.81
354.128	344.81
354.355	340.81
354.583	335.81
354.81	340.81
355.037	350.81
355.264	330.81
355.491	324.81
355.718	308.81
355.945	325.81
356.172	313.81
356.399	318.81
356.626	329.81
356.853	338.81
357.08	324.81
357.307	329.81
357.534	331.81
357.761	344.81
357.988	334.81
358.215	340.81
358.441	350.81
358.668	348.81
358.895	360.81
359.122	351.81
359.349	362.81
359.576	376.81
359.802	418.81
360.029	461.81
360.256	510.81
360.483	458.81
360.709	394.81
360.936	380.81
361.163	381.81
361.39	376.81
361.616	394.81
361.843	380.81
362.07	378.81
362.296	399.81
362.523	390.81
362.749	380.81
362.976	384.81
363.203	367.81
363.429	347.81
363.656	363.81
363.882	344.81
364.109	341.81
364.335	360.81
364.562	346.81
364.788	354.81
365.015	357.81
365.241	344.81
365.468	348.81
365.694	363.81
365.92	384.81
366.147	367.81
366.373	339.81
366.599	362.81
366.826	334.81
367.052	329.81
367.278	329.81
367.505	345.81
367.731	363.81
367.957	357.81
368.184	346.81
368.41	334.81
368.636	352.81
368.862	373.81
369.089	352.81
369.315	360.81
369.541	337.81
369.767	362.81
369.993	355.81
370.219	359.81
370.445	359.81
370.672	330.81
370.898	330.81
371.124	326.81
371.35	330.81
371.576	333.81
371.802	323.81
372.028	333.81
372.254	327.81
372.48	326.81
372.706	325.81
372.932	344.81
373.158	324.81
373.384	339.81
373.61	335.81
373.835	318.81
374.061	335.81
374.287	346.81
374.513	346.81
374.739	332.81
374.965	325.81
375.191	326.81
375.416	319.81
375.642	340.81
375.868	335.81
376.094	330.81
376.319	338.81
376.545	324.81
376.771	318.81
376.997	324.81
377.222	334.81
377.448	333.81
377.674	335.81
377.899	316.81
378.125	323.81
378.35	322.81
378.576	327.81
378.802	336.81
379.027	333.81
379.253	329.81
379.478	322.81
379.704	334.81
379.929	346.81
380.155	349.81
380.38	349.81
380.606	334.81
380.831	334.81
381.057	332.81
381.282	326.81
381.507	336.81
381.733	333.81
381.958	322.81
382.184	335.81
382.409	333.81
382.634	334.81
382.86	356.81
383.085	327.81
383.31	340.81
383.535	331.81
383.761	340.81
383.986	325.81
384.211	343.81
384.436	336.81
384.662	330.81
384.887	333.81
385.112	336.81
385.337	339.81
385.562	345.81
385.787	338.81
386.013	341.81
386.238	353.81
386.463	357.81
386.688	351.81
386.913	364.81
387.138	328.81
387.363	357.81
387.588	346.81
387.813	340.81
388.038	347.81
388.263	356.81
388.488	342.81
388.713	340.81
388.938	355.81
389.163	347.81
389.387	359.81
389.612	354.81
389.837	330.81
390.062	342.81
390.287	341.81
390.512	324.81
390.736	335.81
390.961	335.81
391.186	356.81
391.411	343.81
391.636	341.81
391.86	368.81
392.085	357.81
392.31	371.81
392.534	340.81
392.759	351.81
392.984	346.81
393.208	354.81
393.433	360.81
393.658	359.81
393.882	354.81
394.107	362.81
394.331	363.81
394.556	346.81
394.78	336.81
395.005	348.81
395.229	345.81
395.454	355.81
395.678	375.81
395.903	365.81
396.127	396.81
396.352	392.81
396.576	379.81
396.801	346.81
397.025	354.81
397.249	352.81
397.474	355.81
397.698	376.81
397.922	390.81
398.147	406.81
398.371	422.81
398.595	379.81
398.82	396.81
399.044	382.81
399.268	393.81
399.492	392.81
399.717	414.81
399.941	466.81
400.165	477.81
400.389	473.81
400.613	460.81
400.837	420.81
401.062	429.81
401.286	397.81
401.51	395.81
401.734	392.81
401.958	410.81
402.182	398.81
402.406	408.81
402.63	430.81
402.854	425.81
403.078	414.81
403.302	418.81
403.526	434.81
403.75	410.81
403.974	412.81
404.198	421.81
404.422	413.81
404.645	438.81
404.869	412.81
405.093	439.81
405.317	480.81
405.541	499.81
405.765	487.81
405.988	430.81
406.212	437.81
406.436	493.81
406.66	507.81
406.883	475.81
407.107	498.81
407.331	532.81
407.555	596.81
407.778	596.81
408.002	546.81
408.226	498.81
408.449	466.81
408.673	480.81
408.896	500.81
409.12	529.81
409.344	508.81
409.567	450.81
409.791	440.81
410.014	430.81
410.238	423.81
410.461	439.81
410.685	433.81
410.908	447.81
411.132	469.81
411.355	517.81
411.578	482.81
411.802	460.81
412.025	431.81
412.249	437.81
412.472	430.81
412.695	456.81
412.919	443.81
413.142	436.81
413.365	419.81
413.589	404.81
413.812	389.81
414.035	393.81
414.258	404.81
414.482	399.81
414.705	381.81
414.928	408.81
415.151	409.81
415.374	408.81
415.597	405.81
415.821	397.81
416.044	412.81
416.267	412.81
416.49	387.81
416.713	397.81
416.936	387.81
417.159	406.81
417.382	399.81
417.605	412.81
417.828	431.81
418.051	422.81
418.274	445.81
418.497	423.81
418.72	409.81
418.943	405.81
419.166	398.81
419.389	448.81
419.611	410.81
419.834	408.81
420.057	420.81
420.28	446.81
420.503	422.81
420.726	435.81
420.948	482.81
421.171	502.81
421.394	534.81
421.617	443.81
421.839	444.81
422.062	445.81
422.285	463.81
422.507	568.81
422.73	596.81
422.953	562.81
423.175	489.81
423.398	478.81
423.621	492.81
423.843	479.81
424.066	492.81
424.288	502.81
424.511	524.81
424.733	577.81
424.956	669.81
425.178	647.81
425.401	616.81
425.623	639.81
425.846	541.81
426.068	509.81
426.291	490.81
426.513	514.81
426.735	520.81
426.958	574.81
427.18	655.81
427.402	754.81
427.625	847.81
427.847	812.81
428.069	678.81
428.292	574.81
428.514	550.81
428.736	513.81
428.958	505.81
429.181	488.81
429.403	456.81
429.625	469.81
429.847	516.81
430.069	605.81
430.292	604.81
430.514	504.81
430.736	480.81
430.958	447.81
431.18	438.81
431.402	457.81
431.624	432.81
431.846	427.81
432.068	424.81
432.29	435.81
432.512	447.81
432.734	459.81
432.956	458.81
433.178	460.81
433.4	463.81
433.622	457.81
433.844	443.81
434.066	441.81
434.287	440.81
434.509	435.81
434.731	415.81
434.953	444.81
435.175	468.81
435.397	503.81
435.618	487.81
435.84	573.81
436.062	670.81
436.284	694.81
436.505	603.81
436.727	540.81
436.949	486.81
437.17	479.81
437.392	487.81
437.614	503.81
437.835	573.81
438.057	660.81
438.278	782.81
438.5	742.81
438.721	786.81
438.943	744.81
439.165	605.81
439.386	556.81
439.608	546.81
439.829	559.81
440.05	578.81
440.272	652.81
440.493	593.81
440.715	527.81
440.936	517.81
441.158	493.81
441.379	466.81
441.6	501.81
441.822	510.81
442.043	554.81
442.264	631.81
442.486	680.81
442.707	606.81
442.928	562.81
443.149	547.81
443.371	563.81
443.592	606.81
443.813	712.81
444.034	738.81
444.255	618.81
444.476	544.81
444.698	507.81
444.919	490.81
445.14	612.81
445.361	584.81
445.582	556.81
445.803	652.81
446.024	772.81
446.245	744.81
446.466	689.81
446.687	601.81
446.908	543.81
447.129	516.81
447.35	490.81
447.571	494.81
447.792	469.81
448.013	492.81
448.234	539.81
448.455	553.81
448.675	693.81
448.896	759.81
449.117	691.81
449.338	652.81
449.559	733.81
449.779	795.81
450	645.81
450.221	562.81
450.442	528.81
450.662	506.81
450.883	513.81
451.104	560.81
451.324	503.81
451.545	512.81
451.766	469.81
451.986	458.81
452.207	445.81
452.428	443.81
452.648	452.81
452.869	438.81
453.089	428.81
453.31	469.81
453.53	463.81
453.751	466.81
453.971	428.81
454.192	473.81
454.412	485.81
454.633	455.81
454.853	434.81
455.073	437.81
455.294	479.81
455.514	537.81
455.734	534.81
455.955	443.81
456.175	436.81
456.395	398.81
456.616	394.81
456.836	390.81
457.056	385.81
457.276	398.81
457.497	407.81
457.717	400.81
457.937	408.81
458.157	432.81
458.377	419.81
458.598	445.81
458.818	540.81
459.038	651.81
459.258	663.81
459.478	532.81
459.698	468.81
459.918	464.81
460.138	422.81
460.358	431.81
460.578	412.81
460.798	430.81
461.018	424.81
461.238	410.81
461.458	432.81
461.678	417.81
461.898	417.81
462.118	422.81
462.338	415.81
462.558	406.81
462.777	427.81
462.997	424.81
463.217	445.81
463.437	424.81
463.657	420.81
463.876	413.81
464.096	433.81
464.316	439.81
464.536	466.81
464.755	448.81
464.975	469.81
465.195	544.81
465.414	710.81
465.634	586.81
465.854	499.81
466.073	475.81
466.293	442.81
466.512	451.81
466.732	410.81
466.951	422.81
467.171	429.81
467.391	428.81
467.61	448.81
467.829	466.81
468.049	440.81
468.268	429.81
468.488	424.81
468.707	419.81
468.927	402.81
469.146	397.81
469.365	388.81
469.585	427.81
469.804	438.81
470.023	422.81
470.243	430.81
470.462	444.81
470.681	492.81
470.901	489.81
471.12	469.81
471.339	426.81
471.558	446.81
471.777	440.81
471.997	415.81
472.216	418.81
472.435	422.81
472.654	423.81
472.873	407.81
473.092	420.81
473.311	428.81
473.53	440.81
473.749	432.81
473.968	493.81
474.187	613.81
474.406	640.81
474.625	506.81
474.844	450.81
475.063	442.81
475.282	456.81
475.501	446.81
475.72	452.81
475.939	430.81
476.158	434.81
476.377	434.81
476.596	454.81
476.814	454.81
477.033	468.81
477.252	460.81
477.471	465.81
477.69	453.81
477.908	472.81
478.127	474.81
478.346	440.81
478.564	469.81
478.783	454.81
479.002	482.81
479.22	491.81
479.439	510.81
479.658	526.81
479.876	556.81
480.095	510.81
480.313	559.81
480.532	542.81
480.751	510.81
480.969	518.81
481.188	526.81
481.406	553.81
481.624	559.81
481.843	512.81
482.061	514.81
482.28	525.81
482.498	517.81
482.717	498.81
482.935	518.81
483.153	516.81
483.372	498.81
483.59	518.81
483.808	499.81
484.027	511.81
484.245	527.81
484.463	525.81
484.681	547.81
484.9	508.81
485.118	528.81
485.336	528.81
485.554	543.81
485.772	524.81
485.99	552.81
486.209	532.81
486.427	556.81
486.645	553.81
486.863	586.81
487.081	597.81
487.299	561.81
487.517	579.81
487.735	550.81
487.953	538.81
488.171	555.81
488.389	560.81
488.607	587.81
488.825	550.81
489.043	574.81
489.261	556.81
489.479	559.81
489.696	584.81
489.914	586.81
490.132	583.81
490.35	589.81
490.568	603.81
490.786	586.81
491.003	591.81
491.221	612.81
491.439	633.81
491.657	623.81
491.874	655.81
492.092	625.81
492.31	633.81
492.527	654.81
492.745	651.81
492.963	641.81
493.18	680.81
493.398	667.81
493.615	686.81
493.833	668.81
494.05	660.81
494.268	670.81
494.485	676.81
494.703	675.81
494.92	685.81
495.138	675.81
495.355	680.81
495.573	693.81
495.79	653.81
496.008	699.81
496.225	680.81
496.442	663.81
496.66	687.81
496.877	697.81
497.094	669.81
497.312	679.81
497.529	705.81
497.746	694.81
497.963	702.81
498.181	748.81
498.398	738.81
498.615	741.81
498.832	729.81
499.049	739.81
499.267	712.81
499.484	734.81
499.701	740.81
499.918	741.81
500.135	789.81
500.352	771.81
500.569	774.81
500.786	795.81
501.003	775.81
501.22	811.81
501.437	792.81
501.654	802.81
501.871	805.81
