Data from 1987.PennyLincolnUp.Lamp.En5.5.200Scan.071819.P2_HRD10591_17-14-56-970.txt Node
Date: Thu Jul 18 17:14:56 EDT 2019
User: cochatt
Spectrometer: HR+D1059
Trigger mode: 1
Integration Time (sec): 1.000000E-1
Scans to average: 1
Electric dark correction enabled: true
Nonlinearity correction enabled: false
Boxcar width: 0
XAxis mode: Wavelengths
Number of Pixels in Spectrum: 2048
>>>>>Begin Spectral Data<<<<<
223.165	-15.5
223.4	-15.5
223.635	-15.5
223.869	-22.5
224.104	-16.5
224.338	-6.5
224.573	-20.5
224.808	-18.5
225.042	-4.5
225.277	-0.5
225.511	-13.5
225.746	16.5
225.98	4.5
226.215	13.5
226.449	9.5
226.683	15.5
226.918	25.5
227.152	33.5
227.387	24.5
227.621	47.5
227.856	40.5
228.09	52.5
228.324	47.5
228.559	44.5
228.793	73.5
229.027	111.5
229.262	107.5
229.496	118.5
229.73	149.5
229.964	197.5
230.199	155.5
230.433	110.5
230.667	117.5
230.901	129.5
231.136	101.5
231.37	93.5
231.604	120.5
231.838	110.5
232.072	115.5
232.306	107.5
232.541	101.5
232.775	111.5
233.009	115.5
233.243	106.5
233.477	106.5
233.711	115.5
233.945	113.5
234.179	112.5
234.413	107.5
234.647	102.5
234.881	118.5
235.115	134.5
235.349	127.5
235.583	126.5
235.817	119.5
236.051	117.5
236.285	125.5
236.519	129.5
236.753	133.5
236.987	157.5
237.221	203.5
237.455	236.5
237.689	205.5
237.922	138.5
238.156	117.5
238.39	128.5
238.624	122.5
238.858	114.5
239.091	135.5
239.325	130.5
239.559	112.5
239.793	125.5
240.027	133.5
240.26	131.5
240.494	158.5
240.728	155.5
240.961	155.5
241.195	152.5
241.429	155.5
241.662	138.5
241.896	120.5
242.13	129.5
242.363	133.5
242.597	119.5
242.83	144.5
243.064	124.5
243.298	130.5
243.531	122.5
243.765	137.5
243.998	136.5
244.232	120.5
244.465	130.5
244.699	133.5
244.932	137.5
245.166	132.5
245.399	137.5
245.633	140.5
245.866	137.5
246.099	139.5
246.333	148.5
246.566	141.5
246.8	142.5
247.033	157.5
247.266	161.5
247.5	164.5
247.733	181.5
247.966	161.5
248.2	158.5
248.433	173.5
248.666	174.5
248.899	168.5
249.133	186.5
249.366	187.5
249.599	200.5
249.832	186.5
250.066	183.5
250.299	173.5
250.532	171.5
250.765	191.5
250.998	209.5
251.231	227.5
251.465	217.5
251.698	204.5
251.931	190.5
252.164	194.5
252.397	194.5
252.63	195.5
252.863	202.5
253.096	223.5
253.329	217.5
253.562	217.5
253.795	202.5
254.028	218.5
254.261	195.5
254.494	222.5
254.727	245.5
254.96	273.5
255.193	268.5
255.426	242.5
255.659	222.5
255.892	225.5
256.124	210.5
256.357	218.5
256.59	215.5
256.823	202.5
257.056	191.5
257.289	198.5
257.521	190.5
257.754	201.5
257.987	198.5
258.22	191.5
258.452	193.5
258.685	193.5
258.918	203.5
259.151	199.5
259.383	196.5
259.616	195.5
259.849	213.5
260.081	215.5
260.314	242.5
260.547	242.5
260.779	245.5
261.012	215.5
261.244	218.5
261.477	216.5
261.71	227.5
261.942	209.5
262.175	240.5
262.407	223.5
262.64	190.5
262.872	186.5
263.105	188.5
263.337	182.5
263.57	194.5
263.802	190.5
264.035	200.5
264.267	174.5
264.499	188.5
264.732	188.5
264.964	176.5
265.197	177.5
265.429	189.5
265.661	177.5
265.894	198.5
266.126	197.5
266.358	172.5
266.591	203.5
266.823	217.5
267.055	194.5
267.287	204.5
267.52	181.5
267.752	191.5
267.984	200.5
268.216	202.5
268.448	191.5
268.681	197.5
268.913	209.5
269.145	237.5
269.377	246.5
269.609	236.5
269.841	249.5
270.073	235.5
270.306	263.5
270.538	284.5
270.77	295.5
271.002	271.5
271.234	275.5
271.466	268.5
271.698	284.5
271.93	292.5
272.162	298.5
272.394	298.5
272.626	301.5
272.858	275.5
273.09	263.5
273.322	256.5
273.553	243.5
273.785	231.5
274.017	227.5
274.249	224.5
274.481	237.5
274.713	226.5
274.945	245.5
275.176	246.5
275.408	233.5
275.64	218.5
275.872	233.5
276.104	226.5
276.335	227.5
276.567	241.5
276.799	263.5
277.031	283.5
277.262	287.5
277.494	281.5
277.726	272.5
277.957	260.5
278.189	256.5
278.421	245.5
278.652	240.5
278.884	250.5
279.115	222.5
279.347	207.5
279.579	238.5
279.81	232.5
280.042	226.5
280.273	223.5
280.505	214.5
280.736	203.5
280.968	217.5
281.199	217.5
281.431	218.5
281.662	203.5
281.894	224.5
282.125	235.5
282.356	220.5
282.588	265.5
282.819	274.5
283.051	220.5
283.282	225.5
283.513	221.5
283.745	228.5
283.976	224.5
284.207	224.5
284.439	228.5
284.67	226.5
284.901	222.5
285.132	225.5
285.364	218.5
285.595	221.5
285.826	240.5
286.057	235.5
286.288	234.5
286.52	222.5
286.751	214.5
286.982	215.5
287.213	226.5
287.444	217.5
287.675	233.5
287.906	246.5
288.138	253.5
288.369	235.5
288.6	262.5
288.831	251.5
289.062	239.5
289.293	239.5
289.524	243.5
289.755	226.5
289.986	219.5
290.217	220.5
290.448	222.5
290.679	217.5
290.91	241.5
291.141	229.5
291.371	225.5
291.602	225.5
291.833	222.5
292.064	230.5
292.295	210.5
292.526	234.5
292.757	236.5
292.987	233.5
293.218	232.5
293.449	249.5
293.68	221.5
293.91	239.5
294.141	226.5
294.372	221.5
294.603	241.5
294.833	235.5
295.064	226.5
295.295	229.5
295.525	237.5
295.756	258.5
295.987	249.5
296.217	281.5
296.448	288.5
296.679	252.5
296.909	253.5
297.14	245.5
297.37	218.5
297.601	254.5
297.831	248.5
298.062	234.5
298.292	257.5
298.523	260.5
298.753	226.5
298.984	234.5
299.214	258.5
299.445	249.5
299.675	240.5
299.905	254.5
300.136	249.5
300.366	237.5
300.597	239.5
300.827	259.5
301.057	262.5
301.288	255.5
301.518	275.5
301.748	265.5
301.979	254.5
302.209	255.5
302.439	283.5
302.669	267.5
302.9	261.5
303.13	241.5
303.36	266.5
303.59	251.5
303.82	263.5
304.051	266.5
304.281	250.5
304.511	261.5
304.741	261.5
304.971	248.5
305.201	253.5
305.431	250.5
305.661	250.5
305.891	266.5
306.121	249.5
306.352	268.5
306.582	262.5
306.812	269.5
307.042	262.5
307.272	244.5
307.502	247.5
307.731	259.5
307.961	264.5
308.191	251.5
308.421	268.5
308.651	272.5
308.881	275.5
309.111	278.5
309.341	270.5
309.571	284.5
309.8	295.5
310.03	302.5
310.26	310.5
310.49	334.5
310.72	341.5
310.949	354.5
311.179	375.5
311.409	351.5
311.639	314.5
311.868	340.5
312.098	323.5
312.328	348.5
312.557	373.5
312.787	367.5
313.017	366.5
313.246	351.5
313.476	316.5
313.706	305.5
313.935	347.5
314.165	346.5
314.394	356.5
314.624	345.5
314.853	348.5
315.083	336.5
315.312	333.5
315.542	309.5
315.771	298.5
316.001	307.5
316.23	317.5
316.46	310.5
316.689	325.5
316.919	327.5
317.148	342.5
317.377	352.5
317.607	340.5
317.836	319.5
318.065	318.5
318.295	303.5
318.524	319.5
318.753	306.5
318.983	331.5
319.212	325.5
319.441	320.5
319.67	353.5
319.9	324.5
320.129	302.5
320.358	322.5
320.587	343.5
320.816	333.5
321.046	354.5
321.275	360.5
321.504	341.5
321.733	375.5
321.962	369.5
322.191	378.5
322.42	413.5
322.649	424.5
322.878	422.5
323.108	457.5
323.337	487.5
323.566	507.5
323.795	557.5
324.024	609.5
324.253	809.5
324.482	1143.5
324.71	1767.5
324.939	2439.5
325.168	2129.5
325.397	1201.5
325.626	773.5
325.855	597.5
326.084	547.5
326.313	538.5
326.542	539.5
326.77	607.5
326.999	694.5
327.228	965.5
327.457	1495.5
327.686	1810.5
327.914	1249.5
328.143	807.5
328.372	706.5
328.6	625.5
328.829	583.5
329.058	635.5
329.287	615.5
329.515	571.5
329.744	500.5
329.972	469.5
330.201	486.5
330.43	503.5
330.658	583.5
330.887	640.5
331.115	614.5
331.344	520.5
331.572	451.5
331.801	485.5
332.03	469.5
332.258	428.5
332.486	409.5
332.715	384.5
332.943	387.5
333.172	368.5
333.4	375.5
333.629	352.5
333.857	385.5
334.085	403.5
334.314	382.5
334.542	378.5
334.771	381.5
334.999	367.5
335.227	355.5
335.455	367.5
335.684	366.5
335.912	356.5
336.14	351.5
336.369	334.5
336.597	363.5
336.825	373.5
337.053	367.5
337.281	351.5
337.51	369.5
337.738	370.5
337.966	346.5
338.194	355.5
338.422	377.5
338.65	364.5
338.878	341.5
339.106	341.5
339.334	334.5
339.562	357.5
339.79	351.5
340.018	361.5
340.246	350.5
340.474	363.5
340.702	346.5
340.93	339.5
341.158	367.5
341.386	381.5
341.614	357.5
341.842	364.5
342.07	342.5
342.298	334.5
342.526	340.5
342.754	339.5
342.981	351.5
343.209	349.5
343.437	341.5
343.665	340.5
343.893	365.5
344.12	328.5
344.348	347.5
344.576	366.5
344.804	347.5
345.031	384.5
345.259	388.5
345.487	374.5
345.714	362.5
345.942	360.5
346.17	355.5
346.397	343.5
346.625	361.5
346.853	350.5
347.08	363.5
347.308	359.5
347.535	361.5
347.763	404.5
347.99	377.5
348.218	361.5
348.445	381.5
348.673	391.5
348.9	382.5
349.128	350.5
349.355	344.5
349.583	329.5
349.81	346.5
350.037	347.5
350.265	339.5
350.492	342.5
350.72	333.5
350.947	353.5
351.174	354.5
351.402	380.5
351.629	389.5
351.856	376.5
352.083	373.5
352.311	379.5
352.538	391.5
352.765	409.5
352.992	397.5
353.22	378.5
353.447	348.5
353.674	346.5
353.901	340.5
354.128	334.5
354.355	334.5
354.583	313.5
354.81	328.5
355.037	318.5
355.264	300.5
355.491	317.5
355.718	333.5
355.945	308.5
356.172	297.5
356.399	300.5
356.626	302.5
356.853	305.5
357.08	309.5
357.307	309.5
357.534	309.5
357.761	322.5
357.988	317.5
358.215	305.5
358.441	317.5
358.668	332.5
358.895	307.5
359.122	339.5
359.349	334.5
359.576	366.5
359.802	378.5
360.029	445.5
360.256	449.5
360.483	418.5
360.709	380.5
360.936	372.5
361.163	353.5
361.39	360.5
361.616	372.5
361.843	367.5
362.07	358.5
362.296	377.5
362.523	349.5
362.749	350.5
362.976	377.5
363.203	364.5
363.429	343.5
363.656	358.5
363.882	341.5
364.109	343.5
364.335	335.5
364.562	309.5
364.788	345.5
365.015	324.5
365.241	353.5
365.468	339.5
365.694	345.5
365.92	360.5
366.147	335.5
366.373	338.5
366.599	329.5
366.826	307.5
367.052	319.5
367.278	323.5
367.505	324.5
367.731	322.5
367.957	328.5
368.184	324.5
368.41	341.5
368.636	335.5
368.862	360.5
369.089	329.5
369.315	328.5
369.541	324.5
369.767	327.5
369.993	334.5
370.219	333.5
370.445	307.5
370.672	325.5
370.898	315.5
371.124	313.5
371.35	315.5
371.576	318.5
371.802	309.5
372.028	319.5
372.254	311.5
372.48	294.5
372.706	319.5
372.932	317.5
373.158	303.5
373.384	309.5
373.61	315.5
373.835	335.5
374.061	335.5
374.287	323.5
374.513	330.5
374.739	325.5
374.965	326.5
375.191	316.5
375.416	305.5
375.642	315.5
375.868	313.5
376.094	292.5
376.319	325.5
376.545	321.5
376.771	305.5
376.997	316.5
377.222	306.5
377.448	336.5
377.674	312.5
377.899	339.5
378.125	311.5
378.35	313.5
378.576	307.5
378.802	313.5
379.027	295.5
379.253	323.5
379.478	322.5
379.704	328.5
379.929	303.5
380.155	332.5
380.38	334.5
380.606	316.5
380.831	326.5
381.057	319.5
381.282	334.5
381.507	330.5
381.733	324.5
381.958	310.5
382.184	326.5
382.409	324.5
382.634	311.5
382.86	317.5
383.085	331.5
383.31	311.5
383.535	313.5
383.761	333.5
383.986	320.5
384.211	316.5
384.436	313.5
384.662	334.5
384.887	324.5
385.112	327.5
385.337	346.5
385.562	322.5
385.787	333.5
386.013	326.5
386.238	329.5
386.463	340.5
386.688	337.5
386.913	322.5
387.138	317.5
387.363	335.5
387.588	327.5
387.813	330.5
388.038	333.5
388.263	331.5
388.488	319.5
388.713	333.5
388.938	316.5
389.163	338.5
389.387	335.5
389.612	315.5
389.837	310.5
390.062	325.5
390.287	331.5
390.512	345.5
390.736	342.5
390.961	316.5
391.186	317.5
391.411	344.5
391.636	328.5
391.86	354.5
392.085	321.5
392.31	339.5
392.534	335.5
392.759	349.5
392.984	345.5
393.208	339.5
393.433	347.5
393.658	325.5
393.882	334.5
394.107	317.5
394.331	339.5
394.556	336.5
394.78	351.5
395.005	346.5
395.229	330.5
395.454	343.5
395.678	358.5
395.903	338.5
396.127	374.5
396.352	366.5
396.576	355.5
396.801	345.5
397.025	367.5
397.249	344.5
397.474	346.5
397.698	355.5
397.922	369.5
398.147	387.5
398.371	382.5
398.595	371.5
398.82	367.5
399.044	395.5
399.268	379.5
399.492	398.5
399.717	398.5
399.941	441.5
400.165	447.5
400.389	471.5
400.613	435.5
400.837	405.5
401.062	405.5
401.286	400.5
401.51	387.5
401.734	392.5
401.958	399.5
402.182	389.5
402.406	402.5
402.63	402.5
402.854	389.5
403.078	368.5
403.302	391.5
403.526	411.5
403.75	404.5
403.974	381.5
404.198	407.5
404.422	396.5
404.645	392.5
404.869	412.5
405.093	425.5
405.317	438.5
405.541	486.5
405.765	448.5
405.988	419.5
406.212	455.5
406.436	446.5
406.66	460.5
406.883	450.5
407.107	460.5
407.331	515.5
407.555	553.5
407.778	554.5
408.002	525.5
408.226	494.5
408.449	464.5
408.673	461.5
408.896	485.5
409.12	524.5
409.344	493.5
409.567	437.5
409.791	427.5
410.014	422.5
410.238	408.5
410.461	426.5
410.685	419.5
410.908	417.5
411.132	463.5
411.355	487.5
411.578	462.5
411.802	433.5
412.025	435.5
412.249	424.5
412.472	419.5
412.695	418.5
412.919	425.5
413.142	398.5
413.365	398.5
413.589	406.5
413.812	388.5
414.035	380.5
414.258	382.5
414.482	367.5
414.705	383.5
414.928	377.5
415.151	386.5
415.374	381.5
415.597	368.5
415.821	373.5
416.044	390.5
416.267	408.5
416.49	365.5
416.713	398.5
416.936	383.5
417.159	395.5
417.382	387.5
417.605	381.5
417.828	397.5
418.051	427.5
418.274	407.5
418.497	415.5
418.72	395.5
418.943	384.5
419.166	412.5
419.389	411.5
419.611	395.5
419.834	400.5
420.057	437.5
420.28	420.5
420.503	389.5
420.726	413.5
420.948	412.5
421.171	468.5
421.394	517.5
421.617	458.5
421.839	433.5
422.062	416.5
422.285	437.5
422.507	494.5
422.73	571.5
422.953	563.5
423.175	485.5
423.398	449.5
423.621	455.5
423.843	459.5
424.066	453.5
424.288	470.5
424.511	480.5
424.733	556.5
424.956	606.5
425.178	611.5
425.401	596.5
425.623	602.5
425.846	509.5
426.068	506.5
426.291	495.5
426.513	465.5
426.735	521.5
426.958	548.5
427.18	610.5
427.402	729.5
427.625	816.5
427.847	749.5
428.069	633.5
428.292	563.5
428.514	499.5
428.736	468.5
428.958	472.5
429.181	442.5
429.403	446.5
429.625	458.5
429.847	499.5
430.069	537.5
430.292	563.5
430.514	477.5
430.736	469.5
430.958	439.5
431.18	413.5
431.402	437.5
431.624	420.5
431.846	414.5
432.068	405.5
432.29	397.5
432.512	427.5
432.734	435.5
432.956	430.5
433.178	435.5
433.4	448.5
433.622	412.5
433.844	401.5
434.066	419.5
434.287	407.5
434.509	421.5
434.731	426.5
434.953	431.5
435.175	427.5
435.397	465.5
435.618	490.5
435.84	545.5
436.062	614.5
436.284	654.5
436.505	579.5
436.727	517.5
436.949	483.5
437.17	462.5
437.392	468.5
437.614	472.5
437.835	501.5
438.057	627.5
438.278	708.5
438.5	703.5
438.721	758.5
438.943	720.5
439.165	609.5
439.386	542.5
439.608	524.5
439.829	529.5
440.05	519.5
440.272	580.5
440.493	552.5
440.715	515.5
440.936	477.5
441.158	460.5
441.379	455.5
441.6	444.5
441.822	483.5
442.043	551.5
442.264	599.5
442.486	675.5
442.707	563.5
442.928	508.5
443.149	523.5
443.371	529.5
443.592	571.5
443.813	647.5
444.034	697.5
444.255	594.5
444.476	535.5
444.698	518.5
444.919	491.5
445.14	585.5
445.361	533.5
445.582	552.5
445.803	604.5
446.024	715.5
446.245	685.5
446.466	625.5
446.687	550.5
446.908	528.5
447.129	485.5
447.35	473.5
447.571	451.5
447.792	466.5
448.013	476.5
448.234	487.5
448.455	533.5
448.675	634.5
448.896	718.5
449.117	632.5
449.338	612.5
449.559	693.5
449.779	742.5
450	630.5
450.221	545.5
450.442	498.5
450.662	471.5
450.883	479.5
451.104	493.5
451.324	487.5
451.545	457.5
451.766	462.5
451.986	434.5
452.207	430.5
452.428	419.5
452.648	407.5
452.869	426.5
453.089	435.5
453.31	439.5
453.53	429.5
453.751	423.5
453.971	440.5
454.192	455.5
454.412	475.5
454.633	441.5
454.853	409.5
455.073	408.5
455.294	477.5
455.514	531.5
455.734	489.5
455.955	422.5
456.175	399.5
456.395	376.5
456.616	402.5
456.836	403.5
457.056	376.5
457.276	370.5
457.497	373.5
457.717	385.5
457.937	383.5
458.157	389.5
458.377	387.5
458.598	418.5
458.818	510.5
459.038	632.5
459.258	619.5
459.478	507.5
459.698	430.5
459.918	427.5
460.138	414.5
460.358	399.5
460.578	384.5
460.798	393.5
461.018	405.5
461.238	397.5
461.458	404.5
461.678	408.5
461.898	383.5
462.118	369.5
462.338	399.5
462.558	386.5
462.777	404.5
462.997	409.5
463.217	417.5
463.437	391.5
463.657	414.5
463.876	422.5
464.096	418.5
464.316	413.5
464.536	428.5
464.755	444.5
464.975	455.5
465.195	530.5
465.414	645.5
465.634	553.5
465.854	490.5
466.073	457.5
466.293	430.5
466.512	412.5
466.732	434.5
466.951	396.5
467.171	404.5
467.391	419.5
467.61	433.5
467.829	435.5
468.049	433.5
468.268	408.5
468.488	371.5
468.707	411.5
468.927	394.5
469.146	397.5
469.365	409.5
469.585	395.5
469.804	410.5
470.023	419.5
470.243	411.5
470.462	422.5
470.681	458.5
470.901	440.5
471.12	439.5
471.339	404.5
471.558	427.5
471.777	417.5
471.997	405.5
472.216	393.5
472.435	399.5
472.654	394.5
472.873	396.5
473.092	412.5
473.311	396.5
473.53	418.5
473.749	420.5
473.968	479.5
474.187	597.5
474.406	616.5
474.625	488.5
474.844	436.5
475.063	436.5
475.282	438.5
475.501	409.5
475.72	418.5
475.939	430.5
476.158	444.5
476.377	435.5
476.596	415.5
476.814	427.5
477.033	435.5
477.252	430.5
477.471	444.5
477.69	422.5
477.908	437.5
478.127	442.5
478.346	429.5
478.564	451.5
478.783	463.5
479.002	457.5
479.22	470.5
479.439	478.5
479.658	507.5
479.876	513.5
480.095	522.5
480.313	547.5
480.532	519.5
480.751	486.5
480.969	478.5
481.188	514.5
481.406	513.5
481.624	487.5
481.843	470.5
482.061	481.5
482.28	477.5
482.498	479.5
482.717	479.5
482.935	497.5
483.153	497.5
483.372	476.5
483.59	486.5
483.808	487.5
484.027	506.5
484.245	490.5
484.463	495.5
484.681	503.5
484.9	476.5
485.118	506.5
485.336	479.5
485.554	515.5
485.772	510.5
485.99	493.5
486.209	501.5
486.427	522.5
486.645	532.5
486.863	554.5
487.081	553.5
487.299	553.5
487.517	537.5
487.735	530.5
487.953	544.5
488.171	525.5
488.389	524.5
488.607	550.5
488.825	543.5
489.043	548.5
489.261	565.5
489.479	533.5
489.696	539.5
489.914	545.5
490.132	562.5
490.35	566.5
490.568	564.5
490.786	584.5
491.003	573.5
491.221	594.5
491.439	600.5
491.657	613.5
491.874	607.5
492.092	582.5
492.31	600.5
492.527	629.5
492.745	625.5
492.963	591.5
493.18	609.5
493.398	621.5
493.615	636.5
493.833	656.5
494.05	635.5
494.268	641.5
494.485	632.5
494.703	626.5
494.92	645.5
495.138	654.5
495.355	643.5
495.573	646.5
495.79	629.5
496.008	669.5
496.225	642.5
496.442	649.5
496.66	663.5
496.877	632.5
497.094	633.5
497.312	644.5
497.529	656.5
497.746	666.5
497.963	646.5
498.181	691.5
498.398	696.5
498.615	683.5
498.832	702.5
499.049	691.5
499.267	692.5
499.484	728.5
499.701	714.5
499.918	711.5
500.135	718.5
500.352	741.5
500.569	733.5
500.786	765.5
501.003	755.5
501.22	763.5
501.437	743.5
501.654	758.5
501.871	761.5
502.088	732.5
502.305	730.5
502.522	721.5
502.739	714.5
502.956	691.5
503.172	678.5
503.389	685.5
503.606	698.5
503.823	699.5
504.04	702.5
504.256	648.5
504.473	629.5
504.69	645.5
504.907	658.5
505.123	647.5
505.34	637.5
505.557	655.5
505.773	637.5
505.99	659.5
506.207	639.5
506.423	654.5
506.64	655.5
506.856	639.5
507.073	633.5
507.289	629.5
507.506	630.5
507.722	639.5
507.939	711.5
508.155	659.5
508.372	616.5
508.588	646.5
508.805	635.5
509.021	605.5
509.238	645.5
509.454	638.5
509.67	623.5
509.887	635.5
510.103	665.5
510.319	670.5
510.536	797.5
510.752	1461.5
510.968	1159.5
511.184	713.5
511.401	656.5
511.617	644.5
511.833	622.5
512.049	603.5
512.265	588.5
512.481	613.5
512.698	610.5
512.914	611.5
513.13	606.5
513.346	589.5
513.562	616.5
513.778	630.5
513.994	657.5
514.21	661.5
514.426	683.5
514.642	750.5
514.858	810.5
515.074	864.5
515.29	1104.5
515.506	1714.5
515.721	1369.5
515.937	824.5
516.153	754.5
516.369	691.5
516.585	668.5
516.801	646.5
517.016	619.5
517.232	617.5
517.448	628.5
517.664	618.5
517.879	599.5
518.095	603.5
518.311	602.5
518.527	610.5
518.742	604.5
518.958	625.5
519.173	579.5
519.389	637.5
519.605	633.5
519.82	636.5
