Data from 1987.PennyLincolnUp.Lamp.En5.5.200Scan.071819.P2_HRD10591_17-14-14-971.txt Node
Date: Thu Jul 18 17:14:14 EDT 2019
User: cochatt
Spectrometer: HR+D1059
Trigger mode: 1
Integration Time (sec): 1.000000E-1
Scans to average: 1
Electric dark correction enabled: true
Nonlinearity correction enabled: false
Boxcar width: 0
XAxis mode: Wavelengths
Number of Pixels in Spectrum: 2048
>>>>>Begin Spectral Data<<<<<
223.165	-23.62
223.4	-23.62
223.635	-23.62
223.869	-13.62
224.104	-16.62
224.338	-1.62
224.573	-16.62
224.808	-17.62
225.042	-1.62
225.277	-9.62
225.511	6.38
225.746	-1.62
225.98	2.38
226.215	-0.62
226.449	9.38
226.683	28.38
226.918	18.38
227.152	38.38
227.387	29.38
227.621	39.38
227.856	42.38
228.09	43.38
228.324	51.38
228.559	60.38
228.793	70.38
229.027	82.38
229.262	112.38
229.496	116.38
229.73	144.38
229.964	148.38
230.199	129.38
230.433	130.38
230.667	111.38
230.901	126.38
231.136	120.38
231.37	105.38
231.604	109.38
231.838	106.38
232.072	107.38
232.306	112.38
232.541	98.38
232.775	104.38
233.009	116.38
233.243	103.38
233.477	112.38
233.711	124.38
233.945	122.38
234.179	96.38
234.413	92.38
234.647	104.38
234.881	104.38
235.115	119.38
235.349	103.38
235.583	121.38
235.817	112.38
236.051	131.38
236.285	128.38
236.519	114.38
236.753	117.38
236.987	140.38
237.221	177.38
237.455	222.38
237.689	179.38
237.922	141.38
238.156	136.38
238.39	127.38
238.624	117.38
238.858	123.38
239.091	124.38
239.325	120.38
239.559	111.38
239.793	129.38
240.027	137.38
240.26	138.38
240.494	140.38
240.728	137.38
240.961	127.38
241.195	145.38
241.429	119.38
241.662	130.38
241.896	130.38
242.13	124.38
242.363	113.38
242.597	120.38
242.83	128.38
243.064	123.38
243.298	136.38
243.531	108.38
243.765	117.38
243.998	124.38
244.232	128.38
244.465	145.38
244.699	116.38
244.932	141.38
245.166	125.38
245.399	141.38
245.633	130.38
245.866	139.38
246.099	122.38
246.333	146.38
246.566	138.38
246.8	141.38
247.033	154.38
247.266	149.38
247.5	142.38
247.733	154.38
247.966	156.38
248.2	158.38
248.433	146.38
248.666	161.38
248.899	176.38
249.133	187.38
249.366	194.38
249.599	196.38
249.832	176.38
250.066	171.38
250.299	161.38
250.532	182.38
250.765	170.38
250.998	192.38
251.231	204.38
251.465	222.38
251.698	160.38
251.931	185.38
252.164	191.38
252.397	172.38
252.63	198.38
252.863	192.38
253.096	196.38
253.329	208.38
253.562	221.38
253.795	195.38
254.028	227.38
254.261	205.38
254.494	214.38
254.727	228.38
254.96	258.38
255.193	249.38
255.426	230.38
255.659	216.38
255.892	210.38
256.124	222.38
256.357	203.38
256.59	213.38
256.823	196.38
257.056	178.38
257.289	178.38
257.521	193.38
257.754	184.38
257.987	192.38
258.22	179.38
258.452	175.38
258.685	192.38
258.918	182.38
259.151	193.38
259.383	191.38
259.616	171.38
259.849	218.38
260.081	201.38
260.314	233.38
260.547	243.38
260.779	220.38
261.012	204.38
261.244	206.38
261.477	185.38
261.71	204.38
261.942	197.38
262.175	221.38
262.407	198.38
262.64	188.38
262.872	191.38
263.105	168.38
263.337	177.38
263.57	192.38
263.802	186.38
264.035	164.38
264.267	167.38
264.499	183.38
264.732	179.38
264.964	177.38
265.197	156.38
265.429	168.38
265.661	169.38
265.894	176.38
266.126	181.38
266.358	174.38
266.591	209.38
266.823	192.38
267.055	179.38
267.287	204.38
267.52	187.38
267.752	185.38
267.984	176.38
268.216	187.38
268.448	183.38
268.681	183.38
268.913	187.38
269.145	222.38
269.377	235.38
269.609	237.38
269.841	227.38
270.073	252.38
270.306	242.38
270.538	271.38
270.77	264.38
271.002	277.38
271.234	257.38
271.466	250.38
271.698	270.38
271.93	301.38
272.162	268.38
272.394	272.38
272.626	264.38
272.858	266.38
273.09	223.38
273.322	222.38
273.553	236.38
273.785	225.38
274.017	222.38
274.249	211.38
274.481	231.38
274.713	225.38
274.945	204.38
275.176	209.38
275.408	216.38
275.64	226.38
275.872	219.38
276.104	210.38
276.335	198.38
276.567	229.38
276.799	241.38
277.031	277.38
277.262	270.38
277.494	268.38
277.726	251.38
277.957	252.38
278.189	212.38
278.421	225.38
278.652	226.38
278.884	219.38
279.115	209.38
279.347	216.38
279.579	201.38
279.81	203.38
280.042	211.38
280.273	216.38
280.505	206.38
280.736	216.38
280.968	196.38
281.199	203.38
281.431	212.38
281.662	206.38
281.894	220.38
282.125	213.38
282.356	235.38
282.588	250.38
282.819	246.38
283.051	228.38
283.282	203.38
283.513	210.38
283.745	202.38
283.976	209.38
284.207	216.38
284.439	215.38
284.67	227.38
284.901	212.38
285.132	195.38
285.364	198.38
285.595	194.38
285.826	216.38
286.057	238.38
286.288	217.38
286.52	211.38
286.751	201.38
286.982	225.38
287.213	197.38
287.444	220.38
287.675	216.38
287.906	219.38
288.138	218.38
288.369	246.38
288.6	240.38
288.831	238.38
289.062	214.38
289.293	232.38
289.524	215.38
289.755	226.38
289.986	207.38
290.217	227.38
290.448	219.38
290.679	214.38
290.91	218.38
291.141	202.38
291.371	223.38
291.602	214.38
291.833	230.38
292.064	210.38
292.295	210.38
292.526	217.38
292.757	222.38
292.987	221.38
293.218	212.38
293.449	208.38
293.68	212.38
293.91	215.38
294.141	220.38
294.372	216.38
294.603	235.38
294.833	219.38
295.064	221.38
295.295	220.38
295.525	224.38
295.756	199.38
295.987	216.38
296.217	251.38
296.448	273.38
296.679	249.38
296.909	231.38
297.14	231.38
297.37	226.38
297.601	228.38
297.831	241.38
298.062	222.38
298.292	227.38
298.523	228.38
298.753	220.38
298.984	215.38
299.214	212.38
299.445	216.38
299.675	221.38
299.905	256.38
300.136	226.38
300.366	230.38
300.597	233.38
300.827	210.38
301.057	234.38
301.288	246.38
301.518	245.38
301.748	230.38
301.979	240.38
302.209	246.38
302.439	242.38
302.669	224.38
302.9	251.38
303.13	249.38
303.36	233.38
303.59	255.38
303.82	278.38
304.051	255.38
304.281	243.38
304.511	232.38
304.741	250.38
304.971	247.38
305.201	233.38
305.431	242.38
305.661	256.38
305.891	248.38
306.121	250.38
306.352	249.38
306.582	249.38
306.812	240.38
307.042	244.38
307.272	241.38
307.502	242.38
307.731	262.38
307.961	256.38
308.191	264.38
308.421	247.38
308.651	246.38
308.881	245.38
309.111	263.38
309.341	259.38
309.571	277.38
309.8	280.38
310.03	293.38
310.26	310.38
310.49	289.38
310.72	311.38
310.949	327.38
311.179	324.38
311.409	312.38
311.639	307.38
311.868	307.38
312.098	301.38
312.328	302.38
312.557	334.38
312.787	339.38
313.017	361.38
313.246	333.38
313.476	288.38
313.706	300.38
313.935	322.38
314.165	329.38
314.394	332.38
314.624	341.38
314.853	323.38
315.083	325.38
315.312	278.38
315.542	291.38
315.771	294.38
316.001	294.38
316.23	290.38
316.46	288.38
316.689	300.38
316.919	294.38
317.148	300.38
317.377	322.38
317.607	314.38
317.836	289.38
318.065	299.38
318.295	295.38
318.524	297.38
318.753	297.38
318.983	294.38
319.212	288.38
319.441	299.38
319.67	325.38
319.9	290.38
320.129	293.38
320.358	287.38
320.587	312.38
320.816	297.38
321.046	338.38
321.275	314.38
321.504	318.38
321.733	328.38
321.962	335.38
322.191	350.38
322.42	371.38
322.649	405.38
322.878	403.38
323.108	398.38
323.337	419.38
323.566	442.38
323.795	475.38
324.024	571.38
324.253	684.38
324.482	983.38
324.71	1544.38
324.939	2164.38
325.168	1890.38
325.397	1064.38
325.626	679.38
325.855	529.38
326.084	470.38
326.313	456.38
326.542	463.38
326.77	508.38
326.999	656.38
327.228	864.38
327.457	1317.38
327.686	1612.38
327.914	1115.38
328.143	719.38
328.372	608.38
328.6	594.38
328.829	539.38
329.058	542.38
329.287	589.38
329.515	512.38
329.744	459.38
329.972	437.38
330.201	447.38
330.43	466.38
330.658	487.38
330.887	546.38
331.115	537.38
331.344	452.38
331.572	442.38
331.801	405.38
332.03	424.38
332.258	404.38
332.486	378.38
332.715	343.38
332.943	330.38
333.172	353.38
333.4	345.38
333.629	366.38
333.857	355.38
334.085	349.38
334.314	363.38
334.542	361.38
334.771	373.38
334.999	331.38
335.227	350.38
335.455	332.38
335.684	361.38
335.912	342.38
336.14	322.38
336.369	306.38
336.597	331.38
336.825	336.38
337.053	331.38
337.281	327.38
337.51	345.38
337.738	353.38
337.966	351.38
338.194	344.38
338.422	344.38
338.65	342.38
338.878	324.38
339.106	318.38
339.334	344.38
339.562	331.38
339.79	345.38
340.018	339.38
340.246	354.38
340.474	353.38
340.702	334.38
340.93	346.38
341.158	340.38
341.386	340.38
341.614	340.38
341.842	334.38
342.07	324.38
342.298	339.38
342.526	335.38
342.754	336.38
342.981	316.38
343.209	316.38
343.437	312.38
343.665	326.38
343.893	329.38
344.12	333.38
344.348	321.38
344.576	329.38
344.804	326.38
345.031	363.38
345.259	357.38
345.487	347.38
345.714	341.38
345.942	338.38
346.17	337.38
346.397	345.38
346.625	334.38
346.853	339.38
347.08	329.38
347.308	310.38
347.535	322.38
347.763	359.38
347.99	345.38
348.218	348.38
348.445	348.38
348.673	357.38
348.9	340.38
349.128	337.38
349.355	331.38
349.583	298.38
349.81	306.38
350.037	308.38
350.265	319.38
350.492	316.38
350.72	322.38
350.947	308.38
351.174	322.38
351.402	368.38
351.629	355.38
351.856	322.38
352.083	353.38
352.311	368.38
352.538	360.38
352.765	388.38
352.992	352.38
353.22	347.38
353.447	335.38
353.674	335.38
353.901	339.38
354.128	326.38
354.355	305.38
354.583	294.38
354.81	307.38
355.037	312.38
355.264	322.38
355.491	294.38
355.718	304.38
355.945	307.38
356.172	295.38
356.399	304.38
356.626	276.38
356.853	308.38
357.08	287.38
357.307	299.38
357.534	318.38
357.761	304.38
357.988	312.38
358.215	291.38
358.441	318.38
358.668	313.38
358.895	310.38
359.122	327.38
359.349	336.38
359.576	351.38
359.802	364.38
360.029	389.38
360.256	422.38
360.483	399.38
360.709	347.38
360.936	350.38
361.163	341.38
361.39	341.38
361.616	352.38
361.843	335.38
362.07	359.38
362.296	368.38
362.523	356.38
362.749	336.38
362.976	345.38
363.203	335.38
363.429	310.38
363.656	323.38
363.882	318.38
364.109	312.38
364.335	304.38
364.562	336.38
364.788	313.38
365.015	325.38
365.241	323.38
365.468	320.38
365.694	329.38
365.92	348.38
366.147	324.38
366.373	330.38
366.599	330.38
366.826	321.38
367.052	315.38
367.278	309.38
367.505	307.38
367.731	317.38
367.957	305.38
368.184	315.38
368.41	344.38
368.636	339.38
368.862	337.38
369.089	327.38
369.315	318.38
369.541	306.38
369.767	288.38
369.993	321.38
370.219	315.38
370.445	326.38
370.672	310.38
370.898	303.38
371.124	301.38
371.35	309.38
371.576	315.38
371.802	294.38
372.028	306.38
372.254	328.38
372.48	309.38
372.706	317.38
372.932	318.38
373.158	297.38
373.384	318.38
373.61	313.38
373.835	317.38
374.061	319.38
374.287	314.38
374.513	311.38
374.739	306.38
374.965	306.38
375.191	313.38
375.416	314.38
375.642	314.38
375.868	314.38
376.094	320.38
376.319	320.38
376.545	325.38
376.771	297.38
376.997	318.38
377.222	316.38
377.448	305.38
377.674	304.38
377.899	307.38
378.125	294.38
378.35	301.38
378.576	308.38
378.802	303.38
379.027	306.38
379.253	303.38
379.478	305.38
379.704	299.38
379.929	323.38
380.155	304.38
380.38	310.38
380.606	312.38
380.831	289.38
381.057	325.38
381.282	299.38
381.507	308.38
381.733	327.38
381.958	302.38
382.184	316.38
382.409	323.38
382.634	298.38
382.86	327.38
383.085	321.38
383.31	320.38
383.535	313.38
383.761	311.38
383.986	330.38
384.211	316.38
384.436	317.38
384.662	294.38
384.887	320.38
385.112	310.38
385.337	323.38
385.562	351.38
385.787	327.38
386.013	337.38
386.238	350.38
386.463	331.38
386.688	326.38
386.913	330.38
387.138	332.38
387.363	344.38
387.588	324.38
387.813	317.38
388.038	323.38
388.263	344.38
388.488	332.38
388.713	311.38
388.938	341.38
389.163	355.38
389.387	321.38
389.612	317.38
389.837	340.38
390.062	331.38
390.287	325.38
390.512	314.38
390.736	330.38
390.961	328.38
391.186	321.38
391.411	314.38
391.636	331.38
391.86	339.38
392.085	322.38
392.31	343.38
392.534	325.38
392.759	330.38
392.984	324.38
393.208	348.38
393.433	359.38
393.658	350.38
393.882	327.38
394.107	317.38
394.331	315.38
394.556	330.38
394.78	327.38
395.005	315.38
395.229	322.38
395.454	368.38
395.678	325.38
395.903	353.38
396.127	364.38
396.352	362.38
396.576	348.38
396.801	333.38
397.025	344.38
397.249	339.38
397.474	331.38
397.698	332.38
397.922	356.38
398.147	350.38
398.371	391.38
398.595	370.38
398.82	356.38
399.044	361.38
399.268	394.38
399.492	383.38
399.717	406.38
399.941	405.38
400.165	428.38
400.389	456.38
400.613	426.38
400.837	384.38
401.062	362.38
401.286	388.38
401.51	372.38
401.734	347.38
401.958	376.38
402.182	389.38
402.406	407.38
402.63	393.38
402.854	384.38
403.078	388.38
403.302	392.38
403.526	405.38
403.75	402.38
403.974	390.38
404.198	391.38
404.422	399.38
404.645	363.38
404.869	403.38
405.093	423.38
405.317	445.38
405.541	467.38
405.765	437.38
405.988	399.38
406.212	411.38
406.436	448.38
406.66	483.38
406.883	443.38
407.107	447.38
407.331	482.38
407.555	525.38
407.778	552.38
408.002	485.38
408.226	454.38
408.449	449.38
408.673	450.38
408.896	466.38
409.12	501.38
409.344	494.38
409.567	463.38
409.791	417.38
410.014	390.38
410.238	403.38
410.461	404.38
410.685	419.38
410.908	410.38
411.132	442.38
411.355	476.38
411.578	445.38
411.802	414.38
412.025	408.38
412.249	404.38
412.472	400.38
412.695	415.38
412.919	408.38
413.142	386.38
413.365	404.38
413.589	370.38
413.812	374.38
414.035	363.38
414.258	379.38
414.482	348.38
414.705	347.38
414.928	377.38
415.151	372.38
415.374	359.38
415.597	365.38
415.821	356.38
416.044	373.38
416.267	402.38
416.49	368.38
416.713	374.38
416.936	387.38
417.159	386.38
417.382	398.38
417.605	404.38
417.828	380.38
418.051	391.38
418.274	405.38
418.497	378.38
418.72	387.38
418.943	348.38
419.166	383.38
419.389	418.38
419.611	392.38
419.834	394.38
420.057	412.38
420.28	418.38
420.503	391.38
420.726	393.38
420.948	426.38
421.171	446.38
421.394	471.38
421.617	447.38
421.839	406.38
422.062	409.38
422.285	428.38
422.507	491.38
422.73	550.38
422.953	559.38
423.175	478.38
423.398	424.38
423.621	442.38
423.843	466.38
424.066	439.38
424.288	445.38
424.511	470.38
424.733	489.38
424.956	579.38
425.178	567.38
425.401	598.38
425.623	583.38
425.846	522.38
426.068	462.38
426.291	454.38
426.513	469.38
426.735	481.38
426.958	527.38
427.18	615.38
427.402	713.38
427.625	774.38
427.847	721.38
428.069	614.38
428.292	520.38
428.514	479.38
428.736	453.38
428.958	438.38
429.181	441.38
429.403	430.38
429.625	441.38
429.847	484.38
430.069	522.38
430.292	553.38
430.514	480.38
430.736	432.38
430.958	417.38
431.18	427.38
431.402	402.38
431.624	411.38
431.846	401.38
432.068	376.38
432.29	393.38
432.512	412.38
432.734	411.38
432.956	415.38
433.178	419.38
433.4	426.38
433.622	408.38
433.844	404.38
434.066	405.38
434.287	391.38
434.509	407.38
434.731	425.38
434.953	418.38
435.175	401.38
435.397	461.38
435.618	481.38
435.84	519.38
436.062	605.38
436.284	656.38
436.505	569.38
436.727	500.38
436.949	477.38
437.17	440.38
437.392	436.38
437.614	466.38
437.835	473.38
438.057	588.38
438.278	681.38
438.5	668.38
438.721	725.38
438.943	696.38
439.165	573.38
439.386	518.38
439.608	512.38
439.829	505.38
440.05	513.38
440.272	558.38
440.493	534.38
440.715	473.38
440.936	460.38
441.158	433.38
441.379	429.38
441.6	463.38
441.822	481.38
442.043	522.38
442.264	584.38
442.486	649.38
442.707	551.38
442.928	500.38
443.149	504.38
443.371	495.38
443.592	552.38
443.813	627.38
444.034	699.38
444.255	579.38
444.476	499.38
444.698	488.38
444.919	459.38
445.14	570.38
445.361	522.38
445.582	519.38
445.803	584.38
446.024	653.38
446.245	676.38
446.466	627.38
446.687	528.38
446.908	509.38
447.129	466.38
447.35	454.38
447.571	439.38
447.792	446.38
448.013	443.38
448.234	503.38
448.455	526.38
448.675	638.38
448.896	721.38
449.117	616.38
449.338	616.38
449.559	662.38
449.779	736.38
450	616.38
450.221	490.38
450.442	461.38
450.662	465.38
450.883	447.38
451.104	471.38
451.324	467.38
451.545	427.38
451.766	420.38
451.986	409.38
452.207	402.38
452.428	422.38
452.648	394.38
452.869	413.38
453.089	404.38
453.31	446.38
453.53	415.38
453.751	403.38
453.971	416.38
454.192	457.38
454.412	425.38
454.633	396.38
454.853	397.38
455.073	400.38
455.294	431.38
455.514	482.38
455.734	465.38
455.955	402.38
456.175	392.38
456.395	338.38
456.616	378.38
456.836	369.38
457.056	363.38
457.276	357.38
457.497	381.38
457.717	383.38
457.937	362.38
458.157	368.38
458.377	394.38
458.598	410.38
458.818	480.38
459.038	568.38
459.258	549.38
459.478	466.38
459.698	427.38
459.918	404.38
460.138	395.38
460.358	398.38
460.578	390.38
460.798	388.38
461.018	390.38
461.238	388.38
461.458	386.38
461.678	392.38
461.898	409.38
462.118	376.38
462.338	391.38
462.558	396.38
462.777	396.38
462.997	407.38
463.217	394.38
463.437	389.38
463.657	402.38
463.876	392.38
464.096	432.38
464.316	391.38
464.536	447.38
464.755	404.38
464.975	433.38
465.195	510.38
465.414	595.38
465.634	534.38
465.854	459.38
466.073	415.38
466.293	416.38
466.512	392.38
466.732	397.38
466.951	402.38
467.171	392.38
467.391	407.38
467.61	400.38
467.829	411.38
468.049	383.38
468.268	402.38
468.488	382.38
468.707	393.38
468.927	392.38
469.146	371.38
469.365	378.38
469.585	377.38
469.804	386.38
470.023	402.38
470.243	407.38
470.462	399.38
470.681	424.38
470.901	430.38
471.12	428.38
471.339	422.38
471.558	399.38
471.777	374.38
471.997	378.38
472.216	403.38
472.435	414.38
472.654	380.38
472.873	401.38
473.092	384.38
473.311	388.38
473.53	384.38
473.749	410.38
473.968	448.38
474.187	529.38
474.406	566.38
474.625	468.38
474.844	404.38
475.063	411.38
475.282	408.38
475.501	388.38
475.72	433.38
475.939	419.38
476.158	408.38
476.377	390.38
476.596	394.38
476.814	430.38
477.033	430.38
477.252	442.38
477.471	427.38
477.69	414.38
477.908	425.38
478.127	430.38
478.346	425.38
478.564	448.38
478.783	450.38
479.002	454.38
479.22	430.38
479.439	480.38
479.658	502.38
479.876	468.38
480.095	487.38
480.313	511.38
480.532	490.38
480.751	471.38
480.969	496.38
481.188	494.38
481.406	514.38
481.624	503.38
481.843	487.38
482.061	494.38
482.28	476.38
482.498	468.38
482.717	462.38
482.935	491.38
483.153	465.38
483.372	482.38
483.59	485.38
483.808	463.38
484.027	453.38
484.245	463.38
484.463	476.38
484.681	494.38
484.9	471.38
485.118	484.38
485.336	483.38
485.554	475.38
485.772	499.38
485.99	497.38
486.209	502.38
486.427	496.38
486.645	533.38
486.863	559.38
487.081	530.38
487.299	524.38
487.517	520.38
487.735	519.38
487.953	520.38
488.171	534.38
488.389	519.38
488.607	507.38
488.825	515.38
489.043	515.38
489.261	543.38
489.479	541.38
489.696	518.38
489.914	528.38
490.132	533.38
490.35	549.38
490.568	548.38
490.786	552.38
491.003	538.38
491.221	558.38
491.439	567.38
491.657	575.38
491.874	585.38
492.092	622.38
492.31	585.38
492.527	599.38
492.745	602.38
492.963	617.38
493.18	611.38
493.398	618.38
493.615	614.38
493.833	592.38
494.05	649.38
494.268	609.38
494.485	611.38
494.703	619.38
494.92	627.38
495.138	631.38
495.355	612.38
495.573	615.38
495.79	646.38
496.008	615.38
496.225	621.38
496.442	632.38
496.66	629.38
496.877	631.38
497.094	630.38
497.312	626.38
497.529	658.38
497.746	630.38
497.963	645.38
498.181	673.38
498.398	678.38
498.615	667.38
498.832	695.38
499.049	642.38
499.267	650.38
499.484	704.38
499.701	689.38
499.918	707.38
500.135	714.38
500.352	727.38
500.569	735.38
500.786	735.38
501.003	729.38
501.22	732.38
501.437	742.38
501.654	722.38
501.871	767.38
502.088	736.38
