Data from 1987.PennyLincolnUp.Lamp.En5.5.200Scan.071819.P2_HRD10591_17-14-57-971.txt Node
Date: Thu Jul 18 17:14:57 EDT 2019
User: cochatt
Spectrometer: HR+D1059
Trigger mode: 1
Integration Time (sec): 1.000000E-1
Scans to average: 1
Electric dark correction enabled: true
Nonlinearity correction enabled: false
Boxcar width: 0
XAxis mode: Wavelengths
Number of Pixels in Spectrum: 2048
>>>>>Begin Spectral Data<<<<<
223.165	-16.12
223.4	-16.12
223.635	-16.12
223.869	-12.12
224.104	-17.12
224.338	-20.12
224.573	-16.12
224.808	-5.12
225.042	-7.12
225.277	-21.12
225.511	-9.12
225.746	-3.12
225.98	8.88
226.215	8.88
226.449	22.88
226.683	12.88
226.918	31.88
227.152	41.88
227.387	36.88
227.621	31.88
227.856	39.88
228.09	54.88
228.324	43.88
228.559	63.88
228.793	76.88
229.027	94.88
229.262	122.88
229.496	123.88
229.73	142.88
229.964	166.88
230.199	149.88
230.433	124.88
230.667	114.88
230.901	118.88
231.136	116.88
231.37	113.88
231.604	118.88
231.838	107.88
232.072	119.88
232.306	118.88
232.541	120.88
232.775	106.88
233.009	119.88
233.243	99.88
233.477	123.88
233.711	125.88
233.945	112.88
234.179	106.88
234.413	123.88
234.647	117.88
234.881	107.88
235.115	115.88
235.349	115.88
235.583	114.88
235.817	117.88
236.051	123.88
236.285	133.88
236.519	135.88
236.753	144.88
236.987	134.88
237.221	176.88
237.455	245.88
237.689	192.88
237.922	161.88
238.156	146.88
238.39	133.88
238.624	126.88
238.858	131.88
239.091	129.88
239.325	121.88
239.559	125.88
239.793	132.88
240.027	128.88
240.26	133.88
240.494	161.88
240.728	137.88
240.961	139.88
241.195	147.88
241.429	134.88
241.662	121.88
241.896	114.88
242.13	114.88
242.363	129.88
242.597	128.88
242.83	131.88
243.064	123.88
243.298	137.88
243.531	135.88
243.765	132.88
243.998	141.88
244.232	137.88
244.465	147.88
244.699	132.88
244.932	138.88
245.166	130.88
245.399	130.88
245.633	122.88
245.866	129.88
246.099	121.88
246.333	130.88
246.566	139.88
246.8	132.88
247.033	147.88
247.266	148.88
247.5	168.88
247.733	163.88
247.966	166.88
248.2	167.88
248.433	152.88
248.666	157.88
248.899	176.88
249.133	187.88
249.366	206.88
249.599	203.88
249.832	183.88
250.066	182.88
250.299	161.88
250.532	164.88
250.765	181.88
250.998	219.88
251.231	216.88
251.465	205.88
251.698	200.88
251.931	188.88
252.164	172.88
252.397	189.88
252.63	180.88
252.863	195.88
253.096	209.88
253.329	216.88
253.562	217.88
253.795	211.88
254.028	193.88
254.261	218.88
254.494	232.88
254.727	235.88
254.96	265.88
255.193	266.88
255.426	235.88
255.659	211.88
255.892	193.88
256.124	192.88
256.357	187.88
256.59	203.88
256.823	198.88
257.056	194.88
257.289	196.88
257.521	201.88
257.754	200.88
257.987	202.88
258.22	197.88
258.452	170.88
258.685	177.88
258.918	181.88
259.151	198.88
259.383	196.88
259.616	185.88
259.849	208.88
260.081	217.88
260.314	232.88
260.547	232.88
260.779	235.88
261.012	218.88
261.244	225.88
261.477	206.88
261.71	223.88
261.942	207.88
262.175	221.88
262.407	201.88
262.64	213.88
262.872	211.88
263.105	205.88
263.337	187.88
263.57	187.88
263.802	185.88
264.035	183.88
264.267	176.88
264.499	191.88
264.732	197.88
264.964	195.88
265.197	167.88
265.429	189.88
265.661	189.88
265.894	193.88
266.126	196.88
266.358	185.88
266.591	191.88
266.823	192.88
267.055	195.88
267.287	200.88
267.52	197.88
267.752	197.88
267.984	206.88
268.216	201.88
268.448	200.88
268.681	200.88
268.913	212.88
269.145	254.88
269.377	246.88
269.609	235.88
269.841	236.88
270.073	245.88
270.306	280.88
270.538	298.88
270.77	294.88
271.002	290.88
271.234	268.88
271.466	280.88
271.698	288.88
271.93	298.88
272.162	309.88
272.394	287.88
272.626	277.88
272.858	260.88
273.09	264.88
273.322	253.88
273.553	231.88
273.785	217.88
274.017	214.88
274.249	243.88
274.481	219.88
274.713	232.88
274.945	251.88
275.176	237.88
275.408	233.88
275.64	223.88
275.872	226.88
276.104	252.88
276.335	221.88
276.567	239.88
276.799	247.88
277.031	262.88
277.262	285.88
277.494	279.88
277.726	282.88
277.957	253.88
278.189	253.88
278.421	239.88
278.652	229.88
278.884	243.88
279.115	232.88
279.347	214.88
279.579	212.88
279.81	213.88
280.042	213.88
280.273	238.88
280.505	206.88
280.736	209.88
280.968	222.88
281.199	215.88
281.431	216.88
281.662	204.88
281.894	224.88
282.125	224.88
282.356	236.88
282.588	261.88
282.819	265.88
283.051	242.88
283.282	217.88
283.513	201.88
283.745	210.88
283.976	216.88
284.207	235.88
284.439	224.88
284.67	224.88
284.901	218.88
285.132	212.88
285.364	222.88
285.595	233.88
285.826	221.88
286.057	223.88
286.288	211.88
286.52	231.88
286.751	230.88
286.982	222.88
287.213	240.88
287.444	213.88
287.675	238.88
287.906	225.88
288.138	234.88
288.369	237.88
288.6	244.88
288.831	243.88
289.062	227.88
289.293	237.88
289.524	225.88
289.755	212.88
289.986	204.88
290.217	232.88
290.448	220.88
290.679	224.88
290.91	229.88
291.141	237.88
291.371	226.88
291.602	234.88
291.833	208.88
292.064	232.88
292.295	223.88
292.526	233.88
292.757	232.88
292.987	224.88
293.218	210.88
293.449	200.88
293.68	248.88
293.91	221.88
294.141	234.88
294.372	210.88
294.603	219.88
294.833	232.88
295.064	225.88
295.295	220.88
295.525	239.88
295.756	247.88
295.987	233.88
296.217	287.88
296.448	293.88
296.679	266.88
296.909	244.88
297.14	229.88
297.37	223.88
297.601	237.88
297.831	239.88
298.062	241.88
298.292	241.88
298.523	234.88
298.753	236.88
298.984	238.88
299.214	241.88
299.445	261.88
299.675	235.88
299.905	245.88
300.136	261.88
300.366	242.88
300.597	266.88
300.827	238.88
301.057	264.88
301.288	257.88
301.518	255.88
301.748	253.88
301.979	260.88
302.209	267.88
302.439	277.88
302.669	258.88
302.9	260.88
303.13	238.88
303.36	259.88
303.59	269.88
303.82	268.88
304.051	268.88
304.281	261.88
304.511	250.88
304.741	255.88
304.971	235.88
305.201	255.88
305.431	259.88
305.661	259.88
305.891	263.88
306.121	253.88
306.352	250.88
306.582	260.88
306.812	280.88
307.042	263.88
307.272	269.88
307.502	242.88
307.731	272.88
307.961	274.88
308.191	239.88
308.421	270.88
308.651	263.88
308.881	273.88
309.111	280.88
309.341	291.88
309.571	303.88
309.8	309.88
310.03	334.88
310.26	326.88
310.49	327.88
310.72	344.88
310.949	359.88
311.179	356.88
311.409	338.88
311.639	320.88
311.868	338.88
312.098	332.88
312.328	338.88
312.557	357.88
312.787	369.88
313.017	371.88
313.246	346.88
313.476	323.88
313.706	324.88
313.935	321.88
314.165	327.88
314.394	369.88
314.624	369.88
314.853	340.88
315.083	323.88
315.312	323.88
315.542	314.88
315.771	312.88
316.001	284.88
316.23	304.88
316.46	291.88
316.689	321.88
316.919	306.88
317.148	347.88
317.377	316.88
317.607	321.88
317.836	309.88
318.065	323.88
318.295	312.88
318.524	308.88
318.753	300.88
318.983	314.88
319.212	306.88
319.441	333.88
319.67	327.88
319.9	304.88
320.129	316.88
320.358	324.88
320.587	333.88
320.816	344.88
321.046	336.88
321.275	376.88
321.504	340.88
321.733	359.88
321.962	351.88
322.191	400.88
322.42	394.88
322.649	414.88
322.878	428.88
323.108	440.88
323.337	484.88
323.566	491.88
323.795	545.88
324.024	600.88
324.253	773.88
324.482	1117.88
324.71	1664.88
324.939	2417.88
325.168	2074.88
325.397	1159.88
325.626	752.88
325.855	577.88
326.084	543.88
326.313	498.88
326.542	502.88
326.77	562.88
326.999	684.88
327.228	955.88
327.457	1457.88
327.686	1779.88
327.914	1252.88
328.143	807.88
328.372	671.88
328.6	631.88
328.829	580.88
329.058	592.88
329.287	611.88
329.515	547.88
329.744	468.88
329.972	441.88
330.201	456.88
330.43	506.88
330.658	535.88
330.887	632.88
331.115	605.88
331.344	490.88
331.572	454.88
331.801	455.88
332.03	453.88
332.258	407.88
332.486	377.88
332.715	369.88
332.943	389.88
333.172	402.88
333.4	370.88
333.629	373.88
333.857	377.88
334.085	374.88
334.314	379.88
334.542	348.88
334.771	379.88
334.999	367.88
335.227	357.88
335.455	367.88
335.684	348.88
335.912	344.88
336.14	344.88
336.369	351.88
336.597	363.88
336.825	386.88
337.053	375.88
337.281	357.88
337.51	340.88
337.738	335.88
337.966	356.88
338.194	356.88
338.422	368.88
338.65	344.88
338.878	332.88
339.106	356.88
339.334	352.88
339.562	348.88
339.79	347.88
340.018	342.88
340.246	357.88
340.474	366.88
340.702	345.88
340.93	335.88
341.158	356.88
341.386	351.88
341.614	354.88
341.842	353.88
342.07	341.88
342.298	348.88
342.526	352.88
342.754	331.88
342.981	324.88
343.209	319.88
343.437	349.88
343.665	328.88
343.893	323.88
344.12	337.88
344.348	334.88
344.576	340.88
344.804	357.88
345.031	383.88
345.259	380.88
345.487	364.88
345.714	356.88
345.942	356.88
346.17	341.88
346.397	352.88
346.625	362.88
346.853	343.88
347.08	357.88
347.308	360.88
347.535	367.88
347.763	363.88
347.99	351.88
348.218	369.88
348.445	372.88
348.673	368.88
348.9	348.88
349.128	362.88
349.355	324.88
349.583	329.88
349.81	316.88
350.037	331.88
350.265	336.88
350.492	333.88
350.72	356.88
350.947	350.88
351.174	355.88
351.402	370.88
351.629	362.88
351.856	358.88
352.083	388.88
352.311	373.88
352.538	380.88
352.765	393.88
352.992	363.88
353.22	368.88
353.447	342.88
353.674	364.88
353.901	358.88
354.128	305.88
354.355	331.88
354.583	319.88
354.81	324.88
355.037	332.88
355.264	321.88
355.491	313.88
355.718	304.88
355.945	310.88
356.172	311.88
356.399	306.88
356.626	316.88
356.853	299.88
357.08	307.88
357.307	300.88
357.534	313.88
357.761	296.88
357.988	320.88
358.215	323.88
358.441	324.88
358.668	332.88
358.895	316.88
359.122	325.88
359.349	337.88
359.576	341.88
359.802	396.88
360.029	444.88
360.256	453.88
360.483	407.88
360.709	373.88
360.936	364.88
361.163	371.88
361.39	386.88
361.616	365.88
361.843	367.88
362.07	379.88
362.296	362.88
362.523	361.88
362.749	347.88
362.976	345.88
363.203	362.88
363.429	331.88
363.656	337.88
363.882	340.88
364.109	328.88
364.335	324.88
364.562	325.88
364.788	314.88
365.015	325.88
365.241	336.88
365.468	311.88
365.694	331.88
365.92	340.88
366.147	315.88
366.373	305.88
366.599	328.88
366.826	315.88
367.052	314.88
367.278	318.88
367.505	312.88
367.731	332.88
367.957	316.88
368.184	333.88
368.41	331.88
368.636	347.88
368.862	358.88
369.089	333.88
369.315	337.88
369.541	327.88
369.767	321.88
369.993	323.88
370.219	322.88
370.445	315.88
370.672	320.88
370.898	321.88
371.124	312.88
371.35	311.88
371.576	316.88
371.802	298.88
372.028	311.88
372.254	317.88
372.48	310.88
372.706	319.88
372.932	302.88
373.158	329.88
373.384	303.88
373.61	308.88
373.835	321.88
374.061	299.88
374.287	311.88
374.513	325.88
374.739	309.88
374.965	309.88
375.191	317.88
375.416	312.88
375.642	311.88
375.868	328.88
376.094	324.88
376.319	313.88
376.545	297.88
376.771	305.88
376.997	312.88
377.222	319.88
377.448	316.88
377.674	313.88
377.899	316.88
378.125	302.88
378.35	305.88
378.576	294.88
378.802	311.88
379.027	311.88
379.253	313.88
379.478	313.88
379.704	320.88
379.929	325.88
380.155	328.88
380.38	317.88
380.606	311.88
380.831	335.88
381.057	314.88
381.282	329.88
381.507	338.88
381.733	311.88
381.958	334.88
382.184	309.88
382.409	303.88
382.634	311.88
382.86	308.88
383.085	329.88
383.31	345.88
383.535	338.88
383.761	323.88
383.986	336.88
384.211	333.88
384.436	330.88
384.662	323.88
384.887	330.88
385.112	333.88
385.337	311.88
385.562	315.88
385.787	344.88
386.013	351.88
386.238	350.88
386.463	350.88
386.688	329.88
386.913	320.88
387.138	316.88
387.363	315.88
387.588	335.88
387.813	326.88
388.038	343.88
388.263	352.88
388.488	330.88
388.713	343.88
388.938	326.88
389.163	337.88
389.387	331.88
389.612	339.88
389.837	320.88
390.062	349.88
390.287	318.88
390.512	337.88
390.736	348.88
390.961	333.88
391.186	330.88
391.411	317.88
391.636	318.88
391.86	359.88
392.085	356.88
392.31	323.88
392.534	346.88
392.759	331.88
392.984	333.88
393.208	339.88
393.433	353.88
393.658	327.88
393.882	332.88
394.107	328.88
394.331	327.88
394.556	338.88
394.78	337.88
395.005	340.88
395.229	343.88
395.454	353.88
395.678	339.88
395.903	375.88
396.127	357.88
396.352	369.88
396.576	358.88
396.801	334.88
397.025	342.88
397.249	341.88
397.474	370.88
397.698	351.88
397.922	353.88
398.147	388.88
398.371	361.88
398.595	372.88
398.82	375.88
399.044	379.88
399.268	372.88
399.492	400.88
399.717	406.88
399.941	401.88
400.165	448.88
400.389	465.88
400.613	424.88
400.837	386.88
401.062	401.88
401.286	391.88
401.51	376.88
401.734	382.88
401.958	383.88
402.182	396.88
402.406	391.88
402.63	391.88
402.854	395.88
403.078	375.88
403.302	389.88
403.526	403.88
403.75	394.88
403.974	399.88
404.198	407.88
404.422	396.88
404.645	397.88
404.869	410.88
405.093	435.88
405.317	437.88
405.541	460.88
405.765	426.88
405.988	433.88
406.212	441.88
406.436	462.88
406.66	505.88
406.883	467.88
407.107	475.88
407.331	470.88
407.555	560.88
407.778	567.88
408.002	515.88
408.226	460.88
408.449	454.88
408.673	444.88
408.896	473.88
409.12	516.88
409.344	499.88
409.567	442.88
409.791	397.88
410.014	401.88
410.238	388.88
410.461	395.88
410.685	416.88
410.908	447.88
411.132	448.88
411.355	487.88
411.578	480.88
411.802	414.88
412.025	407.88
412.249	403.88
412.472	403.88
412.695	415.88
412.919	393.88
413.142	393.88
413.365	391.88
413.589	378.88
413.812	377.88
414.035	374.88
414.258	367.88
414.482	359.88
414.705	385.88
414.928	367.88
415.151	370.88
415.374	378.88
415.597	374.88
415.821	380.88
416.044	390.88
416.267	382.88
416.49	378.88
416.713	388.88
416.936	374.88
417.159	378.88
417.382	389.88
417.605	386.88
417.828	412.88
418.051	431.88
418.274	395.88
418.497	387.88
418.72	393.88
418.943	401.88
419.166	393.88
419.389	395.88
419.611	405.88
419.834	401.88
420.057	412.88
420.28	404.88
420.503	398.88
420.726	377.88
420.948	432.88
421.171	461.88
421.394	489.88
421.617	433.88
421.839	447.88
422.062	413.88
422.285	447.88
422.507	502.88
422.73	543.88
422.953	563.88
423.175	486.88
423.398	462.88
423.621	466.88
423.843	460.88
424.066	465.88
424.288	490.88
424.511	477.88
424.733	540.88
424.956	605.88
425.178	590.88
425.401	595.88
425.623	616.88
425.846	513.88
426.068	472.88
426.291	478.88
426.513	469.88
426.735	484.88
426.958	529.88
427.18	587.88
427.402	707.88
427.625	778.88
427.847	751.88
428.069	633.88
428.292	555.88
428.514	511.88
428.736	484.88
428.958	465.88
429.181	462.88
429.403	450.88
429.625	461.88
429.847	498.88
430.069	559.88
430.292	548.88
430.514	453.88
430.736	453.88
430.958	421.88
431.18	426.88
431.402	440.88
431.624	404.88
431.846	428.88
432.068	403.88
432.29	422.88
432.512	395.88
432.734	401.88
432.956	403.88
433.178	415.88
433.4	435.88
433.622	416.88
433.844	405.88
434.066	405.88
434.287	408.88
434.509	417.88
434.731	415.88
434.953	419.88
435.175	432.88
435.397	487.88
435.618	488.88
435.84	524.88
436.062	612.88
436.284	656.88
436.505	576.88
436.727	517.88
436.949	484.88
437.17	459.88
437.392	471.88
437.614	477.88
437.835	536.88
438.057	636.88
438.278	708.88
438.5	691.88
438.721	742.88
438.943	693.88
439.165	591.88
439.386	539.88
439.608	525.88
439.829	518.88
440.05	547.88
440.272	563.88
440.493	531.88
440.715	505.88
440.936	461.88
441.158	464.88
441.379	460.88
441.6	469.88
441.822	508.88
442.043	550.88
442.264	597.88
442.486	620.88
442.707	546.88
442.928	513.88
443.149	521.88
443.371	554.88
443.592	584.88
443.813	648.88
444.034	674.88
444.255	586.88
444.476	502.88
444.698	482.88
444.919	475.88
445.14	548.88
445.361	529.88
445.582	560.88
445.803	601.88
446.024	719.88
446.245	711.88
446.466	653.88
446.687	546.88
446.908	499.88
447.129	479.88
447.35	461.88
447.571	452.88
447.792	471.88
448.013	463.88
448.234	491.88
448.455	538.88
448.675	614.88
448.896	735.88
449.117	635.88
449.338	604.88
449.559	699.88
449.779	756.88
450	628.88
450.221	532.88
450.442	485.88
450.662	468.88
450.883	473.88
451.104	503.88
451.324	482.88
451.545	453.88
451.766	444.88
451.986	417.88
452.207	398.88
452.428	424.88
452.648	390.88
452.869	396.88
453.089	421.88
453.31	454.88
453.53	433.88
453.751	396.88
453.971	426.88
454.192	459.88
454.412	436.88
454.633	410.88
454.853	428.88
455.073	410.88
455.294	430.88
455.514	501.88
455.734	490.88
455.955	416.88
456.175	403.88
456.395	381.88
456.616	385.88
456.836	384.88
457.056	392.88
457.276	370.88
457.497	368.88
457.717	384.88
457.937	372.88
458.157	380.88
458.377	374.88
458.598	427.88
458.818	515.88
459.038	605.88
459.258	601.88
459.478	516.88
459.698	442.88
459.918	426.88
460.138	396.88
460.358	391.88
460.578	411.88
460.798	403.88
461.018	408.88
461.238	411.88
461.458	401.88
461.678	386.88
461.898	405.88
462.118	388.88
462.338	394.88
462.558	402.88
462.777	407.88
462.997	423.88
463.217	409.88
463.437	426.88
463.657	411.88
463.876	420.88
464.096	410.88
464.316	405.88
464.536	425.88
464.755	455.88
464.975	448.88
465.195	530.88
465.414	648.88
465.634	540.88
465.854	470.88
466.073	424.88
466.293	406.88
466.512	415.88
466.732	427.88
466.951	402.88
467.171	403.88
467.391	407.88
467.61	419.88
467.829	433.88
468.049	410.88
468.268	397.88
468.488	403.88
468.707	400.88
468.927	375.88
469.146	396.88
469.365	383.88
469.585	379.88
469.804	401.88
470.023	408.88
470.243	398.88
470.462	414.88
470.681	457.88
470.901	431.88
471.12	408.88
471.339	406.88
471.558	412.88
471.777	399.88
471.997	403.88
472.216	404.88
472.435	416.88
472.654	410.88
472.873	399.88
473.092	396.88
473.311	391.88
473.53	413.88
473.749	422.88
473.968	479.88
474.187	559.88
474.406	602.88
474.625	509.88
474.844	431.88
475.063	413.88
475.282	405.88
475.501	410.88
475.72	399.88
475.939	407.88
476.158	421.88
476.377	431.88
476.596	419.88
476.814	409.88
477.033	440.88
477.252	452.88
477.471	443.88
477.69	448.88
477.908	453.88
478.127	434.88
478.346	436.88
478.564	458.88
478.783	435.88
479.002	467.88
479.22	466.88
479.439	468.88
479.658	501.88
479.876	496.88
480.095	506.88
480.313	530.88
480.532	510.88
480.751	501.88
480.969	502.88
481.188	509.88
481.406	524.88
481.624	476.88
481.843	489.88
482.061	487.88
482.28	465.88
482.498	487.88
482.717	496.88
482.935	461.88
483.153	500.88
483.372	471.88
483.59	495.88
483.808	497.88
484.027	506.88
484.245	470.88
484.463	495.88
484.681	509.88
484.9	493.88
485.118	497.88
485.336	492.88
485.554	515.88
485.772	519.88
485.99	496.88
486.209	511.88
486.427	519.88
486.645	517.88
486.863	561.88
487.081	539.88
487.299	533.88
487.517	536.88
487.735	543.88
487.953	561.88
488.171	528.88
488.389	545.88
488.607	530.88
488.825	537.88
489.043	511.88
489.261	544.88
489.479	544.88
489.696	551.88
489.914	554.88
490.132	555.88
490.35	549.88
490.568	548.88
490.786	556.88
491.003	565.88
491.221	587.88
491.439	611.88
491.657	605.88
491.874	601.88
492.092	601.88
492.31	594.88
492.527	609.88
492.745	603.88
492.963	601.88
493.18	622.88
493.398	637.88
493.615	650.88
493.833	632.88
494.05	633.88
494.268	641.88
494.485	625.88
494.703	630.88
494.92	653.88
495.138	647.88
495.355	632.88
495.573	657.88
495.79	652.88
496.008	653.88
496.225	633.88
496.442	619.88
496.66	605.88
496.877	628.88
497.094	649.88
497.312	636.88
497.529	648.88
497.746	657.88
497.963	639.88
498.181	677.88
498.398	673.88
498.615	706.88
498.832	716.88
499.049	672.88
499.267	693.88
499.484	687.88
499.701	707.88
499.918	722.88
500.135	748.88
500.352	727.88
500.569	746.88
500.786	746.88
501.003	748.88
501.22	762.88
501.437	726.88
501.654	757.88
501.871	771.88
