Data from 1987.PennyLincolnUp.Lamp.En5.5.200Scan.071819.P2_HRD10591_17-14-55-983.txt Node
Date: Thu Jul 18 17:14:55 EDT 2019
User: cochatt
Spectrometer: HR+D1059
Trigger mode: 1
Integration Time (sec): 1.000000E-1
Scans to average: 1
Electric dark correction enabled: true
Nonlinearity correction enabled: false
Boxcar width: 0
XAxis mode: Wavelengths
Number of Pixels in Spectrum: 2048
>>>>>Begin Spectral Data<<<<<
223.165	-11.5
223.4	-11.5
223.635	-11.5
223.869	-9.5
224.104	-20.5
224.338	-24.5
224.573	-14.5
224.808	-17.5
225.042	1.5
225.277	4.5
225.511	5.5
225.746	-14.5
225.98	5.5
226.215	11.5
226.449	6.5
226.683	21.5
226.918	28.5
227.152	27.5
227.387	34.5
227.621	51.5
227.856	38.5
228.09	28.5
228.324	43.5
228.559	53.5
228.793	67.5
229.027	99.5
229.262	126.5
229.496	124.5
229.73	153.5
229.964	176.5
230.199	143.5
230.433	122.5
230.667	114.5
230.901	112.5
231.136	111.5
231.37	107.5
231.604	100.5
231.838	119.5
232.072	117.5
232.306	103.5
232.541	117.5
232.775	81.5
233.009	113.5
233.243	112.5
233.477	123.5
233.711	119.5
233.945	114.5
234.179	112.5
234.413	133.5
234.647	109.5
234.881	116.5
235.115	103.5
235.349	100.5
235.583	116.5
235.817	121.5
236.051	124.5
236.285	131.5
236.519	127.5
236.753	123.5
236.987	152.5
237.221	200.5
237.455	254.5
237.689	198.5
237.922	148.5
238.156	127.5
238.39	121.5
238.624	132.5
238.858	142.5
239.091	122.5
239.325	117.5
239.559	116.5
239.793	144.5
240.027	128.5
240.26	137.5
240.494	152.5
240.728	150.5
240.961	148.5
241.195	142.5
241.429	138.5
241.662	131.5
241.896	131.5
242.13	120.5
242.363	127.5
242.597	132.5
242.83	131.5
243.064	127.5
243.298	130.5
243.531	122.5
243.765	144.5
243.998	124.5
244.232	136.5
244.465	135.5
244.699	137.5
244.932	132.5
245.166	137.5
245.399	137.5
245.633	128.5
245.866	139.5
246.099	141.5
246.333	136.5
246.566	143.5
246.8	142.5
247.033	132.5
247.266	135.5
247.5	146.5
247.733	152.5
247.966	164.5
248.2	152.5
248.433	153.5
248.666	164.5
248.899	173.5
249.133	181.5
249.366	204.5
249.599	200.5
249.832	188.5
250.066	164.5
250.299	188.5
250.532	166.5
250.765	194.5
250.998	205.5
251.231	211.5
251.465	204.5
251.698	191.5
251.931	200.5
252.164	194.5
252.397	198.5
252.63	188.5
252.863	195.5
253.096	227.5
253.329	219.5
253.562	204.5
253.795	208.5
254.028	200.5
254.261	224.5
254.494	211.5
254.727	241.5
254.96	270.5
255.193	266.5
255.426	241.5
255.659	214.5
255.892	229.5
256.124	201.5
256.357	198.5
256.59	205.5
256.823	193.5
257.056	203.5
257.289	184.5
257.521	197.5
257.754	200.5
257.987	186.5
258.22	206.5
258.452	196.5
258.685	203.5
258.918	201.5
259.151	187.5
259.383	215.5
259.616	211.5
259.849	203.5
260.081	217.5
260.314	221.5
260.547	232.5
260.779	216.5
261.012	196.5
261.244	198.5
261.477	224.5
261.71	216.5
261.942	215.5
262.175	226.5
262.407	218.5
262.64	195.5
262.872	198.5
263.105	197.5
263.337	191.5
263.57	189.5
263.802	174.5
264.035	189.5
264.267	178.5
264.499	185.5
264.732	188.5
264.964	182.5
265.197	192.5
265.429	179.5
265.661	185.5
265.894	186.5
266.126	190.5
266.358	180.5
266.591	192.5
266.823	177.5
267.055	200.5
267.287	200.5
267.52	195.5
267.752	189.5
267.984	185.5
268.216	196.5
268.448	192.5
268.681	214.5
268.913	196.5
269.145	214.5
269.377	255.5
269.609	247.5
269.841	262.5
270.073	234.5
270.306	254.5
270.538	290.5
270.77	303.5
271.002	280.5
271.234	273.5
271.466	273.5
271.698	281.5
271.93	298.5
272.162	268.5
272.394	295.5
272.626	278.5
272.858	277.5
273.09	261.5
273.322	242.5
273.553	240.5
273.785	229.5
274.017	223.5
274.249	215.5
274.481	231.5
274.713	226.5
274.945	233.5
275.176	233.5
275.408	243.5
275.64	232.5
275.872	203.5
276.104	239.5
276.335	236.5
276.567	243.5
276.799	261.5
277.031	282.5
277.262	301.5
277.494	277.5
277.726	258.5
277.957	259.5
278.189	233.5
278.421	228.5
278.652	233.5
278.884	231.5
279.115	218.5
279.347	235.5
279.579	224.5
279.81	225.5
280.042	231.5
280.273	224.5
280.505	219.5
280.736	210.5
280.968	215.5
281.199	232.5
281.431	214.5
281.662	212.5
281.894	222.5
282.125	220.5
282.356	247.5
282.588	275.5
282.819	294.5
283.051	232.5
283.282	227.5
283.513	226.5
283.745	214.5
283.976	232.5
284.207	229.5
284.439	230.5
284.67	219.5
284.901	215.5
285.132	207.5
285.364	222.5
285.595	219.5
285.826	220.5
286.057	228.5
286.288	223.5
286.52	233.5
286.751	232.5
286.982	225.5
287.213	219.5
287.444	229.5
287.675	225.5
287.906	216.5
288.138	266.5
288.369	265.5
288.6	243.5
288.831	236.5
289.062	237.5
289.293	237.5
289.524	235.5
289.755	225.5
289.986	227.5
290.217	214.5
290.448	225.5
290.679	229.5
290.91	229.5
291.141	220.5
291.371	217.5
291.602	213.5
291.833	215.5
292.064	223.5
292.295	225.5
292.526	220.5
292.757	241.5
292.987	219.5
293.218	217.5
293.449	229.5
293.68	228.5
293.91	236.5
294.141	214.5
294.372	212.5
294.603	231.5
294.833	231.5
295.064	229.5
295.295	236.5
295.525	219.5
295.756	220.5
295.987	255.5
296.217	287.5
296.448	288.5
296.679	267.5
296.909	241.5
297.14	227.5
297.37	243.5
297.601	245.5
297.831	236.5
298.062	243.5
298.292	247.5
298.523	255.5
298.753	235.5
298.984	229.5
299.214	239.5
299.445	231.5
299.675	266.5
299.905	248.5
300.136	237.5
300.366	246.5
300.597	246.5
300.827	229.5
301.057	248.5
301.288	277.5
301.518	261.5
301.748	250.5
301.979	248.5
302.209	275.5
302.439	259.5
302.669	276.5
302.9	261.5
303.13	263.5
303.36	258.5
303.59	270.5
303.82	265.5
304.051	259.5
304.281	263.5
304.511	252.5
304.741	254.5
304.971	249.5
305.201	260.5
305.431	248.5
305.661	258.5
305.891	270.5
306.121	265.5
306.352	269.5
306.582	288.5
306.812	279.5
307.042	271.5
307.272	253.5
307.502	277.5
307.731	275.5
307.961	264.5
308.191	275.5
308.421	263.5
308.651	274.5
308.881	271.5
309.111	276.5
309.341	279.5
309.571	313.5
309.8	324.5
310.03	324.5
310.26	332.5
310.49	323.5
310.72	337.5
310.949	343.5
311.179	349.5
311.409	332.5
311.639	329.5
311.868	333.5
312.098	329.5
312.328	328.5
312.557	338.5
312.787	374.5
313.017	373.5
313.246	328.5
313.476	335.5
313.706	318.5
313.935	346.5
314.165	347.5
314.394	359.5
314.624	345.5
314.853	337.5
315.083	319.5
315.312	314.5
315.542	326.5
315.771	306.5
316.001	301.5
316.23	298.5
316.46	308.5
316.689	309.5
316.919	338.5
317.148	326.5
317.377	319.5
317.607	326.5
317.836	320.5
318.065	293.5
318.295	297.5
318.524	314.5
318.753	293.5
318.983	313.5
319.212	316.5
319.441	317.5
319.67	333.5
319.9	342.5
320.129	316.5
320.358	316.5
320.587	328.5
320.816	331.5
321.046	359.5
321.275	346.5
321.504	344.5
321.733	347.5
321.962	352.5
322.191	372.5
322.42	408.5
322.649	419.5
322.878	438.5
323.108	443.5
323.337	467.5
323.566	529.5
323.795	551.5
324.024	630.5
324.253	793.5
324.482	1141.5
324.71	1734.5
324.939	2428.5
325.168	2120.5
325.397	1170.5
325.626	771.5
325.855	592.5
326.084	548.5
326.313	498.5
326.542	540.5
326.77	584.5
326.999	662.5
327.228	959.5
327.457	1509.5
327.686	1827.5
327.914	1226.5
328.143	817.5
328.372	671.5
328.6	604.5
328.829	603.5
329.058	579.5
329.287	601.5
329.515	550.5
329.744	481.5
329.972	471.5
330.201	481.5
330.43	495.5
330.658	564.5
330.887	640.5
331.115	628.5
331.344	512.5
331.572	440.5
331.801	433.5
332.03	448.5
332.258	415.5
332.486	372.5
332.715	383.5
332.943	375.5
333.172	375.5
333.4	372.5
333.629	368.5
333.857	409.5
334.085	379.5
334.314	373.5
334.542	371.5
334.771	398.5
334.999	379.5
335.227	364.5
335.455	369.5
335.684	361.5
335.912	355.5
336.14	382.5
336.369	363.5
336.597	354.5
336.825	363.5
337.053	348.5
337.281	356.5
337.51	362.5
337.738	361.5
337.966	370.5
338.194	373.5
338.422	362.5
338.65	351.5
338.878	346.5
339.106	345.5
339.334	361.5
339.562	342.5
339.79	363.5
340.018	355.5
340.246	348.5
340.474	341.5
340.702	339.5
340.93	355.5
341.158	357.5
341.386	344.5
341.614	359.5
341.842	350.5
342.07	345.5
342.298	341.5
342.526	323.5
342.754	327.5
342.981	332.5
343.209	348.5
343.437	349.5
343.665	331.5
343.893	326.5
344.12	359.5
344.348	333.5
344.576	335.5
344.804	346.5
345.031	370.5
345.259	375.5
345.487	377.5
345.714	370.5
345.942	352.5
346.17	348.5
346.397	347.5
346.625	341.5
346.853	352.5
347.08	343.5
347.308	348.5
347.535	371.5
347.763	388.5
347.99	383.5
348.218	362.5
348.445	371.5
348.673	386.5
348.9	385.5
349.128	361.5
349.355	323.5
349.583	340.5
349.81	330.5
350.037	321.5
350.265	334.5
350.492	317.5
350.72	345.5
350.947	358.5
351.174	381.5
351.402	381.5
351.629	387.5
351.856	383.5
352.083	380.5
352.311	370.5
352.538	394.5
352.765	388.5
352.992	388.5
353.22	362.5
353.447	364.5
353.674	353.5
353.901	342.5
354.128	299.5
354.355	329.5
354.583	331.5
354.81	329.5
355.037	313.5
355.264	325.5
355.491	311.5
355.718	319.5
355.945	303.5
356.172	309.5
356.399	304.5
356.626	328.5
356.853	311.5
357.08	307.5
357.307	337.5
357.534	315.5
357.761	319.5
357.988	314.5
358.215	309.5
358.441	320.5
358.668	331.5
358.895	321.5
359.122	335.5
359.349	358.5
359.576	355.5
359.802	401.5
360.029	422.5
360.256	445.5
360.483	415.5
360.709	375.5
360.936	352.5
361.163	355.5
361.39	346.5
361.616	360.5
361.843	363.5
362.07	370.5
362.296	364.5
362.523	369.5
362.749	359.5
362.976	351.5
363.203	351.5
363.429	332.5
363.656	340.5
363.882	324.5
364.109	334.5
364.335	343.5
364.562	344.5
364.788	322.5
365.015	325.5
365.241	341.5
365.468	320.5
365.694	355.5
365.92	345.5
366.147	355.5
366.373	333.5
366.599	324.5
366.826	321.5
367.052	326.5
367.278	316.5
367.505	333.5
367.731	337.5
367.957	325.5
368.184	340.5
368.41	328.5
368.636	349.5
368.862	346.5
369.089	345.5
369.315	323.5
369.541	342.5
369.767	337.5
369.993	316.5
370.219	314.5
370.445	320.5
370.672	316.5
370.898	319.5
371.124	317.5
371.35	318.5
371.576	327.5
371.802	308.5
372.028	309.5
372.254	325.5
372.48	305.5
372.706	305.5
372.932	323.5
373.158	324.5
373.384	320.5
373.61	327.5
373.835	307.5
374.061	312.5
374.287	325.5
374.513	324.5
374.739	346.5
374.965	329.5
375.191	299.5
375.416	333.5
375.642	328.5
375.868	313.5
376.094	333.5
376.319	308.5
376.545	316.5
376.771	306.5
376.997	323.5
377.222	325.5
377.448	319.5
377.674	328.5
377.899	309.5
378.125	318.5
378.35	308.5
378.576	307.5
378.802	287.5
379.027	315.5
379.253	306.5
379.478	308.5
379.704	315.5
379.929	333.5
380.155	323.5
380.38	315.5
380.606	324.5
380.831	320.5
381.057	312.5
381.282	314.5
381.507	316.5
381.733	300.5
381.958	319.5
382.184	323.5
382.409	333.5
382.634	311.5
382.86	328.5
383.085	316.5
383.31	317.5
383.535	320.5
383.761	330.5
383.986	328.5
384.211	338.5
384.436	335.5
384.662	329.5
384.887	354.5
385.112	324.5
385.337	342.5
385.562	331.5
385.787	335.5
386.013	364.5
386.238	364.5
386.463	350.5
386.688	332.5
386.913	338.5
387.138	303.5
387.363	340.5
387.588	329.5
387.813	341.5
388.038	338.5
388.263	337.5
388.488	327.5
388.713	315.5
388.938	321.5
389.163	342.5
389.387	333.5
389.612	332.5
389.837	332.5
390.062	324.5
390.287	338.5
390.512	337.5
390.736	332.5
390.961	338.5
391.186	326.5
391.411	321.5
391.636	322.5
391.86	333.5
392.085	354.5
392.31	333.5
392.534	356.5
392.759	338.5
392.984	341.5
393.208	330.5
393.433	362.5
393.658	354.5
393.882	319.5
394.107	322.5
394.331	336.5
394.556	339.5
394.78	320.5
395.005	340.5
395.229	352.5
395.454	315.5
395.678	368.5
395.903	364.5
396.127	383.5
396.352	399.5
396.576	354.5
396.801	349.5
397.025	329.5
397.249	336.5
397.474	355.5
397.698	373.5
397.922	359.5
398.147	387.5
398.371	403.5
398.595	368.5
398.82	371.5
399.044	395.5
399.268	378.5
399.492	391.5
399.717	422.5
399.941	426.5
400.165	449.5
400.389	492.5
400.613	436.5
400.837	416.5
401.062	397.5
401.286	401.5
401.51	371.5
401.734	386.5
401.958	389.5
402.182	414.5
402.406	396.5
402.63	398.5
402.854	397.5
403.078	386.5
403.302	385.5
403.526	428.5
403.75	411.5
403.974	399.5
404.198	401.5
404.422	422.5
404.645	423.5
404.869	387.5
405.093	422.5
405.317	438.5
405.541	456.5
405.765	420.5
405.988	423.5
406.212	451.5
406.436	467.5
406.66	483.5
406.883	428.5
407.107	454.5
407.331	488.5
407.555	534.5
407.778	547.5
408.002	506.5
408.226	458.5
408.449	489.5
408.673	464.5
408.896	473.5
409.12	532.5
409.344	499.5
409.567	433.5
409.791	407.5
410.014	405.5
410.238	421.5
410.461	408.5
410.685	410.5
410.908	433.5
411.132	481.5
411.355	504.5
411.578	469.5
411.802	427.5
412.025	391.5
412.249	418.5
412.472	421.5
412.695	413.5
412.919	412.5
413.142	424.5
413.365	428.5
413.589	392.5
413.812	371.5
414.035	367.5
414.258	361.5
414.482	389.5
414.705	370.5
414.928	388.5
415.151	377.5
415.374	358.5
415.597	373.5
415.821	367.5
416.044	383.5
416.267	397.5
416.49	401.5
416.713	371.5
416.936	408.5
417.159	392.5
417.382	413.5
417.605	399.5
417.828	407.5
418.051	419.5
418.274	401.5
418.497	401.5
418.72	410.5
418.943	380.5
419.166	406.5
419.389	409.5
419.611	403.5
419.834	409.5
420.057	418.5
420.28	424.5
420.503	407.5
420.726	401.5
420.948	438.5
421.171	474.5
421.394	493.5
421.617	453.5
421.839	432.5
422.062	411.5
422.285	454.5
422.507	517.5
422.73	568.5
422.953	568.5
423.175	476.5
423.398	441.5
423.621	447.5
423.843	462.5
424.066	478.5
424.288	445.5
424.511	468.5
424.733	546.5
424.956	607.5
425.178	608.5
425.401	604.5
425.623	605.5
425.846	524.5
426.068	483.5
426.291	487.5
426.513	489.5
426.735	489.5
426.958	533.5
427.18	607.5
427.402	724.5
427.625	794.5
427.847	752.5
428.069	643.5
428.292	557.5
428.514	507.5
428.736	490.5
428.958	457.5
429.181	460.5
429.403	427.5
429.625	462.5
429.847	492.5
430.069	568.5
430.292	575.5
430.514	491.5
430.736	448.5
430.958	451.5
431.18	428.5
431.402	408.5
431.624	412.5
431.846	394.5
432.068	421.5
432.29	407.5
432.512	431.5
432.734	422.5
432.956	433.5
433.178	430.5
433.4	420.5
433.622	444.5
433.844	408.5
434.066	413.5
434.287	409.5
434.509	404.5
434.731	426.5
434.953	424.5
435.175	431.5
435.397	475.5
435.618	489.5
435.84	545.5
436.062	621.5
436.284	671.5
436.505	567.5
436.727	515.5
436.949	475.5
437.17	451.5
437.392	488.5
437.614	506.5
437.835	505.5
438.057	634.5
438.278	715.5
438.5	725.5
438.721	752.5
438.943	734.5
439.165	575.5
439.386	538.5
439.608	532.5
439.829	533.5
440.05	528.5
440.272	570.5
440.493	577.5
440.715	523.5
440.936	466.5
441.158	479.5
441.379	468.5
441.6	471.5
441.822	491.5
442.043	558.5
442.264	630.5
442.486	661.5
442.707	567.5
442.928	526.5
443.149	529.5
443.371	540.5
443.592	579.5
443.813	639.5
444.034	713.5
444.255	595.5
444.476	530.5
444.698	506.5
444.919	476.5
445.14	596.5
445.361	551.5
445.582	535.5
445.803	591.5
446.024	691.5
446.245	702.5
446.466	650.5
446.687	561.5
446.908	505.5
447.129	486.5
447.35	483.5
447.571	453.5
447.792	480.5
448.013	471.5
448.234	480.5
448.455	549.5
448.675	640.5
448.896	722.5
449.117	618.5
449.338	601.5
449.559	697.5
449.779	775.5
450	641.5
450.221	553.5
450.442	499.5
450.662	491.5
450.883	488.5
451.104	520.5
451.324	491.5
451.545	459.5
451.766	464.5
451.986	435.5
452.207	422.5
452.428	417.5
452.648	422.5
452.869	412.5
453.089	442.5
453.31	435.5
453.53	419.5
453.751	415.5
453.971	437.5
454.192	468.5
454.412	447.5
454.633	429.5
454.853	417.5
455.073	419.5
455.294	439.5
455.514	503.5
455.734	479.5
455.955	437.5
456.175	402.5
456.395	379.5
456.616	397.5
456.836	383.5
457.056	375.5
457.276	389.5
457.497	379.5
457.717	388.5
457.937	391.5
458.157	372.5
458.377	415.5
458.598	442.5
458.818	489.5
459.038	597.5
459.258	619.5
459.478	477.5
459.698	449.5
459.918	437.5
460.138	416.5
460.358	407.5
460.578	417.5
460.798	421.5
461.018	414.5
461.238	402.5
461.458	417.5
461.678	381.5
461.898	426.5
462.118	408.5
462.338	409.5
462.558	409.5
462.777	417.5
462.997	414.5
463.217	417.5
463.437	423.5
463.657	416.5
463.876	403.5
464.096	419.5
464.316	424.5
464.536	424.5
464.755	421.5
464.975	437.5
465.195	519.5
465.414	669.5
465.634	540.5
465.854	477.5
466.073	461.5
466.293	428.5
466.512	420.5
466.732	384.5
466.951	409.5
467.171	414.5
467.391	411.5
467.61	414.5
467.829	431.5
468.049	421.5
468.268	405.5
468.488	404.5
468.707	391.5
468.927	379.5
469.146	382.5
469.365	423.5
469.585	376.5
469.804	411.5
470.023	429.5
470.243	416.5
470.462	436.5
470.681	461.5
470.901	457.5
471.12	432.5
471.339	421.5
471.558	421.5
471.777	409.5
471.997	403.5
472.216	403.5
472.435	391.5
472.654	414.5
472.873	420.5
473.092	412.5
473.311	392.5
473.53	424.5
473.749	440.5
473.968	474.5
474.187	606.5
474.406	596.5
474.625	503.5
474.844	426.5
475.063	430.5
475.282	406.5
475.501	437.5
475.72	461.5
475.939	418.5
476.158	447.5
476.377	441.5
476.596	435.5
476.814	413.5
477.033	439.5
477.252	451.5
477.471	414.5
477.69	453.5
477.908	450.5
478.127	443.5
478.346	450.5
478.564	449.5
478.783	459.5
479.002	435.5
479.22	458.5
479.439	469.5
479.658	517.5
479.876	523.5
480.095	503.5
480.313	541.5
480.532	520.5
480.751	518.5
480.969	495.5
481.188	525.5
481.406	514.5
481.624	497.5
481.843	501.5
482.061	489.5
482.28	484.5
482.498	482.5
482.717	496.5
482.935	502.5
483.153	480.5
483.372	488.5
483.59	471.5
483.808	490.5
484.027	496.5
484.245	484.5
484.463	490.5
484.681	512.5
484.9	483.5
485.118	505.5
485.336	505.5
485.554	508.5
485.772	502.5
485.99	498.5
486.209	512.5
486.427	523.5
486.645	522.5
486.863	570.5
487.081	556.5
487.299	546.5
487.517	533.5
487.735	549.5
487.953	543.5
488.171	511.5
488.389	541.5
488.607	547.5
488.825	549.5
489.043	539.5
489.261	569.5
489.479	563.5
489.696	565.5
489.914	566.5
490.132	563.5
490.35	564.5
490.568	554.5
490.786	576.5
491.003	575.5
491.221	596.5
491.439	571.5
491.657	615.5
491.874	618.5
492.092	610.5
492.31	617.5
492.527	601.5
492.745	625.5
492.963	607.5
493.18	601.5
493.398	613.5
493.615	627.5
493.833	604.5
494.05	619.5
494.268	628.5
494.485	652.5
494.703	644.5
494.92	647.5
495.138	645.5
495.355	635.5
495.573	661.5
495.79	648.5
496.008	653.5
496.225	643.5
496.442	646.5
496.66	668.5
496.877	635.5
497.094	657.5
497.312	654.5
497.529	668.5
497.746	683.5
497.963	656.5
498.181	707.5
498.398	700.5
498.615	710.5
498.832	714.5
499.049	700.5
499.267	706.5
499.484	712.5
499.701	728.5
499.918	730.5
500.135	777.5
500.352	743.5
500.569	749.5
500.786	724.5
501.003	755.5
501.22	752.5
501.437	772.5
501.654	773.5
501.871	771.5
502.088	782.5
502.305	748.5
502.522	708.5
502.739	702.5
502.956	696.5
503.172	691.5
503.389	701.5
503.606	667.5
503.823	710.5
504.04	697.5
504.256	681.5
504.473	654.5
504.69	661.5
504.907	637.5
505.123	625.5
505.34	641.5
505.557	644.5
505.773	634.5
505.99	651.5
506.207	645.5
506.423	635.5
506.64	647.5
506.856	625.5
507.073	617.5
507.289	643.5
507.506	647.5
507.722	650.5
507.939	690.5
508.155	679.5
508.372	646.5
508.588	614.5
508.805	611.5
509.021	614.5
509.238	632.5
509.454	657.5
509.67	632.5
509.887	647.5
510.103	639.5
510.319	666.5
510.536	803.5
510.752	1436.5
510.968	1209.5
511.184	717.5
511.401	667.5
511.617	623.5
511.833	616.5
512.049	601.5
512.265	619.5
512.481	612.5
512.698	582.5
512.914	592.5
513.13	616.5
513.346	616.5
513.562	605.5
513.778	593.5
513.994	635.5
514.21	677.5
514.426	698.5
514.642	769.5
514.858	801.5
515.074	883.5
515.29	1077.5
515.506	1691.5
515.721	1323.5
515.937	817.5
516.153	723.5
516.369	677.5
516.585	663.5
516.801	641.5
517.016	635.5
517.232	617.5
517.448	612.5
517.664	618.5
517.879	613.5
518.095	611.5
518.311	598.5
518.527	628.5
518.742	608.5
518.958	617.5
519.173	613.5
519.389	604.5
519.605	590.5
519.82	631.5
