Data from 1987.PennyLincolnUp.Lamp.En5.5.200Scan.071819.P2_HRD10591_17-16-32-971.txt Node
Date: Thu Jul 18 17:16:32 EDT 2019
User: cochatt
Spectrometer: HR+D1059
Trigger mode: 1
Integration Time (sec): 1.000000E-1
Scans to average: 1
Electric dark correction enabled: true
Nonlinearity correction enabled: false
Boxcar width: 0
XAxis mode: Wavelengths
Number of Pixels in Spectrum: 2048
>>>>>Begin Spectral Data<<<<<
223.165	-19.5
223.4	-19.5
223.635	-19.5
223.869	-9.5
224.104	-14.5
224.338	-12.5
224.573	-14.5
224.808	1.5
225.042	-15.5
225.277	-3.5
225.511	-9.5
225.746	9.5
225.98	4.5
226.215	-0.5
226.449	17.5
226.683	24.5
226.918	20.5
227.152	21.5
227.387	26.5
227.621	27.5
227.856	43.5
228.09	60.5
228.324	39.5
228.559	56.5
228.793	67.5
229.027	103.5
229.262	107.5
229.496	127.5
229.73	148.5
229.964	170.5
230.199	148.5
230.433	126.5
230.667	119.5
230.901	114.5
231.136	123.5
231.37	123.5
231.604	105.5
231.838	114.5
232.072	98.5
232.306	110.5
232.541	119.5
232.775	105.5
233.009	107.5
233.243	103.5
233.477	113.5
233.711	105.5
233.945	128.5
234.179	120.5
234.413	134.5
234.647	117.5
234.881	118.5
235.115	121.5
235.349	110.5
235.583	121.5
235.817	118.5
236.051	122.5
236.285	143.5
236.519	136.5
236.753	139.5
236.987	162.5
237.221	197.5
237.455	259.5
237.689	186.5
237.922	162.5
238.156	139.5
238.39	116.5
238.624	130.5
238.858	133.5
239.091	119.5
239.325	122.5
239.559	120.5
239.793	129.5
240.027	140.5
240.26	157.5
240.494	169.5
240.728	162.5
240.961	137.5
241.195	158.5
241.429	147.5
241.662	139.5
241.896	123.5
242.13	119.5
242.363	136.5
242.597	136.5
242.83	143.5
243.064	127.5
243.298	132.5
243.531	134.5
243.765	132.5
243.998	129.5
244.232	122.5
244.465	126.5
244.699	129.5
244.932	135.5
245.166	122.5
245.399	129.5
245.633	159.5
245.866	141.5
246.099	133.5
246.333	141.5
246.566	143.5
246.8	144.5
247.033	135.5
247.266	147.5
247.5	157.5
247.733	166.5
247.966	171.5
248.2	168.5
248.433	161.5
248.666	155.5
248.899	184.5
249.133	195.5
249.366	216.5
249.599	208.5
249.832	192.5
250.066	186.5
250.299	178.5
250.532	192.5
250.765	196.5
250.998	216.5
251.231	214.5
251.465	204.5
251.698	210.5
251.931	203.5
252.164	202.5
252.397	204.5
252.63	195.5
252.863	205.5
253.096	214.5
253.329	227.5
253.562	234.5
253.795	222.5
254.028	223.5
254.261	205.5
254.494	216.5
254.727	245.5
254.96	279.5
255.193	273.5
255.426	270.5
255.659	233.5
255.892	215.5
256.124	214.5
256.357	207.5
256.59	215.5
256.823	207.5
257.056	217.5
257.289	202.5
257.521	200.5
257.754	180.5
257.987	215.5
258.22	195.5
258.452	202.5
258.685	216.5
258.918	195.5
259.151	200.5
259.383	198.5
259.616	210.5
259.849	222.5
260.081	214.5
260.314	240.5
260.547	235.5
260.779	242.5
261.012	228.5
261.244	236.5
261.477	219.5
261.71	214.5
261.942	218.5
262.175	262.5
262.407	230.5
262.64	203.5
262.872	193.5
263.105	195.5
263.337	189.5
263.57	191.5
263.802	203.5
264.035	197.5
264.267	188.5
264.499	178.5
264.732	200.5
264.964	187.5
265.197	194.5
265.429	196.5
265.661	183.5
265.894	196.5
266.126	195.5
266.358	203.5
266.591	196.5
266.823	221.5
267.055	204.5
267.287	206.5
267.52	193.5
267.752	212.5
267.984	214.5
268.216	194.5
268.448	209.5
268.681	217.5
268.913	225.5
269.145	252.5
269.377	258.5
269.609	268.5
269.841	246.5
270.073	250.5
270.306	273.5
270.538	307.5
270.77	320.5
271.002	290.5
271.234	285.5
271.466	285.5
271.698	313.5
271.93	305.5
272.162	301.5
272.394	294.5
272.626	294.5
272.858	287.5
273.09	270.5
273.322	240.5
273.553	238.5
273.785	238.5
274.017	231.5
274.249	234.5
274.481	246.5
274.713	238.5
274.945	241.5
275.176	240.5
275.408	234.5
275.64	232.5
275.872	238.5
276.104	230.5
276.335	235.5
276.567	265.5
276.799	260.5
277.031	289.5
277.262	308.5
277.494	294.5
277.726	278.5
277.957	259.5
278.189	257.5
278.421	242.5
278.652	240.5
278.884	248.5
279.115	212.5
279.347	244.5
279.579	246.5
279.81	225.5
280.042	231.5
280.273	224.5
280.505	217.5
280.736	222.5
280.968	219.5
281.199	210.5
281.431	216.5
281.662	231.5
281.894	227.5
282.125	227.5
282.356	256.5
282.588	283.5
282.819	293.5
283.051	256.5
283.282	239.5
283.513	233.5
283.745	214.5
283.976	215.5
284.207	242.5
284.439	236.5
284.67	240.5
284.901	233.5
285.132	238.5
285.364	222.5
285.595	225.5
285.826	216.5
286.057	232.5
286.288	209.5
286.52	232.5
286.751	227.5
286.982	242.5
287.213	242.5
287.444	229.5
287.675	219.5
287.906	231.5
288.138	268.5
288.369	253.5
288.6	252.5
288.831	265.5
289.062	253.5
289.293	238.5
289.524	226.5
289.755	217.5
289.986	234.5
290.217	249.5
290.448	242.5
290.679	250.5
290.91	245.5
291.141	225.5
291.371	231.5
291.602	222.5
291.833	215.5
292.064	236.5
292.295	248.5
292.526	246.5
292.757	247.5
292.987	235.5
293.218	227.5
293.449	234.5
293.68	237.5
293.91	223.5
294.141	255.5
294.372	240.5
294.603	233.5
294.833	246.5
295.064	210.5
295.295	236.5
295.525	241.5
295.756	244.5
295.987	246.5
296.217	294.5
296.448	302.5
296.679	256.5
296.909	232.5
297.14	242.5
297.37	240.5
297.601	243.5
297.831	239.5
298.062	230.5
298.292	242.5
298.523	236.5
298.753	242.5
298.984	225.5
299.214	255.5
299.445	247.5
299.675	242.5
299.905	263.5
300.136	249.5
300.366	249.5
300.597	258.5
300.827	263.5
301.057	268.5
301.288	266.5
301.518	266.5
301.748	260.5
301.979	267.5
302.209	265.5
302.439	266.5
302.669	271.5
302.9	255.5
303.13	250.5
303.36	263.5
303.59	266.5
303.82	279.5
304.051	280.5
304.281	262.5
304.511	257.5
304.741	260.5
304.971	250.5
305.201	267.5
305.431	251.5
305.661	263.5
305.891	257.5
306.121	267.5
306.352	285.5
306.582	299.5
306.812	282.5
307.042	249.5
307.272	272.5
307.502	262.5
307.731	281.5
307.961	281.5
308.191	274.5
308.421	268.5
308.651	278.5
308.881	269.5
309.111	270.5
309.341	298.5
309.571	297.5
309.8	324.5
310.03	339.5
310.26	331.5
310.49	355.5
310.72	323.5
310.949	374.5
311.179	395.5
311.409	336.5
311.639	343.5
311.868	360.5
312.098	352.5
312.328	339.5
312.557	367.5
312.787	396.5
313.017	369.5
313.246	372.5
313.476	337.5
313.706	326.5
313.935	321.5
314.165	378.5
314.394	382.5
314.624	368.5
314.853	355.5
315.083	342.5
315.312	314.5
315.542	323.5
315.771	317.5
316.001	314.5
316.23	312.5
316.46	322.5
316.689	315.5
316.919	337.5
317.148	346.5
317.377	344.5
317.607	341.5
317.836	346.5
318.065	321.5
318.295	329.5
318.524	314.5
318.753	311.5
318.983	309.5
319.212	327.5
319.441	345.5
319.67	339.5
319.9	335.5
320.129	308.5
320.358	325.5
320.587	344.5
320.816	360.5
321.046	373.5
321.275	372.5
321.504	362.5
321.733	361.5
321.962	381.5
322.191	394.5
322.42	426.5
322.649	440.5
322.878	466.5
323.108	469.5
323.337	506.5
323.566	538.5
323.795	588.5
324.024	658.5
324.253	858.5
324.482	1244.5
324.71	1908.5
324.939	2622.5
325.168	2262.5
325.397	1291.5
325.626	823.5
325.855	650.5
326.084	561.5
326.313	549.5
326.542	540.5
326.77	609.5
326.999	759.5
327.228	1074.5
327.457	1638.5
327.686	2020.5
327.914	1383.5
328.143	879.5
328.372	754.5
328.6	692.5
328.829	644.5
329.058	671.5
329.287	684.5
329.515	618.5
329.744	549.5
329.972	503.5
330.201	502.5
330.43	550.5
330.658	618.5
330.887	701.5
331.115	678.5
331.344	532.5
331.572	507.5
331.801	473.5
332.03	472.5
332.258	441.5
332.486	420.5
332.715	393.5
332.943	391.5
333.172	390.5
333.4	378.5
333.629	371.5
333.857	378.5
334.085	400.5
334.314	384.5
334.542	385.5
334.771	389.5
334.999	402.5
335.227	381.5
335.455	397.5
335.684	384.5
335.912	362.5
336.14	380.5
336.369	350.5
336.597	373.5
336.825	394.5
337.053	369.5
337.281	391.5
337.51	363.5
337.738	360.5
337.966	357.5
338.194	377.5
338.422	371.5
338.65	375.5
338.878	358.5
339.106	376.5
339.334	356.5
339.562	370.5
339.79	350.5
340.018	352.5
340.246	379.5
340.474	378.5
340.702	389.5
340.93	364.5
341.158	360.5
341.386	382.5
341.614	378.5
341.842	384.5
342.07	379.5
342.298	360.5
342.526	354.5
342.754	365.5
342.981	354.5
343.209	347.5
343.437	339.5
343.665	343.5
343.893	358.5
344.12	367.5
344.348	360.5
344.576	375.5
344.804	384.5
345.031	349.5
345.259	404.5
345.487	406.5
345.714	383.5
345.942	371.5
346.17	381.5
346.397	367.5
346.625	363.5
346.853	359.5
347.08	369.5
347.308	362.5
347.535	388.5
347.763	400.5
347.99	388.5
348.218	391.5
348.445	411.5
348.673	400.5
348.9	380.5
349.128	360.5
349.355	328.5
349.583	332.5
349.81	362.5
350.037	345.5
350.265	343.5
350.492	352.5
350.72	347.5
350.947	348.5
351.174	372.5
351.402	386.5
351.629	387.5
351.856	393.5
352.083	415.5
352.311	419.5
352.538	396.5
352.765	418.5
352.992	388.5
353.22	387.5
353.447	381.5
353.674	351.5
353.901	347.5
354.128	330.5
354.355	333.5
354.583	326.5
354.81	343.5
355.037	304.5
355.264	319.5
355.491	303.5
355.718	306.5
355.945	308.5
356.172	311.5
356.399	303.5
356.626	327.5
356.853	309.5
357.08	308.5
357.307	320.5
357.534	318.5
357.761	331.5
357.988	322.5
358.215	328.5
358.441	337.5
358.668	330.5
358.895	354.5
359.122	330.5
359.349	358.5
359.576	389.5
359.802	420.5
360.029	477.5
360.256	472.5
360.483	462.5
360.709	401.5
360.936	388.5
361.163	368.5
361.39	378.5
361.616	376.5
361.843	373.5
362.07	368.5
362.296	382.5
362.523	367.5
362.749	359.5
362.976	363.5
363.203	360.5
363.429	337.5
363.656	344.5
363.882	351.5
364.109	347.5
364.335	362.5
364.562	347.5
364.788	355.5
365.015	335.5
365.241	344.5
365.468	366.5
365.694	359.5
365.92	350.5
366.147	345.5
366.373	339.5
366.599	344.5
366.826	330.5
367.052	312.5
367.278	341.5
367.505	353.5
367.731	340.5
367.957	350.5
368.184	358.5
368.41	346.5
368.636	351.5
368.862	353.5
369.089	338.5
369.315	334.5
369.541	337.5
369.767	340.5
369.993	314.5
370.219	331.5
370.445	351.5
370.672	311.5
370.898	316.5
371.124	323.5
371.35	326.5
371.576	325.5
371.802	321.5
372.028	313.5
372.254	310.5
372.48	317.5
372.706	309.5
372.932	325.5
373.158	324.5
373.384	339.5
373.61	317.5
373.835	320.5
374.061	338.5
374.287	319.5
374.513	319.5
374.739	338.5
374.965	321.5
375.191	311.5
375.416	304.5
375.642	316.5
375.868	336.5
376.094	315.5
376.319	319.5
376.545	325.5
376.771	330.5
376.997	298.5
377.222	318.5
377.448	324.5
377.674	314.5
377.899	317.5
378.125	311.5
378.35	303.5
378.576	314.5
378.802	311.5
379.027	318.5
379.253	308.5
379.478	307.5
379.704	320.5
379.929	333.5
380.155	326.5
380.38	338.5
380.606	326.5
380.831	345.5
381.057	330.5
381.282	316.5
381.507	333.5
381.733	339.5
381.958	307.5
382.184	338.5
382.409	344.5
382.634	326.5
382.86	329.5
383.085	334.5
383.31	317.5
383.535	341.5
383.761	340.5
383.986	296.5
384.211	331.5
384.436	330.5
384.662	353.5
384.887	326.5
385.112	332.5
385.337	317.5
385.562	326.5
385.787	345.5
386.013	348.5
386.238	353.5
386.463	352.5
386.688	373.5
386.913	332.5
387.138	331.5
387.363	336.5
387.588	352.5
387.813	318.5
388.038	332.5
388.263	335.5
388.488	336.5
388.713	339.5
388.938	357.5
389.163	343.5
389.387	371.5
389.612	343.5
389.837	334.5
390.062	330.5
390.287	318.5
390.512	323.5
390.736	340.5
390.961	340.5
391.186	326.5
391.411	320.5
391.636	336.5
391.86	338.5
392.085	341.5
392.31	330.5
392.534	334.5
392.759	348.5
392.984	345.5
393.208	336.5
393.433	365.5
393.658	336.5
393.882	347.5
394.107	350.5
394.331	344.5
394.556	347.5
394.78	340.5
395.005	340.5
395.229	331.5
395.454	346.5
395.678	337.5
395.903	358.5
396.127	370.5
396.352	388.5
396.576	372.5
396.801	363.5
397.025	339.5
397.249	363.5
397.474	353.5
397.698	357.5
397.922	384.5
398.147	380.5
398.371	404.5
398.595	354.5
398.82	364.5
399.044	383.5
399.268	394.5
399.492	385.5
399.717	396.5
399.941	424.5
400.165	474.5
400.389	489.5
400.613	454.5
400.837	411.5
401.062	420.5
401.286	390.5
401.51	395.5
401.734	379.5
401.958	396.5
402.182	382.5
402.406	400.5
402.63	419.5
402.854	409.5
403.078	388.5
403.302	406.5
403.526	426.5
403.75	407.5
403.974	406.5
404.198	399.5
404.422	392.5
404.645	411.5
404.869	419.5
405.093	427.5
405.317	461.5
405.541	491.5
405.765	448.5
405.988	436.5
406.212	462.5
406.436	485.5
406.66	488.5
406.883	444.5
407.107	474.5
407.331	535.5
407.555	579.5
407.778	574.5
408.002	534.5
408.226	482.5
408.449	484.5
408.673	469.5
408.896	502.5
409.12	537.5
409.344	528.5
409.567	460.5
409.791	425.5
410.014	417.5
410.238	406.5
410.461	430.5
410.685	420.5
410.908	446.5
411.132	467.5
411.355	500.5
411.578	488.5
411.802	441.5
412.025	403.5
412.249	404.5
412.472	412.5
412.695	444.5
412.919	416.5
413.142	397.5
413.365	407.5
413.589	393.5
413.812	387.5
414.035	382.5
414.258	380.5
414.482	392.5
414.705	399.5
414.928	393.5
415.151	386.5
415.374	374.5
415.597	371.5
415.821	376.5
416.044	370.5
416.267	390.5
416.49	402.5
416.713	375.5
416.936	378.5
417.159	404.5
417.382	385.5
417.605	388.5
417.828	414.5
418.051	410.5
418.274	408.5
418.497	389.5
418.72	412.5
418.943	400.5
419.166	406.5
419.389	431.5
419.611	428.5
419.834	402.5
420.057	404.5
420.28	421.5
420.503	400.5
420.726	419.5
420.948	446.5
421.171	488.5
421.394	533.5
421.617	462.5
421.839	440.5
422.062	448.5
422.285	449.5
422.507	499.5
422.73	566.5
422.953	575.5
423.175	484.5
423.398	467.5
423.621	452.5
423.843	472.5
424.066	505.5
424.288	469.5
424.511	497.5
424.733	559.5
424.956	638.5
425.178	610.5
425.401	605.5
425.623	642.5
425.846	542.5
426.068	520.5
426.291	498.5
426.513	486.5
426.735	532.5
426.958	580.5
427.18	647.5
427.402	759.5
427.625	836.5
427.847	774.5
428.069	634.5
428.292	563.5
428.514	524.5
428.736	528.5
428.958	498.5
429.181	462.5
429.403	451.5
429.625	480.5
429.847	519.5
430.069	558.5
430.292	570.5
430.514	520.5
430.736	447.5
430.958	455.5
431.18	444.5
431.402	442.5
431.624	419.5
431.846	400.5
432.068	396.5
432.29	431.5
432.512	438.5
432.734	436.5
432.956	423.5
433.178	439.5
433.4	459.5
433.622	428.5
433.844	437.5
434.066	416.5
434.287	415.5
434.509	427.5
434.731	430.5
434.953	420.5
435.175	481.5
435.397	497.5
435.618	508.5
435.84	548.5
436.062	638.5
436.284	674.5
436.505	593.5
436.727	530.5
436.949	487.5
437.17	478.5
437.392	465.5
437.614	474.5
437.835	532.5
438.057	658.5
438.278	725.5
438.5	716.5
438.721	784.5
438.943	739.5
439.165	634.5
439.386	582.5
439.608	560.5
439.829	542.5
440.05	556.5
440.272	600.5
440.493	576.5
440.715	514.5
440.936	479.5
441.158	488.5
441.379	467.5
441.6	525.5
441.822	504.5
442.043	554.5
442.264	634.5
442.486	687.5
442.707	583.5
442.928	548.5
443.149	548.5
443.371	582.5
443.592	616.5
443.813	684.5
444.034	731.5
444.255	591.5
444.476	507.5
444.698	500.5
444.919	497.5
445.14	583.5
445.361	572.5
445.582	568.5
445.803	624.5
446.024	706.5
446.245	716.5
446.466	686.5
446.687	598.5
446.908	568.5
447.129	479.5
447.35	495.5
447.571	503.5
447.792	472.5
448.013	472.5
448.234	518.5
448.455	559.5
448.675	666.5
448.896	735.5
449.117	652.5
449.338	624.5
449.559	700.5
449.779	791.5
450	633.5
450.221	562.5
450.442	499.5
450.662	495.5
450.883	496.5
451.104	554.5
451.324	503.5
451.545	492.5
451.766	482.5
451.986	410.5
452.207	410.5
452.428	432.5
452.648	413.5
452.869	440.5
453.089	440.5
453.31	465.5
453.53	450.5
453.751	430.5
453.971	433.5
454.192	478.5
454.412	470.5
454.633	446.5
454.853	444.5
455.073	445.5
455.294	464.5
455.514	536.5
455.734	508.5
455.955	435.5
456.175	409.5
456.395	402.5
456.616	382.5
456.836	382.5
457.056	385.5
457.276	377.5
457.497	376.5
457.717	387.5
457.937	406.5
458.157	408.5
458.377	396.5
458.598	456.5
458.818	533.5
459.038	636.5
459.258	624.5
459.478	525.5
459.698	458.5
459.918	424.5
460.138	425.5
460.358	417.5
460.578	437.5
460.798	404.5
461.018	415.5
461.238	419.5
461.458	395.5
461.678	404.5
461.898	390.5
462.118	380.5
462.338	409.5
462.558	388.5
462.777	412.5
462.997	421.5
463.217	418.5
463.437	413.5
463.657	406.5
463.876	407.5
464.096	440.5
464.316	434.5
464.536	412.5
464.755	436.5
464.975	462.5
465.195	534.5
465.414	703.5
465.634	617.5
465.854	491.5
466.073	448.5
466.293	445.5
466.512	427.5
466.732	418.5
466.951	427.5
467.171	421.5
467.391	416.5
467.61	432.5
467.829	460.5
468.049	450.5
468.268	402.5
468.488	399.5
468.707	400.5
468.927	411.5
469.146	397.5
469.365	420.5
469.585	396.5
469.804	435.5
470.023	456.5
470.243	438.5
470.462	466.5
470.681	468.5
470.901	464.5
471.12	444.5
471.339	426.5
471.558	416.5
471.777	446.5
471.997	425.5
472.216	411.5
472.435	415.5
472.654	410.5
472.873	410.5
473.092	412.5
473.311	412.5
473.53	439.5
473.749	430.5
473.968	490.5
474.187	617.5
474.406	613.5
474.625	518.5
474.844	436.5
475.063	440.5
475.282	418.5
475.501	425.5
475.72	432.5
475.939	416.5
476.158	439.5
476.377	433.5
476.596	425.5
476.814	461.5
477.033	461.5
477.252	450.5
477.471	446.5
477.69	439.5
477.908	451.5
478.127	468.5
478.346	451.5
478.564	454.5
478.783	462.5
479.002	466.5
479.22	467.5
479.439	499.5
479.658	506.5
479.876	552.5
480.095	544.5
480.313	566.5
480.532	534.5
480.751	518.5
480.969	500.5
481.188	521.5
481.406	532.5
481.624	521.5
481.843	506.5
482.061	495.5
482.28	500.5
482.498	516.5
482.717	484.5
482.935	477.5
483.153	480.5
483.372	490.5
483.59	497.5
483.808	480.5
484.027	500.5
484.245	509.5
484.463	496.5
484.681	530.5
484.9	502.5
485.118	515.5
485.336	510.5
485.554	517.5
485.772	528.5
485.99	522.5
486.209	516.5
486.427	512.5
486.645	532.5
486.863	580.5
487.081	548.5
487.299	563.5
487.517	555.5
487.735	548.5
487.953	568.5
488.171	555.5
488.389	548.5
488.607	555.5
488.825	545.5
489.043	532.5
489.261	552.5
489.479	584.5
489.696	543.5
489.914	561.5
490.132	578.5
490.35	560.5
490.568	587.5
490.786	599.5
491.003	578.5
491.221	620.5
491.439	604.5
491.657	614.5
491.874	643.5
492.092	630.5
492.31	622.5
492.527	649.5
492.745	632.5
492.963	653.5
493.18	654.5
493.398	652.5
493.615	634.5
493.833	658.5
494.05	668.5
494.268	675.5
494.485	658.5
494.703	682.5
494.92	675.5
495.138	652.5
495.355	683.5
495.573	675.5
495.79	683.5
496.008	662.5
496.225	639.5
496.442	648.5
496.66	672.5
496.877	640.5
497.094	675.5
497.312	666.5
497.529	678.5
497.746	700.5
497.963	677.5
498.181	690.5
498.398	700.5
498.615	676.5
498.832	699.5
499.049	701.5
499.267	714.5
499.484	724.5
499.701	712.5
499.918	741.5
500.135	754.5
500.352	738.5
500.569	755.5
500.786	770.5
501.003	790.5
501.22	779.5
501.437	763.5
501.654	751.5
501.871	811.5
502.088	754.5
502.305	750.5
502.522	748.5
502.739	705.5
502.956	716.5
503.172	694.5
503.389	697.5
503.606	687.5
503.823	732.5
504.04	674.5
504.256	704.5
504.473	661.5
504.69	672.5
504.907	661.5
505.123	650.5
505.34	656.5
505.557	657.5
505.773	643.5
505.99	641.5
506.207	681.5
506.423	664.5
506.64	643.5
506.856	651.5
507.073	649.5
507.289	672.5
507.506	670.5
507.722	670.5
507.939	702.5
508.155	700.5
508.372	664.5
508.588	628.5
508.805	655.5
509.021	650.5
509.238	656.5
509.454	675.5
509.67	650.5
509.887	664.5
510.103	660.5
510.319	685.5
510.536	822.5
510.752	1526.5
510.968	1273.5
511.184	754.5
511.401	661.5
511.617	643.5
511.833	642.5
512.049	624.5
512.265	634.5
512.481	634.5
512.698	610.5
512.914	662.5
513.13	624.5
513.346	642.5
513.562	631.5
513.778	671.5
513.994	660.5
514.21	672.5
514.426	735.5
514.642	811.5
514.858	866.5
515.074	929.5
515.29	1151.5
515.506	1859.5
515.721	1494.5
515.937	886.5
516.153	786.5
516.369	727.5
516.585	678.5
516.801	660.5
517.016	644.5
517.232	635.5
517.448	631.5
517.664	637.5
517.879	620.5
518.095	618.5
518.311	625.5
518.527	618.5
518.742	626.5
518.958	636.5
519.173	634.5
519.389	614.5
519.605	645.5
519.82	641.5
