Data from 1987.PennyLincolnUp.Lamp.En5.5.200Scan.071819.P2_HRD10591_17-14-10-972.txt Node
Date: Thu Jul 18 17:14:10 EDT 2019
User: cochatt
Spectrometer: HR+D1059
Trigger mode: 1
Integration Time (sec): 1.000000E-1
Scans to average: 1
Electric dark correction enabled: true
Nonlinearity correction enabled: false
Boxcar width: 0
XAxis mode: Wavelengths
Number of Pixels in Spectrum: 2048
>>>>>Begin Spectral Data<<<<<
223.165	-9.06
223.4	-9.06
223.635	-9.06
223.869	-11.06
224.104	-11.06
224.338	-17.06
224.573	-20.06
224.808	-10.06
225.042	-12.06
225.277	-17.06
225.511	-10.06
225.746	5.94
225.98	17.94
226.215	2.94
226.449	12.94
226.683	26.94
226.918	19.94
227.152	30.94
227.387	37.94
227.621	23.94
227.856	41.94
228.09	42.94
228.324	55.94
228.559	67.94
228.793	66.94
229.027	89.94
229.262	105.94
229.496	123.94
229.73	131.94
229.964	147.94
230.199	135.94
230.433	131.94
230.667	112.94
230.901	112.94
231.136	110.94
231.37	104.94
231.604	112.94
231.838	116.94
232.072	131.94
232.306	118.94
232.541	104.94
232.775	121.94
233.009	120.94
233.243	119.94
233.477	124.94
233.711	121.94
233.945	117.94
234.179	120.94
234.413	115.94
234.647	107.94
234.881	119.94
235.115	123.94
235.349	127.94
235.583	120.94
235.817	120.94
236.051	120.94
236.285	123.94
236.519	123.94
236.753	133.94
236.987	155.94
237.221	179.94
237.455	215.94
237.689	189.94
237.922	141.94
238.156	132.94
238.39	132.94
238.624	119.94
238.858	128.94
239.091	112.94
239.325	118.94
239.559	116.94
239.793	128.94
240.027	131.94
240.26	119.94
240.494	158.94
240.728	151.94
240.961	139.94
241.195	128.94
241.429	132.94
241.662	136.94
241.896	134.94
242.13	140.94
242.363	134.94
242.597	125.94
242.83	115.94
243.064	143.94
243.298	129.94
243.531	126.94
243.765	115.94
243.998	98.94
244.232	130.94
244.465	135.94
244.699	127.94
244.932	135.94
245.166	141.94
245.399	127.94
245.633	127.94
245.866	144.94
246.099	133.94
246.333	135.94
246.566	155.94
246.8	139.94
247.033	137.94
247.266	152.94
247.5	148.94
247.733	151.94
247.966	155.94
248.2	164.94
248.433	158.94
248.666	163.94
248.899	187.94
249.133	188.94
249.366	213.94
249.599	191.94
249.832	166.94
250.066	170.94
250.299	165.94
250.532	175.94
250.765	176.94
250.998	192.94
251.231	212.94
251.465	209.94
251.698	194.94
251.931	206.94
252.164	180.94
252.397	165.94
252.63	179.94
252.863	187.94
253.096	196.94
253.329	180.94
253.562	202.94
253.795	195.94
254.028	207.94
254.261	208.94
254.494	222.94
254.727	226.94
254.96	268.94
255.193	255.94
255.426	229.94
255.659	225.94
255.892	201.94
256.124	208.94
256.357	218.94
256.59	198.94
256.823	179.94
257.056	190.94
257.289	193.94
257.521	184.94
257.754	179.94
257.987	189.94
258.22	207.94
258.452	195.94
258.685	201.94
258.918	191.94
259.151	191.94
259.383	207.94
259.616	206.94
259.849	192.94
260.081	213.94
260.314	212.94
260.547	214.94
260.779	226.94
261.012	221.94
261.244	203.94
261.477	203.94
261.71	203.94
261.942	197.94
262.175	208.94
262.407	223.94
262.64	195.94
262.872	193.94
263.105	180.94
263.337	193.94
263.57	174.94
263.802	197.94
264.035	169.94
264.267	162.94
264.499	185.94
264.732	177.94
264.964	177.94
265.197	164.94
265.429	196.94
265.661	173.94
265.894	159.94
266.126	187.94
266.358	183.94
266.591	175.94
266.823	174.94
267.055	205.94
267.287	177.94
267.52	167.94
267.752	185.94
267.984	191.94
268.216	211.94
268.448	186.94
268.681	213.94
268.913	211.94
269.145	232.94
269.377	236.94
269.609	246.94
269.841	221.94
270.073	227.94
270.306	239.94
270.538	269.94
270.77	268.94
271.002	261.94
271.234	278.94
271.466	272.94
271.698	254.94
271.93	280.94
272.162	258.94
272.394	268.94
272.626	265.94
272.858	259.94
273.09	238.94
273.322	241.94
273.553	254.94
273.785	211.94
274.017	209.94
274.249	216.94
274.481	233.94
274.713	240.94
274.945	236.94
275.176	227.94
275.408	229.94
275.64	221.94
275.872	227.94
276.104	203.94
276.335	195.94
276.567	235.94
276.799	226.94
277.031	255.94
277.262	267.94
277.494	261.94
277.726	267.94
277.957	246.94
278.189	248.94
278.421	221.94
278.652	238.94
278.884	213.94
279.115	212.94
279.347	212.94
279.579	208.94
279.81	217.94
280.042	218.94
280.273	212.94
280.505	204.94
280.736	208.94
280.968	222.94
281.199	206.94
281.431	207.94
281.662	206.94
281.894	217.94
282.125	199.94
282.356	222.94
282.588	238.94
282.819	224.94
283.051	217.94
283.282	209.94
283.513	227.94
283.745	212.94
283.976	220.94
284.207	234.94
284.439	218.94
284.67	208.94
284.901	221.94
285.132	222.94
285.364	221.94
285.595	204.94
285.826	203.94
286.057	208.94
286.288	208.94
286.52	221.94
286.751	203.94
286.982	199.94
287.213	219.94
287.444	217.94
287.675	223.94
287.906	230.94
288.138	249.94
288.369	228.94
288.6	234.94
288.831	228.94
289.062	223.94
289.293	204.94
289.524	224.94
289.755	211.94
289.986	216.94
290.217	213.94
290.448	214.94
290.679	223.94
290.91	209.94
291.141	215.94
291.371	224.94
291.602	219.94
291.833	209.94
292.064	210.94
292.295	217.94
292.526	216.94
292.757	224.94
292.987	215.94
293.218	234.94
293.449	230.94
293.68	215.94
293.91	227.94
294.141	218.94
294.372	217.94
294.603	215.94
294.833	204.94
295.064	220.94
295.295	230.94
295.525	219.94
295.756	227.94
295.987	223.94
296.217	244.94
296.448	273.94
296.679	245.94
296.909	241.94
297.14	210.94
297.37	239.94
297.601	232.94
297.831	216.94
298.062	213.94
298.292	228.94
298.523	218.94
298.753	212.94
298.984	233.94
299.214	226.94
299.445	244.94
299.675	232.94
299.905	260.94
300.136	252.94
300.366	236.94
300.597	231.94
300.827	228.94
301.057	225.94
301.288	240.94
301.518	246.94
301.748	231.94
301.979	233.94
302.209	246.94
302.439	240.94
302.669	233.94
302.9	246.94
303.13	239.94
303.36	250.94
303.59	231.94
303.82	273.94
304.051	263.94
304.281	247.94
304.511	246.94
304.741	225.94
304.971	246.94
305.201	253.94
305.431	231.94
305.661	247.94
305.891	239.94
306.121	234.94
306.352	253.94
306.582	251.94
306.812	248.94
307.042	269.94
307.272	245.94
307.502	254.94
307.731	247.94
307.961	248.94
308.191	235.94
308.421	272.94
308.651	262.94
308.881	271.94
309.111	269.94
309.341	259.94
309.571	284.94
309.8	275.94
310.03	294.94
310.26	308.94
310.49	277.94
310.72	328.94
310.949	325.94
311.179	334.94
311.409	315.94
311.639	308.94
311.868	291.94
312.098	302.94
312.328	314.94
312.557	338.94
312.787	333.94
313.017	358.94
313.246	324.94
313.476	326.94
313.706	292.94
313.935	323.94
314.165	334.94
314.394	324.94
314.624	305.94
314.853	301.94
315.083	291.94
315.312	288.94
315.542	270.94
315.771	286.94
316.001	272.94
316.23	296.94
316.46	293.94
316.689	299.94
316.919	304.94
317.148	300.94
317.377	291.94
317.607	301.94
317.836	313.94
318.065	301.94
318.295	308.94
318.524	302.94
318.753	300.94
318.983	301.94
319.212	288.94
319.441	302.94
319.67	299.94
319.9	298.94
320.129	312.94
320.358	298.94
320.587	299.94
320.816	324.94
321.046	310.94
321.275	319.94
321.504	299.94
321.733	319.94
321.962	341.94
322.191	361.94
322.42	344.94
322.649	371.94
322.878	377.94
323.108	419.94
323.337	419.94
323.566	433.94
323.795	478.94
324.024	539.94
324.253	664.94
324.482	951.94
324.71	1483.94
324.939	2069.94
325.168	1831.94
325.397	1007.94
325.626	675.94
325.855	546.94
326.084	482.94
326.313	463.94
326.542	454.94
326.77	481.94
326.999	593.94
327.228	858.94
327.457	1310.94
327.686	1593.94
327.914	1109.94
328.143	709.94
328.372	598.94
328.6	537.94
328.829	494.94
329.058	543.94
329.287	537.94
329.515	487.94
329.744	456.94
329.972	429.94
330.201	434.94
330.43	471.94
330.658	506.94
330.887	559.94
331.115	547.94
331.344	437.94
331.572	433.94
331.801	431.94
332.03	413.94
332.258	390.94
332.486	362.94
332.715	351.94
332.943	360.94
333.172	344.94
333.4	346.94
333.629	350.94
333.857	361.94
334.085	339.94
334.314	362.94
334.542	346.94
334.771	357.94
334.999	343.94
335.227	361.94
335.455	343.94
335.684	356.94
335.912	343.94
336.14	320.94
336.369	340.94
336.597	348.94
336.825	363.94
337.053	332.94
337.281	343.94
337.51	354.94
337.738	342.94
337.966	336.94
338.194	333.94
338.422	348.94
338.65	326.94
338.878	320.94
339.106	341.94
339.334	315.94
339.562	320.94
339.79	331.94
340.018	322.94
340.246	336.94
340.474	355.94
340.702	328.94
340.93	355.94
341.158	325.94
341.386	337.94
341.614	321.94
341.842	339.94
342.07	308.94
342.298	319.94
342.526	313.94
342.754	315.94
342.981	318.94
343.209	320.94
343.437	312.94
343.665	319.94
343.893	316.94
344.12	327.94
344.348	337.94
344.576	324.94
344.804	346.94
345.031	369.94
345.259	352.94
345.487	363.94
345.714	325.94
345.942	340.94
346.17	354.94
346.397	323.94
346.625	313.94
346.853	328.94
347.08	308.94
347.308	350.94
347.535	366.94
347.763	350.94
347.99	334.94
348.218	348.94
348.445	339.94
348.673	343.94
348.9	345.94
349.128	329.94
349.355	345.94
349.583	311.94
349.81	329.94
350.037	316.94
350.265	304.94
350.492	305.94
350.72	311.94
350.947	335.94
351.174	351.94
351.402	353.94
351.629	345.94
351.856	361.94
352.083	344.94
352.311	346.94
352.538	354.94
352.765	355.94
352.992	333.94
353.22	330.94
353.447	326.94
353.674	343.94
353.901	309.94
354.128	318.94
354.355	311.94
354.583	311.94
354.81	295.94
355.037	296.94
355.264	308.94
355.491	292.94
355.718	308.94
355.945	304.94
356.172	315.94
356.399	300.94
356.626	300.94
356.853	294.94
357.08	280.94
357.307	307.94
357.534	295.94
357.761	287.94
357.988	301.94
358.215	299.94
358.441	295.94
358.668	286.94
358.895	300.94
359.122	316.94
359.349	324.94
359.576	340.94
359.802	352.94
360.029	399.94
360.256	421.94
360.483	381.94
360.709	346.94
360.936	356.94
361.163	351.94
361.39	341.94
361.616	344.94
361.843	343.94
362.07	340.94
362.296	352.94
362.523	348.94
362.749	332.94
362.976	339.94
363.203	341.94
363.429	324.94
363.656	326.94
363.882	326.94
364.109	324.94
364.335	311.94
364.562	308.94
364.788	315.94
365.015	320.94
365.241	317.94
365.468	329.94
365.694	324.94
365.92	332.94
366.147	303.94
366.373	319.94
366.599	308.94
366.826	288.94
367.052	302.94
367.278	323.94
367.505	314.94
367.731	312.94
367.957	320.94
368.184	310.94
368.41	320.94
368.636	322.94
368.862	305.94
369.089	319.94
369.315	303.94
369.541	317.94
369.767	311.94
369.993	327.94
370.219	309.94
370.445	320.94
370.672	320.94
370.898	302.94
371.124	297.94
371.35	311.94
371.576	296.94
371.802	292.94
372.028	292.94
372.254	300.94
372.48	298.94
372.706	310.94
372.932	287.94
373.158	311.94
373.384	315.94
373.61	314.94
373.835	298.94
374.061	297.94
374.287	312.94
374.513	316.94
374.739	303.94
374.965	303.94
375.191	317.94
375.416	291.94
375.642	327.94
375.868	303.94
376.094	296.94
376.319	304.94
376.545	318.94
376.771	295.94
376.997	308.94
377.222	288.94
377.448	296.94
377.674	292.94
377.899	305.94
378.125	305.94
378.35	316.94
378.576	287.94
378.802	331.94
379.027	309.94
379.253	300.94
379.478	315.94
379.704	317.94
379.929	304.94
380.155	317.94
380.38	303.94
380.606	296.94
380.831	302.94
381.057	323.94
381.282	317.94
381.507	323.94
381.733	301.94
381.958	326.94
382.184	310.94
382.409	302.94
382.634	303.94
382.86	302.94
383.085	296.94
383.31	311.94
383.535	333.94
383.761	295.94
383.986	317.94
384.211	301.94
384.436	330.94
384.662	312.94
384.887	324.94
385.112	311.94
385.337	322.94
385.562	316.94
385.787	336.94
386.013	344.94
386.238	352.94
386.463	333.94
386.688	315.94
386.913	314.94
387.138	325.94
387.363	330.94
387.588	321.94
387.813	331.94
388.038	319.94
388.263	329.94
388.488	326.94
388.713	317.94
388.938	330.94
389.163	328.94
389.387	328.94
389.612	329.94
389.837	327.94
390.062	312.94
390.287	323.94
390.512	334.94
390.736	355.94
390.961	333.94
391.186	316.94
391.411	316.94
391.636	334.94
391.86	328.94
392.085	312.94
392.31	320.94
392.534	335.94
392.759	316.94
392.984	333.94
393.208	338.94
393.433	366.94
393.658	363.94
393.882	348.94
394.107	333.94
394.331	318.94
394.556	333.94
394.78	312.94
395.005	313.94
395.229	320.94
395.454	336.94
395.678	332.94
395.903	323.94
396.127	357.94
396.352	381.94
396.576	351.94
396.801	352.94
397.025	346.94
397.249	376.94
397.474	347.94
397.698	358.94
397.922	349.94
398.147	379.94
398.371	363.94
398.595	377.94
398.82	379.94
399.044	355.94
399.268	368.94
399.492	392.94
399.717	389.94
399.941	438.94
400.165	453.94
400.389	461.94
400.613	431.94
400.837	410.94
401.062	382.94
401.286	371.94
401.51	375.94
401.734	359.94
401.958	373.94
402.182	387.94
402.406	389.94
402.63	402.94
402.854	411.94
403.078	396.94
403.302	383.94
403.526	380.94
403.75	389.94
403.974	394.94
404.198	392.94
404.422	383.94
404.645	365.94
404.869	377.94
405.093	427.94
405.317	420.94
405.541	454.94
405.765	416.94
405.988	412.94
406.212	433.94
406.436	448.94
406.66	476.94
406.883	427.94
407.107	446.94
407.331	474.94
407.555	543.94
407.778	530.94
408.002	489.94
408.226	467.94
408.449	430.94
408.673	439.94
408.896	473.94
409.12	511.94
409.344	477.94
409.567	435.94
409.791	420.94
410.014	416.94
410.238	404.94
410.461	406.94
410.685	403.94
410.908	402.94
411.132	470.94
411.355	456.94
411.578	438.94
411.802	407.94
412.025	367.94
412.249	395.94
412.472	389.94
412.695	400.94
412.919	402.94
413.142	405.94
413.365	363.94
413.589	381.94
413.812	374.94
414.035	369.94
414.258	382.94
414.482	383.94
414.705	381.94
414.928	386.94
415.151	370.94
415.374	380.94
415.597	383.94
415.821	368.94
416.044	360.94
416.267	401.94
416.49	395.94
416.713	356.94
416.936	382.94
417.159	371.94
417.382	389.94
417.605	381.94
417.828	385.94
418.051	412.94
418.274	412.94
418.497	361.94
418.72	366.94
418.943	377.94
419.166	399.94
419.389	404.94
419.611	383.94
419.834	387.94
420.057	394.94
420.28	390.94
420.503	403.94
420.726	413.94
420.948	422.94
421.171	446.94
421.394	483.94
421.617	409.94
421.839	409.94
422.062	425.94
422.285	424.94
422.507	492.94
422.73	545.94
422.953	533.94
423.175	469.94
423.398	447.94
423.621	411.94
423.843	462.94
424.066	448.94
424.288	437.94
424.511	478.94
424.733	513.94
424.956	619.94
425.178	598.94
425.401	574.94
425.623	609.94
425.846	509.94
426.068	457.94
426.291	454.94
426.513	469.94
426.735	446.94
426.958	534.94
427.18	596.94
427.402	678.94
427.625	769.94
427.847	664.94
428.069	597.94
428.292	521.94
428.514	491.94
428.736	454.94
428.958	441.94
429.181	455.94
429.403	434.94
429.625	457.94
429.847	480.94
430.069	503.94
430.292	538.94
430.514	465.94
430.736	439.94
430.958	433.94
431.18	415.94
431.402	391.94
431.624	391.94
431.846	396.94
432.068	401.94
432.29	389.94
432.512	412.94
432.734	383.94
432.956	430.94
433.178	429.94
433.4	424.94
433.622	420.94
433.844	399.94
434.066	395.94
434.287	414.94
434.509	384.94
434.731	400.94
434.953	406.94
435.175	426.94
435.397	463.94
435.618	471.94
435.84	516.94
436.062	584.94
436.284	631.94
436.505	537.94
436.727	516.94
436.949	462.94
437.17	445.94
437.392	419.94
437.614	437.94
437.835	507.94
438.057	631.94
438.278	668.94
438.5	664.94
438.721	721.94
438.943	695.94
439.165	547.94
439.386	513.94
439.608	493.94
439.829	505.94
440.05	507.94
440.272	528.94
440.493	508.94
440.715	476.94
440.936	463.94
441.158	431.94
441.379	436.94
441.6	441.94
441.822	486.94
442.043	524.94
442.264	582.94
442.486	622.94
442.707	547.94
442.928	489.94
443.149	509.94
443.371	496.94
443.592	551.94
443.813	636.94
444.034	678.94
444.255	558.94
444.476	500.94
444.698	481.94
444.919	448.94
445.14	553.94
445.361	546.94
445.582	535.94
445.803	569.94
446.024	652.94
446.245	673.94
446.466	597.94
446.687	549.94
446.908	485.94
447.129	460.94
447.35	453.94
447.571	451.94
447.792	442.94
448.013	462.94
448.234	480.94
448.455	515.94
448.675	637.94
448.896	686.94
449.117	619.94
449.338	581.94
449.559	674.94
449.779	711.94
450	620.94
450.221	501.94
450.442	478.94
450.662	453.94
450.883	457.94
451.104	473.94
451.324	457.94
451.545	429.94
451.766	433.94
451.986	419.94
452.207	393.94
452.428	405.94
452.648	403.94
452.869	398.94
453.089	419.94
453.31	414.94
453.53	409.94
453.751	406.94
453.971	390.94
454.192	414.94
454.412	415.94
454.633	409.94
454.853	403.94
455.073	390.94
455.294	424.94
455.514	502.94
455.734	480.94
455.955	417.94
456.175	376.94
456.395	361.94
456.616	383.94
456.836	375.94
457.056	358.94
457.276	364.94
457.497	371.94
457.717	367.94
457.937	385.94
458.157	387.94
458.377	388.94
458.598	428.94
458.818	448.94
459.038	539.94
459.258	553.94
459.478	474.94
459.698	413.94
459.918	400.94
460.138	400.94
460.358	415.94
460.578	384.94
460.798	405.94
461.018	379.94
461.238	411.94
461.458	388.94
461.678	379.94
461.898	381.94
462.118	383.94
462.338	402.94
462.558	409.94
462.777	391.94
462.997	397.94
463.217	388.94
463.437	397.94
463.657	399.94
463.876	404.94
464.096	408.94
464.316	421.94
464.536	400.94
464.755	423.94
464.975	414.94
465.195	491.94
465.414	577.94
465.634	521.94
465.854	471.94
466.073	429.94
466.293	438.94
466.512	401.94
466.732	377.94
466.951	398.94
467.171	395.94
467.391	390.94
467.61	402.94
467.829	401.94
468.049	389.94
468.268	403.94
468.488	387.94
468.707	375.94
468.927	377.94
469.146	344.94
469.365	368.94
469.585	388.94
469.804	368.94
470.023	407.94
470.243	407.94
470.462	400.94
470.681	423.94
470.901	431.94
471.12	413.94
471.339	407.94
471.558	381.94
471.777	400.94
471.997	396.94
472.216	375.94
472.435	384.94
472.654	386.94
472.873	366.94
473.092	376.94
473.311	404.94
473.53	408.94
473.749	419.94
473.968	460.94
474.187	535.94
474.406	571.94
474.625	484.94
474.844	445.94
475.063	413.94
475.282	410.94
475.501	405.94
475.72	403.94
475.939	406.94
476.158	409.94
476.377	417.94
476.596	424.94
476.814	404.94
477.033	438.94
477.252	416.94
477.471	412.94
477.69	419.94
477.908	438.94
478.127	431.94
478.346	443.94
478.564	439.94
478.783	420.94
479.002	456.94
479.22	438.94
479.439	452.94
479.658	486.94
479.876	472.94
480.095	478.94
480.313	502.94
480.532	475.94
480.751	489.94
480.969	477.94
481.188	508.94
481.406	491.94
481.624	492.94
481.843	475.94
482.061	472.94
482.28	468.94
482.498	465.94
482.717	468.94
482.935	466.94
483.153	466.94
483.372	479.94
483.59	469.94
483.808	470.94
484.027	458.94
484.245	472.94
484.463	447.94
484.681	463.94
484.9	495.94
485.118	484.94
485.336	487.94
485.554	472.94
485.772	492.94
485.99	485.94
486.209	518.94
486.427	488.94
486.645	503.94
486.863	539.94
487.081	531.94
487.299	509.94
487.517	505.94
487.735	521.94
487.953	501.94
488.171	515.94
488.389	511.94
488.607	520.94
488.825	515.94
489.043	541.94
489.261	526.94
489.479	523.94
489.696	548.94
489.914	528.94
490.132	544.94
490.35	559.94
490.568	536.94
490.786	546.94
491.003	561.94
491.221	559.94
491.439	573.94
491.657	557.94
491.874	597.94
492.092	579.94
492.31	597.94
492.527	585.94
492.745	576.94
492.963	607.94
493.18	618.94
493.398	611.94
493.615	624.94
493.833	604.94
494.05	629.94
494.268	613.94
494.485	609.94
494.703	604.94
494.92	609.94
495.138	603.94
495.355	607.94
495.573	624.94
495.79	639.94
496.008	611.94
496.225	598.94
496.442	612.94
496.66	627.94
496.877	614.94
497.094	643.94
497.312	630.94
497.529	622.94
497.746	647.94
497.963	633.94
498.181	647.94
498.398	650.94
498.615	655.94
498.832	670.94
499.049	643.94
499.267	659.94
499.484	692.94
499.701	704.94
499.918	699.94
500.135	722.94
500.352	732.94
500.569	737.94
500.786	729.94
501.003	731.94
501.22	758.94
501.437	748.94
501.654	731.94
501.871	777.94
