Data from 1987.PennyLincolnUp.Lamp.En5.5.200Scan.071819.P2_HRD10591_17-16-35-973.txt Node
Date: Thu Jul 18 17:16:35 EDT 2019
User: cochatt
Spectrometer: HR+D1059
Trigger mode: 1
Integration Time (sec): 1.000000E-1
Scans to average: 1
Electric dark correction enabled: true
Nonlinearity correction enabled: false
Boxcar width: 0
XAxis mode: Wavelengths
Number of Pixels in Spectrum: 2048
>>>>>Begin Spectral Data<<<<<
223.165	-11.06
223.4	-11.06
223.635	-11.06
223.869	-32.06
224.104	-12.06
224.338	-10.06
224.573	-25.06
224.808	3.94
225.042	-0.06
225.277	-14.06
225.511	-0.06
225.746	-2.06
225.98	-4.06
226.215	16.94
226.449	16.94
226.683	14.94
226.918	22.94
227.152	34.94
227.387	29.94
227.621	45.94
227.856	48.94
228.09	42.94
228.324	44.94
228.559	61.94
228.793	79.94
229.027	99.94
229.262	119.94
229.496	104.94
229.73	145.94
229.964	163.94
230.199	147.94
230.433	113.94
230.667	118.94
230.901	107.94
231.136	118.94
231.37	132.94
231.604	96.94
231.838	121.94
232.072	111.94
232.306	123.94
232.541	119.94
232.775	110.94
233.009	114.94
233.243	109.94
233.477	106.94
233.711	111.94
233.945	108.94
234.179	117.94
234.413	131.94
234.647	108.94
234.881	129.94
235.115	128.94
235.349	124.94
235.583	122.94
235.817	123.94
236.051	126.94
236.285	118.94
236.519	123.94
236.753	128.94
236.987	161.94
237.221	212.94
237.455	253.94
237.689	213.94
237.922	139.94
238.156	111.94
238.39	138.94
238.624	129.94
238.858	127.94
239.091	127.94
239.325	129.94
239.559	137.94
239.793	114.94
240.027	125.94
240.26	145.94
240.494	163.94
240.728	157.94
240.961	142.94
241.195	145.94
241.429	135.94
241.662	121.94
241.896	136.94
242.13	138.94
242.363	133.94
242.597	120.94
242.83	117.94
243.064	133.94
243.298	144.94
243.531	125.94
243.765	144.94
243.998	142.94
244.232	125.94
244.465	126.94
244.699	131.94
244.932	143.94
245.166	141.94
245.399	131.94
245.633	145.94
245.866	136.94
246.099	130.94
246.333	133.94
246.566	145.94
246.8	131.94
247.033	142.94
247.266	174.94
247.5	145.94
247.733	150.94
247.966	162.94
248.2	167.94
248.433	173.94
248.666	177.94
248.899	196.94
249.133	199.94
249.366	203.94
249.599	218.94
249.832	185.94
250.066	163.94
250.299	199.94
250.532	200.94
250.765	207.94
250.998	216.94
251.231	230.94
251.465	225.94
251.698	212.94
251.931	197.94
252.164	199.94
252.397	197.94
252.63	202.94
252.863	206.94
253.096	202.94
253.329	213.94
253.562	229.94
253.795	217.94
254.028	220.94
254.261	228.94
254.494	233.94
254.727	268.94
254.96	267.94
255.193	294.94
255.426	275.94
255.659	253.94
255.892	236.94
256.124	206.94
256.357	196.94
256.59	210.94
256.823	195.94
257.056	190.94
257.289	206.94
257.521	199.94
257.754	197.94
257.987	206.94
258.22	209.94
258.452	192.94
258.685	209.94
258.918	183.94
259.151	209.94
259.383	208.94
259.616	203.94
259.849	219.94
260.081	225.94
260.314	253.94
260.547	251.94
260.779	238.94
261.012	228.94
261.244	224.94
261.477	206.94
261.71	206.94
261.942	226.94
262.175	226.94
262.407	226.94
262.64	207.94
262.872	217.94
263.105	194.94
263.337	192.94
263.57	206.94
263.802	190.94
264.035	195.94
264.267	199.94
264.499	190.94
264.732	186.94
264.964	201.94
265.197	192.94
265.429	202.94
265.661	192.94
265.894	197.94
266.126	202.94
266.358	191.94
266.591	182.94
266.823	196.94
267.055	201.94
267.287	204.94
267.52	199.94
267.752	198.94
267.984	206.94
268.216	206.94
268.448	211.94
268.681	213.94
268.913	221.94
269.145	240.94
269.377	284.94
269.609	264.94
269.841	265.94
270.073	243.94
270.306	283.94
270.538	306.94
270.77	303.94
271.002	287.94
271.234	291.94
271.466	283.94
271.698	314.94
271.93	310.94
272.162	306.94
272.394	305.94
272.626	302.94
272.858	289.94
273.09	253.94
273.322	253.94
273.553	259.94
273.785	237.94
274.017	256.94
274.249	226.94
274.481	226.94
274.713	239.94
274.945	250.94
275.176	239.94
275.408	250.94
275.64	229.94
275.872	237.94
276.104	237.94
276.335	246.94
276.567	227.94
276.799	277.94
277.031	283.94
277.262	313.94
277.494	297.94
277.726	283.94
277.957	249.94
278.189	243.94
278.421	254.94
278.652	229.94
278.884	246.94
279.115	231.94
279.347	238.94
279.579	216.94
279.81	237.94
280.042	241.94
280.273	230.94
280.505	222.94
280.736	229.94
280.968	217.94
281.199	210.94
281.431	231.94
281.662	229.94
281.894	231.94
282.125	223.94
282.356	246.94
282.588	275.94
282.819	298.94
283.051	241.94
283.282	237.94
283.513	237.94
283.745	244.94
283.976	237.94
284.207	251.94
284.439	244.94
284.67	226.94
284.901	234.94
285.132	249.94
285.364	225.94
285.595	232.94
285.826	234.94
286.057	229.94
286.288	248.94
286.52	230.94
286.751	226.94
286.982	229.94
287.213	231.94
287.444	237.94
287.675	247.94
287.906	246.94
288.138	263.94
288.369	273.94
288.6	241.94
288.831	244.94
289.062	228.94
289.293	245.94
289.524	253.94
289.755	242.94
289.986	217.94
290.217	232.94
290.448	239.94
290.679	232.94
290.91	215.94
291.141	226.94
291.371	228.94
291.602	225.94
291.833	231.94
292.064	241.94
292.295	230.94
292.526	234.94
292.757	245.94
292.987	237.94
293.218	241.94
293.449	244.94
293.68	230.94
293.91	241.94
294.141	236.94
294.372	250.94
294.603	247.94
294.833	238.94
295.064	239.94
295.295	249.94
295.525	238.94
295.756	262.94
295.987	271.94
296.217	285.94
296.448	316.94
296.679	259.94
296.909	257.94
297.14	245.94
297.37	246.94
297.601	252.94
297.831	246.94
298.062	245.94
298.292	249.94
298.523	257.94
298.753	241.94
298.984	254.94
299.214	244.94
299.445	227.94
299.675	263.94
299.905	266.94
300.136	262.94
300.366	256.94
300.597	270.94
300.827	262.94
301.057	254.94
301.288	259.94
301.518	267.94
301.748	265.94
301.979	246.94
302.209	262.94
302.439	268.94
302.669	278.94
302.9	265.94
303.13	271.94
303.36	243.94
303.59	274.94
303.82	281.94
304.051	297.94
304.281	259.94
304.511	263.94
304.741	244.94
304.971	276.94
305.201	262.94
305.431	257.94
305.661	275.94
305.891	271.94
306.121	262.94
306.352	284.94
306.582	285.94
306.812	285.94
307.042	293.94
307.272	271.94
307.502	274.94
307.731	263.94
307.961	268.94
308.191	261.94
308.421	287.94
308.651	269.94
308.881	286.94
309.111	298.94
309.341	295.94
309.571	306.94
309.8	299.94
310.03	337.94
310.26	355.94
310.49	361.94
310.72	366.94
310.949	389.94
311.179	411.94
311.409	362.94
311.639	345.94
311.868	359.94
312.098	360.94
312.328	351.94
312.557	362.94
312.787	415.94
313.017	382.94
313.246	369.94
313.476	351.94
313.706	333.94
313.935	348.94
314.165	377.94
314.394	379.94
314.624	387.94
314.853	361.94
315.083	348.94
315.312	317.94
315.542	319.94
315.771	331.94
316.001	323.94
316.23	328.94
316.46	323.94
316.689	345.94
316.919	346.94
317.148	350.94
317.377	330.94
317.607	366.94
317.836	341.94
318.065	333.94
318.295	329.94
318.524	313.94
318.753	335.94
318.983	328.94
319.212	344.94
319.441	357.94
319.67	362.94
319.9	341.94
320.129	331.94
320.358	335.94
320.587	347.94
320.816	362.94
321.046	375.94
321.275	373.94
321.504	370.94
321.733	365.94
321.962	362.94
322.191	403.94
322.42	409.94
322.649	469.94
322.878	480.94
323.108	483.94
323.337	536.94
323.566	569.94
323.795	590.94
324.024	710.94
324.253	889.94
324.482	1291.94
324.71	1930.94
324.939	2733.94
325.168	2357.94
325.397	1287.94
325.626	816.94
325.855	643.94
326.084	600.94
326.313	565.94
326.542	569.94
326.77	624.94
326.999	743.94
327.228	1077.94
327.457	1693.94
327.686	2070.94
327.914	1407.94
328.143	891.94
328.372	754.94
328.6	692.94
328.829	632.94
329.058	669.94
329.287	700.94
329.515	610.94
329.744	541.94
329.972	498.94
330.201	540.94
330.43	563.94
330.658	637.94
330.887	703.94
331.115	693.94
331.344	555.94
331.572	482.94
331.801	495.94
332.03	488.94
332.258	461.94
332.486	438.94
332.715	399.94
332.943	407.94
333.172	395.94
333.4	406.94
333.629	385.94
333.857	416.94
334.085	453.94
334.314	418.94
334.542	402.94
334.771	406.94
334.999	389.94
335.227	406.94
335.455	383.94
335.684	377.94
335.912	375.94
336.14	367.94
336.369	379.94
336.597	396.94
336.825	378.94
337.053	385.94
337.281	360.94
337.51	376.94
337.738	391.94
337.966	391.94
338.194	384.94
338.422	394.94
338.65	366.94
338.878	367.94
339.106	388.94
339.334	371.94
339.562	372.94
339.79	348.94
340.018	383.94
340.246	380.94
340.474	368.94
340.702	361.94
340.93	376.94
341.158	371.94
341.386	366.94
341.614	381.94
341.842	407.94
342.07	371.94
342.298	359.94
342.526	350.94
342.754	366.94
342.981	340.94
343.209	353.94
343.437	343.94
343.665	352.94
343.893	344.94
344.12	354.94
344.348	385.94
344.576	379.94
344.804	375.94
345.031	418.94
345.259	420.94
345.487	403.94
345.714	378.94
345.942	355.94
346.17	389.94
346.397	375.94
346.625	357.94
346.853	360.94
347.08	383.94
347.308	385.94
347.535	376.94
347.763	425.94
347.99	421.94
348.218	394.94
348.445	415.94
348.673	402.94
348.9	362.94
349.128	367.94
349.355	377.94
349.583	354.94
349.81	343.94
350.037	359.94
350.265	352.94
350.492	337.94
350.72	362.94
350.947	364.94
351.174	407.94
351.402	402.94
351.629	400.94
351.856	387.94
352.083	394.94
352.311	424.94
352.538	433.94
352.765	401.94
352.992	397.94
353.22	395.94
353.447	386.94
353.674	360.94
353.901	369.94
354.128	363.94
354.355	335.94
354.583	341.94
354.81	346.94
355.037	323.94
355.264	343.94
355.491	329.94
355.718	328.94
355.945	316.94
356.172	318.94
356.399	322.94
356.626	324.94
356.853	339.94
357.08	337.94
357.307	312.94
357.534	331.94
357.761	326.94
357.988	346.94
358.215	322.94
358.441	333.94
358.668	341.94
358.895	354.94
359.122	336.94
359.349	362.94
359.576	403.94
359.802	413.94
360.029	461.94
360.256	513.94
360.483	457.94
360.709	395.94
360.936	391.94
361.163	388.94
361.39	392.94
361.616	399.94
361.843	365.94
362.07	375.94
362.296	385.94
362.523	386.94
362.749	366.94
362.976	366.94
363.203	365.94
363.429	367.94
363.656	369.94
363.882	342.94
364.109	355.94
364.335	375.94
364.562	354.94
364.788	347.94
365.015	370.94
365.241	357.94
365.468	373.94
365.694	376.94
365.92	374.94
366.147	367.94
366.373	367.94
366.599	350.94
366.826	365.94
367.052	345.94
367.278	355.94
367.505	329.94
367.731	350.94
367.957	341.94
368.184	357.94
368.41	344.94
368.636	377.94
368.862	363.94
369.089	362.94
369.315	359.94
369.541	351.94
369.767	322.94
369.993	339.94
370.219	365.94
370.445	341.94
370.672	350.94
370.898	326.94
371.124	339.94
371.35	348.94
371.576	338.94
371.802	328.94
372.028	325.94
372.254	347.94
372.48	344.94
372.706	353.94
372.932	337.94
373.158	317.94
373.384	313.94
373.61	326.94
373.835	336.94
374.061	340.94
374.287	338.94
374.513	341.94
374.739	340.94
374.965	324.94
375.191	326.94
375.416	313.94
375.642	336.94
375.868	333.94
376.094	325.94
376.319	325.94
376.545	352.94
376.771	329.94
376.997	340.94
377.222	319.94
377.448	314.94
377.674	349.94
377.899	313.94
378.125	321.94
378.35	323.94
378.576	326.94
378.802	339.94
379.027	332.94
379.253	323.94
379.478	309.94
379.704	340.94
379.929	336.94
380.155	332.94
380.38	329.94
380.606	334.94
380.831	356.94
381.057	337.94
381.282	353.94
381.507	342.94
381.733	336.94
381.958	334.94
382.184	331.94
382.409	348.94
382.634	347.94
382.86	339.94
383.085	343.94
383.31	345.94
383.535	355.94
383.761	338.94
383.986	353.94
384.211	347.94
384.436	349.94
384.662	341.94
384.887	320.94
385.112	369.94
385.337	359.94
385.562	337.94
385.787	362.94
386.013	369.94
386.238	357.94
386.463	360.94
386.688	363.94
386.913	356.94
387.138	334.94
387.363	351.94
387.588	342.94
387.813	359.94
388.038	345.94
388.263	341.94
388.488	329.94
388.713	356.94
388.938	345.94
389.163	377.94
389.387	350.94
389.612	357.94
389.837	355.94
390.062	350.94
390.287	360.94
390.512	327.94
390.736	345.94
390.961	356.94
391.186	331.94
391.411	329.94
391.636	340.94
391.86	359.94
392.085	346.94
392.31	353.94
392.534	362.94
392.759	354.94
392.984	349.94
393.208	338.94
393.433	336.94
393.658	335.94
393.882	357.94
394.107	345.94
394.331	352.94
394.556	352.94
394.78	351.94
395.005	352.94
395.229	373.94
395.454	365.94
395.678	354.94
395.903	367.94
396.127	373.94
396.352	385.94
396.576	406.94
396.801	381.94
397.025	360.94
397.249	367.94
397.474	371.94
397.698	372.94
397.922	395.94
398.147	402.94
398.371	395.94
398.595	379.94
398.82	394.94
399.044	379.94
399.268	412.94
399.492	409.94
399.717	425.94
399.941	461.94
400.165	468.94
400.389	497.94
400.613	472.94
400.837	428.94
401.062	425.94
401.286	405.94
401.51	408.94
401.734	405.94
401.958	411.94
402.182	408.94
402.406	422.94
402.63	433.94
402.854	403.94
403.078	434.94
403.302	465.94
403.526	426.94
403.75	447.94
403.974	415.94
404.198	413.94
404.422	417.94
404.645	423.94
404.869	419.94
405.093	435.94
405.317	490.94
405.541	495.94
405.765	466.94
405.988	438.94
406.212	483.94
406.436	495.94
406.66	502.94
406.883	482.94
407.107	515.94
407.331	521.94
407.555	609.94
407.778	596.94
408.002	563.94
408.226	513.94
408.449	466.94
408.673	480.94
408.896	492.94
409.12	529.94
409.344	514.94
409.567	456.94
409.791	457.94
410.014	438.94
410.238	426.94
410.461	440.94
410.685	435.94
410.908	463.94
411.132	490.94
411.355	529.94
411.578	509.94
411.802	443.94
412.025	428.94
412.249	425.94
412.472	440.94
412.695	445.94
412.919	447.94
413.142	433.94
413.365	415.94
413.589	417.94
413.812	395.94
414.035	380.94
414.258	408.94
414.482	400.94
414.705	381.94
414.928	405.94
415.151	405.94
415.374	381.94
415.597	379.94
415.821	399.94
416.044	412.94
416.267	405.94
416.49	397.94
416.713	399.94
416.936	388.94
417.159	402.94
417.382	432.94
417.605	432.94
417.828	415.94
418.051	447.94
418.274	463.94
418.497	414.94
418.72	415.94
418.943	399.94
419.166	427.94
419.389	426.94
419.611	434.94
419.834	431.94
420.057	423.94
420.28	434.94
420.503	435.94
420.726	437.94
420.948	450.94
421.171	499.94
421.394	548.94
421.617	493.94
421.839	433.94
422.062	429.94
422.285	468.94
422.507	507.94
422.73	601.94
422.953	572.94
423.175	505.94
423.398	503.94
423.621	487.94
423.843	497.94
424.066	502.94
424.288	482.94
424.511	521.94
424.733	579.94
424.956	650.94
425.178	653.94
425.401	621.94
425.623	649.94
425.846	575.94
426.068	518.94
426.291	525.94
426.513	516.94
426.735	525.94
426.958	563.94
427.18	650.94
427.402	769.94
427.625	874.94
427.847	787.94
428.069	669.94
428.292	608.94
428.514	539.94
428.736	507.94
428.958	524.94
429.181	482.94
429.403	472.94
429.625	459.94
429.847	539.94
430.069	573.94
430.292	618.94
430.514	507.94
430.736	490.94
430.958	465.94
431.18	439.94
431.402	436.94
431.624	434.94
431.846	445.94
432.068	421.94
432.29	455.94
432.512	410.94
432.734	425.94
432.956	455.94
433.178	458.94
433.4	455.94
433.622	433.94
433.844	427.94
434.066	420.94
434.287	418.94
434.509	424.94
434.731	449.94
434.953	465.94
435.175	467.94
435.397	521.94
435.618	499.94
435.84	567.94
436.062	647.94
436.284	681.94
436.505	626.94
436.727	569.94
436.949	499.94
437.17	473.94
437.392	481.94
437.614	522.94
437.835	548.94
438.057	658.94
438.278	761.94
438.5	738.94
438.721	779.94
438.943	773.94
439.165	636.94
439.386	561.94
439.608	557.94
439.829	578.94
440.05	595.94
440.272	630.94
440.493	594.94
440.715	533.94
440.936	495.94
441.158	507.94
441.379	474.94
441.6	515.94
441.822	521.94
442.043	566.94
442.264	661.94
442.486	707.94
442.707	590.94
442.928	539.94
443.149	545.94
443.371	579.94
443.592	633.94
443.813	689.94
444.034	733.94
444.255	606.94
444.476	565.94
444.698	531.94
444.919	513.94
445.14	624.94
445.361	574.94
445.582	577.94
445.803	627.94
446.024	739.94
446.245	737.94
446.466	704.94
446.687	572.94
446.908	532.94
447.129	502.94
447.35	486.94
447.571	505.94
447.792	498.94
448.013	481.94
448.234	538.94
448.455	568.94
448.675	681.94
448.896	786.94
449.117	689.94
449.338	655.94
449.559	731.94
449.779	809.94
450	652.94
450.221	582.94
450.442	519.94
450.662	509.94
450.883	514.94
451.104	546.94
451.324	538.94
451.545	497.94
451.766	478.94
451.986	461.94
452.207	429.94
452.428	434.94
452.648	453.94
452.869	444.94
453.089	477.94
453.31	456.94
453.53	465.94
453.751	440.94
453.971	464.94
454.192	481.94
454.412	474.94
454.633	449.94
454.853	442.94
455.073	434.94
455.294	462.94
455.514	546.94
455.734	536.94
455.955	460.94
456.175	421.94
456.395	397.94
456.616	400.94
456.836	397.94
457.056	377.94
457.276	373.94
457.497	399.94
457.717	400.94
457.937	399.94
458.157	409.94
458.377	433.94
458.598	460.94
458.818	549.94
459.038	644.94
459.258	666.94
459.478	522.94
459.698	480.94
459.918	452.94
460.138	454.94
460.358	431.94
460.578	419.94
460.798	434.94
461.018	441.94
461.238	408.94
461.458	423.94
461.678	403.94
461.898	416.94
462.118	407.94
462.338	437.94
462.558	431.94
462.777	423.94
462.997	442.94
463.217	424.94
463.437	435.94
463.657	421.94
463.876	421.94
464.096	422.94
464.316	443.94
464.536	450.94
464.755	462.94
464.975	481.94
465.195	580.94
465.414	695.94
465.634	595.94
465.854	513.94
466.073	458.94
466.293	473.94
466.512	454.94
466.732	420.94
466.951	443.94
467.171	427.94
467.391	422.94
467.61	458.94
467.829	465.94
468.049	432.94
468.268	410.94
468.488	416.94
468.707	404.94
468.927	422.94
469.146	412.94
469.365	423.94
469.585	422.94
469.804	446.94
470.023	441.94
470.243	445.94
470.462	462.94
470.681	456.94
470.901	485.94
471.12	452.94
471.339	459.94
471.558	439.94
471.777	449.94
471.997	429.94
472.216	429.94
472.435	441.94
472.654	459.94
472.873	413.94
473.092	426.94
473.311	426.94
473.53	420.94
473.749	451.94
473.968	490.94
474.187	631.94
474.406	639.94
474.625	524.94
474.844	477.94
475.063	456.94
475.282	426.94
475.501	435.94
475.72	449.94
475.939	454.94
476.158	457.94
476.377	442.94
476.596	434.94
476.814	447.94
477.033	487.94
477.252	473.94
477.471	465.94
477.69	445.94
477.908	474.94
478.127	460.94
478.346	455.94
478.564	467.94
478.783	482.94
479.002	491.94
479.22	488.94
479.439	506.94
479.658	550.94
479.876	559.94
480.095	542.94
480.313	577.94
480.532	540.94
480.751	543.94
480.969	532.94
481.188	529.94
481.406	543.94
481.624	517.94
481.843	526.94
482.061	509.94
482.28	519.94
482.498	511.94
482.717	531.94
482.935	517.94
483.153	525.94
483.372	507.94
483.59	499.94
483.808	505.94
484.027	530.94
484.245	535.94
484.463	543.94
484.681	541.94
484.9	541.94
485.118	521.94
485.336	535.94
485.554	526.94
485.772	523.94
485.99	549.94
486.209	549.94
486.427	542.94
486.645	567.94
486.863	589.94
487.081	585.94
487.299	575.94
487.517	560.94
487.735	574.94
487.953	566.94
488.171	587.94
488.389	563.94
488.607	578.94
488.825	573.94
489.043	550.94
489.261	577.94
489.479	597.94
489.696	571.94
489.914	587.94
490.132	584.94
490.35	619.94
490.568	621.94
490.786	608.94
491.003	615.94
491.221	631.94
491.439	630.94
491.657	639.94
491.874	654.94
492.092	636.94
492.31	680.94
492.527	669.94
492.745	657.94
492.963	675.94
493.18	680.94
493.398	674.94
493.615	680.94
493.833	677.94
494.05	669.94
494.268	670.94
494.485	686.94
494.703	674.94
494.92	676.94
495.138	704.94
495.355	699.94
495.573	707.94
495.79	671.94
496.008	691.94
496.225	683.94
496.442	693.94
496.66	694.94
496.877	686.94
497.094	682.94
497.312	685.94
497.529	678.94
497.746	706.94
497.963	710.94
498.181	728.94
498.398	710.94
498.615	763.94
498.832	729.94
499.049	723.94
499.267	734.94
499.484	737.94
499.701	759.94
499.918	769.94
500.135	785.94
500.352	771.94
500.569	779.94
500.786	779.94
501.003	795.94
501.22	800.94
501.437	793.94
501.654	800.94
501.871	843.94
