Data from 1987.PennyLincolnUp.Lamp.En5.5.200Scan.071819.P2_HRD10591_17-15-59-971.txt Node
Date: Thu Jul 18 17:15:59 EDT 2019
User: cochatt
Spectrometer: HR+D1059
Trigger mode: 1
Integration Time (sec): 1.000000E-1
Scans to average: 1
Electric dark correction enabled: true
Nonlinearity correction enabled: false
Boxcar width: 0
XAxis mode: Wavelengths
Number of Pixels in Spectrum: 2048
>>>>>Begin Spectral Data<<<<<
223.165	-20.25
223.4	-20.25
223.635	-20.25
223.869	-25.25
224.104	-14.25
224.338	-15.25
224.573	-17.25
224.808	-9.25
225.042	-10.25
225.277	2.75
225.511	-3.25
225.746	14.75
225.98	3.75
226.215	9.75
226.449	16.75
226.683	30.75
226.918	9.75
227.152	26.75
227.387	32.75
227.621	53.75
227.856	35.75
228.09	45.75
228.324	47.75
228.559	58.75
228.793	74.75
229.027	109.75
229.262	110.75
229.496	123.75
229.73	155.75
229.964	167.75
230.199	134.75
230.433	121.75
230.667	122.75
230.901	124.75
231.136	115.75
231.37	125.75
231.604	113.75
231.838	106.75
232.072	111.75
232.306	119.75
232.541	110.75
232.775	108.75
233.009	106.75
233.243	106.75
233.477	104.75
233.711	105.75
233.945	118.75
234.179	121.75
234.413	113.75
234.647	115.75
234.881	111.75
235.115	130.75
235.349	113.75
235.583	114.75
235.817	117.75
236.051	129.75
236.285	130.75
236.519	120.75
236.753	118.75
236.987	138.75
237.221	195.75
237.455	268.75
237.689	204.75
237.922	149.75
238.156	143.75
238.39	120.75
238.624	115.75
238.858	116.75
239.091	116.75
239.325	118.75
239.559	111.75
239.793	142.75
240.027	136.75
240.26	153.75
240.494	153.75
240.728	157.75
240.961	132.75
241.195	137.75
241.429	145.75
241.662	137.75
241.896	139.75
242.13	123.75
242.363	135.75
242.597	138.75
242.83	124.75
243.064	123.75
243.298	148.75
243.531	130.75
243.765	137.75
243.998	131.75
244.232	138.75
244.465	139.75
244.699	144.75
244.932	149.75
245.166	127.75
245.399	128.75
245.633	152.75
245.866	130.75
246.099	122.75
246.333	135.75
246.566	148.75
246.8	153.75
247.033	146.75
247.266	154.75
247.5	150.75
247.733	155.75
247.966	151.75
248.2	168.75
248.433	170.75
248.666	170.75
248.899	187.75
249.133	211.75
249.366	216.75
249.599	214.75
249.832	189.75
250.066	167.75
250.299	165.75
250.532	189.75
250.765	186.75
250.998	193.75
251.231	208.75
251.465	210.75
251.698	186.75
251.931	201.75
252.164	184.75
252.397	185.75
252.63	198.75
252.863	198.75
253.096	230.75
253.329	238.75
253.562	227.75
253.795	213.75
254.028	210.75
254.261	211.75
254.494	210.75
254.727	239.75
254.96	282.75
255.193	286.75
255.426	266.75
255.659	220.75
255.892	230.75
256.124	213.75
256.357	220.75
256.59	206.75
256.823	181.75
257.056	194.75
257.289	197.75
257.521	196.75
257.754	198.75
257.987	190.75
258.22	193.75
258.452	196.75
258.685	193.75
258.918	190.75
259.151	189.75
259.383	207.75
259.616	200.75
259.849	234.75
260.081	221.75
260.314	229.75
260.547	229.75
260.779	228.75
261.012	218.75
261.244	218.75
261.477	215.75
261.71	193.75
261.942	223.75
262.175	258.75
262.407	239.75
262.64	229.75
262.872	217.75
263.105	201.75
263.337	209.75
263.57	196.75
263.802	197.75
264.035	186.75
264.267	181.75
264.499	191.75
264.732	193.75
264.964	172.75
265.197	182.75
265.429	186.75
265.661	177.75
265.894	195.75
266.126	181.75
266.358	181.75
266.591	201.75
266.823	200.75
267.055	198.75
267.287	210.75
267.52	201.75
267.752	199.75
267.984	193.75
268.216	191.75
268.448	198.75
268.681	217.75
268.913	224.75
269.145	239.75
269.377	262.75
269.609	248.75
269.841	236.75
270.073	253.75
270.306	280.75
270.538	293.75
270.77	283.75
271.002	285.75
271.234	267.75
271.466	282.75
271.698	305.75
271.93	300.75
272.162	297.75
272.394	317.75
272.626	290.75
272.858	255.75
273.09	263.75
273.322	259.75
273.553	251.75
273.785	245.75
274.017	237.75
274.249	235.75
274.481	232.75
274.713	254.75
274.945	249.75
275.176	233.75
275.408	249.75
275.64	232.75
275.872	229.75
276.104	245.75
276.335	219.75
276.567	251.75
276.799	274.75
277.031	267.75
277.262	286.75
277.494	301.75
277.726	276.75
277.957	264.75
278.189	265.75
278.421	249.75
278.652	246.75
278.884	234.75
279.115	244.75
279.347	241.75
279.579	212.75
279.81	223.75
280.042	209.75
280.273	226.75
280.505	238.75
280.736	224.75
280.968	226.75
281.199	248.75
281.431	217.75
281.662	226.75
281.894	231.75
282.125	235.75
282.356	254.75
282.588	290.75
282.819	293.75
283.051	253.75
283.282	212.75
283.513	225.75
283.745	229.75
283.976	231.75
284.207	241.75
284.439	239.75
284.67	234.75
284.901	239.75
285.132	226.75
285.364	223.75
285.595	216.75
285.826	229.75
286.057	229.75
286.288	223.75
286.52	225.75
286.751	238.75
286.982	232.75
287.213	240.75
287.444	219.75
287.675	239.75
287.906	242.75
288.138	249.75
288.369	251.75
288.6	263.75
288.831	256.75
289.062	234.75
289.293	241.75
289.524	225.75
289.755	231.75
289.986	252.75
290.217	230.75
290.448	243.75
290.679	237.75
290.91	224.75
291.141	245.75
291.371	240.75
291.602	207.75
291.833	224.75
292.064	239.75
292.295	253.75
292.526	231.75
292.757	240.75
292.987	225.75
293.218	241.75
293.449	261.75
293.68	231.75
293.91	211.75
294.141	240.75
294.372	240.75
294.603	239.75
294.833	239.75
295.064	229.75
295.295	243.75
295.525	249.75
295.756	239.75
295.987	254.75
296.217	290.75
296.448	302.75
296.679	261.75
296.909	250.75
297.14	242.75
297.37	239.75
297.601	242.75
297.831	235.75
298.062	247.75
298.292	263.75
298.523	253.75
298.753	248.75
298.984	251.75
299.214	258.75
299.445	243.75
299.675	241.75
299.905	258.75
300.136	252.75
300.366	237.75
300.597	263.75
300.827	242.75
301.057	272.75
301.288	265.75
301.518	298.75
301.748	275.75
301.979	259.75
302.209	260.75
302.439	280.75
302.669	243.75
302.9	289.75
303.13	265.75
303.36	264.75
303.59	280.75
303.82	309.75
304.051	275.75
304.281	276.75
304.511	270.75
304.741	256.75
304.971	253.75
305.201	269.75
305.431	252.75
305.661	255.75
305.891	273.75
306.121	258.75
306.352	283.75
306.582	277.75
306.812	265.75
307.042	246.75
307.272	271.75
307.502	268.75
307.731	274.75
307.961	260.75
308.191	279.75
308.421	268.75
308.651	290.75
308.881	297.75
309.111	289.75
309.341	290.75
309.571	304.75
309.8	314.75
310.03	332.75
310.26	356.75
310.49	353.75
310.72	354.75
310.949	371.75
311.179	389.75
311.409	368.75
311.639	357.75
311.868	341.75
312.098	363.75
312.328	338.75
312.557	364.75
312.787	405.75
313.017	413.75
313.246	365.75
313.476	335.75
313.706	323.75
313.935	342.75
314.165	355.75
314.394	381.75
314.624	375.75
314.853	350.75
315.083	334.75
315.312	322.75
315.542	329.75
315.771	309.75
316.001	311.75
316.23	322.75
316.46	317.75
316.689	333.75
316.919	337.75
317.148	317.75
317.377	334.75
317.607	353.75
317.836	351.75
318.065	327.75
318.295	328.75
318.524	321.75
318.753	325.75
318.983	333.75
319.212	337.75
319.441	345.75
319.67	345.75
319.9	342.75
320.129	338.75
320.358	322.75
320.587	340.75
320.816	343.75
321.046	361.75
321.275	353.75
321.504	347.75
321.733	373.75
321.962	407.75
322.191	378.75
322.42	426.75
322.649	449.75
322.878	447.75
323.108	475.75
323.337	478.75
323.566	529.75
323.795	603.75
324.024	673.75
324.253	870.75
324.482	1245.75
324.71	1929.75
324.939	2698.75
325.168	2343.75
325.397	1274.75
325.626	802.75
325.855	635.75
326.084	555.75
326.313	553.75
326.542	565.75
326.77	631.75
326.999	737.75
327.228	1085.75
327.457	1645.75
327.686	2029.75
327.914	1430.75
328.143	866.75
328.372	739.75
328.6	661.75
328.829	645.75
329.058	640.75
329.287	659.75
329.515	607.75
329.744	528.75
329.972	512.75
330.201	503.75
330.43	544.75
330.658	625.75
330.887	683.75
331.115	650.75
331.344	537.75
331.572	499.75
331.801	471.75
332.03	469.75
332.258	420.75
332.486	387.75
332.715	396.75
332.943	387.75
333.172	383.75
333.4	378.75
333.629	376.75
333.857	393.75
334.085	375.75
334.314	396.75
334.542	375.75
334.771	399.75
334.999	399.75
335.227	398.75
335.455	402.75
335.684	376.75
335.912	370.75
336.14	375.75
336.369	378.75
336.597	392.75
336.825	407.75
337.053	388.75
337.281	369.75
337.51	358.75
337.738	367.75
337.966	371.75
338.194	397.75
338.422	409.75
338.65	388.75
338.878	366.75
339.106	370.75
339.334	376.75
339.562	349.75
339.79	356.75
340.018	373.75
340.246	358.75
340.474	375.75
340.702	385.75
340.93	387.75
341.158	353.75
341.386	360.75
341.614	375.75
341.842	389.75
342.07	370.75
342.298	355.75
342.526	362.75
342.754	369.75
342.981	331.75
343.209	341.75
343.437	346.75
343.665	351.75
343.893	338.75
344.12	357.75
344.348	344.75
344.576	373.75
344.804	399.75
345.031	413.75
345.259	427.75
345.487	393.75
345.714	378.75
345.942	362.75
346.17	347.75
346.397	353.75
346.625	389.75
346.853	370.75
347.08	355.75
347.308	373.75
347.535	385.75
347.763	395.75
347.99	394.75
348.218	400.75
348.445	406.75
348.673	396.75
348.9	375.75
349.128	348.75
349.355	340.75
349.583	345.75
349.81	347.75
350.037	355.75
350.265	355.75
350.492	332.75
350.72	353.75
350.947	360.75
351.174	355.75
351.402	403.75
351.629	398.75
351.856	405.75
352.083	398.75
352.311	415.75
352.538	416.75
352.765	400.75
352.992	407.75
353.22	393.75
353.447	383.75
353.674	384.75
353.901	353.75
354.128	335.75
354.355	339.75
354.583	330.75
354.81	341.75
355.037	338.75
355.264	321.75
355.491	328.75
355.718	305.75
355.945	320.75
356.172	314.75
356.399	308.75
356.626	332.75
356.853	324.75
357.08	325.75
357.307	314.75
357.534	327.75
357.761	319.75
357.988	327.75
358.215	342.75
358.441	328.75
358.668	328.75
358.895	341.75
359.122	357.75
359.349	342.75
359.576	383.75
359.802	411.75
360.029	460.75
360.256	480.75
360.483	455.75
360.709	390.75
360.936	386.75
361.163	381.75
361.39	390.75
361.616	383.75
361.843	386.75
362.07	389.75
362.296	375.75
362.523	384.75
362.749	349.75
362.976	387.75
363.203	357.75
363.429	361.75
363.656	335.75
363.882	340.75
364.109	337.75
364.335	346.75
364.562	346.75
364.788	322.75
365.015	345.75
365.241	357.75
365.468	331.75
365.694	331.75
365.92	343.75
366.147	360.75
366.373	351.75
366.599	325.75
366.826	360.75
367.052	339.75
367.278	341.75
367.505	350.75
367.731	331.75
367.957	356.75
368.184	328.75
368.41	357.75
368.636	351.75
368.862	358.75
369.089	350.75
369.315	351.75
369.541	329.75
369.767	340.75
369.993	347.75
370.219	333.75
370.445	336.75
370.672	325.75
370.898	310.75
371.124	321.75
371.35	320.75
371.576	330.75
371.802	320.75
372.028	330.75
372.254	318.75
372.48	317.75
372.706	316.75
372.932	307.75
373.158	322.75
373.384	328.75
373.61	328.75
373.835	334.75
374.061	320.75
374.287	322.75
374.513	334.75
374.739	314.75
374.965	325.75
375.191	315.75
375.416	330.75
375.642	324.75
375.868	320.75
376.094	326.75
376.319	323.75
376.545	327.75
376.771	329.75
376.997	336.75
377.222	321.75
377.448	318.75
377.674	313.75
377.899	319.75
378.125	322.75
378.35	320.75
378.576	328.75
378.802	321.75
379.027	333.75
379.253	320.75
379.478	311.75
379.704	328.75
379.929	317.75
380.155	332.75
380.38	320.75
380.606	322.75
380.831	334.75
381.057	340.75
381.282	332.75
381.507	318.75
381.733	350.75
381.958	334.75
382.184	320.75
382.409	321.75
382.634	306.75
382.86	342.75
383.085	360.75
383.31	330.75
383.535	315.75
383.761	334.75
383.986	341.75
384.211	341.75
384.436	331.75
384.662	318.75
384.887	339.75
385.112	346.75
385.337	354.75
385.562	347.75
385.787	331.75
386.013	361.75
386.238	354.75
386.463	358.75
386.688	342.75
386.913	319.75
387.138	343.75
387.363	349.75
387.588	342.75
387.813	333.75
388.038	342.75
388.263	344.75
388.488	324.75
388.713	342.75
388.938	342.75
389.163	373.75
389.387	359.75
389.612	337.75
389.837	331.75
390.062	347.75
390.287	332.75
390.512	324.75
390.736	327.75
390.961	353.75
391.186	321.75
391.411	322.75
391.636	328.75
391.86	355.75
392.085	333.75
392.31	342.75
392.534	337.75
392.759	338.75
392.984	339.75
393.208	352.75
393.433	329.75
393.658	359.75
393.882	338.75
394.107	337.75
394.331	349.75
394.556	350.75
394.78	337.75
395.005	345.75
395.229	336.75
395.454	344.75
395.678	353.75
395.903	369.75
396.127	398.75
396.352	372.75
396.576	380.75
396.801	365.75
397.025	351.75
397.249	374.75
397.474	367.75
397.698	373.75
397.922	388.75
398.147	400.75
398.371	384.75
398.595	372.75
398.82	364.75
399.044	377.75
399.268	390.75
399.492	390.75
399.717	406.75
399.941	461.75
400.165	471.75
400.389	493.75
400.613	460.75
400.837	425.75
401.062	399.75
401.286	394.75
401.51	389.75
401.734	390.75
401.958	410.75
402.182	417.75
402.406	435.75
402.63	425.75
402.854	399.75
403.078	429.75
403.302	406.75
403.526	409.75
403.75	425.75
403.974	380.75
404.198	416.75
404.422	430.75
404.645	419.75
404.869	424.75
405.093	443.75
405.317	474.75
405.541	475.75
405.765	442.75
405.988	433.75
406.212	497.75
406.436	487.75
406.66	512.75
406.883	467.75
407.107	485.75
407.331	538.75
407.555	571.75
407.778	586.75
408.002	509.75
408.226	488.75
408.449	461.75
408.673	473.75
408.896	494.75
409.12	523.75
409.344	515.75
409.567	453.75
409.791	443.75
410.014	428.75
410.238	431.75
410.461	418.75
410.685	444.75
410.908	451.75
411.132	479.75
411.355	528.75
411.578	496.75
411.802	446.75
412.025	394.75
412.249	426.75
412.472	423.75
412.695	444.75
412.919	426.75
413.142	405.75
413.365	377.75
413.589	407.75
413.812	395.75
414.035	398.75
414.258	374.75
414.482	404.75
414.705	395.75
414.928	408.75
415.151	380.75
415.374	387.75
415.597	388.75
415.821	379.75
416.044	379.75
416.267	403.75
416.49	386.75
416.713	405.75
416.936	377.75
417.159	376.75
417.382	417.75
417.605	402.75
417.828	422.75
418.051	434.75
418.274	431.75
418.497	407.75
418.72	403.75
418.943	415.75
419.166	415.75
419.389	434.75
419.611	419.75
419.834	427.75
420.057	431.75
420.28	417.75
420.503	412.75
420.726	441.75
420.948	445.75
421.171	506.75
421.394	511.75
421.617	472.75
421.839	453.75
422.062	447.75
422.285	439.75
422.507	530.75
422.73	600.75
422.953	547.75
423.175	515.75
423.398	487.75
423.621	464.75
423.843	488.75
424.066	483.75
424.288	490.75
424.511	512.75
424.733	554.75
424.956	633.75
425.178	635.75
425.401	627.75
425.623	648.75
425.846	549.75
426.068	507.75
426.291	519.75
426.513	517.75
426.735	513.75
426.958	560.75
427.18	661.75
427.402	745.75
427.625	805.75
427.847	787.75
428.069	646.75
428.292	559.75
428.514	527.75
428.736	481.75
428.958	485.75
429.181	472.75
429.403	469.75
429.625	486.75
429.847	519.75
430.069	569.75
430.292	586.75
430.514	496.75
430.736	470.75
430.958	452.75
431.18	449.75
431.402	427.75
431.624	401.75
431.846	415.75
432.068	413.75
432.29	412.75
432.512	402.75
432.734	419.75
432.956	442.75
433.178	442.75
433.4	436.75
433.622	425.75
433.844	418.75
434.066	421.75
434.287	419.75
434.509	435.75
434.731	405.75
434.953	431.75
435.175	469.75
435.397	487.75
435.618	509.75
435.84	550.75
436.062	638.75
436.284	717.75
436.505	583.75
436.727	517.75
436.949	509.75
437.17	469.75
437.392	481.75
437.614	489.75
437.835	570.75
438.057	659.75
438.278	743.75
438.5	735.75
438.721	763.75
438.943	735.75
439.165	609.75
439.386	549.75
439.608	534.75
439.829	550.75
440.05	567.75
440.272	626.75
440.493	591.75
440.715	525.75
440.936	480.75
441.158	473.75
441.379	471.75
441.6	495.75
441.822	509.75
442.043	569.75
442.264	643.75
442.486	683.75
442.707	626.75
442.928	530.75
443.149	555.75
443.371	575.75
443.592	601.75
443.813	683.75
444.034	727.75
444.255	620.75
444.476	528.75
444.698	509.75
444.919	501.75
445.14	567.75
445.361	547.75
445.582	551.75
445.803	625.75
446.024	728.75
446.245	750.75
446.466	675.75
446.687	594.75
446.908	562.75
447.129	496.75
447.35	490.75
447.571	481.75
447.792	472.75
448.013	481.75
448.234	526.75
448.455	582.75
448.675	649.75
448.896	777.75
449.117	660.75
449.338	617.75
449.559	709.75
449.779	810.75
450	663.75
450.221	570.75
450.442	509.75
450.662	472.75
450.883	505.75
451.104	531.75
451.324	520.75
451.545	487.75
451.766	439.75
451.986	425.75
452.207	434.75
452.428	435.75
452.648	449.75
452.869	441.75
453.089	450.75
453.31	461.75
453.53	472.75
453.751	461.75
453.971	459.75
454.192	470.75
454.412	455.75
454.633	444.75
454.853	410.75
455.073	451.75
455.294	471.75
455.514	541.75
455.734	519.75
455.955	456.75
456.175	415.75
456.395	388.75
456.616	397.75
456.836	408.75
457.056	391.75
457.276	399.75
457.497	396.75
457.717	387.75
457.937	397.75
458.157	425.75
458.377	409.75
458.598	429.75
458.818	523.75
459.038	647.75
459.258	616.75
459.478	540.75
459.698	473.75
459.918	448.75
460.138	418.75
460.358	413.75
460.578	414.75
460.798	399.75
461.018	423.75
461.238	398.75
461.458	412.75
461.678	395.75
461.898	406.75
462.118	407.75
462.338	404.75
462.558	420.75
462.777	415.75
462.997	428.75
463.217	431.75
463.437	440.75
463.657	431.75
463.876	436.75
464.096	426.75
464.316	416.75
464.536	450.75
464.755	418.75
464.975	477.75
465.195	543.75
465.414	707.75
465.634	591.75
465.854	507.75
466.073	482.75
466.293	439.75
466.512	429.75
466.732	436.75
466.951	421.75
467.171	419.75
467.391	425.75
467.61	416.75
467.829	456.75
468.049	437.75
468.268	413.75
468.488	392.75
468.707	401.75
468.927	405.75
469.146	403.75
469.365	403.75
469.585	379.75
469.804	429.75
470.023	436.75
470.243	413.75
470.462	436.75
470.681	481.75
470.901	488.75
471.12	418.75
471.339	433.75
471.558	420.75
471.777	438.75
471.997	393.75
472.216	419.75
472.435	404.75
472.654	425.75
472.873	412.75
473.092	418.75
473.311	428.75
473.53	431.75
473.749	438.75
473.968	489.75
474.187	614.75
474.406	631.75
474.625	508.75
474.844	461.75
475.063	436.75
475.282	419.75
475.501	433.75
475.72	447.75
475.939	454.75
476.158	431.75
476.377	437.75
476.596	453.75
476.814	456.75
477.033	469.75
477.252	465.75
477.471	459.75
477.69	459.75
477.908	455.75
478.127	441.75
478.346	464.75
478.564	470.75
478.783	471.75
479.002	465.75
479.22	471.75
479.439	489.75
479.658	541.75
479.876	549.75
480.095	520.75
480.313	564.75
480.532	541.75
480.751	532.75
480.969	535.75
481.188	536.75
481.406	551.75
481.624	515.75
481.843	533.75
482.061	507.75
482.28	524.75
482.498	499.75
482.717	504.75
482.935	494.75
483.153	517.75
483.372	506.75
483.59	499.75
483.808	493.75
484.027	513.75
484.245	548.75
484.463	513.75
484.681	502.75
484.9	516.75
485.118	498.75
485.336	531.75
485.554	532.75
485.772	531.75
485.99	539.75
486.209	533.75
486.427	539.75
486.645	567.75
486.863	578.75
487.081	615.75
487.299	579.75
487.517	569.75
487.735	527.75
487.953	567.75
488.171	555.75
488.389	535.75
488.607	587.75
488.825	546.75
489.043	541.75
489.261	547.75
489.479	536.75
489.696	565.75
489.914	581.75
490.132	591.75
490.35	564.75
490.568	596.75
490.786	600.75
491.003	617.75
491.221	605.75
491.439	597.75
491.657	625.75
491.874	649.75
492.092	634.75
492.31	642.75
492.527	619.75
492.745	639.75
492.963	642.75
493.18	630.75
493.398	631.75
493.615	664.75
493.833	646.75
494.05	675.75
494.268	674.75
494.485	649.75
494.703	641.75
494.92	671.75
495.138	654.75
495.355	684.75
495.573	687.75
495.79	660.75
496.008	663.75
496.225	673.75
496.442	667.75
496.66	665.75
496.877	678.75
497.094	697.75
497.312	681.75
497.529	678.75
497.746	690.75
497.963	689.75
498.181	717.75
498.398	707.75
498.615	695.75
498.832	723.75
499.049	713.75
499.267	745.75
499.484	728.75
499.701	749.75
499.918	777.75
500.135	760.75
500.352	762.75
500.569	803.75
500.786	781.75
501.003	773.75
501.22	794.75
501.437	776.75
501.654	791.75
501.871	815.75
