Data from 1987.PennyLincolnUp.Lamp.En5.5.200Scan.071819.P2_HRD10591_17-14-25-971.txt Node
Date: Thu Jul 18 17:14:25 EDT 2019
User: cochatt
Spectrometer: HR+D1059
Trigger mode: 1
Integration Time (sec): 1.000000E-1
Scans to average: 1
Electric dark correction enabled: true
Nonlinearity correction enabled: false
Boxcar width: 0
XAxis mode: Wavelengths
Number of Pixels in Spectrum: 2048
>>>>>Begin Spectral Data<<<<<
223.165	-24.62
223.4	-24.62
223.635	-24.62
223.869	-18.62
224.104	-15.62
224.338	-8.62
224.573	-12.62
224.808	-6.62
225.042	-7.62
225.277	-2.62
225.511	-11.62
225.746	-11.62
225.98	11.38
226.215	15.38
226.449	13.38
226.683	25.38
226.918	22.38
227.152	32.38
227.387	31.38
227.621	26.38
227.856	44.38
228.09	51.38
228.324	40.38
228.559	56.38
228.793	75.38
229.027	102.38
229.262	113.38
229.496	126.38
229.73	137.38
229.964	163.38
230.199	139.38
230.433	123.38
230.667	119.38
230.901	135.38
231.136	118.38
231.37	113.38
231.604	111.38
231.838	104.38
232.072	124.38
232.306	103.38
232.541	101.38
232.775	96.38
233.009	115.38
233.243	111.38
233.477	113.38
233.711	110.38
233.945	115.38
234.179	117.38
234.413	117.38
234.647	125.38
234.881	107.38
235.115	120.38
235.349	104.38
235.583	118.38
235.817	140.38
236.051	132.38
236.285	119.38
236.519	127.38
236.753	124.38
236.987	139.38
237.221	181.38
237.455	232.38
237.689	191.38
237.922	147.38
238.156	137.38
238.39	141.38
238.624	141.38
238.858	130.38
239.091	134.38
239.325	119.38
239.559	128.38
239.793	129.38
240.027	130.38
240.26	139.38
240.494	138.38
240.728	145.38
240.961	133.38
241.195	139.38
241.429	148.38
241.662	117.38
241.896	120.38
242.13	131.38
242.363	131.38
242.597	124.38
242.83	129.38
243.064	124.38
243.298	131.38
243.531	129.38
243.765	134.38
243.998	151.38
244.232	135.38
244.465	139.38
244.699	152.38
244.932	131.38
245.166	141.38
245.399	135.38
245.633	121.38
245.866	143.38
246.099	135.38
246.333	143.38
246.566	153.38
246.8	136.38
247.033	137.38
247.266	148.38
247.5	138.38
247.733	151.38
247.966	156.38
248.2	149.38
248.433	169.38
248.666	157.38
248.899	172.38
249.133	199.38
249.366	198.38
249.599	190.38
249.832	149.38
250.066	170.38
250.299	161.38
250.532	166.38
250.765	188.38
250.998	203.38
251.231	218.38
251.465	205.38
251.698	199.38
251.931	191.38
252.164	183.38
252.397	180.38
252.63	183.38
252.863	197.38
253.096	188.38
253.329	223.38
253.562	227.38
253.795	202.38
254.028	224.38
254.261	203.38
254.494	220.38
254.727	257.38
254.96	257.38
255.193	258.38
255.426	235.38
255.659	218.38
255.892	222.38
256.124	208.38
256.357	195.38
256.59	182.38
256.823	189.38
257.056	195.38
257.289	193.38
257.521	189.38
257.754	192.38
257.987	177.38
258.22	203.38
258.452	190.38
258.685	195.38
258.918	201.38
259.151	192.38
259.383	208.38
259.616	196.38
259.849	203.38
260.081	198.38
260.314	230.38
260.547	228.38
260.779	223.38
261.012	216.38
261.244	224.38
261.477	220.38
261.71	201.38
261.942	219.38
262.175	217.38
262.407	219.38
262.64	199.38
262.872	191.38
263.105	183.38
263.337	183.38
263.57	195.38
263.802	181.38
264.035	197.38
264.267	191.38
264.499	189.38
264.732	195.38
264.964	189.38
265.197	189.38
265.429	192.38
265.661	184.38
265.894	192.38
266.126	196.38
266.358	198.38
266.591	190.38
266.823	183.38
267.055	200.38
267.287	201.38
267.52	190.38
267.752	187.38
267.984	207.38
268.216	196.38
268.448	199.38
268.681	203.38
268.913	214.38
269.145	218.38
269.377	239.38
269.609	234.38
269.841	232.38
270.073	247.38
270.306	250.38
270.538	280.38
270.77	269.38
271.002	296.38
271.234	281.38
271.466	291.38
271.698	253.38
271.93	274.38
272.162	295.38
272.394	280.38
272.626	280.38
272.858	253.38
273.09	247.38
273.322	246.38
273.553	239.38
273.785	241.38
274.017	229.38
274.249	228.38
274.481	233.38
274.713	231.38
274.945	228.38
275.176	209.38
275.408	226.38
275.64	231.38
275.872	220.38
276.104	218.38
276.335	228.38
276.567	231.38
276.799	256.38
277.031	263.38
277.262	284.38
277.494	263.38
277.726	271.38
277.957	239.38
278.189	234.38
278.421	246.38
278.652	234.38
278.884	238.38
279.115	213.38
279.347	220.38
279.579	197.38
279.81	218.38
280.042	226.38
280.273	204.38
280.505	212.38
280.736	215.38
280.968	209.38
281.199	210.38
281.431	210.38
281.662	210.38
281.894	224.38
282.125	216.38
282.356	245.38
282.588	257.38
282.819	257.38
283.051	218.38
283.282	215.38
283.513	214.38
283.745	214.38
283.976	226.38
284.207	243.38
284.439	227.38
284.67	245.38
284.901	223.38
285.132	223.38
285.364	224.38
285.595	225.38
285.826	216.38
286.057	227.38
286.288	224.38
286.52	224.38
286.751	212.38
286.982	209.38
287.213	213.38
287.444	219.38
287.675	233.38
287.906	231.38
288.138	243.38
288.369	245.38
288.6	247.38
288.831	251.38
289.062	228.38
289.293	232.38
289.524	219.38
289.755	215.38
289.986	219.38
290.217	208.38
290.448	222.38
290.679	233.38
290.91	232.38
291.141	231.38
291.371	216.38
291.602	223.38
291.833	223.38
292.064	232.38
292.295	211.38
292.526	210.38
292.757	223.38
292.987	216.38
293.218	232.38
293.449	236.38
293.68	232.38
293.91	231.38
294.141	228.38
294.372	230.38
294.603	216.38
294.833	210.38
295.064	233.38
295.295	243.38
295.525	231.38
295.756	234.38
295.987	241.38
296.217	257.38
296.448	284.38
296.679	257.38
296.909	232.38
297.14	231.38
297.37	247.38
297.601	227.38
297.831	229.38
298.062	219.38
298.292	216.38
298.523	224.38
298.753	238.38
298.984	236.38
299.214	229.38
299.445	236.38
299.675	222.38
299.905	239.38
300.136	248.38
300.366	234.38
300.597	238.38
300.827	248.38
301.057	251.38
301.288	253.38
301.518	245.38
301.748	260.38
301.979	239.38
302.209	250.38
302.439	265.38
302.669	265.38
302.9	257.38
303.13	247.38
303.36	260.38
303.59	265.38
303.82	268.38
304.051	249.38
304.281	266.38
304.511	264.38
304.741	260.38
304.971	239.38
305.201	256.38
305.431	267.38
305.661	246.38
305.891	251.38
306.121	264.38
306.352	279.38
306.582	256.38
306.812	267.38
307.042	254.38
307.272	247.38
307.502	247.38
307.731	254.38
307.961	266.38
308.191	257.38
308.421	244.38
308.651	259.38
308.881	292.38
309.111	296.38
309.341	279.38
309.571	285.38
309.8	299.38
310.03	309.38
310.26	313.38
310.49	307.38
310.72	320.38
310.949	344.38
311.179	343.38
311.409	332.38
311.639	285.38
311.868	313.38
312.098	316.38
312.328	316.38
312.557	339.38
312.787	363.38
313.017	351.38
313.246	331.38
313.476	329.38
313.706	324.38
313.935	308.38
314.165	339.38
314.394	347.38
314.624	323.38
314.853	310.38
315.083	315.38
315.312	312.38
315.542	297.38
315.771	310.38
316.001	289.38
316.23	304.38
316.46	313.38
316.689	290.38
316.919	301.38
317.148	315.38
317.377	325.38
317.607	291.38
317.836	327.38
318.065	299.38
318.295	309.38
318.524	291.38
318.753	295.38
318.983	298.38
319.212	308.38
319.441	332.38
319.67	330.38
319.9	322.38
320.129	318.38
320.358	325.38
320.587	319.38
320.816	329.38
321.046	336.38
321.275	337.38
321.504	327.38
321.733	336.38
321.962	334.38
322.191	353.38
322.42	391.38
322.649	395.38
322.878	400.38
323.108	431.38
323.337	453.38
323.566	470.38
323.795	507.38
324.024	567.38
324.253	712.38
324.482	1019.38
324.71	1572.38
324.939	2254.38
325.168	1939.38
325.397	1083.38
325.626	690.38
325.855	575.38
326.084	507.38
326.313	489.38
326.542	507.38
326.77	541.38
326.999	670.38
327.228	908.38
327.457	1380.38
327.686	1684.38
327.914	1173.38
328.143	771.38
328.372	633.38
328.6	592.38
328.829	560.38
329.058	577.38
329.287	595.38
329.515	517.38
329.744	494.38
329.972	433.38
330.201	459.38
330.43	491.38
330.658	529.38
330.887	597.38
331.115	575.38
331.344	497.38
331.572	441.38
331.801	423.38
332.03	430.38
332.258	404.38
332.486	379.38
332.715	369.38
332.943	360.38
333.172	344.38
333.4	373.38
333.629	367.38
333.857	382.38
334.085	391.38
334.314	367.38
334.542	364.38
334.771	372.38
334.999	376.38
335.227	364.38
335.455	371.38
335.684	348.38
335.912	359.38
336.14	343.38
336.369	364.38
336.597	380.38
336.825	364.38
337.053	343.38
337.281	348.38
337.51	351.38
337.738	365.38
337.966	341.38
338.194	358.38
338.422	359.38
338.65	353.38
338.878	345.38
339.106	348.38
339.334	363.38
339.562	317.38
339.79	342.38
340.018	348.38
340.246	343.38
340.474	360.38
340.702	359.38
340.93	344.38
341.158	342.38
341.386	335.38
341.614	361.38
341.842	354.38
342.07	330.38
342.298	323.38
342.526	344.38
342.754	331.38
342.981	327.38
343.209	314.38
343.437	335.38
343.665	313.38
343.893	325.38
344.12	343.38
344.348	352.38
344.576	358.38
344.804	357.38
345.031	362.38
345.259	384.38
345.487	376.38
345.714	378.38
345.942	345.38
346.17	346.38
346.397	339.38
346.625	343.38
346.853	336.38
347.08	351.38
347.308	351.38
347.535	349.38
347.763	380.38
347.99	348.38
348.218	349.38
348.445	352.38
348.673	356.38
348.9	357.38
349.128	335.38
349.355	330.38
349.583	336.38
349.81	331.38
350.037	325.38
350.265	335.38
350.492	347.38
350.72	349.38
350.947	358.38
351.174	362.38
351.402	351.38
351.629	367.38
351.856	352.38
352.083	364.38
352.311	383.38
352.538	374.38
352.765	388.38
352.992	350.38
353.22	374.38
353.447	360.38
353.674	337.38
353.901	324.38
354.128	320.38
354.355	312.38
354.583	333.38
354.81	327.38
355.037	323.38
355.264	321.38
355.491	275.38
355.718	313.38
355.945	315.38
356.172	311.38
356.399	326.38
356.626	293.38
356.853	292.38
357.08	337.38
357.307	329.38
357.534	311.38
357.761	292.38
357.988	330.38
358.215	326.38
358.441	326.38
358.668	309.38
358.895	310.38
359.122	345.38
359.349	315.38
359.576	357.38
359.802	383.38
360.029	399.38
360.256	432.38
360.483	415.38
360.709	373.38
360.936	353.38
361.163	369.38
361.39	358.38
361.616	355.38
361.843	358.38
362.07	368.38
362.296	340.38
362.523	339.38
362.749	350.38
362.976	345.38
363.203	333.38
363.429	321.38
363.656	336.38
363.882	340.38
364.109	348.38
364.335	326.38
364.562	309.38
364.788	324.38
365.015	339.38
365.241	339.38
365.468	329.38
365.694	337.38
365.92	353.38
366.147	336.38
366.373	325.38
366.599	324.38
366.826	325.38
367.052	336.38
367.278	331.38
367.505	340.38
367.731	329.38
367.957	313.38
368.184	335.38
368.41	335.38
368.636	343.38
368.862	365.38
369.089	313.38
369.315	329.38
369.541	318.38
369.767	334.38
369.993	332.38
370.219	319.38
370.445	336.38
370.672	329.38
370.898	314.38
371.124	307.38
371.35	313.38
371.576	311.38
371.802	323.38
372.028	312.38
372.254	307.38
372.48	294.38
372.706	321.38
372.932	339.38
373.158	321.38
373.384	318.38
373.61	303.38
373.835	331.38
374.061	321.38
374.287	327.38
374.513	340.38
374.739	336.38
374.965	332.38
375.191	311.38
375.416	336.38
375.642	332.38
375.868	328.38
376.094	325.38
376.319	319.38
376.545	314.38
376.771	330.38
376.997	327.38
377.222	308.38
377.448	323.38
377.674	311.38
377.899	311.38
378.125	319.38
378.35	325.38
378.576	301.38
378.802	315.38
379.027	328.38
379.253	313.38
379.478	320.38
379.704	311.38
379.929	319.38
380.155	324.38
380.38	325.38
380.606	332.38
380.831	314.38
381.057	326.38
381.282	321.38
381.507	331.38
381.733	347.38
381.958	333.38
382.184	316.38
382.409	335.38
382.634	333.38
382.86	319.38
383.085	326.38
383.31	311.38
383.535	340.38
383.761	328.38
383.986	311.38
384.211	329.38
384.436	332.38
384.662	334.38
384.887	317.38
385.112	342.38
385.337	358.38
385.562	339.38
385.787	319.38
386.013	354.38
386.238	330.38
386.463	327.38
386.688	333.38
386.913	318.38
387.138	339.38
387.363	316.38
387.588	344.38
387.813	338.38
388.038	332.38
388.263	337.38
388.488	350.38
388.713	321.38
388.938	347.38
389.163	352.38
389.387	329.38
389.612	337.38
389.837	337.38
390.062	322.38
390.287	340.38
390.512	340.38
390.736	337.38
390.961	332.38
391.186	346.38
391.411	342.38
391.636	330.38
391.86	341.38
392.085	355.38
392.31	342.38
392.534	340.38
392.759	350.38
392.984	345.38
393.208	344.38
393.433	342.38
393.658	353.38
393.882	351.38
394.107	346.38
394.331	356.38
394.556	337.38
394.78	349.38
395.005	355.38
395.229	343.38
395.454	352.38
395.678	333.38
395.903	345.38
396.127	377.38
396.352	379.38
396.576	364.38
396.801	347.38
397.025	342.38
397.249	343.38
397.474	349.38
397.698	377.38
397.922	377.38
398.147	372.38
398.371	395.38
398.595	373.38
398.82	384.38
399.044	384.38
399.268	381.38
399.492	397.38
399.717	416.38
399.941	450.38
400.165	444.38
400.389	474.38
400.613	445.38
400.837	412.38
401.062	414.38
401.286	400.38
401.51	405.38
401.734	402.38
401.958	389.38
402.182	394.38
402.406	411.38
402.63	398.38
402.854	385.38
403.078	386.38
403.302	407.38
403.526	399.38
403.75	417.38
403.974	398.38
404.198	397.38
404.422	402.38
404.645	398.38
404.869	423.38
405.093	417.38
405.317	457.38
405.541	469.38
405.765	443.38
405.988	420.38
406.212	430.38
406.436	458.38
406.66	480.38
406.883	448.38
407.107	467.38
407.331	473.38
407.555	546.38
407.778	545.38
408.002	501.38
408.226	471.38
408.449	437.38
408.673	449.38
408.896	486.38
409.12	506.38
409.344	485.38
409.567	449.38
409.791	423.38
410.014	410.38
410.238	426.38
410.461	421.38
410.685	407.38
410.908	444.38
411.132	453.38
411.355	483.38
411.578	463.38
411.802	420.38
412.025	413.38
412.249	398.38
412.472	410.38
412.695	405.38
412.919	416.38
413.142	390.38
413.365	376.38
413.589	390.38
413.812	380.38
414.035	403.38
414.258	373.38
414.482	382.38
414.705	390.38
414.928	384.38
415.151	383.38
415.374	376.38
415.597	399.38
415.821	395.38
416.044	377.38
416.267	386.38
416.49	369.38
416.713	386.38
416.936	382.38
417.159	396.38
417.382	384.38
417.605	404.38
417.828	399.38
418.051	423.38
418.274	399.38
418.497	382.38
418.72	392.38
418.943	399.38
419.166	401.38
419.389	415.38
419.611	415.38
419.834	403.38
420.057	407.38
420.28	399.38
420.503	405.38
420.726	400.38
420.948	439.38
421.171	489.38
421.394	483.38
421.617	443.38
421.839	432.38
422.062	429.38
422.285	424.38
422.507	493.38
422.73	576.38
422.953	539.38
423.175	489.38
423.398	472.38
423.621	431.38
423.843	470.38
424.066	465.38
424.288	463.38
424.511	488.38
424.733	546.38
424.956	619.38
425.178	603.38
425.401	572.38
425.623	628.38
425.846	525.38
426.068	505.38
426.291	483.38
426.513	487.38
426.735	510.38
426.958	531.38
427.18	592.38
427.402	707.38
427.625	774.38
427.847	740.38
428.069	620.38
428.292	553.38
428.514	487.38
428.736	486.38
428.958	468.38
429.181	462.38
429.403	456.38
429.625	456.38
429.847	493.38
430.069	537.38
430.292	543.38
430.514	470.38
430.736	470.38
430.958	424.38
431.18	441.38
431.402	439.38
431.624	406.38
431.846	409.38
432.068	403.38
432.29	398.38
432.512	401.38
432.734	409.38
432.956	425.38
433.178	430.38
433.4	419.38
433.622	422.38
433.844	423.38
434.066	411.38
434.287	406.38
434.509	433.38
434.731	416.38
434.953	413.38
435.175	462.38
435.397	462.38
435.618	489.38
435.84	528.38
436.062	604.38
436.284	691.38
436.505	589.38
436.727	524.38
436.949	479.38
437.17	464.38
437.392	463.38
437.614	463.38
437.835	544.38
438.057	641.38
438.278	689.38
438.5	721.38
438.721	740.38
438.943	721.38
439.165	565.38
439.386	539.38
439.608	492.38
439.829	495.38
440.05	556.38
440.272	566.38
440.493	537.38
440.715	497.38
440.936	486.38
441.158	476.38
441.379	473.38
441.6	456.38
441.822	482.38
442.043	538.38
442.264	581.38
442.486	636.38
442.707	576.38
442.928	517.38
443.149	505.38
443.371	537.38
443.592	586.38
443.813	634.38
444.034	710.38
444.255	598.38
444.476	519.38
444.698	484.38
444.919	491.38
445.14	571.38
445.361	544.38
445.582	539.38
445.803	597.38
446.024	679.38
446.245	671.38
446.466	647.38
446.687	557.38
446.908	511.38
447.129	466.38
447.35	463.38
447.571	479.38
447.792	449.38
448.013	445.38
448.234	477.38
448.455	543.38
448.675	631.38
448.896	725.38
449.117	622.38
449.338	589.38
449.559	680.38
449.779	747.38
450	603.38
450.221	529.38
450.442	471.38
450.662	461.38
450.883	488.38
451.104	520.38
451.324	474.38
451.545	454.38
451.766	431.38
451.986	432.38
452.207	420.38
452.428	411.38
452.648	437.38
452.869	432.38
453.089	421.38
453.31	431.38
453.53	431.38
453.751	421.38
453.971	441.38
454.192	457.38
454.412	444.38
454.633	412.38
454.853	429.38
455.073	419.38
455.294	462.38
455.514	501.38
455.734	483.38
455.955	417.38
456.175	397.38
456.395	385.38
456.616	386.38
456.836	381.38
457.056	376.38
457.276	376.38
457.497	392.38
457.717	383.38
457.937	393.38
458.157	370.38
458.377	416.38
458.598	412.38
458.818	492.38
459.038	594.38
459.258	591.38
459.478	512.38
459.698	449.38
459.918	416.38
460.138	419.38
460.358	399.38
460.578	400.38
460.798	394.38
461.018	391.38
461.238	402.38
461.458	402.38
461.678	386.38
461.898	386.38
462.118	419.38
462.338	417.38
462.558	424.38
462.777	423.38
462.997	404.38
463.217	412.38
463.437	419.38
463.657	409.38
463.876	423.38
464.096	408.38
464.316	411.38
464.536	400.38
464.755	424.38
464.975	460.38
465.195	494.38
465.414	607.38
465.634	548.38
465.854	465.38
466.073	430.38
466.293	438.38
466.512	410.38
466.732	437.38
466.951	409.38
467.171	387.38
467.391	405.38
467.61	436.38
467.829	416.38
468.049	409.38
468.268	407.38
468.488	411.38
468.707	388.38
468.927	402.38
469.146	395.38
469.365	418.38
469.585	400.38
469.804	405.38
470.023	420.38
470.243	422.38
470.462	425.38
470.681	426.38
470.901	414.38
471.12	432.38
471.339	410.38
471.558	420.38
471.777	415.38
471.997	409.38
472.216	428.38
472.435	418.38
472.654	384.38
472.873	386.38
473.092	410.38
473.311	425.38
473.53	405.38
473.749	413.38
473.968	475.38
474.187	580.38
474.406	574.38
474.625	507.38
474.844	445.38
475.063	426.38
475.282	416.38
475.501	429.38
475.72	428.38
475.939	402.38
476.158	411.38
476.377	422.38
476.596	399.38
476.814	412.38
477.033	425.38
477.252	432.38
477.471	447.38
477.69	428.38
477.908	461.38
478.127	455.38
478.346	448.38
478.564	441.38
478.783	443.38
479.002	452.38
479.22	467.38
479.439	482.38
479.658	500.38
479.876	502.38
480.095	505.38
480.313	525.38
480.532	500.38
480.751	492.38
480.969	502.38
481.188	517.38
481.406	533.38
481.624	508.38
481.843	492.38
482.061	475.38
482.28	481.38
482.498	480.38
482.717	494.38
482.935	496.38
483.153	486.38
483.372	482.38
483.59	478.38
483.808	474.38
484.027	500.38
484.245	474.38
484.463	485.38
484.681	491.38
484.9	483.38
485.118	520.38
485.336	501.38
485.554	508.38
485.772	516.38
485.99	517.38
486.209	514.38
486.427	504.38
486.645	543.38
486.863	545.38
487.081	553.38
487.299	537.38
487.517	544.38
487.735	527.38
487.953	531.38
488.171	542.38
488.389	529.38
488.607	519.38
488.825	543.38
489.043	539.38
489.261	556.38
489.479	552.38
489.696	549.38
489.914	561.38
490.132	562.38
490.35	553.38
490.568	549.38
490.786	573.38
491.003	569.38
491.221	589.38
491.439	587.38
491.657	595.38
491.874	591.38
492.092	632.38
492.31	608.38
492.527	603.38
492.745	621.38
492.963	614.38
493.18	621.38
493.398	608.38
493.615	635.38
493.833	637.38
494.05	647.38
494.268	607.38
494.485	644.38
494.703	645.38
494.92	645.38
495.138	628.38
495.355	632.38
495.573	632.38
495.79	637.38
496.008	635.38
496.225	629.38
496.442	632.38
496.66	636.38
496.877	647.38
497.094	651.38
497.312	637.38
497.529	652.38
497.746	678.38
497.963	685.38
498.181	704.38
498.398	679.38
498.615	689.38
498.832	699.38
499.049	673.38
499.267	683.38
499.484	710.38
499.701	713.38
499.918	727.38
500.135	734.38
500.352	761.38
500.569	743.38
500.786	752.38
501.003	757.38
501.22	731.38
501.437	767.38
501.654	734.38
501.871	769.38
