Data from 1987.PennyLincolnUp.Lamp.En5.5.200Scan.071819.P2_HRD10591_17-14-27-971.txt Node
Date: Thu Jul 18 17:14:27 EDT 2019
User: cochatt
Spectrometer: HR+D1059
Trigger mode: 1
Integration Time (sec): 1.000000E-1
Scans to average: 1
Electric dark correction enabled: true
Nonlinearity correction enabled: false
Boxcar width: 0
XAxis mode: Wavelengths
Number of Pixels in Spectrum: 2048
>>>>>Begin Spectral Data<<<<<
223.165	-14.75
223.4	-14.75
223.635	-14.75
223.869	-26.75
224.104	-11.75
224.338	-21.75
224.573	-7.75
224.808	-3.75
225.042	-3.75
225.277	-13.75
225.511	2.25
225.746	2.25
225.98	2.25
226.215	17.25
226.449	12.25
226.683	7.25
226.918	27.25
227.152	33.25
227.387	33.25
227.621	26.25
227.856	41.25
228.09	51.25
228.324	42.25
228.559	47.25
228.793	74.25
229.027	98.25
229.262	125.25
229.496	117.25
229.73	128.25
229.964	160.25
230.199	137.25
230.433	106.25
230.667	114.25
230.901	119.25
231.136	106.25
231.37	102.25
231.604	115.25
231.838	97.25
232.072	98.25
232.306	103.25
232.541	106.25
232.775	116.25
233.009	113.25
233.243	114.25
233.477	100.25
233.711	111.25
233.945	105.25
234.179	115.25
234.413	102.25
234.647	117.25
234.881	121.25
235.115	98.25
235.349	115.25
235.583	100.25
235.817	121.25
236.051	120.25
236.285	114.25
236.519	115.25
236.753	121.25
236.987	138.25
237.221	175.25
237.455	219.25
237.689	194.25
237.922	135.25
238.156	120.25
238.39	123.25
238.624	117.25
238.858	111.25
239.091	123.25
239.325	127.25
239.559	116.25
239.793	106.25
240.027	127.25
240.26	129.25
240.494	156.25
240.728	158.25
240.961	133.25
241.195	142.25
241.429	125.25
241.662	139.25
241.896	127.25
242.13	129.25
242.363	121.25
242.597	108.25
242.83	127.25
243.064	118.25
243.298	122.25
243.531	137.25
243.765	114.25
243.998	119.25
244.232	126.25
244.465	121.25
244.699	140.25
244.932	138.25
245.166	135.25
245.399	135.25
245.633	134.25
245.866	144.25
246.099	123.25
246.333	137.25
246.566	141.25
246.8	136.25
247.033	134.25
247.266	142.25
247.5	140.25
247.733	153.25
247.966	163.25
248.2	148.25
248.433	143.25
248.666	180.25
248.899	167.25
249.133	193.25
249.366	202.25
249.599	196.25
249.832	170.25
250.066	177.25
250.299	171.25
250.532	175.25
250.765	181.25
250.998	198.25
251.231	202.25
251.465	204.25
251.698	166.25
251.931	171.25
252.164	180.25
252.397	192.25
252.63	175.25
252.863	190.25
253.096	188.25
253.329	197.25
253.562	194.25
253.795	201.25
254.028	210.25
254.261	201.25
254.494	209.25
254.727	224.25
254.96	246.25
255.193	260.25
255.426	231.25
255.659	215.25
255.892	208.25
256.124	208.25
256.357	203.25
256.59	202.25
256.823	184.25
257.056	185.25
257.289	177.25
257.521	185.25
257.754	207.25
257.987	201.25
258.22	201.25
258.452	173.25
258.685	188.25
258.918	180.25
259.151	186.25
259.383	188.25
259.616	178.25
259.849	177.25
260.081	211.25
260.314	218.25
260.547	219.25
260.779	200.25
261.012	202.25
261.244	195.25
261.477	207.25
261.71	193.25
261.942	190.25
262.175	206.25
262.407	204.25
262.64	169.25
262.872	177.25
263.105	182.25
263.337	204.25
263.57	195.25
263.802	186.25
264.035	200.25
264.267	180.25
264.499	181.25
264.732	197.25
264.964	177.25
265.197	173.25
265.429	180.25
265.661	163.25
265.894	183.25
266.126	172.25
266.358	180.25
266.591	185.25
266.823	187.25
267.055	181.25
267.287	183.25
267.52	187.25
267.752	189.25
267.984	201.25
268.216	186.25
268.448	204.25
268.681	199.25
268.913	212.25
269.145	221.25
269.377	228.25
269.609	228.25
269.841	220.25
270.073	236.25
270.306	243.25
270.538	255.25
270.77	266.25
271.002	267.25
271.234	263.25
271.466	255.25
271.698	270.25
271.93	275.25
272.162	259.25
272.394	269.25
272.626	259.25
272.858	256.25
273.09	256.25
273.322	233.25
273.553	235.25
273.785	219.25
274.017	227.25
274.249	239.25
274.481	234.25
274.713	210.25
274.945	215.25
275.176	231.25
275.408	227.25
275.64	212.25
275.872	200.25
276.104	217.25
276.335	211.25
276.567	211.25
276.799	252.25
277.031	245.25
277.262	247.25
277.494	267.25
277.726	250.25
277.957	237.25
278.189	231.25
278.421	219.25
278.652	223.25
278.884	226.25
279.115	211.25
279.347	216.25
279.579	221.25
279.81	195.25
280.042	188.25
280.273	209.25
280.505	199.25
280.736	194.25
280.968	202.25
281.199	196.25
281.431	220.25
281.662	216.25
281.894	223.25
282.125	205.25
282.356	218.25
282.588	259.25
282.819	265.25
283.051	227.25
283.282	205.25
283.513	227.25
283.745	231.25
283.976	227.25
284.207	225.25
284.439	213.25
284.67	215.25
284.901	214.25
285.132	199.25
285.364	211.25
285.595	211.25
285.826	209.25
286.057	192.25
286.288	211.25
286.52	221.25
286.751	217.25
286.982	215.25
287.213	208.25
287.444	225.25
287.675	221.25
287.906	227.25
288.138	236.25
288.369	244.25
288.6	231.25
288.831	207.25
289.062	222.25
289.293	219.25
289.524	231.25
289.755	228.25
289.986	203.25
290.217	227.25
290.448	209.25
290.679	217.25
290.91	210.25
291.141	220.25
291.371	201.25
291.602	201.25
291.833	197.25
292.064	211.25
292.295	220.25
292.526	200.25
292.757	214.25
292.987	209.25
293.218	220.25
293.449	223.25
293.68	216.25
293.91	220.25
294.141	208.25
294.372	218.25
294.603	221.25
294.833	232.25
295.064	218.25
295.295	213.25
295.525	210.25
295.756	235.25
295.987	230.25
296.217	268.25
296.448	260.25
296.679	236.25
296.909	219.25
297.14	227.25
297.37	223.25
297.601	216.25
297.831	227.25
298.062	226.25
298.292	225.25
298.523	215.25
298.753	237.25
298.984	229.25
299.214	240.25
299.445	225.25
299.675	233.25
299.905	229.25
300.136	240.25
300.366	235.25
300.597	232.25
300.827	227.25
301.057	218.25
301.288	248.25
301.518	249.25
301.748	237.25
301.979	232.25
302.209	230.25
302.439	251.25
302.669	241.25
302.9	241.25
303.13	240.25
303.36	245.25
303.59	246.25
303.82	250.25
304.051	265.25
304.281	247.25
304.511	253.25
304.741	254.25
304.971	235.25
305.201	235.25
305.431	236.25
305.661	234.25
305.891	234.25
306.121	237.25
306.352	255.25
306.582	247.25
306.812	251.25
307.042	249.25
307.272	251.25
307.502	252.25
307.731	250.25
307.961	244.25
308.191	253.25
308.421	262.25
308.651	255.25
308.881	251.25
309.111	250.25
309.341	262.25
309.571	256.25
309.8	277.25
310.03	312.25
310.26	295.25
310.49	292.25
310.72	308.25
310.949	316.25
311.179	331.25
311.409	322.25
311.639	303.25
311.868	307.25
312.098	307.25
312.328	325.25
312.557	329.25
312.787	340.25
313.017	340.25
313.246	333.25
313.476	303.25
313.706	323.25
313.935	301.25
314.165	323.25
314.394	339.25
314.624	317.25
314.853	324.25
315.083	320.25
315.312	285.25
315.542	295.25
315.771	290.25
316.001	299.25
316.23	289.25
316.46	291.25
316.689	313.25
316.919	294.25
317.148	319.25
317.377	296.25
317.607	302.25
317.836	313.25
318.065	298.25
318.295	293.25
318.524	283.25
318.753	313.25
318.983	316.25
319.212	292.25
319.441	328.25
319.67	319.25
319.9	293.25
320.129	307.25
320.358	303.25
320.587	309.25
320.816	307.25
321.046	326.25
321.275	321.25
321.504	338.25
321.733	314.25
321.962	335.25
322.191	357.25
322.42	377.25
322.649	394.25
322.878	407.25
323.108	409.25
323.337	442.25
323.566	439.25
323.795	466.25
324.024	565.25
324.253	679.25
324.482	995.25
324.71	1522.25
324.939	2108.25
325.168	1849.25
325.397	1044.25
325.626	680.25
325.855	539.25
326.084	472.25
326.313	462.25
326.542	476.25
326.77	517.25
326.999	627.25
327.228	867.25
327.457	1301.25
327.686	1620.25
327.914	1119.25
328.143	728.25
328.372	631.25
328.6	562.25
328.829	529.25
329.058	537.25
329.287	558.25
329.515	506.25
329.744	443.25
329.972	433.25
330.201	419.25
330.43	468.25
330.658	531.25
330.887	570.25
331.115	564.25
331.344	457.25
331.572	431.25
331.801	413.25
332.03	432.25
332.258	399.25
332.486	375.25
332.715	349.25
332.943	356.25
333.172	329.25
333.4	343.25
333.629	360.25
333.857	344.25
334.085	352.25
334.314	344.25
334.542	359.25
334.771	364.25
334.999	347.25
335.227	345.25
335.455	355.25
335.684	337.25
335.912	343.25
336.14	324.25
336.369	341.25
336.597	348.25
336.825	369.25
337.053	335.25
337.281	332.25
337.51	325.25
337.738	317.25
337.966	344.25
338.194	348.25
338.422	345.25
338.65	348.25
338.878	309.25
339.106	319.25
339.334	326.25
339.562	323.25
339.79	333.25
340.018	320.25
340.246	318.25
340.474	336.25
340.702	374.25
340.93	331.25
341.158	316.25
341.386	343.25
341.614	352.25
341.842	333.25
342.07	317.25
342.298	344.25
342.526	337.25
342.754	315.25
342.981	324.25
343.209	315.25
343.437	327.25
343.665	316.25
343.893	321.25
344.12	327.25
344.348	320.25
344.576	348.25
344.804	358.25
345.031	341.25
345.259	368.25
345.487	369.25
345.714	356.25
345.942	342.25
346.17	343.25
346.397	328.25
346.625	333.25
346.853	358.25
347.08	348.25
347.308	353.25
347.535	329.25
347.763	336.25
347.99	355.25
348.218	343.25
348.445	349.25
348.673	337.25
348.9	342.25
349.128	343.25
349.355	325.25
349.583	297.25
349.81	329.25
350.037	315.25
350.265	346.25
350.492	313.25
350.72	328.25
350.947	329.25
351.174	338.25
351.402	360.25
351.629	336.25
351.856	349.25
352.083	353.25
352.311	351.25
352.538	357.25
352.765	362.25
352.992	351.25
353.22	356.25
353.447	333.25
353.674	334.25
353.901	310.25
354.128	312.25
354.355	315.25
354.583	307.25
354.81	314.25
355.037	313.25
355.264	307.25
355.491	298.25
355.718	300.25
355.945	309.25
356.172	292.25
356.399	290.25
356.626	293.25
356.853	301.25
357.08	303.25
357.307	290.25
357.534	286.25
357.761	296.25
357.988	305.25
358.215	296.25
358.441	314.25
358.668	289.25
358.895	313.25
359.122	314.25
359.349	329.25
359.576	349.25
359.802	389.25
360.029	385.25
360.256	409.25
360.483	394.25
360.709	348.25
360.936	358.25
361.163	340.25
361.39	349.25
361.616	352.25
361.843	337.25
362.07	338.25
362.296	338.25
362.523	339.25
362.749	345.25
362.976	339.25
363.203	321.25
363.429	324.25
363.656	315.25
363.882	288.25
364.109	303.25
364.335	324.25
364.562	330.25
364.788	307.25
365.015	322.25
365.241	305.25
365.468	328.25
365.694	327.25
365.92	333.25
366.147	330.25
366.373	323.25
366.599	332.25
366.826	304.25
367.052	311.25
367.278	334.25
367.505	322.25
367.731	333.25
367.957	320.25
368.184	307.25
368.41	331.25
368.636	325.25
368.862	344.25
369.089	330.25
369.315	307.25
369.541	316.25
369.767	330.25
369.993	322.25
370.219	328.25
370.445	319.25
370.672	312.25
370.898	306.25
371.124	311.25
371.35	305.25
371.576	318.25
371.802	295.25
372.028	300.25
372.254	298.25
372.48	289.25
372.706	300.25
372.932	311.25
373.158	309.25
373.384	315.25
373.61	318.25
373.835	329.25
374.061	331.25
374.287	323.25
374.513	334.25
374.739	298.25
374.965	316.25
375.191	303.25
375.416	316.25
375.642	294.25
375.868	295.25
376.094	312.25
376.319	315.25
376.545	307.25
376.771	321.25
376.997	299.25
377.222	291.25
377.448	313.25
377.674	296.25
377.899	304.25
378.125	300.25
378.35	322.25
378.576	296.25
378.802	305.25
379.027	307.25
379.253	318.25
379.478	296.25
379.704	306.25
379.929	324.25
380.155	313.25
380.38	321.25
380.606	314.25
380.831	309.25
381.057	329.25
381.282	301.25
381.507	319.25
381.733	325.25
381.958	299.25
382.184	283.25
382.409	305.25
382.634	311.25
382.86	321.25
383.085	316.25
383.31	309.25
383.535	297.25
383.761	319.25
383.986	312.25
384.211	313.25
384.436	294.25
384.662	316.25
384.887	318.25
385.112	306.25
385.337	345.25
385.562	333.25
385.787	316.25
386.013	345.25
386.238	316.25
386.463	333.25
386.688	336.25
386.913	330.25
387.138	332.25
387.363	325.25
387.588	331.25
387.813	336.25
388.038	340.25
388.263	320.25
388.488	338.25
388.713	319.25
388.938	330.25
389.163	333.25
389.387	308.25
389.612	313.25
389.837	313.25
390.062	333.25
390.287	343.25
390.512	327.25
390.736	333.25
390.961	305.25
391.186	325.25
391.411	326.25
391.636	334.25
391.86	333.25
392.085	339.25
392.31	328.25
392.534	320.25
392.759	331.25
392.984	318.25
393.208	336.25
393.433	358.25
393.658	339.25
393.882	332.25
394.107	333.25
394.331	333.25
394.556	336.25
394.78	332.25
395.005	331.25
395.229	334.25
395.454	337.25
395.678	344.25
395.903	352.25
396.127	350.25
396.352	371.25
396.576	347.25
396.801	362.25
397.025	346.25
397.249	355.25
397.474	347.25
397.698	333.25
397.922	357.25
398.147	387.25
398.371	367.25
398.595	351.25
398.82	359.25
399.044	354.25
399.268	375.25
399.492	373.25
399.717	402.25
399.941	438.25
400.165	436.25
400.389	466.25
400.613	413.25
400.837	400.25
401.062	385.25
401.286	383.25
401.51	358.25
401.734	367.25
401.958	364.25
402.182	373.25
402.406	387.25
402.63	397.25
402.854	383.25
403.078	408.25
403.302	394.25
403.526	402.25
403.75	395.25
403.974	389.25
404.198	389.25
404.422	398.25
404.645	385.25
404.869	405.25
405.093	416.25
405.317	435.25
405.541	476.25
405.765	435.25
405.988	408.25
406.212	411.25
406.436	458.25
406.66	460.25
406.883	443.25
407.107	441.25
407.331	483.25
407.555	550.25
407.778	563.25
408.002	484.25
408.226	442.25
408.449	441.25
408.673	428.25
408.896	485.25
409.12	504.25
409.344	479.25
409.567	423.25
409.791	416.25
410.014	406.25
410.238	412.25
410.461	398.25
410.685	407.25
410.908	433.25
411.132	435.25
411.355	476.25
411.578	443.25
411.802	401.25
412.025	409.25
412.249	401.25
412.472	409.25
412.695	415.25
412.919	403.25
413.142	385.25
413.365	373.25
413.589	371.25
413.812	374.25
414.035	371.25
414.258	377.25
414.482	363.25
414.705	373.25
414.928	373.25
415.151	376.25
415.374	367.25
415.597	358.25
415.821	368.25
416.044	373.25
416.267	383.25
416.49	377.25
416.713	368.25
416.936	381.25
417.159	390.25
417.382	377.25
417.605	379.25
417.828	383.25
418.051	394.25
418.274	410.25
418.497	379.25
418.72	411.25
418.943	388.25
419.166	396.25
419.389	413.25
419.611	406.25
419.834	409.25
420.057	405.25
420.28	386.25
420.503	372.25
420.726	398.25
420.948	444.25
421.171	472.25
421.394	506.25
421.617	435.25
421.839	417.25
422.062	429.25
422.285	428.25
422.507	461.25
422.73	543.25
422.953	536.25
423.175	476.25
423.398	444.25
423.621	431.25
423.843	447.25
424.066	450.25
424.288	450.25
424.511	447.25
424.733	515.25
424.956	599.25
425.178	587.25
425.401	557.25
425.623	596.25
425.846	516.25
426.068	474.25
426.291	472.25
426.513	475.25
426.735	468.25
426.958	525.25
427.18	593.25
427.402	711.25
427.625	795.25
427.847	723.25
428.069	597.25
428.292	545.25
428.514	472.25
428.736	481.25
428.958	455.25
429.181	461.25
429.403	444.25
429.625	442.25
429.847	477.25
430.069	542.25
430.292	527.25
430.514	482.25
430.736	443.25
430.958	427.25
431.18	431.25
431.402	416.25
431.624	400.25
431.846	401.25
432.068	408.25
432.29	390.25
432.512	400.25
432.734	419.25
432.956	399.25
433.178	416.25
433.4	420.25
433.622	410.25
433.844	409.25
434.066	389.25
434.287	396.25
434.509	422.25
434.731	403.25
434.953	415.25
435.175	422.25
435.397	451.25
435.618	486.25
435.84	534.25
436.062	608.25
436.284	651.25
436.505	557.25
436.727	516.25
436.949	464.25
437.17	461.25
437.392	443.25
437.614	462.25
437.835	475.25
438.057	590.25
438.278	673.25
438.5	687.25
438.721	715.25
438.943	705.25
439.165	595.25
439.386	514.25
439.608	511.25
439.829	500.25
440.05	508.25
440.272	544.25
440.493	549.25
440.715	487.25
440.936	467.25
441.158	428.25
441.379	432.25
441.6	453.25
441.822	483.25
442.043	523.25
442.264	567.25
442.486	634.25
442.707	544.25
442.928	512.25
443.149	526.25
443.371	519.25
443.592	561.25
443.813	655.25
444.034	668.25
444.255	588.25
444.476	502.25
444.698	467.25
444.919	477.25
445.14	543.25
445.361	522.25
445.582	509.25
445.803	579.25
446.024	638.25
446.245	670.25
446.466	615.25
446.687	531.25
446.908	491.25
447.129	466.25
447.35	444.25
447.571	444.25
447.792	440.25
448.013	459.25
448.234	480.25
448.455	532.25
448.675	608.25
448.896	693.25
449.117	619.25
449.338	561.25
449.559	660.25
449.779	743.25
450	623.25
450.221	512.25
450.442	488.25
450.662	445.25
450.883	469.25
451.104	467.25
451.324	474.25
451.545	465.25
451.766	437.25
451.986	426.25
452.207	393.25
452.428	391.25
452.648	379.25
452.869	390.25
453.089	383.25
453.31	404.25
453.53	404.25
453.751	402.25
453.971	407.25
454.192	432.25
454.412	440.25
454.633	387.25
454.853	366.25
455.073	392.25
455.294	433.25
455.514	474.25
455.734	481.25
455.955	403.25
456.175	398.25
456.395	379.25
456.616	385.25
456.836	381.25
457.056	354.25
457.276	358.25
457.497	359.25
457.717	371.25
457.937	357.25
458.157	368.25
458.377	364.25
458.598	419.25
458.818	473.25
459.038	566.25
459.258	557.25
459.478	457.25
459.698	429.25
459.918	410.25
460.138	394.25
460.358	403.25
460.578	399.25
460.798	382.25
461.018	389.25
461.238	401.25
461.458	403.25
461.678	375.25
461.898	391.25
462.118	389.25
462.338	388.25
462.558	380.25
462.777	395.25
462.997	396.25
463.217	389.25
463.437	398.25
463.657	414.25
463.876	392.25
464.096	410.25
464.316	390.25
464.536	407.25
464.755	425.25
464.975	413.25
465.195	487.25
465.414	588.25
465.634	508.25
465.854	480.25
466.073	431.25
466.293	408.25
466.512	401.25
466.732	395.25
466.951	375.25
467.171	389.25
467.391	389.25
467.61	410.25
467.829	423.25
468.049	385.25
468.268	395.25
468.488	389.25
468.707	389.25
468.927	367.25
469.146	377.25
469.365	399.25
469.585	385.25
469.804	387.25
470.023	397.25
470.243	404.25
470.462	407.25
470.681	443.25
470.901	427.25
471.12	422.25
471.339	400.25
471.558	408.25
471.777	409.25
471.997	391.25
472.216	403.25
472.435	406.25
472.654	405.25
472.873	385.25
473.092	388.25
473.311	385.25
473.53	421.25
473.749	407.25
473.968	464.25
474.187	564.25
474.406	575.25
474.625	485.25
474.844	429.25
475.063	412.25
475.282	398.25
475.501	415.25
475.72	398.25
475.939	431.25
476.158	404.25
476.377	416.25
476.596	403.25
476.814	422.25
477.033	441.25
477.252	420.25
477.471	425.25
477.69	414.25
477.908	436.25
478.127	417.25
478.346	408.25
478.564	427.25
478.783	429.25
479.002	436.25
479.22	468.25
479.439	469.25
479.658	490.25
479.876	483.25
480.095	492.25
480.313	525.25
480.532	496.25
480.751	481.25
480.969	486.25
481.188	487.25
481.406	525.25
481.624	482.25
481.843	490.25
482.061	455.25
482.28	475.25
482.498	473.25
482.717	481.25
482.935	479.25
483.153	483.25
483.372	459.25
483.59	479.25
483.808	490.25
484.027	477.25
484.245	475.25
484.463	489.25
484.681	487.25
484.9	499.25
485.118	481.25
485.336	483.25
485.554	489.25
485.772	492.25
485.99	504.25
486.209	506.25
486.427	530.25
486.645	520.25
486.863	525.25
487.081	534.25
487.299	540.25
487.517	529.25
487.735	526.25
487.953	527.25
488.171	511.25
488.389	515.25
488.607	519.25
488.825	542.25
489.043	511.25
489.261	535.25
489.479	517.25
489.696	517.25
489.914	512.25
490.132	553.25
490.35	536.25
490.568	579.25
490.786	566.25
491.003	568.25
491.221	585.25
491.439	573.25
491.657	591.25
491.874	608.25
492.092	600.25
492.31	593.25
492.527	615.25
492.745	594.25
492.963	577.25
493.18	589.25
493.398	588.25
493.615	613.25
493.833	601.25
494.05	590.25
494.268	615.25
494.485	599.25
494.703	639.25
494.92	615.25
495.138	611.25
495.355	641.25
495.573	605.25
495.79	617.25
496.008	633.25
496.225	621.25
496.442	643.25
496.66	617.25
496.877	617.25
497.094	612.25
497.312	627.25
497.529	641.25
497.746	646.25
497.963	664.25
498.181	694.25
498.398	667.25
498.615	676.25
498.832	670.25
499.049	685.25
499.267	684.25
499.484	684.25
499.701	706.25
499.918	746.25
500.135	735.25
500.352	722.25
500.569	732.25
500.786	772.25
501.003	737.25
501.22	729.25
501.437	734.25
501.654	752.25
501.871	775.25
502.088	728.25
