Data from 1987.PennyLincolnUp.Lamp.En5.5.200Scan.071819.P2_HRD10591_17-14-12-974.txt Node
Date: Thu Jul 18 17:14:12 EDT 2019
User: cochatt
Spectrometer: HR+D1059
Trigger mode: 1
Integration Time (sec): 1.000000E-1
Scans to average: 1
Electric dark correction enabled: true
Nonlinearity correction enabled: false
Boxcar width: 0
XAxis mode: Wavelengths
Number of Pixels in Spectrum: 2048
>>>>>Begin Spectral Data<<<<<
223.165	1.62
223.4	1.62
223.635	1.62
223.869	-25.38
224.104	-12.38
224.338	-27.38
224.573	-21.38
224.808	-10.38
225.042	1.62
225.277	-6.38
225.511	0.62
225.746	-7.38
225.98	5.62
226.215	9.62
226.449	21.62
226.683	13.62
226.918	13.62
227.152	42.62
227.387	34.62
227.621	34.62
227.856	48.62
228.09	51.62
228.324	58.62
228.559	45.62
228.793	64.62
229.027	91.62
229.262	105.62
229.496	110.62
229.73	129.62
229.964	159.62
230.199	129.62
230.433	113.62
230.667	105.62
230.901	111.62
231.136	120.62
231.37	106.62
231.604	104.62
231.838	105.62
232.072	92.62
232.306	108.62
232.541	118.62
232.775	109.62
233.009	99.62
233.243	104.62
233.477	92.62
233.711	106.62
233.945	103.62
234.179	103.62
234.413	116.62
234.647	108.62
234.881	98.62
235.115	112.62
235.349	99.62
235.583	114.62
235.817	111.62
236.051	126.62
236.285	113.62
236.519	113.62
236.753	123.62
236.987	139.62
237.221	175.62
237.455	212.62
237.689	184.62
237.922	143.62
238.156	118.62
238.39	115.62
238.624	117.62
238.858	113.62
239.091	120.62
239.325	107.62
239.559	125.62
239.793	118.62
240.027	125.62
240.26	121.62
240.494	136.62
240.728	137.62
240.961	121.62
241.195	133.62
241.429	130.62
241.662	135.62
241.896	116.62
242.13	123.62
242.363	116.62
242.597	105.62
242.83	143.62
243.064	135.62
243.298	127.62
243.531	106.62
243.765	124.62
243.998	123.62
244.232	144.62
244.465	124.62
244.699	127.62
244.932	132.62
245.166	145.62
245.399	135.62
245.633	145.62
245.866	123.62
246.099	127.62
246.333	143.62
246.566	145.62
246.8	140.62
247.033	141.62
247.266	130.62
247.5	157.62
247.733	148.62
247.966	157.62
248.2	153.62
248.433	159.62
248.666	160.62
248.899	155.62
249.133	179.62
249.366	196.62
249.599	204.62
249.832	167.62
250.066	187.62
250.299	165.62
250.532	153.62
250.765	165.62
250.998	201.62
251.231	209.62
251.465	201.62
251.698	186.62
251.931	183.62
252.164	172.62
252.397	171.62
252.63	203.62
252.863	179.62
253.096	196.62
253.329	212.62
253.562	210.62
253.795	191.62
254.028	195.62
254.261	191.62
254.494	199.62
254.727	244.62
254.96	257.62
255.193	235.62
255.426	225.62
255.659	219.62
255.892	231.62
256.124	218.62
256.357	186.62
256.59	185.62
256.823	187.62
257.056	188.62
257.289	193.62
257.521	180.62
257.754	198.62
257.987	179.62
258.22	171.62
258.452	187.62
258.685	179.62
258.918	189.62
259.151	169.62
259.383	178.62
259.616	181.62
259.849	200.62
260.081	204.62
260.314	234.62
260.547	211.62
260.779	211.62
261.012	206.62
261.244	210.62
261.477	199.62
261.71	188.62
261.942	197.62
262.175	214.62
262.407	195.62
262.64	188.62
262.872	172.62
263.105	177.62
263.337	196.62
263.57	181.62
263.802	184.62
264.035	183.62
264.267	176.62
264.499	176.62
264.732	180.62
264.964	175.62
265.197	165.62
265.429	171.62
265.661	151.62
265.894	165.62
266.126	173.62
266.358	165.62
266.591	186.62
266.823	177.62
267.055	165.62
267.287	195.62
267.52	183.62
267.752	182.62
267.984	201.62
268.216	193.62
268.448	193.62
268.681	209.62
268.913	197.62
269.145	207.62
269.377	234.62
269.609	249.62
269.841	237.62
270.073	210.62
270.306	245.62
270.538	274.62
270.77	270.62
271.002	236.62
271.234	256.62
271.466	251.62
271.698	258.62
271.93	280.62
272.162	274.62
272.394	272.62
272.626	268.62
272.858	255.62
273.09	242.62
273.322	238.62
273.553	217.62
273.785	218.62
274.017	212.62
274.249	218.62
274.481	209.62
274.713	219.62
274.945	233.62
275.176	214.62
275.408	226.62
275.64	215.62
275.872	202.62
276.104	214.62
276.335	221.62
276.567	229.62
276.799	239.62
277.031	243.62
277.262	250.62
277.494	257.62
277.726	256.62
277.957	227.62
278.189	235.62
278.421	217.62
278.652	227.62
278.884	193.62
279.115	224.62
279.347	204.62
279.579	203.62
279.81	215.62
280.042	204.62
280.273	215.62
280.505	221.62
280.736	212.62
280.968	217.62
281.199	201.62
281.431	207.62
281.662	203.62
281.894	220.62
282.125	207.62
282.356	227.62
282.588	241.62
282.819	255.62
283.051	215.62
283.282	213.62
283.513	211.62
283.745	220.62
283.976	215.62
284.207	204.62
284.439	205.62
284.67	212.62
284.901	205.62
285.132	213.62
285.364	205.62
285.595	208.62
285.826	207.62
286.057	212.62
286.288	196.62
286.52	219.62
286.751	218.62
286.982	214.62
287.213	207.62
287.444	226.62
287.675	215.62
287.906	239.62
288.138	226.62
288.369	218.62
288.6	233.62
288.831	212.62
289.062	214.62
289.293	220.62
289.524	208.62
289.755	224.62
289.986	216.62
290.217	224.62
290.448	212.62
290.679	210.62
290.91	210.62
291.141	221.62
291.371	225.62
291.602	223.62
291.833	208.62
292.064	223.62
292.295	234.62
292.526	229.62
292.757	221.62
292.987	208.62
293.218	221.62
293.449	232.62
293.68	218.62
293.91	204.62
294.141	194.62
294.372	228.62
294.603	227.62
294.833	219.62
295.064	223.62
295.295	227.62
295.525	223.62
295.756	229.62
295.987	241.62
296.217	261.62
296.448	264.62
296.679	231.62
296.909	223.62
297.14	225.62
297.37	221.62
297.601	236.62
297.831	235.62
298.062	232.62
298.292	216.62
298.523	229.62
298.753	226.62
298.984	225.62
299.214	216.62
299.445	236.62
299.675	239.62
299.905	233.62
300.136	260.62
300.366	228.62
300.597	230.62
300.827	208.62
301.057	229.62
301.288	248.62
301.518	259.62
301.748	260.62
301.979	232.62
302.209	255.62
302.439	242.62
302.669	257.62
302.9	245.62
303.13	256.62
303.36	238.62
303.59	247.62
303.82	261.62
304.051	229.62
304.281	235.62
304.511	236.62
304.741	231.62
304.971	249.62
305.201	228.62
305.431	235.62
305.661	229.62
305.891	255.62
306.121	259.62
306.352	244.62
306.582	263.62
306.812	249.62
307.042	241.62
307.272	242.62
307.502	240.62
307.731	240.62
307.961	267.62
308.191	276.62
308.421	263.62
308.651	255.62
308.881	265.62
309.111	258.62
309.341	268.62
309.571	259.62
309.8	291.62
310.03	301.62
310.26	322.62
310.49	301.62
310.72	309.62
310.949	319.62
311.179	329.62
311.409	311.62
311.639	308.62
311.868	292.62
312.098	319.62
312.328	315.62
312.557	327.62
312.787	346.62
313.017	337.62
313.246	303.62
313.476	290.62
313.706	290.62
313.935	306.62
314.165	290.62
314.394	314.62
314.624	320.62
314.853	317.62
315.083	294.62
315.312	285.62
315.542	288.62
315.771	295.62
316.001	303.62
316.23	317.62
316.46	300.62
316.689	307.62
316.919	312.62
317.148	317.62
317.377	319.62
317.607	308.62
317.836	313.62
318.065	277.62
318.295	283.62
318.524	292.62
318.753	291.62
318.983	298.62
319.212	295.62
319.441	304.62
319.67	311.62
319.9	304.62
320.129	299.62
320.358	295.62
320.587	295.62
320.816	305.62
321.046	324.62
321.275	317.62
321.504	316.62
321.733	314.62
321.962	341.62
322.191	329.62
322.42	359.62
322.649	376.62
322.878	381.62
323.108	387.62
323.337	418.62
323.566	440.62
323.795	488.62
324.024	526.62
324.253	659.62
324.482	949.62
324.71	1500.62
324.939	2081.62
325.168	1859.62
325.397	1002.62
325.626	665.62
325.855	498.62
326.084	490.62
326.313	445.62
326.542	455.62
326.77	524.62
326.999	615.62
327.228	851.62
327.457	1316.62
327.686	1557.62
327.914	1105.62
328.143	713.62
328.372	618.62
328.6	544.62
328.829	536.62
329.058	544.62
329.287	539.62
329.515	488.62
329.744	440.62
329.972	435.62
330.201	439.62
330.43	451.62
330.658	506.62
330.887	553.62
331.115	539.62
331.344	459.62
331.572	410.62
331.801	417.62
332.03	402.62
332.258	381.62
332.486	357.62
332.715	353.62
332.943	363.62
333.172	345.62
333.4	339.62
333.629	351.62
333.857	353.62
334.085	347.62
334.314	336.62
334.542	347.62
334.771	346.62
334.999	348.62
335.227	345.62
335.455	335.62
335.684	354.62
335.912	328.62
336.14	336.62
336.369	325.62
336.597	339.62
336.825	359.62
337.053	334.62
337.281	331.62
337.51	319.62
337.738	339.62
337.966	344.62
338.194	341.62
338.422	355.62
338.65	336.62
338.878	334.62
339.106	321.62
339.334	328.62
339.562	318.62
339.79	334.62
340.018	319.62
340.246	340.62
340.474	359.62
340.702	340.62
340.93	338.62
341.158	331.62
341.386	328.62
341.614	322.62
341.842	351.62
342.07	339.62
342.298	330.62
342.526	322.62
342.754	333.62
342.981	343.62
343.209	302.62
343.437	307.62
343.665	316.62
343.893	314.62
344.12	321.62
344.348	330.62
344.576	338.62
344.804	335.62
345.031	335.62
345.259	352.62
345.487	354.62
345.714	344.62
345.942	338.62
346.17	319.62
346.397	322.62
346.625	321.62
346.853	323.62
347.08	323.62
347.308	350.62
347.535	347.62
347.763	355.62
347.99	341.62
348.218	340.62
348.445	354.62
348.673	367.62
348.9	339.62
349.128	355.62
349.355	301.62
349.583	307.62
349.81	333.62
350.037	325.62
350.265	311.62
350.492	317.62
350.72	312.62
350.947	318.62
351.174	356.62
351.402	345.62
351.629	337.62
351.856	353.62
352.083	345.62
352.311	350.62
352.538	353.62
352.765	357.62
352.992	336.62
353.22	314.62
353.447	320.62
353.674	333.62
353.901	309.62
354.128	307.62
354.355	320.62
354.583	307.62
354.81	292.62
355.037	297.62
355.264	301.62
355.491	309.62
355.718	303.62
355.945	301.62
356.172	291.62
356.399	295.62
356.626	311.62
356.853	295.62
357.08	297.62
357.307	296.62
357.534	303.62
357.761	308.62
357.988	307.62
358.215	285.62
358.441	300.62
358.668	302.62
358.895	300.62
359.122	319.62
359.349	328.62
359.576	330.62
359.802	329.62
360.029	378.62
360.256	399.62
360.483	387.62
360.709	356.62
360.936	344.62
361.163	330.62
361.39	335.62
361.616	343.62
361.843	334.62
362.07	324.62
362.296	339.62
362.523	332.62
362.749	349.62
362.976	338.62
363.203	325.62
363.429	320.62
363.656	311.62
363.882	320.62
364.109	299.62
364.335	295.62
364.562	342.62
364.788	307.62
365.015	327.62
365.241	331.62
365.468	324.62
365.694	324.62
365.92	335.62
366.147	323.62
366.373	325.62
366.599	303.62
366.826	318.62
367.052	312.62
367.278	311.62
367.505	323.62
367.731	316.62
367.957	314.62
368.184	314.62
368.41	313.62
368.636	340.62
368.862	350.62
369.089	331.62
369.315	323.62
369.541	314.62
369.767	305.62
369.993	313.62
370.219	327.62
370.445	303.62
370.672	316.62
370.898	317.62
371.124	320.62
371.35	298.62
371.576	293.62
371.802	295.62
372.028	301.62
372.254	293.62
372.48	311.62
372.706	296.62
372.932	294.62
373.158	313.62
373.384	294.62
373.61	303.62
373.835	325.62
374.061	311.62
374.287	312.62
374.513	335.62
374.739	316.62
374.965	314.62
375.191	303.62
375.416	308.62
375.642	323.62
375.868	327.62
376.094	305.62
376.319	317.62
376.545	304.62
376.771	313.62
376.997	322.62
377.222	291.62
377.448	316.62
377.674	301.62
377.899	303.62
378.125	304.62
378.35	297.62
378.576	310.62
378.802	303.62
379.027	310.62
379.253	297.62
379.478	313.62
379.704	322.62
379.929	290.62
380.155	322.62
380.38	321.62
380.606	300.62
380.831	322.62
381.057	325.62
381.282	308.62
381.507	319.62
381.733	303.62
381.958	300.62
382.184	292.62
382.409	336.62
382.634	315.62
382.86	305.62
383.085	329.62
383.31	303.62
383.535	304.62
383.761	315.62
383.986	337.62
384.211	322.62
384.436	326.62
384.662	324.62
384.887	340.62
385.112	346.62
385.337	315.62
385.562	327.62
385.787	334.62
386.013	325.62
386.238	343.62
386.463	335.62
386.688	321.62
386.913	333.62
387.138	330.62
387.363	342.62
387.588	331.62
387.813	336.62
388.038	319.62
388.263	332.62
388.488	321.62
388.713	346.62
388.938	331.62
389.163	337.62
389.387	340.62
389.612	324.62
389.837	329.62
390.062	325.62
390.287	317.62
390.512	314.62
390.736	332.62
390.961	340.62
391.186	333.62
391.411	318.62
391.636	343.62
391.86	336.62
392.085	334.62
392.31	346.62
392.534	329.62
392.759	334.62
392.984	337.62
393.208	320.62
393.433	351.62
393.658	358.62
393.882	339.62
394.107	329.62
394.331	341.62
394.556	329.62
394.78	324.62
395.005	322.62
395.229	333.62
395.454	339.62
395.678	347.62
395.903	344.62
396.127	387.62
396.352	369.62
396.576	345.62
396.801	364.62
397.025	376.62
397.249	378.62
397.474	368.62
397.698	349.62
397.922	371.62
398.147	371.62
398.371	391.62
398.595	352.62
398.82	351.62
399.044	359.62
399.268	373.62
399.492	391.62
399.717	404.62
399.941	438.62
400.165	429.62
400.389	459.62
400.613	431.62
400.837	408.62
401.062	389.62
401.286	402.62
401.51	379.62
401.734	371.62
401.958	378.62
402.182	379.62
402.406	394.62
402.63	381.62
402.854	379.62
403.078	406.62
403.302	403.62
403.526	378.62
403.75	398.62
403.974	376.62
404.198	393.62
404.422	376.62
404.645	391.62
404.869	409.62
405.093	411.62
405.317	441.62
405.541	462.62
405.765	419.62
405.988	401.62
406.212	425.62
406.436	453.62
406.66	467.62
406.883	468.62
407.107	440.62
407.331	467.62
407.555	559.62
407.778	548.62
408.002	521.62
408.226	449.62
408.449	445.62
408.673	428.62
408.896	474.62
409.12	508.62
409.344	481.62
409.567	429.62
409.791	409.62
410.014	410.62
410.238	395.62
410.461	408.62
410.685	401.62
410.908	426.62
411.132	470.62
411.355	487.62
411.578	466.62
411.802	415.62
412.025	397.62
412.249	394.62
412.472	398.62
412.695	395.62
412.919	394.62
413.142	388.62
413.365	389.62
413.589	387.62
413.812	391.62
414.035	390.62
414.258	375.62
414.482	370.62
414.705	369.62
414.928	340.62
415.151	362.62
415.374	377.62
415.597	362.62
415.821	363.62
416.044	360.62
416.267	375.62
416.49	388.62
416.713	378.62
416.936	369.62
417.159	353.62
417.382	379.62
417.605	405.62
417.828	396.62
418.051	417.62
418.274	399.62
418.497	379.62
418.72	382.62
418.943	394.62
419.166	391.62
419.389	391.62
419.611	394.62
419.834	403.62
420.057	408.62
420.28	401.62
420.503	404.62
420.726	411.62
420.948	410.62
421.171	448.62
421.394	473.62
421.617	432.62
421.839	409.62
422.062	409.62
422.285	428.62
422.507	479.62
422.73	563.62
422.953	539.62
423.175	471.62
423.398	437.62
423.621	437.62
423.843	450.62
424.066	439.62
424.288	440.62
424.511	468.62
424.733	533.62
424.956	593.62
425.178	589.62
425.401	581.62
425.623	581.62
425.846	515.62
426.068	475.62
426.291	473.62
426.513	448.62
426.735	469.62
426.958	499.62
427.18	599.62
427.402	694.62
427.625	752.62
427.847	708.62
428.069	611.62
428.292	532.62
428.514	483.62
428.736	455.62
428.958	455.62
429.181	426.62
429.403	420.62
429.625	428.62
429.847	482.62
430.069	528.62
430.292	535.62
430.514	459.62
430.736	428.62
430.958	402.62
431.18	426.62
431.402	418.62
431.624	398.62
431.846	393.62
432.068	392.62
432.29	404.62
432.512	407.62
432.734	416.62
432.956	395.62
433.178	445.62
433.4	416.62
433.622	411.62
433.844	419.62
434.066	405.62
434.287	392.62
434.509	422.62
434.731	402.62
434.953	388.62
435.175	444.62
435.397	477.62
435.618	477.62
435.84	521.62
436.062	575.62
436.284	634.62
436.505	563.62
436.727	489.62
436.949	458.62
437.17	444.62
437.392	446.62
437.614	457.62
437.835	514.62
438.057	583.62
438.278	684.62
438.5	673.62
438.721	720.62
438.943	707.62
439.165	570.62
439.386	522.62
439.608	510.62
439.829	502.62
440.05	501.62
440.272	539.62
440.493	524.62
440.715	480.62
440.936	459.62
441.158	443.62
441.379	456.62
441.6	425.62
441.822	468.62
442.043	500.62
442.264	607.62
442.486	631.62
442.707	543.62
442.928	495.62
443.149	506.62
443.371	520.62
443.592	524.62
443.813	635.62
444.034	675.62
444.255	577.62
444.476	513.62
444.698	484.62
444.919	475.62
445.14	586.62
445.361	537.62
445.582	513.62
445.803	560.62
446.024	680.62
446.245	691.62
446.466	619.62
446.687	519.62
446.908	500.62
447.129	451.62
447.35	439.62
447.571	439.62
447.792	444.62
448.013	441.62
448.234	478.62
448.455	535.62
448.675	619.62
448.896	695.62
449.117	594.62
449.338	600.62
449.559	678.62
449.779	703.62
450	589.62
450.221	529.62
450.442	472.62
450.662	452.62
450.883	453.62
451.104	477.62
451.324	483.62
451.545	428.62
451.766	408.62
451.986	401.62
452.207	406.62
452.428	387.62
452.648	396.62
452.869	395.62
453.089	419.62
453.31	410.62
453.53	412.62
453.751	391.62
453.971	380.62
454.192	417.62
454.412	427.62
454.633	415.62
454.853	411.62
455.073	377.62
455.294	415.62
455.514	489.62
455.734	483.62
455.955	409.62
456.175	379.62
456.395	376.62
456.616	376.62
456.836	363.62
457.056	360.62
457.276	341.62
457.497	368.62
457.717	353.62
457.937	363.62
458.157	369.62
458.377	395.62
458.598	418.62
458.818	462.62
459.038	547.62
459.258	555.62
459.478	476.62
459.698	422.62
459.918	395.62
460.138	390.62
460.358	383.62
460.578	392.62
460.798	399.62
461.018	411.62
461.238	399.62
461.458	396.62
461.678	379.62
461.898	398.62
462.118	405.62
462.338	400.62
462.558	387.62
462.777	426.62
462.997	396.62
463.217	400.62
463.437	407.62
463.657	403.62
463.876	393.62
464.096	411.62
464.316	418.62
464.536	432.62
464.755	428.62
464.975	429.62
465.195	483.62
465.414	597.62
465.634	524.62
465.854	445.62
466.073	442.62
466.293	405.62
466.512	401.62
466.732	393.62
466.951	407.62
467.171	391.62
467.391	397.62
467.61	389.62
467.829	420.62
468.049	406.62
468.268	398.62
468.488	393.62
468.707	382.62
468.927	379.62
469.146	359.62
469.365	381.62
469.585	380.62
469.804	390.62
470.023	402.62
470.243	413.62
470.462	429.62
470.681	433.62
470.901	437.62
471.12	411.62
471.339	410.62
471.558	405.62
471.777	398.62
471.997	375.62
472.216	366.62
472.435	389.62
472.654	407.62
472.873	405.62
473.092	373.62
473.311	394.62
473.53	408.62
473.749	412.62
473.968	459.62
474.187	575.62
474.406	554.62
474.625	480.62
474.844	419.62
475.063	428.62
475.282	393.62
475.501	412.62
475.72	412.62
475.939	419.62
476.158	420.62
476.377	420.62
476.596	414.62
476.814	439.62
477.033	443.62
477.252	403.62
477.471	407.62
477.69	431.62
477.908	429.62
478.127	424.62
478.346	440.62
478.564	448.62
478.783	446.62
479.002	451.62
479.22	449.62
479.439	447.62
479.658	477.62
479.876	484.62
480.095	506.62
480.313	513.62
480.532	519.62
480.751	472.62
480.969	490.62
481.188	496.62
481.406	515.62
481.624	490.62
481.843	489.62
482.061	498.62
482.28	459.62
482.498	459.62
482.717	457.62
482.935	453.62
483.153	445.62
483.372	478.62
483.59	475.62
483.808	456.62
484.027	460.62
484.245	463.62
484.463	482.62
484.681	482.62
484.9	477.62
485.118	469.62
485.336	499.62
485.554	486.62
485.772	498.62
485.99	515.62
486.209	517.62
486.427	497.62
486.645	527.62
486.863	537.62
487.081	537.62
487.299	521.62
487.517	514.62
487.735	515.62
487.953	524.62
488.171	512.62
488.389	522.62
488.607	517.62
488.825	570.62
489.043	523.62
489.261	529.62
489.479	516.62
489.696	529.62
489.914	541.62
490.132	527.62
490.35	533.62
490.568	539.62
490.786	567.62
491.003	568.62
491.221	568.62
491.439	577.62
491.657	587.62
491.874	590.62
492.092	575.62
492.31	605.62
492.527	573.62
492.745	601.62
492.963	628.62
493.18	596.62
493.398	612.62
493.615	597.62
493.833	583.62
494.05	611.62
494.268	585.62
494.485	611.62
494.703	623.62
494.92	625.62
495.138	611.62
495.355	603.62
495.573	613.62
495.79	616.62
496.008	623.62
496.225	609.62
496.442	626.62
496.66	625.62
496.877	621.62
497.094	624.62
497.312	633.62
497.529	643.62
497.746	626.62
497.963	634.62
498.181	646.62
498.398	663.62
498.615	642.62
498.832	675.62
499.049	672.62
499.267	699.62
499.484	679.62
499.701	695.62
499.918	718.62
500.135	725.62
500.352	732.62
500.569	724.62
500.786	728.62
501.003	752.62
501.22	746.62
501.437	749.62
501.654	746.62
501.871	757.62
502.088	727.62
