Data from 1987.PennyLincolnUp.Lamp.En5.5.200Scan.071819.P2_HRD10591_17-15-47-971.txt Node
Date: Thu Jul 18 17:15:47 EDT 2019
User: cochatt
Spectrometer: HR+D1059
Trigger mode: 1
Integration Time (sec): 1.000000E-1
Scans to average: 1
Electric dark correction enabled: true
Nonlinearity correction enabled: false
Boxcar width: 0
XAxis mode: Wavelengths
Number of Pixels in Spectrum: 2048
>>>>>Begin Spectral Data<<<<<
223.165	-11.19
223.4	-11.19
223.635	-11.19
223.869	-19.19
224.104	-11.19
224.338	-18.19
224.573	0.81
224.808	-14.19
225.042	-5.19
225.277	-8.19
225.511	-15.19
225.746	5.81
225.98	3.81
226.215	5.81
226.449	15.81
226.683	24.81
226.918	12.81
227.152	32.81
227.387	35.81
227.621	34.81
227.856	41.81
228.09	29.81
228.324	39.81
228.559	62.81
228.793	78.81
229.027	114.81
229.262	121.81
229.496	128.81
229.73	142.81
229.964	165.81
230.199	151.81
230.433	120.81
230.667	126.81
230.901	117.81
231.136	127.81
231.37	118.81
231.604	132.81
231.838	115.81
232.072	110.81
232.306	119.81
232.541	117.81
232.775	115.81
233.009	120.81
233.243	120.81
233.477	100.81
233.711	112.81
233.945	114.81
234.179	126.81
234.413	112.81
234.647	94.81
234.881	115.81
235.115	116.81
235.349	114.81
235.583	114.81
235.817	121.81
236.051	137.81
236.285	113.81
236.519	124.81
236.753	132.81
236.987	143.81
237.221	192.81
237.455	258.81
237.689	201.81
237.922	157.81
238.156	139.81
238.39	141.81
238.624	129.81
238.858	136.81
239.091	115.81
239.325	124.81
239.559	129.81
239.793	121.81
240.027	139.81
240.26	147.81
240.494	170.81
240.728	161.81
240.961	146.81
241.195	139.81
241.429	148.81
241.662	136.81
241.896	123.81
242.13	124.81
242.363	129.81
242.597	132.81
242.83	122.81
243.064	126.81
243.298	128.81
243.531	136.81
243.765	131.81
243.998	125.81
244.232	136.81
244.465	121.81
244.699	139.81
244.932	134.81
245.166	141.81
245.399	153.81
245.633	145.81
245.866	149.81
246.099	145.81
246.333	153.81
246.566	143.81
246.8	152.81
247.033	148.81
247.266	152.81
247.5	150.81
247.733	164.81
247.966	184.81
248.2	155.81
248.433	160.81
248.666	177.81
248.899	171.81
249.133	204.81
249.366	209.81
249.599	206.81
249.832	180.81
250.066	178.81
250.299	183.81
250.532	184.81
250.765	198.81
250.998	205.81
251.231	221.81
251.465	215.81
251.698	182.81
251.931	202.81
252.164	193.81
252.397	190.81
252.63	210.81
252.863	204.81
253.096	195.81
253.329	236.81
253.562	250.81
253.795	220.81
254.028	206.81
254.261	212.81
254.494	240.81
254.727	266.81
254.96	289.81
255.193	268.81
255.426	261.81
255.659	255.81
255.892	234.81
256.124	217.81
256.357	221.81
256.59	202.81
256.823	201.81
257.056	193.81
257.289	186.81
257.521	200.81
257.754	210.81
257.987	197.81
258.22	210.81
258.452	192.81
258.685	195.81
258.918	191.81
259.151	200.81
259.383	201.81
259.616	218.81
259.849	211.81
260.081	206.81
260.314	241.81
260.547	229.81
260.779	234.81
261.012	222.81
261.244	218.81
261.477	205.81
261.71	223.81
261.942	229.81
262.175	231.81
262.407	236.81
262.64	205.81
262.872	197.81
263.105	191.81
263.337	203.81
263.57	188.81
263.802	199.81
264.035	204.81
264.267	201.81
264.499	207.81
264.732	193.81
264.964	178.81
265.197	195.81
265.429	195.81
265.661	209.81
265.894	184.81
266.126	193.81
266.358	187.81
266.591	183.81
266.823	208.81
267.055	189.81
267.287	202.81
267.52	198.81
267.752	211.81
267.984	211.81
268.216	209.81
268.448	213.81
268.681	216.81
268.913	217.81
269.145	241.81
269.377	261.81
269.609	264.81
269.841	235.81
270.073	274.81
270.306	275.81
270.538	292.81
270.77	300.81
271.002	290.81
271.234	281.81
271.466	286.81
271.698	287.81
271.93	321.81
272.162	332.81
272.394	313.81
272.626	301.81
272.858	284.81
273.09	271.81
273.322	259.81
273.553	250.81
273.785	269.81
274.017	240.81
274.249	238.81
274.481	257.81
274.713	237.81
274.945	261.81
275.176	250.81
275.408	226.81
275.64	264.81
275.872	218.81
276.104	236.81
276.335	229.81
276.567	246.81
276.799	261.81
277.031	277.81
277.262	315.81
277.494	310.81
277.726	283.81
277.957	281.81
278.189	262.81
278.421	242.81
278.652	239.81
278.884	240.81
279.115	242.81
279.347	250.81
279.579	215.81
279.81	227.81
280.042	228.81
280.273	223.81
280.505	212.81
280.736	231.81
280.968	218.81
281.199	227.81
281.431	215.81
281.662	226.81
281.894	222.81
282.125	234.81
282.356	261.81
282.588	274.81
282.819	287.81
283.051	241.81
283.282	221.81
283.513	229.81
283.745	236.81
283.976	234.81
284.207	233.81
284.439	233.81
284.67	233.81
284.901	237.81
285.132	240.81
285.364	230.81
285.595	226.81
285.826	232.81
286.057	224.81
286.288	227.81
286.52	243.81
286.751	240.81
286.982	231.81
287.213	233.81
287.444	244.81
287.675	248.81
287.906	255.81
288.138	257.81
288.369	241.81
288.6	258.81
288.831	273.81
289.062	246.81
289.293	241.81
289.524	235.81
289.755	237.81
289.986	251.81
290.217	240.81
290.448	230.81
290.679	233.81
290.91	235.81
291.141	240.81
291.371	230.81
291.602	258.81
291.833	242.81
292.064	238.81
292.295	248.81
292.526	226.81
292.757	242.81
292.987	229.81
293.218	239.81
293.449	230.81
293.68	238.81
293.91	240.81
294.141	237.81
294.372	240.81
294.603	232.81
294.833	249.81
295.064	243.81
295.295	247.81
295.525	252.81
295.756	264.81
295.987	275.81
296.217	307.81
296.448	298.81
296.679	283.81
296.909	253.81
297.14	244.81
297.37	269.81
297.601	249.81
297.831	243.81
298.062	258.81
298.292	249.81
298.523	256.81
298.753	227.81
298.984	267.81
299.214	253.81
299.445	252.81
299.675	255.81
299.905	263.81
300.136	246.81
300.366	265.81
300.597	237.81
300.827	264.81
301.057	252.81
301.288	290.81
301.518	276.81
301.748	270.81
301.979	273.81
302.209	288.81
302.439	281.81
302.669	281.81
302.9	263.81
303.13	274.81
303.36	254.81
303.59	285.81
303.82	268.81
304.051	275.81
304.281	283.81
304.511	262.81
304.741	271.81
304.971	272.81
305.201	269.81
305.431	287.81
305.661	270.81
305.891	277.81
306.121	279.81
306.352	277.81
306.582	275.81
306.812	287.81
307.042	267.81
307.272	285.81
307.502	282.81
307.731	297.81
307.961	296.81
308.191	276.81
308.421	285.81
308.651	302.81
308.881	287.81
309.111	289.81
309.341	305.81
309.571	319.81
309.8	341.81
310.03	336.81
310.26	346.81
310.49	344.81
310.72	359.81
310.949	379.81
311.179	394.81
311.409	369.81
311.639	354.81
311.868	351.81
312.098	356.81
312.328	364.81
312.557	370.81
312.787	421.81
313.017	423.81
313.246	376.81
313.476	314.81
313.706	354.81
313.935	355.81
314.165	370.81
314.394	392.81
314.624	384.81
314.853	355.81
315.083	349.81
315.312	327.81
315.542	325.81
315.771	342.81
316.001	328.81
316.23	341.81
316.46	322.81
316.689	332.81
316.919	356.81
317.148	348.81
317.377	324.81
317.607	326.81
317.836	324.81
318.065	332.81
318.295	334.81
318.524	330.81
318.753	299.81
318.983	322.81
319.212	340.81
319.441	358.81
319.67	349.81
319.9	351.81
320.129	329.81
320.358	349.81
320.587	344.81
320.816	375.81
321.046	371.81
321.275	364.81
321.504	352.81
321.733	359.81
321.962	370.81
322.191	393.81
322.42	416.81
322.649	454.81
322.878	469.81
323.108	482.81
323.337	524.81
323.566	564.81
323.795	576.81
324.024	677.81
324.253	827.81
324.482	1294.81
324.71	1943.81
324.939	2746.81
325.168	2333.81
325.397	1315.81
325.626	842.81
325.855	644.81
326.084	581.81
326.313	544.81
326.542	540.81
326.77	619.81
326.999	793.81
327.228	1080.81
327.457	1701.81
327.686	2089.81
327.914	1408.81
328.143	902.81
328.372	744.81
328.6	665.81
328.829	618.81
329.058	684.81
329.287	684.81
329.515	595.81
329.744	523.81
329.972	528.81
330.201	511.81
330.43	542.81
330.658	588.81
330.887	702.81
331.115	658.81
331.344	542.81
331.572	514.81
331.801	486.81
332.03	481.81
332.258	429.81
332.486	439.81
332.715	392.81
332.943	402.81
333.172	389.81
333.4	394.81
333.629	402.81
333.857	406.81
334.085	396.81
334.314	400.81
334.542	374.81
334.771	392.81
334.999	388.81
335.227	398.81
335.455	380.81
335.684	361.81
335.912	368.81
336.14	372.81
336.369	373.81
336.597	385.81
336.825	413.81
337.053	381.81
337.281	372.81
337.51	394.81
337.738	378.81
337.966	370.81
338.194	385.81
338.422	394.81
338.65	384.81
338.878	360.81
339.106	361.81
339.334	374.81
339.562	357.81
339.79	374.81
340.018	364.81
340.246	378.81
340.474	380.81
340.702	373.81
340.93	389.81
341.158	372.81
341.386	391.81
341.614	352.81
341.842	379.81
342.07	360.81
342.298	356.81
342.526	357.81
342.754	372.81
342.981	346.81
343.209	348.81
343.437	367.81
343.665	354.81
343.893	335.81
344.12	367.81
344.348	363.81
344.576	370.81
344.804	384.81
345.031	392.81
345.259	447.81
345.487	412.81
345.714	382.81
345.942	390.81
346.17	373.81
346.397	370.81
346.625	373.81
346.853	373.81
347.08	361.81
347.308	400.81
347.535	415.81
347.763	409.81
347.99	385.81
348.218	411.81
348.445	408.81
348.673	401.81
348.9	375.81
349.128	374.81
349.355	350.81
349.583	351.81
349.81	349.81
350.037	358.81
350.265	371.81
350.492	361.81
350.72	373.81
350.947	362.81
351.174	372.81
351.402	404.81
351.629	382.81
351.856	391.81
352.083	402.81
352.311	412.81
352.538	406.81
352.765	432.81
352.992	394.81
353.22	391.81
353.447	384.81
353.674	380.81
353.901	347.81
354.128	358.81
354.355	345.81
354.583	346.81
354.81	341.81
355.037	345.81
355.264	348.81
355.491	326.81
355.718	317.81
355.945	329.81
356.172	329.81
356.399	329.81
356.626	340.81
356.853	334.81
357.08	321.81
357.307	328.81
357.534	320.81
357.761	317.81
357.988	321.81
358.215	321.81
358.441	333.81
358.668	328.81
358.895	344.81
359.122	356.81
359.349	373.81
359.576	394.81
359.802	419.81
360.029	466.81
360.256	482.81
360.483	442.81
360.709	407.81
360.936	391.81
361.163	388.81
361.39	378.81
361.616	398.81
361.843	381.81
362.07	391.81
362.296	390.81
362.523	372.81
362.749	377.81
362.976	378.81
363.203	368.81
363.429	362.81
363.656	340.81
363.882	363.81
364.109	365.81
364.335	346.81
364.562	352.81
364.788	337.81
365.015	345.81
365.241	350.81
365.468	342.81
365.694	350.81
365.92	357.81
366.147	343.81
366.373	350.81
366.599	360.81
366.826	335.81
367.052	340.81
367.278	346.81
367.505	347.81
367.731	331.81
367.957	363.81
368.184	343.81
368.41	346.81
368.636	362.81
368.862	363.81
369.089	355.81
369.315	340.81
369.541	362.81
369.767	341.81
369.993	354.81
370.219	329.81
370.445	342.81
370.672	338.81
370.898	324.81
371.124	347.81
371.35	340.81
371.576	326.81
371.802	344.81
372.028	312.81
372.254	325.81
372.48	320.81
372.706	330.81
372.932	336.81
373.158	321.81
373.384	337.81
373.61	346.81
373.835	331.81
374.061	337.81
374.287	351.81
374.513	345.81
374.739	331.81
374.965	321.81
375.191	321.81
375.416	325.81
375.642	326.81
375.868	339.81
376.094	333.81
376.319	336.81
376.545	348.81
376.771	327.81
376.997	318.81
377.222	321.81
377.448	317.81
377.674	315.81
377.899	304.81
378.125	331.81
378.35	321.81
378.576	336.81
378.802	317.81
379.027	322.81
379.253	325.81
379.478	328.81
379.704	330.81
379.929	349.81
380.155	329.81
380.38	345.81
380.606	334.81
380.831	323.81
381.057	349.81
381.282	342.81
381.507	338.81
381.733	332.81
381.958	335.81
382.184	336.81
382.409	346.81
382.634	334.81
382.86	327.81
383.085	332.81
383.31	350.81
383.535	343.81
383.761	339.81
383.986	328.81
384.211	338.81
384.436	348.81
384.662	351.81
384.887	346.81
385.112	331.81
385.337	341.81
385.562	352.81
385.787	349.81
386.013	370.81
386.238	376.81
386.463	362.81
386.688	336.81
386.913	355.81
387.138	344.81
387.363	343.81
387.588	351.81
387.813	345.81
388.038	349.81
388.263	349.81
388.488	332.81
388.713	337.81
388.938	348.81
389.163	361.81
389.387	339.81
389.612	330.81
389.837	345.81
390.062	341.81
390.287	354.81
390.512	348.81
390.736	341.81
390.961	355.81
391.186	358.81
391.411	344.81
391.636	342.81
391.86	355.81
392.085	350.81
392.31	345.81
392.534	365.81
392.759	351.81
392.984	358.81
393.208	356.81
393.433	342.81
393.658	333.81
393.882	337.81
394.107	354.81
394.331	350.81
394.556	352.81
394.78	363.81
395.005	349.81
395.229	338.81
395.454	369.81
395.678	347.81
395.903	376.81
396.127	394.81
396.352	405.81
396.576	380.81
396.801	377.81
397.025	369.81
397.249	356.81
397.474	382.81
397.698	381.81
397.922	392.81
398.147	408.81
398.371	406.81
398.595	394.81
398.82	396.81
399.044	405.81
399.268	400.81
399.492	394.81
399.717	430.81
399.941	456.81
400.165	483.81
400.389	498.81
400.613	481.81
400.837	436.81
401.062	417.81
401.286	406.81
401.51	405.81
401.734	419.81
401.958	408.81
402.182	382.81
402.406	418.81
402.63	450.81
402.854	417.81
403.078	427.81
403.302	413.81
403.526	412.81
403.75	410.81
403.974	417.81
404.198	406.81
404.422	422.81
404.645	438.81
404.869	437.81
405.093	432.81
405.317	478.81
405.541	518.81
405.765	466.81
405.988	456.81
406.212	462.81
406.436	501.81
406.66	532.81
406.883	488.81
407.107	499.81
407.331	507.81
407.555	610.81
407.778	596.81
408.002	544.81
408.226	474.81
408.449	471.81
408.673	460.81
408.896	504.81
409.12	543.81
409.344	527.81
409.567	482.81
409.791	439.81
410.014	422.81
410.238	427.81
410.461	439.81
410.685	433.81
410.908	436.81
411.132	477.81
411.355	497.81
411.578	516.81
411.802	462.81
412.025	422.81
412.249	413.81
412.472	425.81
412.695	436.81
412.919	424.81
413.142	437.81
413.365	398.81
413.589	406.81
413.812	381.81
414.035	387.81
414.258	404.81
414.482	398.81
414.705	413.81
414.928	398.81
415.151	382.81
415.374	384.81
415.597	388.81
415.821	412.81
416.044	411.81
416.267	389.81
416.49	402.81
416.713	380.81
416.936	393.81
417.159	413.81
417.382	408.81
417.605	425.81
417.828	445.81
418.051	440.81
418.274	438.81
418.497	416.81
418.72	417.81
418.943	396.81
419.166	415.81
419.389	433.81
419.611	432.81
419.834	418.81
420.057	428.81
420.28	418.81
420.503	418.81
420.726	419.81
420.948	447.81
421.171	504.81
421.394	548.81
421.617	469.81
421.839	457.81
422.062	440.81
422.285	459.81
422.507	512.81
422.73	568.81
422.953	565.81
423.175	500.81
423.398	473.81
423.621	473.81
423.843	468.81
424.066	490.81
424.288	506.81
424.511	528.81
424.733	568.81
424.956	638.81
425.178	636.81
425.401	614.81
425.623	661.81
425.846	545.81
426.068	535.81
426.291	521.81
426.513	521.81
426.735	500.81
426.958	574.81
427.18	637.81
427.402	758.81
427.625	887.81
427.847	808.81
428.069	662.81
428.292	589.81
428.514	543.81
428.736	501.81
428.958	491.81
429.181	468.81
429.403	461.81
429.625	490.81
429.847	527.81
430.069	597.81
430.292	579.81
430.514	504.81
430.736	474.81
430.958	442.81
431.18	442.81
431.402	461.81
431.624	441.81
431.846	411.81
432.068	406.81
432.29	423.81
432.512	432.81
432.734	457.81
432.956	459.81
433.178	462.81
433.4	462.81
433.622	439.81
433.844	444.81
434.066	405.81
434.287	433.81
434.509	445.81
434.731	443.81
434.953	451.81
435.175	459.81
435.397	494.81
435.618	499.81
435.84	560.81
436.062	643.81
436.284	700.81
436.505	594.81
436.727	552.81
436.949	514.81
437.17	474.81
437.392	473.81
437.614	479.81
437.835	540.81
438.057	635.81
438.278	750.81
438.5	744.81
438.721	802.81
438.943	765.81
439.165	632.81
439.386	582.81
439.608	535.81
439.829	545.81
440.05	599.81
440.272	634.81
440.493	591.81
440.715	532.81
440.936	504.81
441.158	499.81
441.379	469.81
441.6	501.81
441.822	528.81
442.043	554.81
442.264	631.81
442.486	677.81
442.707	608.81
442.928	535.81
443.149	542.81
443.371	581.81
443.592	618.81
443.813	688.81
444.034	756.81
444.255	636.81
444.476	543.81
444.698	509.81
444.919	509.81
445.14	599.81
445.361	569.81
445.582	574.81
445.803	636.81
446.024	740.81
446.245	740.81
446.466	685.81
446.687	598.81
446.908	554.81
447.129	500.81
447.35	503.81
447.571	504.81
447.792	496.81
448.013	493.81
448.234	537.81
448.455	566.81
448.675	686.81
448.896	763.81
449.117	672.81
449.338	642.81
449.559	735.81
449.779	777.81
450	666.81
450.221	567.81
450.442	525.81
450.662	481.81
450.883	512.81
451.104	543.81
451.324	530.81
451.545	497.81
451.766	454.81
451.986	442.81
452.207	444.81
452.428	436.81
452.648	424.81
452.869	426.81
453.089	436.81
453.31	458.81
453.53	447.81
453.751	438.81
453.971	450.81
454.192	493.81
454.412	480.81
454.633	459.81
454.853	471.81
455.073	456.81
455.294	480.81
455.514	540.81
455.734	544.81
455.955	441.81
456.175	384.81
456.395	397.81
456.616	391.81
456.836	410.81
457.056	381.81
457.276	415.81
457.497	400.81
457.717	387.81
457.937	406.81
458.157	405.81
458.377	442.81
458.598	444.81
458.818	520.81
459.038	650.81
459.258	655.81
459.478	531.81
459.698	476.81
459.918	442.81
460.138	452.81
460.358	432.81
460.578	438.81
460.798	411.81
461.018	434.81
461.238	436.81
461.458	414.81
461.678	422.81
461.898	420.81
462.118	399.81
462.338	421.81
462.558	422.81
462.777	427.81
462.997	416.81
463.217	420.81
463.437	456.81
463.657	425.81
463.876	414.81
464.096	450.81
464.316	438.81
464.536	441.81
464.755	467.81
464.975	493.81
465.195	549.81
465.414	662.81
465.634	596.81
465.854	515.81
466.073	486.81
466.293	468.81
466.512	434.81
466.732	429.81
466.951	453.81
467.171	417.81
467.391	436.81
467.61	473.81
467.829	454.81
468.049	453.81
468.268	417.81
468.488	407.81
468.707	408.81
468.927	405.81
469.146	410.81
469.365	410.81
469.585	420.81
469.804	412.81
470.023	433.81
470.243	419.81
470.462	426.81
470.681	462.81
470.901	452.81
471.12	460.81
471.339	429.81
471.558	444.81
471.777	436.81
471.997	422.81
472.216	424.81
472.435	433.81
472.654	458.81
472.873	426.81
473.092	405.81
473.311	420.81
473.53	433.81
473.749	451.81
473.968	499.81
474.187	602.81
474.406	646.81
474.625	522.81
474.844	445.81
475.063	434.81
475.282	444.81
475.501	437.81
475.72	458.81
475.939	454.81
476.158	435.81
476.377	445.81
476.596	455.81
476.814	472.81
477.033	476.81
477.252	466.81
477.471	464.81
477.69	448.81
477.908	472.81
478.127	476.81
478.346	482.81
478.564	458.81
478.783	472.81
479.002	488.81
479.22	476.81
479.439	506.81
479.658	531.81
479.876	545.81
480.095	533.81
480.313	565.81
480.532	560.81
480.751	536.81
480.969	508.81
481.188	536.81
481.406	550.81
481.624	532.81
481.843	512.81
482.061	516.81
482.28	500.81
482.498	506.81
482.717	518.81
482.935	503.81
483.153	502.81
483.372	519.81
483.59	514.81
483.808	522.81
484.027	499.81
484.245	504.81
484.463	519.81
484.681	547.81
484.9	539.81
485.118	527.81
485.336	536.81
485.554	538.81
485.772	529.81
485.99	546.81
486.209	546.81
486.427	548.81
486.645	547.81
486.863	587.81
487.081	583.81
487.299	580.81
487.517	584.81
487.735	541.81
487.953	549.81
488.171	586.81
488.389	552.81
488.607	567.81
488.825	583.81
489.043	555.81
489.261	560.81
489.479	554.81
489.696	572.81
489.914	590.81
490.132	579.81
490.35	581.81
490.568	589.81
490.786	619.81
491.003	613.81
491.221	611.81
491.439	614.81
491.657	651.81
491.874	652.81
492.092	644.81
492.31	652.81
492.527	639.81
492.745	649.81
492.963	643.81
493.18	652.81
493.398	677.81
493.615	662.81
493.833	674.81
494.05	665.81
494.268	667.81
494.485	659.81
494.703	661.81
494.92	667.81
495.138	676.81
495.355	667.81
495.573	676.81
495.79	672.81
496.008	699.81
496.225	692.81
496.442	671.81
496.66	672.81
496.877	678.81
497.094	695.81
497.312	706.81
497.529	699.81
497.746	688.81
497.963	694.81
498.181	713.81
498.398	728.81
498.615	729.81
498.832	751.81
499.049	724.81
499.267	747.81
499.484	770.81
499.701	736.81
499.918	752.81
500.135	772.81
500.352	796.81
500.569	792.81
500.786	799.81
501.003	792.81
501.22	777.81
501.437	761.81
501.654	810.81
501.871	840.81
