Data from 1987.PennyLincolnUp.Lamp.En5.5.200Scan.071819.P2_HRD10591_17-14-34-972.txt Node
Date: Thu Jul 18 17:14:34 EDT 2019
User: cochatt
Spectrometer: HR+D1059
Trigger mode: 1
Integration Time (sec): 1.000000E-1
Scans to average: 1
Electric dark correction enabled: true
Nonlinearity correction enabled: false
Boxcar width: 0
XAxis mode: Wavelengths
Number of Pixels in Spectrum: 2048
>>>>>Begin Spectral Data<<<<<
223.165	-18.75
223.4	-18.75
223.635	-18.75
223.869	-21.75
224.104	-8.75
224.338	-11.75
224.573	-7.75
224.808	-22.75
225.042	-11.75
225.277	-13.75
225.511	-4.75
225.746	3.25
225.98	22.25
226.215	14.25
226.449	25.25
226.683	25.25
226.918	12.25
227.152	19.25
227.387	32.25
227.621	42.25
227.856	46.25
228.09	29.25
228.324	47.25
228.559	57.25
228.793	84.25
229.027	99.25
229.262	121.25
229.496	132.25
229.73	150.25
229.964	176.25
230.199	134.25
230.433	116.25
230.667	128.25
230.901	115.25
231.136	111.25
231.37	96.25
231.604	119.25
231.838	123.25
232.072	122.25
232.306	105.25
232.541	135.25
232.775	126.25
233.009	133.25
233.243	118.25
233.477	131.25
233.711	120.25
233.945	121.25
234.179	118.25
234.413	111.25
234.647	125.25
234.881	109.25
235.115	124.25
235.349	114.25
235.583	118.25
235.817	121.25
236.051	128.25
236.285	114.25
236.519	126.25
236.753	133.25
236.987	153.25
237.221	186.25
237.455	242.25
237.689	196.25
237.922	138.25
238.156	144.25
238.39	129.25
238.624	134.25
238.858	114.25
239.091	122.25
239.325	133.25
239.559	121.25
239.793	125.25
240.027	138.25
240.26	154.25
240.494	158.25
240.728	131.25
240.961	138.25
241.195	143.25
241.429	137.25
241.662	131.25
241.896	131.25
242.13	119.25
242.363	111.25
242.597	127.25
242.83	123.25
243.064	132.25
243.298	134.25
243.531	142.25
243.765	136.25
243.998	127.25
244.232	131.25
244.465	141.25
244.699	147.25
244.932	130.25
245.166	126.25
245.399	123.25
245.633	134.25
245.866	128.25
246.099	126.25
246.333	139.25
246.566	132.25
246.8	134.25
247.033	146.25
247.266	132.25
247.5	137.25
247.733	163.25
247.966	173.25
248.2	162.25
248.433	168.25
248.666	164.25
248.899	185.25
249.133	186.25
249.366	207.25
249.599	188.25
249.832	185.25
250.066	166.25
250.299	171.25
250.532	168.25
250.765	183.25
250.998	212.25
251.231	223.25
251.465	207.25
251.698	187.25
251.931	180.25
252.164	197.25
252.397	191.25
252.63	188.25
252.863	205.25
253.096	216.25
253.329	206.25
253.562	214.25
253.795	210.25
254.028	222.25
254.261	216.25
254.494	221.25
254.727	239.25
254.96	280.25
255.193	267.25
255.426	248.25
255.659	204.25
255.892	220.25
256.124	197.25
256.357	212.25
256.59	212.25
256.823	196.25
257.056	202.25
257.289	210.25
257.521	208.25
257.754	190.25
257.987	196.25
258.22	186.25
258.452	183.25
258.685	191.25
258.918	179.25
259.151	191.25
259.383	195.25
259.616	206.25
259.849	208.25
260.081	216.25
260.314	245.25
260.547	235.25
260.779	226.25
261.012	209.25
261.244	204.25
261.477	196.25
261.71	215.25
261.942	208.25
262.175	223.25
262.407	221.25
262.64	203.25
262.872	192.25
263.105	204.25
263.337	187.25
263.57	191.25
263.802	193.25
264.035	174.25
264.267	189.25
264.499	187.25
264.732	193.25
264.964	193.25
265.197	190.25
265.429	183.25
265.661	182.25
265.894	192.25
266.126	199.25
266.358	199.25
266.591	171.25
266.823	187.25
267.055	180.25
267.287	198.25
267.52	198.25
267.752	194.25
267.984	194.25
268.216	201.25
268.448	171.25
268.681	208.25
268.913	211.25
269.145	218.25
269.377	250.25
269.609	232.25
269.841	242.25
270.073	243.25
270.306	265.25
270.538	255.25
270.77	297.25
271.002	264.25
271.234	279.25
271.466	264.25
271.698	269.25
271.93	286.25
272.162	302.25
272.394	290.25
272.626	264.25
272.858	265.25
273.09	242.25
273.322	235.25
273.553	247.25
273.785	219.25
274.017	223.25
274.249	236.25
274.481	235.25
274.713	245.25
274.945	244.25
275.176	233.25
275.408	218.25
275.64	225.25
275.872	211.25
276.104	233.25
276.335	246.25
276.567	244.25
276.799	258.25
277.031	283.25
277.262	291.25
277.494	283.25
277.726	271.25
277.957	248.25
278.189	246.25
278.421	221.25
278.652	228.25
278.884	239.25
279.115	229.25
279.347	228.25
279.579	227.25
279.81	214.25
280.042	223.25
280.273	220.25
280.505	213.25
280.736	207.25
280.968	211.25
281.199	232.25
281.431	208.25
281.662	216.25
281.894	216.25
282.125	231.25
282.356	240.25
282.588	263.25
282.819	254.25
283.051	223.25
283.282	224.25
283.513	215.25
283.745	227.25
283.976	217.25
284.207	246.25
284.439	221.25
284.67	224.25
284.901	229.25
285.132	233.25
285.364	208.25
285.595	207.25
285.826	212.25
286.057	240.25
286.288	217.25
286.52	233.25
286.751	211.25
286.982	228.25
287.213	222.25
287.444	207.25
287.675	216.25
287.906	231.25
288.138	249.25
288.369	247.25
288.6	258.25
288.831	233.25
289.062	238.25
289.293	241.25
289.524	228.25
289.755	223.25
289.986	222.25
290.217	228.25
290.448	228.25
290.679	211.25
290.91	220.25
291.141	225.25
291.371	229.25
291.602	230.25
291.833	215.25
292.064	215.25
292.295	217.25
292.526	228.25
292.757	232.25
292.987	220.25
293.218	217.25
293.449	223.25
293.68	228.25
293.91	245.25
294.141	224.25
294.372	219.25
294.603	232.25
294.833	231.25
295.064	222.25
295.295	234.25
295.525	231.25
295.756	224.25
295.987	243.25
296.217	260.25
296.448	298.25
296.679	261.25
296.909	214.25
297.14	242.25
297.37	243.25
297.601	239.25
297.831	225.25
298.062	235.25
298.292	235.25
298.523	239.25
298.753	236.25
298.984	235.25
299.214	251.25
299.445	236.25
299.675	258.25
299.905	256.25
300.136	235.25
300.366	245.25
300.597	264.25
300.827	256.25
301.057	263.25
301.288	255.25
301.518	256.25
301.748	245.25
301.979	253.25
302.209	240.25
302.439	247.25
302.669	244.25
302.9	250.25
303.13	237.25
303.36	271.25
303.59	253.25
303.82	261.25
304.051	261.25
304.281	262.25
304.511	255.25
304.741	271.25
304.971	246.25
305.201	266.25
305.431	256.25
305.661	258.25
305.891	260.25
306.121	262.25
306.352	281.25
306.582	278.25
306.812	253.25
307.042	259.25
307.272	253.25
307.502	258.25
307.731	280.25
307.961	262.25
308.191	258.25
308.421	262.25
308.651	285.25
308.881	269.25
309.111	272.25
309.341	287.25
309.571	312.25
309.8	290.25
310.03	319.25
310.26	303.25
310.49	325.25
310.72	342.25
310.949	347.25
311.179	356.25
311.409	324.25
311.639	314.25
311.868	324.25
312.098	319.25
312.328	326.25
312.557	349.25
312.787	363.25
313.017	344.25
313.246	348.25
313.476	310.25
313.706	316.25
313.935	316.25
314.165	326.25
314.394	349.25
314.624	355.25
314.853	329.25
315.083	321.25
315.312	321.25
315.542	275.25
315.771	290.25
316.001	313.25
316.23	307.25
316.46	337.25
316.689	310.25
316.919	325.25
317.148	325.25
317.377	308.25
317.607	332.25
317.836	308.25
318.065	305.25
318.295	315.25
318.524	307.25
318.753	302.25
318.983	312.25
319.212	312.25
319.441	337.25
319.67	333.25
319.9	334.25
320.129	311.25
320.358	332.25
320.587	319.25
320.816	343.25
321.046	345.25
321.275	350.25
321.504	336.25
321.733	343.25
321.962	361.25
322.191	383.25
322.42	390.25
322.649	403.25
322.878	412.25
323.108	419.25
323.337	461.25
323.566	476.25
323.795	527.25
324.024	584.25
324.253	759.25
324.482	1061.25
324.71	1628.25
324.939	2306.25
325.168	1996.25
325.397	1098.25
325.626	710.25
325.855	571.25
326.084	510.25
326.313	486.25
326.542	504.25
326.77	547.25
326.999	653.25
327.228	903.25
327.457	1389.25
327.686	1750.25
327.914	1181.25
328.143	761.25
328.372	647.25
328.6	607.25
328.829	543.25
329.058	581.25
329.287	600.25
329.515	518.25
329.744	475.25
329.972	446.25
330.201	475.25
330.43	515.25
330.658	547.25
330.887	607.25
331.115	576.25
331.344	472.25
331.572	459.25
331.801	431.25
332.03	422.25
332.258	412.25
332.486	385.25
332.715	371.25
332.943	362.25
333.172	366.25
333.4	367.25
333.629	374.25
333.857	381.25
334.085	371.25
334.314	366.25
334.542	365.25
334.771	382.25
334.999	376.25
335.227	359.25
335.455	353.25
335.684	345.25
335.912	355.25
336.14	365.25
336.369	349.25
336.597	363.25
336.825	375.25
337.053	358.25
337.281	368.25
337.51	335.25
337.738	364.25
337.966	351.25
338.194	350.25
338.422	376.25
338.65	364.25
338.878	341.25
339.106	327.25
339.334	343.25
339.562	349.25
339.79	329.25
340.018	340.25
340.246	360.25
340.474	362.25
340.702	358.25
340.93	348.25
341.158	347.25
341.386	362.25
341.614	354.25
341.842	351.25
342.07	335.25
342.298	336.25
342.526	320.25
342.754	314.25
342.981	334.25
343.209	313.25
343.437	330.25
343.665	349.25
343.893	327.25
344.12	365.25
344.348	336.25
344.576	342.25
344.804	343.25
345.031	387.25
345.259	371.25
345.487	364.25
345.714	372.25
345.942	342.25
346.17	331.25
346.397	350.25
346.625	342.25
346.853	345.25
347.08	347.25
347.308	340.25
347.535	356.25
347.763	362.25
347.99	364.25
348.218	366.25
348.445	375.25
348.673	392.25
348.9	355.25
349.128	347.25
349.355	329.25
349.583	343.25
349.81	359.25
350.037	351.25
350.265	333.25
350.492	335.25
350.72	329.25
350.947	351.25
351.174	363.25
351.402	370.25
351.629	361.25
351.856	358.25
352.083	386.25
352.311	387.25
352.538	368.25
352.765	398.25
352.992	379.25
353.22	358.25
353.447	357.25
353.674	344.25
353.901	333.25
354.128	335.25
354.355	325.25
354.583	328.25
354.81	331.25
355.037	322.25
355.264	315.25
355.491	312.25
355.718	311.25
355.945	321.25
356.172	310.25
356.399	329.25
356.626	319.25
356.853	314.25
357.08	308.25
357.307	296.25
357.534	312.25
357.761	327.25
357.988	319.25
358.215	300.25
358.441	324.25
358.668	309.25
358.895	323.25
359.122	322.25
359.349	352.25
359.576	358.25
359.802	378.25
360.029	436.25
360.256	435.25
360.483	403.25
360.709	373.25
360.936	350.25
361.163	358.25
361.39	356.25
361.616	370.25
361.843	374.25
362.07	356.25
362.296	347.25
362.523	351.25
362.749	339.25
362.976	363.25
363.203	352.25
363.429	322.25
363.656	324.25
363.882	332.25
364.109	340.25
364.335	324.25
364.562	335.25
364.788	336.25
365.015	349.25
365.241	352.25
365.468	338.25
365.694	347.25
365.92	343.25
366.147	342.25
366.373	334.25
366.599	316.25
366.826	321.25
367.052	338.25
367.278	342.25
367.505	327.25
367.731	336.25
367.957	317.25
368.184	334.25
368.41	326.25
368.636	344.25
368.862	354.25
369.089	333.25
369.315	332.25
369.541	318.25
369.767	311.25
369.993	322.25
370.219	348.25
370.445	327.25
370.672	326.25
370.898	319.25
371.124	300.25
371.35	312.25
371.576	310.25
371.802	307.25
372.028	303.25
372.254	310.25
372.48	327.25
372.706	306.25
372.932	308.25
373.158	318.25
373.384	314.25
373.61	309.25
373.835	311.25
374.061	320.25
374.287	329.25
374.513	344.25
374.739	317.25
374.965	312.25
375.191	327.25
375.416	334.25
375.642	330.25
375.868	327.25
376.094	332.25
376.319	319.25
376.545	303.25
376.771	314.25
376.997	294.25
377.222	322.25
377.448	308.25
377.674	320.25
377.899	306.25
378.125	313.25
378.35	319.25
378.576	326.25
378.802	314.25
379.027	301.25
379.253	317.25
379.478	314.25
379.704	308.25
379.929	316.25
380.155	318.25
380.38	314.25
380.606	322.25
380.831	331.25
381.057	339.25
381.282	323.25
381.507	328.25
381.733	318.25
381.958	329.25
382.184	318.25
382.409	316.25
382.634	301.25
382.86	317.25
383.085	338.25
383.31	310.25
383.535	325.25
383.761	324.25
383.986	332.25
384.211	347.25
384.436	337.25
384.662	303.25
384.887	342.25
385.112	317.25
385.337	320.25
385.562	328.25
385.787	339.25
386.013	354.25
386.238	367.25
386.463	349.25
386.688	324.25
386.913	339.25
387.138	334.25
387.363	344.25
387.588	326.25
387.813	336.25
388.038	327.25
388.263	342.25
388.488	315.25
388.713	332.25
388.938	342.25
389.163	338.25
389.387	344.25
389.612	330.25
389.837	322.25
390.062	328.25
390.287	356.25
390.512	351.25
390.736	332.25
390.961	336.25
391.186	334.25
391.411	333.25
391.636	323.25
391.86	340.25
392.085	348.25
392.31	356.25
392.534	339.25
392.759	341.25
392.984	326.25
393.208	344.25
393.433	349.25
393.658	352.25
393.882	328.25
394.107	339.25
394.331	359.25
394.556	326.25
394.78	338.25
395.005	334.25
395.229	341.25
395.454	344.25
395.678	350.25
395.903	346.25
396.127	377.25
396.352	378.25
396.576	359.25
396.801	379.25
397.025	366.25
397.249	343.25
397.474	343.25
397.698	363.25
397.922	370.25
398.147	381.25
398.371	368.25
398.595	386.25
398.82	382.25
399.044	382.25
399.268	389.25
399.492	392.25
399.717	431.25
399.941	438.25
400.165	479.25
400.389	455.25
400.613	423.25
400.837	412.25
401.062	407.25
401.286	389.25
401.51	368.25
401.734	373.25
401.958	397.25
402.182	391.25
402.406	416.25
402.63	408.25
402.854	403.25
403.078	392.25
403.302	406.25
403.526	412.25
403.75	399.25
403.974	396.25
404.198	395.25
404.422	406.25
404.645	408.25
404.869	397.25
405.093	421.25
405.317	454.25
405.541	457.25
405.765	414.25
405.988	409.25
406.212	454.25
406.436	485.25
406.66	481.25
406.883	474.25
407.107	469.25
407.331	491.25
407.555	571.25
407.778	541.25
408.002	506.25
408.226	462.25
408.449	437.25
408.673	464.25
408.896	473.25
409.12	494.25
409.344	476.25
409.567	439.25
409.791	398.25
410.014	425.25
410.238	420.25
410.461	412.25
410.685	428.25
410.908	426.25
411.132	460.25
411.355	494.25
411.578	483.25
411.802	429.25
412.025	414.25
412.249	405.25
412.472	411.25
412.695	430.25
412.919	410.25
413.142	412.25
413.365	394.25
413.589	382.25
413.812	373.25
414.035	384.25
414.258	372.25
414.482	379.25
414.705	373.25
414.928	376.25
415.151	389.25
415.374	408.25
415.597	380.25
415.821	379.25
416.044	354.25
416.267	388.25
416.49	383.25
416.713	399.25
416.936	387.25
417.159	399.25
417.382	393.25
417.605	416.25
417.828	396.25
418.051	419.25
418.274	401.25
418.497	389.25
418.72	401.25
418.943	392.25
419.166	434.25
419.389	419.25
419.611	428.25
419.834	399.25
420.057	411.25
420.28	410.25
420.503	418.25
420.726	412.25
420.948	437.25
421.171	469.25
421.394	516.25
421.617	463.25
421.839	444.25
422.062	420.25
422.285	452.25
422.507	511.25
422.73	582.25
422.953	568.25
423.175	453.25
423.398	445.25
423.621	451.25
423.843	467.25
424.066	478.25
424.288	482.25
424.511	503.25
424.733	548.25
424.956	621.25
425.178	607.25
425.401	586.25
425.623	604.25
425.846	519.25
426.068	476.25
426.291	483.25
426.513	478.25
426.735	488.25
426.958	519.25
427.18	622.25
427.402	718.25
427.625	800.25
427.847	756.25
428.069	621.25
428.292	558.25
428.514	507.25
428.736	480.25
428.958	469.25
429.181	452.25
429.403	454.25
429.625	464.25
429.847	489.25
430.069	542.25
430.292	578.25
430.514	485.25
430.736	463.25
430.958	432.25
431.18	429.25
431.402	412.25
431.624	395.25
431.846	407.25
432.068	397.25
432.29	407.25
432.512	440.25
432.734	424.25
432.956	412.25
433.178	446.25
433.4	424.25
433.622	415.25
433.844	428.25
434.066	421.25
434.287	396.25
434.509	421.25
434.731	422.25
434.953	406.25
435.175	459.25
435.397	492.25
435.618	472.25
435.84	556.25
436.062	636.25
436.284	649.25
436.505	585.25
436.727	522.25
436.949	480.25
437.17	460.25
437.392	472.25
437.614	472.25
437.835	490.25
438.057	629.25
438.278	704.25
438.5	706.25
438.721	734.25
438.943	745.25
439.165	592.25
439.386	532.25
439.608	542.25
439.829	531.25
440.05	538.25
440.272	570.25
440.493	566.25
440.715	511.25
440.936	481.25
441.158	445.25
441.379	445.25
441.6	459.25
441.822	499.25
442.043	548.25
442.264	598.25
442.486	649.25
442.707	558.25
442.928	528.25
443.149	497.25
443.371	527.25
443.592	565.25
443.813	642.25
444.034	659.25
444.255	604.25
444.476	524.25
444.698	511.25
444.919	489.25
445.14	583.25
445.361	548.25
445.582	541.25
445.803	594.25
446.024	685.25
446.245	710.25
446.466	644.25
446.687	574.25
446.908	526.25
447.129	474.25
447.35	472.25
447.571	462.25
447.792	468.25
448.013	461.25
448.234	501.25
448.455	546.25
448.675	644.25
448.896	734.25
449.117	629.25
449.338	586.25
449.559	686.25
449.779	774.25
450	641.25
450.221	522.25
450.442	489.25
450.662	470.25
450.883	471.25
451.104	506.25
451.324	487.25
451.545	453.25
451.766	428.25
451.986	425.25
452.207	409.25
452.428	408.25
452.648	389.25
452.869	411.25
453.089	414.25
453.31	408.25
453.53	429.25
453.751	408.25
453.971	419.25
454.192	446.25
454.412	445.25
454.633	448.25
454.853	399.25
455.073	401.25
455.294	442.25
455.514	500.25
455.734	483.25
455.955	422.25
456.175	403.25
456.395	368.25
456.616	374.25
456.836	387.25
457.056	374.25
457.276	391.25
457.497	380.25
457.717	376.25
457.937	386.25
458.157	384.25
458.377	394.25
458.598	420.25
458.818	512.25
459.038	596.25
459.258	611.25
459.478	489.25
459.698	435.25
459.918	431.25
460.138	397.25
460.358	432.25
460.578	404.25
460.798	423.25
461.018	400.25
461.238	399.25
461.458	393.25
461.678	384.25
461.898	401.25
462.118	383.25
462.338	420.25
462.558	422.25
462.777	414.25
462.997	428.25
463.217	408.25
463.437	407.25
463.657	405.25
463.876	399.25
464.096	419.25
464.316	415.25
464.536	428.25
464.755	439.25
464.975	459.25
465.195	519.25
465.414	623.25
465.634	571.25
465.854	484.25
466.073	457.25
466.293	423.25
466.512	410.25
466.732	398.25
466.951	408.25
467.171	400.25
467.391	412.25
467.61	431.25
467.829	432.25
468.049	421.25
468.268	398.25
468.488	399.25
468.707	400.25
468.927	391.25
469.146	401.25
469.365	386.25
469.585	379.25
469.804	413.25
470.023	414.25
470.243	429.25
470.462	415.25
470.681	448.25
470.901	441.25
471.12	438.25
471.339	414.25
471.558	410.25
471.777	382.25
471.997	379.25
472.216	395.25
472.435	380.25
472.654	388.25
472.873	403.25
473.092	414.25
473.311	408.25
473.53	393.25
473.749	424.25
473.968	484.25
474.187	580.25
474.406	602.25
474.625	497.25
474.844	462.25
475.063	410.25
475.282	411.25
475.501	415.25
475.72	418.25
475.939	421.25
476.158	442.25
476.377	427.25
476.596	408.25
476.814	432.25
477.033	441.25
477.252	426.25
477.471	433.25
477.69	452.25
477.908	431.25
478.127	427.25
478.346	432.25
478.564	436.25
478.783	469.25
479.002	450.25
479.22	482.25
479.439	507.25
479.658	516.25
479.876	498.25
480.095	528.25
480.313	519.25
480.532	522.25
480.751	499.25
480.969	485.25
481.188	517.25
481.406	502.25
481.624	507.25
481.843	493.25
482.061	512.25
482.28	487.25
482.498	485.25
482.717	480.25
482.935	496.25
483.153	480.25
483.372	485.25
483.59	500.25
483.808	486.25
484.027	487.25
484.245	482.25
484.463	487.25
484.681	511.25
484.9	493.25
485.118	492.25
485.336	495.25
485.554	496.25
485.772	500.25
485.99	506.25
486.209	522.25
486.427	520.25
486.645	544.25
486.863	547.25
487.081	554.25
487.299	557.25
487.517	521.25
487.735	516.25
487.953	548.25
488.171	534.25
488.389	517.25
488.607	546.25
488.825	543.25
489.043	539.25
489.261	527.25
489.479	534.25
489.696	539.25
489.914	540.25
490.132	552.25
490.35	546.25
490.568	577.25
490.786	584.25
491.003	596.25
491.221	598.25
491.439	591.25
491.657	592.25
491.874	592.25
492.092	609.25
492.31	622.25
492.527	590.25
492.745	597.25
492.963	616.25
493.18	649.25
493.398	623.25
493.615	621.25
493.833	644.25
494.05	629.25
494.268	634.25
494.485	620.25
494.703	627.25
494.92	632.25
495.138	630.25
495.355	645.25
495.573	634.25
495.79	658.25
496.008	660.25
496.225	653.25
496.442	634.25
496.66	645.25
496.877	664.25
497.094	635.25
497.312	636.25
497.529	648.25
497.746	676.25
497.963	663.25
498.181	708.25
498.398	679.25
498.615	678.25
498.832	668.25
499.049	684.25
499.267	703.25
499.484	708.25
499.701	730.25
499.918	735.25
500.135	719.25
500.352	761.25
500.569	757.25
500.786	760.25
501.003	767.25
501.22	759.25
501.437	757.25
501.654	784.25
501.871	778.25
