Data from 1987.PennyLincolnUp.Lamp.En5.5.200Scan.071819.P2_HRD10591_17-16-52-971.txt Node
Date: Thu Jul 18 17:16:52 EDT 2019
User: cochatt
Spectrometer: HR+D1059
Trigger mode: 1
Integration Time (sec): 1.000000E-1
Scans to average: 1
Electric dark correction enabled: true
Nonlinearity correction enabled: false
Boxcar width: 0
XAxis mode: Wavelengths
Number of Pixels in Spectrum: 2048
>>>>>Begin Spectral Data<<<<<
223.165	-9.19
223.4	-9.19
223.635	-9.19
223.869	-8.19
224.104	-1.19
224.338	-20.19
224.573	-18.19
224.808	-20.19
225.042	-12.19
225.277	4.81
225.511	2.81
225.746	0.81
225.98	1.81
226.215	5.81
226.449	11.81
226.683	5.81
226.918	19.81
227.152	35.81
227.387	42.81
227.621	33.81
227.856	50.81
228.09	41.81
228.324	55.81
228.559	64.81
228.793	86.81
229.027	97.81
229.262	120.81
229.496	120.81
229.73	142.81
229.964	181.81
230.199	154.81
230.433	122.81
230.667	117.81
230.901	117.81
231.136	132.81
231.37	115.81
231.604	110.81
231.838	119.81
232.072	98.81
232.306	107.81
232.541	116.81
232.775	133.81
233.009	126.81
233.243	101.81
233.477	106.81
233.711	130.81
233.945	122.81
234.179	115.81
234.413	107.81
234.647	108.81
234.881	105.81
235.115	121.81
235.349	116.81
235.583	125.81
235.817	120.81
236.051	128.81
236.285	122.81
236.519	121.81
236.753	165.81
236.987	161.81
237.221	208.81
237.455	261.81
237.689	216.81
237.922	156.81
238.156	129.81
238.39	140.81
238.624	124.81
238.858	107.81
239.091	122.81
239.325	114.81
239.559	133.81
239.793	144.81
240.027	143.81
240.26	139.81
240.494	176.81
240.728	160.81
240.961	156.81
241.195	146.81
241.429	137.81
241.662	155.81
241.896	124.81
242.13	118.81
242.363	129.81
242.597	136.81
242.83	129.81
243.064	136.81
243.298	126.81
243.531	131.81
243.765	136.81
243.998	140.81
244.232	134.81
244.465	143.81
244.699	138.81
244.932	135.81
245.166	136.81
245.399	127.81
245.633	139.81
245.866	135.81
246.099	138.81
246.333	142.81
246.566	134.81
246.8	117.81
247.033	131.81
247.266	157.81
247.5	154.81
247.733	160.81
247.966	176.81
248.2	162.81
248.433	165.81
248.666	180.81
248.899	188.81
249.133	213.81
249.366	218.81
249.599	214.81
249.832	173.81
250.066	170.81
250.299	170.81
250.532	195.81
250.765	205.81
250.998	211.81
251.231	228.81
251.465	216.81
251.698	199.81
251.931	200.81
252.164	199.81
252.397	197.81
252.63	205.81
252.863	199.81
253.096	206.81
253.329	243.81
253.562	233.81
253.795	215.81
254.028	206.81
254.261	228.81
254.494	225.81
254.727	250.81
254.96	286.81
255.193	283.81
255.426	265.81
255.659	238.81
255.892	222.81
256.124	220.81
256.357	242.81
256.59	210.81
256.823	213.81
257.056	203.81
257.289	210.81
257.521	200.81
257.754	193.81
257.987	195.81
258.22	199.81
258.452	184.81
258.685	200.81
258.918	192.81
259.151	211.81
259.383	210.81
259.616	222.81
259.849	209.81
260.081	224.81
260.314	226.81
260.547	252.81
260.779	259.81
261.012	243.81
261.244	228.81
261.477	230.81
261.71	231.81
261.942	218.81
262.175	242.81
262.407	235.81
262.64	218.81
262.872	204.81
263.105	208.81
263.337	205.81
263.57	194.81
263.802	209.81
264.035	201.81
264.267	192.81
264.499	174.81
264.732	200.81
264.964	196.81
265.197	186.81
265.429	195.81
265.661	187.81
265.894	205.81
266.126	208.81
266.358	221.81
266.591	204.81
266.823	202.81
267.055	203.81
267.287	201.81
267.52	191.81
267.752	198.81
267.984	206.81
268.216	202.81
268.448	220.81
268.681	226.81
268.913	234.81
269.145	240.81
269.377	270.81
269.609	240.81
269.841	258.81
270.073	260.81
270.306	288.81
270.538	306.81
270.77	310.81
271.002	298.81
271.234	289.81
271.466	295.81
271.698	315.81
271.93	310.81
272.162	326.81
272.394	313.81
272.626	306.81
272.858	273.81
273.09	267.81
273.322	280.81
273.553	251.81
273.785	248.81
274.017	233.81
274.249	236.81
274.481	243.81
274.713	260.81
274.945	266.81
275.176	253.81
275.408	257.81
275.64	234.81
275.872	242.81
276.104	251.81
276.335	233.81
276.567	243.81
276.799	277.81
277.031	296.81
277.262	312.81
277.494	309.81
277.726	276.81
277.957	263.81
278.189	242.81
278.421	249.81
278.652	232.81
278.884	259.81
279.115	228.81
279.347	242.81
279.579	237.81
279.81	246.81
280.042	231.81
280.273	220.81
280.505	233.81
280.736	237.81
280.968	229.81
281.199	242.81
281.431	230.81
281.662	221.81
281.894	222.81
282.125	224.81
282.356	267.81
282.588	288.81
282.819	291.81
283.051	240.81
283.282	242.81
283.513	241.81
283.745	241.81
283.976	230.81
284.207	222.81
284.439	232.81
284.67	243.81
284.901	224.81
285.132	240.81
285.364	231.81
285.595	236.81
285.826	228.81
286.057	228.81
286.288	223.81
286.52	236.81
286.751	226.81
286.982	232.81
287.213	230.81
287.444	247.81
287.675	224.81
287.906	241.81
288.138	245.81
288.369	251.81
288.6	260.81
288.831	245.81
289.062	256.81
289.293	249.81
289.524	236.81
289.755	241.81
289.986	226.81
290.217	248.81
290.448	247.81
290.679	263.81
290.91	241.81
291.141	234.81
291.371	239.81
291.602	230.81
291.833	237.81
292.064	241.81
292.295	247.81
292.526	246.81
292.757	237.81
292.987	236.81
293.218	243.81
293.449	241.81
293.68	234.81
293.91	232.81
294.141	242.81
294.372	220.81
294.603	223.81
294.833	236.81
295.064	231.81
295.295	238.81
295.525	253.81
295.756	260.81
295.987	267.81
296.217	304.81
296.448	329.81
296.679	274.81
296.909	231.81
297.14	248.81
297.37	235.81
297.601	250.81
297.831	255.81
298.062	251.81
298.292	246.81
298.523	253.81
298.753	235.81
298.984	247.81
299.214	250.81
299.445	256.81
299.675	260.81
299.905	259.81
300.136	260.81
300.366	271.81
300.597	251.81
300.827	270.81
301.057	277.81
301.288	294.81
301.518	270.81
301.748	260.81
301.979	273.81
302.209	261.81
302.439	270.81
302.669	290.81
302.9	280.81
303.13	260.81
303.36	277.81
303.59	284.81
303.82	293.81
304.051	285.81
304.281	268.81
304.511	269.81
304.741	276.81
304.971	265.81
305.201	268.81
305.431	268.81
305.661	291.81
305.891	268.81
306.121	276.81
306.352	303.81
306.582	296.81
306.812	290.81
307.042	279.81
307.272	271.81
307.502	287.81
307.731	293.81
307.961	275.81
308.191	286.81
308.421	278.81
308.651	290.81
308.881	291.81
309.111	290.81
309.341	295.81
309.571	319.81
309.8	332.81
310.03	325.81
310.26	353.81
310.49	349.81
310.72	353.81
310.949	388.81
311.179	400.81
311.409	366.81
311.639	356.81
311.868	335.81
312.098	355.81
312.328	351.81
312.557	387.81
312.787	400.81
313.017	405.81
313.246	365.81
313.476	358.81
313.706	356.81
313.935	353.81
314.165	388.81
314.394	394.81
314.624	376.81
314.853	357.81
315.083	344.81
315.312	330.81
315.542	326.81
315.771	331.81
316.001	331.81
316.23	304.81
316.46	333.81
316.689	332.81
316.919	353.81
317.148	377.81
317.377	328.81
317.607	359.81
317.836	336.81
318.065	337.81
318.295	331.81
318.524	338.81
318.753	333.81
318.983	340.81
319.212	347.81
319.441	353.81
319.67	373.81
319.9	347.81
320.129	314.81
320.358	346.81
320.587	335.81
320.816	381.81
321.046	379.81
321.275	380.81
321.504	377.81
321.733	373.81
321.962	395.81
322.191	419.81
322.42	430.81
322.649	437.81
322.878	467.81
323.108	496.81
323.337	516.81
323.566	540.81
323.795	621.81
324.024	683.81
324.253	904.81
324.482	1306.81
324.71	2002.81
324.939	2775.81
325.168	2451.81
325.397	1325.81
325.626	860.81
325.855	682.81
326.084	586.81
326.313	573.81
326.542	558.81
326.77	637.81
326.999	802.81
327.228	1096.81
327.457	1761.81
327.686	2127.81
327.914	1441.81
328.143	923.81
328.372	792.81
328.6	697.81
328.829	649.81
329.058	670.81
329.287	681.81
329.515	606.81
329.744	540.81
329.972	507.81
330.201	522.81
330.43	538.81
330.658	635.81
330.887	693.81
331.115	663.81
331.344	568.81
331.572	501.81
331.801	502.81
332.03	518.81
332.258	465.81
332.486	423.81
332.715	406.81
332.943	430.81
333.172	374.81
333.4	374.81
333.629	401.81
333.857	410.81
334.085	414.81
334.314	392.81
334.542	395.81
334.771	436.81
334.999	432.81
335.227	395.81
335.455	385.81
335.684	375.81
335.912	360.81
336.14	372.81
336.369	377.81
336.597	383.81
336.825	406.81
337.053	398.81
337.281	371.81
337.51	376.81
337.738	391.81
337.966	381.81
338.194	401.81
338.422	391.81
338.65	389.81
338.878	380.81
339.106	375.81
339.334	356.81
339.562	356.81
339.79	355.81
340.018	379.81
340.246	380.81
340.474	395.81
340.702	380.81
340.93	388.81
341.158	379.81
341.386	382.81
341.614	393.81
341.842	402.81
342.07	363.81
342.298	356.81
342.526	358.81
342.754	348.81
342.981	364.81
343.209	354.81
343.437	355.81
343.665	361.81
343.893	374.81
344.12	353.81
344.348	362.81
344.576	360.81
344.804	399.81
345.031	416.81
345.259	427.81
345.487	415.81
345.714	405.81
345.942	374.81
346.17	374.81
346.397	381.81
346.625	387.81
346.853	371.81
347.08	375.81
347.308	381.81
347.535	397.81
347.763	407.81
347.99	413.81
348.218	411.81
348.445	408.81
348.673	426.81
348.9	391.81
349.128	375.81
349.355	357.81
349.583	346.81
349.81	364.81
350.037	351.81
350.265	365.81
350.492	357.81
350.72	368.81
350.947	374.81
351.174	392.81
351.402	410.81
351.629	392.81
351.856	385.81
352.083	396.81
352.311	405.81
352.538	435.81
352.765	428.81
352.992	388.81
353.22	391.81
353.447	399.81
353.674	391.81
353.901	373.81
354.128	349.81
354.355	349.81
354.583	344.81
354.81	350.81
355.037	331.81
355.264	341.81
355.491	349.81
355.718	329.81
355.945	330.81
356.172	335.81
356.399	330.81
356.626	328.81
356.853	325.81
357.08	327.81
357.307	340.81
357.534	331.81
357.761	331.81
357.988	338.81
358.215	328.81
358.441	327.81
358.668	339.81
358.895	359.81
359.122	356.81
359.349	359.81
359.576	402.81
359.802	438.81
360.029	475.81
360.256	488.81
360.483	446.81
360.709	407.81
360.936	398.81
361.163	374.81
361.39	385.81
361.616	381.81
361.843	369.81
362.07	383.81
362.296	399.81
362.523	396.81
362.749	373.81
362.976	389.81
363.203	385.81
363.429	365.81
363.656	340.81
363.882	373.81
364.109	371.81
364.335	360.81
364.562	353.81
364.788	354.81
365.015	363.81
365.241	350.81
365.468	372.81
365.694	378.81
365.92	375.81
366.147	357.81
366.373	362.81
366.599	360.81
366.826	355.81
367.052	345.81
367.278	346.81
367.505	363.81
367.731	341.81
367.957	353.81
368.184	344.81
368.41	341.81
368.636	377.81
368.862	348.81
369.089	373.81
369.315	334.81
369.541	326.81
369.767	352.81
369.993	344.81
370.219	333.81
370.445	337.81
370.672	340.81
370.898	323.81
371.124	325.81
371.35	324.81
371.576	342.81
371.802	333.81
372.028	327.81
372.254	331.81
372.48	333.81
372.706	337.81
372.932	326.81
373.158	323.81
373.384	330.81
373.61	333.81
373.835	325.81
374.061	337.81
374.287	347.81
374.513	324.81
374.739	333.81
374.965	345.81
375.191	340.81
375.416	359.81
375.642	341.81
375.868	342.81
376.094	320.81
376.319	326.81
376.545	330.81
376.771	334.81
376.997	340.81
377.222	329.81
377.448	311.81
377.674	334.81
377.899	323.81
378.125	317.81
378.35	314.81
378.576	321.81
378.802	332.81
379.027	323.81
379.253	311.81
379.478	346.81
379.704	322.81
379.929	334.81
380.155	331.81
380.38	320.81
380.606	349.81
380.831	345.81
381.057	348.81
381.282	333.81
381.507	327.81
381.733	333.81
381.958	331.81
382.184	330.81
382.409	324.81
382.634	330.81
382.86	342.81
383.085	361.81
383.31	341.81
383.535	354.81
383.761	316.81
383.986	323.81
384.211	344.81
384.436	348.81
384.662	356.81
384.887	333.81
385.112	333.81
385.337	343.81
385.562	350.81
385.787	346.81
386.013	363.81
386.238	355.81
386.463	357.81
386.688	359.81
386.913	354.81
387.138	334.81
387.363	352.81
387.588	346.81
387.813	336.81
388.038	359.81
388.263	358.81
388.488	360.81
388.713	345.81
388.938	344.81
389.163	339.81
389.387	349.81
389.612	336.81
389.837	335.81
390.062	353.81
390.287	342.81
390.512	340.81
390.736	345.81
390.961	357.81
391.186	336.81
391.411	334.81
391.636	333.81
391.86	375.81
392.085	360.81
392.31	360.81
392.534	354.81
392.759	347.81
392.984	331.81
393.208	342.81
393.433	353.81
393.658	341.81
393.882	355.81
394.107	350.81
394.331	336.81
394.556	348.81
394.78	340.81
395.005	360.81
395.229	342.81
395.454	365.81
395.678	366.81
395.903	374.81
396.127	401.81
396.352	405.81
396.576	389.81
396.801	364.81
397.025	360.81
397.249	381.81
397.474	384.81
397.698	396.81
397.922	385.81
398.147	391.81
398.371	392.81
398.595	379.81
398.82	395.81
399.044	387.81
399.268	379.81
399.492	386.81
399.717	422.81
399.941	448.81
400.165	486.81
400.389	497.81
400.613	444.81
400.837	426.81
401.062	409.81
401.286	407.81
401.51	420.81
401.734	402.81
401.958	401.81
402.182	394.81
402.406	415.81
402.63	427.81
402.854	427.81
403.078	401.81
403.302	406.81
403.526	425.81
403.75	433.81
403.974	437.81
404.198	420.81
404.422	441.81
404.645	426.81
404.869	426.81
405.093	460.81
405.317	477.81
405.541	533.81
405.765	454.81
405.988	456.81
406.212	469.81
406.436	520.81
406.66	510.81
406.883	493.81
407.107	504.81
407.331	526.81
407.555	597.81
407.778	601.81
408.002	547.81
408.226	481.81
408.449	470.81
408.673	484.81
408.896	493.81
409.12	547.81
409.344	519.81
409.567	439.81
409.791	441.81
410.014	428.81
410.238	445.81
410.461	447.81
410.685	445.81
410.908	450.81
411.132	484.81
411.355	508.81
411.578	489.81
411.802	437.81
412.025	429.81
412.249	445.81
412.472	425.81
412.695	446.81
412.919	437.81
413.142	418.81
413.365	399.81
413.589	414.81
413.812	413.81
414.035	403.81
414.258	389.81
414.482	372.81
414.705	384.81
414.928	390.81
415.151	382.81
415.374	391.81
415.597	373.81
415.821	388.81
416.044	384.81
416.267	408.81
416.49	409.81
416.713	398.81
416.936	400.81
417.159	413.81
417.382	411.81
417.605	412.81
417.828	415.81
418.051	447.81
418.274	460.81
418.497	433.81
418.72	393.81
418.943	404.81
419.166	437.81
419.389	438.81
419.611	423.81
419.834	418.81
420.057	454.81
420.28	453.81
420.503	425.81
420.726	437.81
420.948	448.81
421.171	498.81
421.394	526.81
421.617	483.81
421.839	443.81
422.062	448.81
422.285	469.81
422.507	530.81
422.73	602.81
422.953	588.81
423.175	508.81
423.398	485.81
423.621	472.81
423.843	512.81
424.066	509.81
424.288	496.81
424.511	493.81
424.733	573.81
424.956	643.81
425.178	652.81
425.401	629.81
425.623	656.81
425.846	590.81
426.068	525.81
426.291	493.81
426.513	514.81
426.735	528.81
426.958	580.81
427.18	689.81
427.402	768.81
427.625	872.81
427.847	775.81
428.069	672.81
428.292	569.81
428.514	544.81
428.736	524.81
428.958	518.81
429.181	473.81
429.403	505.81
429.625	507.81
429.847	527.81
430.069	615.81
430.292	582.81
430.514	537.81
430.736	492.81
430.958	458.81
431.18	456.81
431.402	426.81
431.624	427.81
431.846	421.81
432.068	437.81
432.29	429.81
432.512	426.81
432.734	454.81
432.956	456.81
433.178	443.81
433.4	453.81
433.622	448.81
433.844	419.81
434.066	415.81
434.287	419.81
434.509	430.81
434.731	436.81
434.953	460.81
435.175	473.81
435.397	493.81
435.618	515.81
435.84	557.81
436.062	670.81
436.284	692.81
436.505	625.81
436.727	562.81
436.949	509.81
437.17	483.81
437.392	489.81
437.614	531.81
437.835	553.81
438.057	647.81
438.278	764.81
438.5	774.81
438.721	820.81
438.943	736.81
439.165	635.81
439.386	578.81
439.608	553.81
439.829	566.81
440.05	583.81
440.272	624.81
440.493	593.81
440.715	540.81
440.936	498.81
441.158	504.81
441.379	490.81
441.6	499.81
441.822	533.81
442.043	581.81
442.264	633.81
442.486	707.81
442.707	588.81
442.928	558.81
443.149	547.81
443.371	593.81
443.592	621.81
443.813	693.81
444.034	775.81
444.255	634.81
444.476	552.81
444.698	533.81
444.919	519.81
445.14	566.81
445.361	577.81
445.582	584.81
445.803	648.81
446.024	742.81
446.245	774.81
446.466	704.81
446.687	594.81
446.908	540.81
447.129	533.81
447.35	498.81
447.571	497.81
447.792	493.81
448.013	489.81
448.234	505.81
448.455	577.81
448.675	673.81
448.896	783.81
449.117	658.81
449.338	638.81
449.559	744.81
449.779	834.81
450	690.81
450.221	548.81
450.442	511.81
450.662	518.81
450.883	527.81
451.104	554.81
451.324	550.81
451.545	500.81
451.766	452.81
451.986	466.81
452.207	468.81
452.428	462.81
452.648	445.81
452.869	447.81
453.089	445.81
453.31	472.81
453.53	452.81
453.751	458.81
453.971	479.81
454.192	502.81
454.412	472.81
454.633	471.81
454.853	457.81
455.073	462.81
455.294	479.81
455.514	537.81
455.734	549.81
455.955	449.81
456.175	437.81
456.395	393.81
456.616	393.81
456.836	395.81
457.056	417.81
457.276	388.81
457.497	402.81
457.717	381.81
457.937	412.81
458.157	406.81
458.377	434.81
458.598	426.81
458.818	549.81
459.038	655.81
459.258	670.81
459.478	538.81
459.698	464.81
459.918	446.81
460.138	448.81
460.358	442.81
460.578	426.81
460.798	428.81
461.018	433.81
461.238	409.81
461.458	425.81
461.678	418.81
461.898	412.81
462.118	392.81
462.338	416.81
462.558	429.81
462.777	452.81
462.997	429.81
463.217	421.81
463.437	447.81
463.657	432.81
463.876	442.81
464.096	424.81
464.316	417.81
464.536	428.81
464.755	451.81
464.975	470.81
465.195	534.81
465.414	707.81
465.634	589.81
465.854	518.81
466.073	498.81
466.293	451.81
466.512	468.81
466.732	448.81
466.951	407.81
467.171	419.81
467.391	422.81
467.61	441.81
467.829	479.81
468.049	468.81
468.268	453.81
468.488	405.81
468.707	411.81
468.927	415.81
469.146	421.81
469.365	418.81
469.585	412.81
469.804	441.81
470.023	440.81
470.243	456.81
470.462	468.81
470.681	483.81
470.901	475.81
471.12	469.81
471.339	434.81
471.558	417.81
471.777	454.81
471.997	435.81
472.216	439.81
472.435	445.81
472.654	440.81
472.873	398.81
473.092	435.81
473.311	445.81
473.53	450.81
473.749	449.81
473.968	500.81
474.187	616.81
474.406	645.81
474.625	528.81
474.844	456.81
475.063	444.81
475.282	441.81
475.501	462.81
475.72	439.81
475.939	444.81
476.158	446.81
476.377	448.81
476.596	428.81
476.814	460.81
477.033	477.81
477.252	459.81
477.471	453.81
477.69	446.81
477.908	458.81
478.127	480.81
478.346	472.81
478.564	468.81
478.783	502.81
479.002	477.81
479.22	474.81
479.439	502.81
479.658	535.81
479.876	532.81
480.095	537.81
480.313	568.81
480.532	580.81
480.751	506.81
480.969	538.81
481.188	534.81
481.406	569.81
481.624	538.81
481.843	510.81
482.061	501.81
482.28	526.81
482.498	504.81
482.717	532.81
482.935	512.81
483.153	524.81
483.372	519.81
483.59	524.81
483.808	504.81
484.027	536.81
484.245	533.81
484.463	532.81
484.681	520.81
484.9	527.81
485.118	514.81
485.336	561.81
485.554	533.81
485.772	530.81
485.99	546.81
486.209	563.81
486.427	562.81
486.645	572.81
486.863	594.81
487.081	593.81
487.299	570.81
487.517	563.81
487.735	563.81
487.953	604.81
488.171	549.81
488.389	566.81
488.607	566.81
488.825	566.81
489.043	572.81
489.261	569.81
489.479	579.81
489.696	566.81
489.914	581.81
490.132	581.81
490.35	595.81
490.568	589.81
490.786	597.81
491.003	595.81
491.221	631.81
491.439	632.81
491.657	631.81
491.874	636.81
492.092	634.81
492.31	649.81
492.527	645.81
492.745	641.81
492.963	657.81
493.18	645.81
493.398	663.81
493.615	647.81
493.833	682.81
494.05	681.81
494.268	661.81
494.485	685.81
494.703	682.81
494.92	688.81
495.138	698.81
495.355	672.81
495.573	713.81
495.79	694.81
496.008	679.81
496.225	680.81
496.442	705.81
496.66	688.81
496.877	655.81
497.094	688.81
497.312	694.81
497.529	703.81
497.746	691.81
497.963	704.81
498.181	690.81
498.398	697.81
498.615	699.81
498.832	729.81
499.049	724.81
499.267	721.81
499.484	742.81
499.701	746.81
499.918	741.81
500.135	787.81
500.352	818.81
500.569	788.81
500.786	785.81
501.003	795.81
501.22	768.81
501.437	789.81
501.654	771.81
501.871	816.81
502.088	800.81
