Data from 1987.PennyLincolnUp.Lamp.En5.5.200Scan.071819.P2_HRD10591_17-15-52-971.txt Node
Date: Thu Jul 18 17:15:52 EDT 2019
User: cochatt
Spectrometer: HR+D1059
Trigger mode: 1
Integration Time (sec): 1.000000E-1
Scans to average: 1
Electric dark correction enabled: true
Nonlinearity correction enabled: false
Boxcar width: 0
XAxis mode: Wavelengths
Number of Pixels in Spectrum: 2048
>>>>>Begin Spectral Data<<<<<
223.165	-19.81
223.4	-19.81
223.635	-19.81
223.869	-16.81
224.104	-9.81
224.338	-17.81
224.573	-20.81
224.808	-24.81
225.042	8.19
225.277	-4.81
225.511	-4.81
225.746	4.19
225.98	-0.81
226.215	4.19
226.449	15.19
226.683	29.19
226.918	28.19
227.152	31.19
227.387	41.19
227.621	38.19
227.856	57.19
228.09	54.19
228.324	58.19
228.559	51.19
228.793	69.19
229.027	99.19
229.262	122.19
229.496	133.19
229.73	163.19
229.964	179.19
230.199	145.19
230.433	139.19
230.667	124.19
230.901	123.19
231.136	123.19
231.37	111.19
231.604	127.19
231.838	111.19
232.072	112.19
232.306	123.19
232.541	117.19
232.775	110.19
233.009	120.19
233.243	119.19
233.477	112.19
233.711	119.19
233.945	121.19
234.179	113.19
234.413	121.19
234.647	122.19
234.881	111.19
235.115	129.19
235.349	133.19
235.583	126.19
235.817	123.19
236.051	141.19
236.285	140.19
236.519	143.19
236.753	136.19
236.987	157.19
237.221	208.19
237.455	274.19
237.689	214.19
237.922	146.19
238.156	137.19
238.39	133.19
238.624	139.19
238.858	142.19
239.091	128.19
239.325	125.19
239.559	117.19
239.793	134.19
240.027	142.19
240.26	156.19
240.494	172.19
240.728	158.19
240.961	146.19
241.195	144.19
241.429	143.19
241.662	144.19
241.896	149.19
242.13	134.19
242.363	145.19
242.597	142.19
242.83	147.19
243.064	137.19
243.298	145.19
243.531	143.19
243.765	135.19
243.998	138.19
244.232	137.19
244.465	132.19
244.699	153.19
244.932	143.19
245.166	139.19
245.399	152.19
245.633	141.19
245.866	142.19
246.099	145.19
246.333	172.19
246.566	139.19
246.8	139.19
247.033	151.19
247.266	161.19
247.5	165.19
247.733	159.19
247.966	166.19
248.2	184.19
248.433	176.19
248.666	176.19
248.899	207.19
249.133	213.19
249.366	220.19
249.599	210.19
249.832	200.19
250.066	194.19
250.299	191.19
250.532	172.19
250.765	191.19
250.998	223.19
251.231	230.19
251.465	215.19
251.698	213.19
251.931	199.19
252.164	209.19
252.397	206.19
252.63	196.19
252.863	208.19
253.096	219.19
253.329	237.19
253.562	235.19
253.795	214.19
254.028	218.19
254.261	220.19
254.494	232.19
254.727	266.19
254.96	295.19
255.193	285.19
255.426	263.19
255.659	236.19
255.892	243.19
256.124	230.19
256.357	212.19
256.59	213.19
256.823	200.19
257.056	200.19
257.289	200.19
257.521	209.19
257.754	199.19
257.987	199.19
258.22	216.19
258.452	186.19
258.685	211.19
258.918	200.19
259.151	209.19
259.383	231.19
259.616	198.19
259.849	216.19
260.081	243.19
260.314	250.19
260.547	255.19
260.779	265.19
261.012	237.19
261.244	229.19
261.477	209.19
261.71	213.19
261.942	246.19
262.175	234.19
262.407	241.19
262.64	208.19
262.872	193.19
263.105	229.19
263.337	216.19
263.57	195.19
263.802	195.19
264.035	185.19
264.267	199.19
264.499	192.19
264.732	210.19
264.964	207.19
265.197	186.19
265.429	211.19
265.661	183.19
265.894	193.19
266.126	183.19
266.358	204.19
266.591	212.19
266.823	191.19
267.055	198.19
267.287	205.19
267.52	208.19
267.752	211.19
267.984	208.19
268.216	212.19
268.448	209.19
268.681	224.19
268.913	205.19
269.145	237.19
269.377	261.19
269.609	262.19
269.841	272.19
270.073	267.19
270.306	304.19
270.538	316.19
270.77	311.19
271.002	304.19
271.234	285.19
271.466	307.19
271.698	300.19
271.93	320.19
272.162	294.19
272.394	327.19
272.626	327.19
272.858	295.19
273.09	266.19
273.322	266.19
273.553	255.19
273.785	234.19
274.017	247.19
274.249	260.19
274.481	256.19
274.713	239.19
274.945	247.19
275.176	251.19
275.408	247.19
275.64	228.19
275.872	235.19
276.104	224.19
276.335	259.19
276.567	248.19
276.799	273.19
277.031	285.19
277.262	301.19
277.494	289.19
277.726	282.19
277.957	272.19
278.189	263.19
278.421	267.19
278.652	264.19
278.884	247.19
279.115	259.19
279.347	233.19
279.579	230.19
279.81	244.19
280.042	224.19
280.273	241.19
280.505	228.19
280.736	221.19
280.968	222.19
281.199	216.19
281.431	228.19
281.662	253.19
281.894	250.19
282.125	235.19
282.356	248.19
282.588	295.19
282.819	321.19
283.051	273.19
283.282	235.19
283.513	236.19
283.745	251.19
283.976	251.19
284.207	239.19
284.439	224.19
284.67	232.19
284.901	238.19
285.132	221.19
285.364	228.19
285.595	239.19
285.826	240.19
286.057	237.19
286.288	222.19
286.52	236.19
286.751	246.19
286.982	243.19
287.213	239.19
287.444	232.19
287.675	246.19
287.906	227.19
288.138	253.19
288.369	271.19
288.6	261.19
288.831	253.19
289.062	270.19
289.293	267.19
289.524	235.19
289.755	234.19
289.986	233.19
290.217	239.19
290.448	236.19
290.679	253.19
290.91	255.19
291.141	241.19
291.371	243.19
291.602	238.19
291.833	240.19
292.064	237.19
292.295	244.19
292.526	230.19
292.757	238.19
292.987	226.19
293.218	238.19
293.449	238.19
293.68	240.19
293.91	250.19
294.141	240.19
294.372	237.19
294.603	252.19
294.833	253.19
295.064	240.19
295.295	246.19
295.525	255.19
295.756	256.19
295.987	247.19
296.217	288.19
296.448	313.19
296.679	276.19
296.909	255.19
297.14	245.19
297.37	243.19
297.601	248.19
297.831	268.19
298.062	268.19
298.292	238.19
298.523	259.19
298.753	264.19
298.984	250.19
299.214	287.19
299.445	248.19
299.675	256.19
299.905	272.19
300.136	273.19
300.366	242.19
300.597	282.19
300.827	261.19
301.057	279.19
301.288	269.19
301.518	288.19
301.748	265.19
301.979	266.19
302.209	277.19
302.439	287.19
302.669	290.19
302.9	269.19
303.13	268.19
303.36	274.19
303.59	274.19
303.82	284.19
304.051	301.19
304.281	286.19
304.511	278.19
304.741	267.19
304.971	255.19
305.201	284.19
305.431	283.19
305.661	254.19
305.891	267.19
306.121	271.19
306.352	299.19
306.582	295.19
306.812	297.19
307.042	271.19
307.272	271.19
307.502	271.19
307.731	278.19
307.961	273.19
308.191	281.19
308.421	278.19
308.651	279.19
308.881	284.19
309.111	299.19
309.341	301.19
309.571	298.19
309.8	345.19
310.03	358.19
310.26	358.19
310.49	344.19
310.72	363.19
310.949	375.19
311.179	389.19
311.409	337.19
311.639	365.19
311.868	342.19
312.098	339.19
312.328	362.19
312.557	387.19
312.787	393.19
313.017	421.19
313.246	377.19
313.476	349.19
313.706	350.19
313.935	345.19
314.165	363.19
314.394	380.19
314.624	372.19
314.853	361.19
315.083	359.19
315.312	339.19
315.542	355.19
315.771	349.19
316.001	320.19
316.23	347.19
316.46	341.19
316.689	349.19
316.919	342.19
317.148	360.19
317.377	359.19
317.607	360.19
317.836	334.19
318.065	335.19
318.295	318.19
318.524	330.19
318.753	320.19
318.983	326.19
319.212	326.19
319.441	348.19
319.67	356.19
319.9	344.19
320.129	355.19
320.358	345.19
320.587	351.19
320.816	365.19
321.046	373.19
321.275	362.19
321.504	389.19
321.733	371.19
321.962	392.19
322.191	399.19
322.42	425.19
322.649	439.19
322.878	455.19
323.108	462.19
323.337	496.19
323.566	535.19
323.795	624.19
324.024	685.19
324.253	886.19
324.482	1262.19
324.71	1925.19
324.939	2720.19
325.168	2374.19
325.397	1299.19
325.626	840.19
325.855	685.19
326.084	587.19
326.313	552.19
326.542	557.19
326.77	637.19
326.999	789.19
327.228	1088.19
327.457	1715.19
327.686	2040.19
327.914	1437.19
328.143	928.19
328.372	765.19
328.6	668.19
328.829	664.19
329.058	668.19
329.287	683.19
329.515	606.19
329.744	546.19
329.972	523.19
330.201	529.19
330.43	527.19
330.658	623.19
330.887	707.19
331.115	685.19
331.344	580.19
331.572	509.19
331.801	499.19
332.03	479.19
332.258	449.19
332.486	416.19
332.715	398.19
332.943	402.19
333.172	384.19
333.4	412.19
333.629	415.19
333.857	417.19
334.085	416.19
334.314	388.19
334.542	385.19
334.771	411.19
334.999	405.19
335.227	385.19
335.455	391.19
335.684	391.19
335.912	390.19
336.14	382.19
336.369	405.19
336.597	413.19
336.825	409.19
337.053	386.19
337.281	376.19
337.51	383.19
337.738	389.19
337.966	418.19
338.194	407.19
338.422	405.19
338.65	384.19
338.878	364.19
339.106	363.19
339.334	387.19
339.562	373.19
339.79	370.19
340.018	384.19
340.246	369.19
340.474	389.19
340.702	397.19
340.93	391.19
341.158	368.19
341.386	375.19
341.614	389.19
341.842	393.19
342.07	366.19
342.298	367.19
342.526	361.19
342.754	349.19
342.981	355.19
343.209	349.19
343.437	365.19
343.665	349.19
343.893	357.19
344.12	357.19
344.348	369.19
344.576	385.19
344.804	399.19
345.031	406.19
345.259	435.19
345.487	398.19
345.714	384.19
345.942	377.19
346.17	372.19
346.397	366.19
346.625	372.19
346.853	365.19
347.08	368.19
347.308	378.19
347.535	410.19
347.763	426.19
347.99	400.19
348.218	386.19
348.445	408.19
348.673	413.19
348.9	406.19
349.128	375.19
349.355	363.19
349.583	356.19
349.81	350.19
350.037	372.19
350.265	360.19
350.492	364.19
350.72	360.19
350.947	373.19
351.174	391.19
351.402	382.19
351.629	376.19
351.856	410.19
352.083	400.19
352.311	429.19
352.538	425.19
352.765	409.19
352.992	394.19
353.22	391.19
353.447	398.19
353.674	369.19
353.901	361.19
354.128	365.19
354.355	345.19
354.583	356.19
354.81	328.19
355.037	326.19
355.264	344.19
355.491	320.19
355.718	314.19
355.945	343.19
356.172	317.19
356.399	342.19
356.626	325.19
356.853	331.19
357.08	327.19
357.307	321.19
357.534	328.19
357.761	331.19
357.988	357.19
358.215	336.19
358.441	332.19
358.668	369.19
358.895	346.19
359.122	365.19
359.349	382.19
359.576	389.19
359.802	439.19
360.029	474.19
360.256	491.19
360.483	459.19
360.709	415.19
360.936	390.19
361.163	387.19
361.39	378.19
361.616	395.19
361.843	377.19
362.07	383.19
362.296	379.19
362.523	400.19
362.749	387.19
362.976	379.19
363.203	378.19
363.429	377.19
363.656	364.19
363.882	360.19
364.109	363.19
364.335	355.19
364.562	358.19
364.788	362.19
365.015	357.19
365.241	355.19
365.468	358.19
365.694	382.19
365.92	378.19
366.147	362.19
366.373	360.19
366.599	345.19
366.826	344.19
367.052	341.19
367.278	347.19
367.505	350.19
367.731	352.19
367.957	344.19
368.184	357.19
368.41	366.19
368.636	389.19
368.862	391.19
369.089	346.19
369.315	353.19
369.541	341.19
369.767	352.19
369.993	353.19
370.219	350.19
370.445	312.19
370.672	337.19
370.898	338.19
371.124	328.19
371.35	351.19
371.576	329.19
371.802	330.19
372.028	351.19
372.254	332.19
372.48	322.19
372.706	309.19
372.932	309.19
373.158	323.19
373.384	337.19
373.61	336.19
373.835	350.19
374.061	364.19
374.287	328.19
374.513	348.19
374.739	328.19
374.965	333.19
375.191	344.19
375.416	329.19
375.642	318.19
375.868	336.19
376.094	351.19
376.319	342.19
376.545	336.19
376.771	311.19
376.997	335.19
377.222	348.19
377.448	336.19
377.674	326.19
377.899	328.19
378.125	336.19
378.35	320.19
378.576	326.19
378.802	321.19
379.027	330.19
379.253	343.19
379.478	335.19
379.704	315.19
379.929	342.19
380.155	352.19
380.38	331.19
380.606	344.19
380.831	317.19
381.057	350.19
381.282	325.19
381.507	345.19
381.733	330.19
381.958	346.19
382.184	323.19
382.409	338.19
382.634	345.19
382.86	353.19
383.085	353.19
383.31	340.19
383.535	316.19
383.761	351.19
383.986	353.19
384.211	348.19
384.436	345.19
384.662	344.19
384.887	351.19
385.112	357.19
385.337	344.19
385.562	347.19
385.787	358.19
386.013	368.19
386.238	373.19
386.463	367.19
386.688	370.19
386.913	351.19
387.138	333.19
387.363	345.19
387.588	354.19
387.813	341.19
388.038	343.19
388.263	360.19
388.488	340.19
388.713	339.19
388.938	346.19
389.163	361.19
389.387	345.19
389.612	356.19
389.837	355.19
390.062	383.19
390.287	351.19
390.512	350.19
390.736	340.19
390.961	333.19
391.186	357.19
391.411	366.19
391.636	357.19
391.86	354.19
392.085	338.19
392.31	356.19
392.534	352.19
392.759	342.19
392.984	355.19
393.208	370.19
393.433	350.19
393.658	346.19
393.882	353.19
394.107	349.19
394.331	360.19
394.556	357.19
394.78	361.19
395.005	340.19
395.229	338.19
395.454	360.19
395.678	379.19
395.903	379.19
396.127	391.19
396.352	403.19
396.576	387.19
396.801	377.19
397.025	361.19
397.249	366.19
397.474	363.19
397.698	379.19
397.922	389.19
398.147	396.19
398.371	395.19
398.595	398.19
398.82	387.19
399.044	401.19
399.268	398.19
399.492	401.19
399.717	436.19
399.941	462.19
400.165	483.19
400.389	500.19
400.613	469.19
400.837	454.19
401.062	423.19
401.286	425.19
401.51	408.19
401.734	428.19
401.958	389.19
402.182	408.19
402.406	430.19
402.63	421.19
402.854	423.19
403.078	395.19
403.302	445.19
403.526	443.19
403.75	431.19
403.974	416.19
404.198	417.19
404.422	435.19
404.645	455.19
404.869	429.19
405.093	450.19
405.317	495.19
405.541	507.19
405.765	474.19
405.988	461.19
406.212	479.19
406.436	489.19
406.66	516.19
406.883	479.19
407.107	509.19
407.331	567.19
407.555	614.19
407.778	599.19
408.002	544.19
408.226	505.19
408.449	487.19
408.673	479.19
408.896	517.19
409.12	556.19
409.344	558.19
409.567	478.19
409.791	464.19
410.014	440.19
410.238	415.19
410.461	439.19
410.685	435.19
410.908	468.19
411.132	483.19
411.355	518.19
411.578	479.19
411.802	429.19
412.025	429.19
412.249	446.19
412.472	449.19
412.695	452.19
412.919	444.19
413.142	427.19
413.365	423.19
413.589	402.19
413.812	405.19
414.035	411.19
414.258	416.19
414.482	382.19
414.705	401.19
414.928	405.19
415.151	407.19
415.374	402.19
415.597	402.19
415.821	393.19
416.044	393.19
416.267	412.19
416.49	420.19
416.713	389.19
416.936	388.19
417.159	404.19
417.382	425.19
417.605	413.19
417.828	422.19
418.051	455.19
418.274	469.19
418.497	425.19
418.72	428.19
418.943	409.19
419.166	421.19
419.389	432.19
419.611	446.19
419.834	440.19
420.057	446.19
420.28	436.19
420.503	415.19
420.726	440.19
420.948	444.19
421.171	492.19
421.394	547.19
421.617	473.19
421.839	439.19
422.062	463.19
422.285	472.19
422.507	533.19
422.73	602.19
422.953	605.19
423.175	529.19
423.398	476.19
423.621	454.19
423.843	491.19
424.066	503.19
424.288	496.19
424.511	539.19
424.733	607.19
424.956	662.19
425.178	669.19
425.401	643.19
425.623	637.19
425.846	550.19
426.068	531.19
426.291	540.19
426.513	503.19
426.735	519.19
426.958	570.19
427.18	646.19
427.402	782.19
427.625	882.19
427.847	829.19
428.069	688.19
428.292	597.19
428.514	535.19
428.736	509.19
428.958	511.19
429.181	486.19
429.403	478.19
429.625	489.19
429.847	552.19
430.069	609.19
430.292	612.19
430.514	513.19
430.736	481.19
430.958	460.19
431.18	439.19
431.402	444.19
431.624	449.19
431.846	458.19
432.068	426.19
432.29	443.19
432.512	476.19
432.734	441.19
432.956	457.19
433.178	460.19
433.4	468.19
433.622	455.19
433.844	453.19
434.066	448.19
434.287	431.19
434.509	429.19
434.731	438.19
434.953	479.19
435.175	468.19
435.397	495.19
435.618	524.19
435.84	580.19
436.062	657.19
436.284	712.19
436.505	622.19
436.727	567.19
436.949	520.19
437.17	488.19
437.392	499.19
437.614	488.19
437.835	590.19
438.057	662.19
438.278	792.19
438.5	747.19
438.721	825.19
438.943	782.19
439.165	633.19
439.386	583.19
439.608	563.19
439.829	556.19
440.05	591.19
440.272	656.19
440.493	607.19
440.715	548.19
440.936	519.19
441.158	493.19
441.379	473.19
441.6	516.19
441.822	558.19
442.043	553.19
442.264	663.19
442.486	700.19
442.707	590.19
442.928	547.19
443.149	565.19
443.371	579.19
443.592	621.19
443.813	703.19
444.034	717.19
444.255	612.19
444.476	541.19
444.698	528.19
444.919	490.19
445.14	608.19
445.361	577.19
445.582	583.19
445.803	635.19
446.024	752.19
446.245	750.19
446.466	689.19
446.687	618.19
446.908	556.19
447.129	508.19
447.35	476.19
447.571	507.19
447.792	489.19
448.013	518.19
448.234	542.19
448.455	573.19
448.675	695.19
448.896	805.19
449.117	697.19
449.338	642.19
449.559	744.19
449.779	789.19
450	677.19
450.221	572.19
450.442	525.19
450.662	511.19
450.883	518.19
451.104	542.19
451.324	540.19
451.545	509.19
451.766	462.19
451.986	460.19
452.207	432.19
452.428	431.19
452.648	447.19
452.869	431.19
453.089	447.19
453.31	463.19
453.53	470.19
453.751	452.19
453.971	460.19
454.192	477.19
454.412	486.19
454.633	452.19
454.853	428.19
455.073	468.19
455.294	496.19
455.514	548.19
455.734	540.19
455.955	448.19
456.175	421.19
456.395	392.19
456.616	413.19
456.836	412.19
457.056	409.19
457.276	395.19
457.497	392.19
457.717	421.19
457.937	413.19
458.157	398.19
458.377	434.19
458.598	461.19
458.818	551.19
459.038	656.19
459.258	633.19
459.478	525.19
459.698	482.19
459.918	441.19
460.138	448.19
460.358	445.19
460.578	445.19
460.798	440.19
461.018	440.19
461.238	417.19
461.458	416.19
461.678	402.19
461.898	427.19
462.118	423.19
462.338	416.19
462.558	435.19
462.777	423.19
462.997	428.19
463.217	423.19
463.437	441.19
463.657	437.19
463.876	445.19
464.096	456.19
464.316	459.19
464.536	455.19
464.755	482.19
464.975	507.19
465.195	559.19
465.414	708.19
465.634	630.19
465.854	516.19
466.073	492.19
466.293	461.19
466.512	443.19
466.732	427.19
466.951	448.19
467.171	428.19
467.391	447.19
467.61	458.19
467.829	459.19
468.049	432.19
468.268	453.19
468.488	445.19
468.707	418.19
468.927	425.19
469.146	424.19
469.365	411.19
469.585	419.19
469.804	434.19
470.023	459.19
470.243	437.19
470.462	458.19
470.681	477.19
470.901	459.19
471.12	429.19
471.339	441.19
471.558	449.19
471.777	459.19
471.997	417.19
472.216	437.19
472.435	443.19
472.654	465.19
472.873	420.19
473.092	454.19
473.311	425.19
473.53	431.19
473.749	462.19
473.968	491.19
474.187	607.19
474.406	638.19
474.625	505.19
474.844	456.19
475.063	443.19
475.282	461.19
475.501	450.19
475.72	447.19
475.939	453.19
476.158	472.19
476.377	456.19
476.596	447.19
476.814	470.19
477.033	479.19
477.252	479.19
477.471	469.19
477.69	467.19
477.908	484.19
478.127	447.19
478.346	483.19
478.564	471.19
478.783	490.19
479.002	487.19
479.22	479.19
479.439	494.19
479.658	544.19
479.876	564.19
480.095	558.19
480.313	583.19
480.532	553.19
480.751	546.19
480.969	536.19
481.188	537.19
481.406	553.19
481.624	526.19
481.843	503.19
482.061	524.19
482.28	525.19
482.498	532.19
482.717	532.19
482.935	519.19
483.153	516.19
483.372	504.19
483.59	511.19
483.808	533.19
484.027	503.19
484.245	526.19
484.463	508.19
484.681	536.19
484.9	544.19
485.118	531.19
485.336	520.19
485.554	552.19
485.772	539.19
485.99	531.19
486.209	535.19
486.427	534.19
486.645	540.19
486.863	577.19
487.081	568.19
487.299	579.19
487.517	571.19
487.735	587.19
487.953	548.19
488.171	567.19
488.389	592.19
488.607	581.19
488.825	587.19
489.043	572.19
489.261	566.19
489.479	565.19
489.696	603.19
489.914	593.19
490.132	588.19
490.35	589.19
490.568	615.19
490.786	608.19
491.003	612.19
491.221	599.19
491.439	645.19
491.657	649.19
491.874	648.19
492.092	628.19
492.31	676.19
492.527	652.19
492.745	665.19
492.963	649.19
493.18	683.19
493.398	666.19
493.615	688.19
493.833	661.19
494.05	715.19
494.268	673.19
494.485	684.19
494.703	670.19
494.92	677.19
495.138	669.19
495.355	681.19
495.573	696.19
495.79	685.19
496.008	679.19
496.225	680.19
496.442	684.19
496.66	691.19
496.877	709.19
497.094	695.19
497.312	714.19
497.529	676.19
497.746	708.19
497.963	729.19
498.181	728.19
498.398	735.19
498.615	728.19
498.832	729.19
499.049	755.19
499.267	753.19
499.484	745.19
499.701	776.19
499.918	759.19
500.135	760.19
500.352	788.19
500.569	781.19
500.786	788.19
501.003	800.19
501.22	796.19
501.437	809.19
501.654	837.19
501.871	823.19
