Data from 1987.PennyLincolnUp.Lamp.En5.5.200Scan.071819.P2_HRD10591_17-16-00-973.txt Node
Date: Thu Jul 18 17:16:00 EDT 2019
User: cochatt
Spectrometer: HR+D1059
Trigger mode: 1
Integration Time (sec): 1.000000E-1
Scans to average: 1
Electric dark correction enabled: true
Nonlinearity correction enabled: false
Boxcar width: 0
XAxis mode: Wavelengths
Number of Pixels in Spectrum: 2048
>>>>>Begin Spectral Data<<<<<
223.165	-8.94
223.4	-8.94
223.635	-8.94
223.869	-15.94
224.104	-19.94
224.338	-11.94
224.573	-24.94
224.808	-10.94
225.042	-10.94
225.277	-4.94
225.511	0.06
225.746	10.06
225.98	4.06
226.215	10.06
226.449	12.06
226.683	13.06
226.918	36.06
227.152	23.06
227.387	40.06
227.621	34.06
227.856	45.06
228.09	36.06
228.324	60.06
228.559	54.06
228.793	70.06
229.027	98.06
229.262	128.06
229.496	122.06
229.73	155.06
229.964	178.06
230.199	141.06
230.433	115.06
230.667	118.06
230.901	120.06
231.136	132.06
231.37	124.06
231.604	114.06
231.838	119.06
232.072	112.06
232.306	116.06
232.541	113.06
232.775	116.06
233.009	106.06
233.243	122.06
233.477	120.06
233.711	107.06
233.945	116.06
234.179	110.06
234.413	132.06
234.647	128.06
234.881	129.06
235.115	109.06
235.349	122.06
235.583	126.06
235.817	115.06
236.051	110.06
236.285	115.06
236.519	119.06
236.753	139.06
236.987	134.06
237.221	183.06
237.455	276.06
237.689	189.06
237.922	160.06
238.156	138.06
238.39	126.06
238.624	123.06
238.858	134.06
239.091	133.06
239.325	134.06
239.559	127.06
239.793	118.06
240.027	117.06
240.26	140.06
240.494	164.06
240.728	159.06
240.961	155.06
241.195	129.06
241.429	134.06
241.662	134.06
241.896	121.06
242.13	140.06
242.363	130.06
242.597	129.06
242.83	139.06
243.064	138.06
243.298	143.06
243.531	138.06
243.765	124.06
243.998	153.06
244.232	140.06
244.465	144.06
244.699	134.06
244.932	141.06
245.166	143.06
245.399	144.06
245.633	161.06
245.866	149.06
246.099	133.06
246.333	131.06
246.566	139.06
246.8	143.06
247.033	144.06
247.266	149.06
247.5	155.06
247.733	165.06
247.966	173.06
248.2	142.06
248.433	157.06
248.666	172.06
248.899	189.06
249.133	191.06
249.366	213.06
249.599	204.06
249.832	191.06
250.066	168.06
250.299	165.06
250.532	162.06
250.765	200.06
250.998	222.06
251.231	234.06
251.465	215.06
251.698	190.06
251.931	206.06
252.164	188.06
252.397	199.06
252.63	196.06
252.863	201.06
253.096	202.06
253.329	228.06
253.562	208.06
253.795	231.06
254.028	225.06
254.261	221.06
254.494	224.06
254.727	257.06
254.96	289.06
255.193	264.06
255.426	254.06
255.659	235.06
255.892	231.06
256.124	208.06
256.357	204.06
256.59	212.06
256.823	218.06
257.056	201.06
257.289	205.06
257.521	194.06
257.754	205.06
257.987	210.06
258.22	201.06
258.452	179.06
258.685	196.06
258.918	198.06
259.151	205.06
259.383	215.06
259.616	210.06
259.849	206.06
260.081	225.06
260.314	238.06
260.547	260.06
260.779	266.06
261.012	233.06
261.244	220.06
261.477	214.06
261.71	215.06
261.942	228.06
262.175	229.06
262.407	232.06
262.64	207.06
262.872	203.06
263.105	212.06
263.337	197.06
263.57	196.06
263.802	207.06
264.035	191.06
264.267	196.06
264.499	200.06
264.732	185.06
264.964	176.06
265.197	200.06
265.429	189.06
265.661	176.06
265.894	186.06
266.126	206.06
266.358	183.06
266.591	176.06
266.823	212.06
267.055	214.06
267.287	211.06
267.52	202.06
267.752	197.06
267.984	193.06
268.216	188.06
268.448	192.06
268.681	217.06
268.913	221.06
269.145	243.06
269.377	261.06
269.609	260.06
269.841	270.06
270.073	259.06
270.306	286.06
270.538	304.06
270.77	288.06
271.002	288.06
271.234	287.06
271.466	283.06
271.698	304.06
271.93	308.06
272.162	293.06
272.394	304.06
272.626	299.06
272.858	287.06
273.09	263.06
273.322	265.06
273.553	256.06
273.785	253.06
274.017	244.06
274.249	252.06
274.481	241.06
274.713	238.06
274.945	242.06
275.176	235.06
275.408	239.06
275.64	234.06
275.872	248.06
276.104	247.06
276.335	231.06
276.567	250.06
276.799	263.06
277.031	288.06
277.262	289.06
277.494	289.06
277.726	276.06
277.957	264.06
278.189	231.06
278.421	248.06
278.652	237.06
278.884	252.06
279.115	220.06
279.347	234.06
279.579	228.06
279.81	214.06
280.042	234.06
280.273	223.06
280.505	240.06
280.736	234.06
280.968	242.06
281.199	225.06
281.431	228.06
281.662	224.06
281.894	221.06
282.125	250.06
282.356	264.06
282.588	291.06
282.819	304.06
283.051	245.06
283.282	226.06
283.513	216.06
283.745	216.06
283.976	231.06
284.207	235.06
284.439	220.06
284.67	222.06
284.901	230.06
285.132	214.06
285.364	230.06
285.595	242.06
285.826	234.06
286.057	243.06
286.288	223.06
286.52	233.06
286.751	225.06
286.982	224.06
287.213	228.06
287.444	221.06
287.675	232.06
287.906	254.06
288.138	261.06
288.369	252.06
288.6	256.06
288.831	244.06
289.062	237.06
289.293	226.06
289.524	233.06
289.755	234.06
289.986	227.06
290.217	232.06
290.448	231.06
290.679	233.06
290.91	218.06
291.141	244.06
291.371	231.06
291.602	231.06
291.833	216.06
292.064	248.06
292.295	240.06
292.526	230.06
292.757	244.06
292.987	212.06
293.218	246.06
293.449	241.06
293.68	225.06
293.91	232.06
294.141	258.06
294.372	235.06
294.603	238.06
294.833	232.06
295.064	222.06
295.295	236.06
295.525	239.06
295.756	244.06
295.987	263.06
296.217	293.06
296.448	304.06
296.679	264.06
296.909	243.06
297.14	237.06
297.37	250.06
297.601	234.06
297.831	226.06
298.062	248.06
298.292	246.06
298.523	232.06
298.753	260.06
298.984	254.06
299.214	258.06
299.445	249.06
299.675	235.06
299.905	249.06
300.136	271.06
300.366	255.06
300.597	261.06
300.827	263.06
301.057	271.06
301.288	292.06
301.518	279.06
301.748	261.06
301.979	260.06
302.209	247.06
302.439	272.06
302.669	246.06
302.9	255.06
303.13	272.06
303.36	256.06
303.59	269.06
303.82	277.06
304.051	283.06
304.281	273.06
304.511	264.06
304.741	251.06
304.971	264.06
305.201	268.06
305.431	268.06
305.661	258.06
305.891	256.06
306.121	265.06
306.352	258.06
306.582	283.06
306.812	260.06
307.042	281.06
307.272	265.06
307.502	275.06
307.731	260.06
307.961	276.06
308.191	255.06
308.421	257.06
308.651	291.06
308.881	269.06
309.111	302.06
309.341	296.06
309.571	306.06
309.8	330.06
310.03	322.06
310.26	355.06
310.49	346.06
310.72	364.06
310.949	376.06
311.179	384.06
311.409	360.06
311.639	346.06
311.868	347.06
312.098	355.06
312.328	344.06
312.557	366.06
312.787	410.06
313.017	404.06
313.246	380.06
313.476	330.06
313.706	340.06
313.935	356.06
314.165	379.06
314.394	379.06
314.624	378.06
314.853	361.06
315.083	340.06
315.312	320.06
315.542	322.06
315.771	338.06
316.001	317.06
316.23	309.06
316.46	318.06
316.689	327.06
316.919	349.06
317.148	352.06
317.377	348.06
317.607	343.06
317.836	341.06
318.065	336.06
318.295	329.06
318.524	311.06
318.753	344.06
318.983	319.06
319.212	342.06
319.441	342.06
319.67	347.06
319.9	331.06
320.129	341.06
320.358	340.06
320.587	340.06
320.816	353.06
321.046	358.06
321.275	347.06
321.504	358.06
321.733	359.06
321.962	378.06
322.191	401.06
322.42	421.06
322.649	436.06
322.878	469.06
323.108	457.06
323.337	505.06
323.566	548.06
323.795	613.06
324.024	665.06
324.253	831.06
324.482	1259.06
324.71	1910.06
324.939	2651.06
325.168	2312.06
325.397	1255.06
325.626	843.06
325.855	653.06
326.084	582.06
326.313	546.06
326.542	563.06
326.77	614.06
326.999	753.06
327.228	1091.06
327.457	1662.06
327.686	2015.06
327.914	1389.06
328.143	878.06
328.372	744.06
328.6	718.06
328.829	653.06
329.058	646.06
329.287	664.06
329.515	585.06
329.744	534.06
329.972	491.06
330.201	505.06
330.43	560.06
330.658	600.06
330.887	674.06
331.115	655.06
331.344	535.06
331.572	466.06
331.801	488.06
332.03	468.06
332.258	454.06
332.486	399.06
332.715	386.06
332.943	389.06
333.172	396.06
333.4	380.06
333.629	380.06
333.857	389.06
334.085	416.06
334.314	383.06
334.542	393.06
334.771	414.06
334.999	388.06
335.227	383.06
335.455	397.06
335.684	359.06
335.912	378.06
336.14	378.06
336.369	361.06
336.597	372.06
336.825	390.06
337.053	399.06
337.281	384.06
337.51	380.06
337.738	367.06
337.966	389.06
338.194	385.06
338.422	383.06
338.65	365.06
338.878	359.06
339.106	373.06
339.334	379.06
339.562	376.06
339.79	362.06
340.018	354.06
340.246	368.06
340.474	384.06
340.702	371.06
340.93	372.06
341.158	363.06
341.386	370.06
341.614	392.06
341.842	385.06
342.07	382.06
342.298	340.06
342.526	352.06
342.754	346.06
342.981	332.06
343.209	342.06
343.437	350.06
343.665	359.06
343.893	354.06
344.12	376.06
344.348	359.06
344.576	375.06
344.804	360.06
345.031	398.06
345.259	436.06
345.487	397.06
345.714	375.06
345.942	361.06
346.17	366.06
346.397	349.06
346.625	366.06
346.853	376.06
347.08	352.06
347.308	377.06
347.535	381.06
347.763	394.06
347.99	384.06
348.218	407.06
348.445	392.06
348.673	393.06
348.9	374.06
349.128	384.06
349.355	377.06
349.583	357.06
349.81	349.06
350.037	363.06
350.265	344.06
350.492	349.06
350.72	370.06
350.947	370.06
351.174	391.06
351.402	396.06
351.629	388.06
351.856	386.06
352.083	393.06
352.311	415.06
352.538	393.06
352.765	408.06
352.992	405.06
353.22	380.06
353.447	357.06
353.674	364.06
353.901	344.06
354.128	341.06
354.355	312.06
354.583	332.06
354.81	315.06
355.037	332.06
355.264	333.06
355.491	299.06
355.718	316.06
355.945	313.06
356.172	314.06
356.399	324.06
356.626	307.06
356.853	324.06
357.08	325.06
357.307	334.06
357.534	320.06
357.761	328.06
357.988	333.06
358.215	337.06
358.441	318.06
358.668	339.06
358.895	334.06
359.122	346.06
359.349	357.06
359.576	392.06
359.802	416.06
360.029	460.06
360.256	490.06
360.483	440.06
360.709	408.06
360.936	371.06
361.163	358.06
361.39	384.06
361.616	388.06
361.843	408.06
362.07	374.06
362.296	384.06
362.523	372.06
362.749	367.06
362.976	368.06
363.203	345.06
363.429	368.06
363.656	342.06
363.882	354.06
364.109	347.06
364.335	354.06
364.562	329.06
364.788	362.06
365.015	356.06
365.241	345.06
365.468	348.06
365.694	370.06
365.92	358.06
366.147	344.06
366.373	349.06
366.599	339.06
366.826	329.06
367.052	334.06
367.278	341.06
367.505	326.06
367.731	330.06
367.957	344.06
368.184	347.06
368.41	330.06
368.636	368.06
368.862	351.06
369.089	354.06
369.315	358.06
369.541	336.06
369.767	325.06
369.993	360.06
370.219	320.06
370.445	330.06
370.672	330.06
370.898	326.06
371.124	340.06
371.35	318.06
371.576	321.06
371.802	330.06
372.028	337.06
372.254	315.06
372.48	335.06
372.706	323.06
372.932	321.06
373.158	310.06
373.384	324.06
373.61	335.06
373.835	350.06
374.061	323.06
374.287	315.06
374.513	334.06
374.739	322.06
374.965	332.06
375.191	322.06
375.416	327.06
375.642	322.06
375.868	313.06
376.094	315.06
376.319	341.06
376.545	311.06
376.771	341.06
376.997	313.06
377.222	297.06
377.448	316.06
377.674	315.06
377.899	326.06
378.125	308.06
378.35	324.06
378.576	309.06
378.802	312.06
379.027	322.06
379.253	331.06
379.478	323.06
379.704	310.06
379.929	331.06
380.155	331.06
380.38	329.06
380.606	333.06
380.831	334.06
381.057	349.06
381.282	335.06
381.507	343.06
381.733	334.06
381.958	296.06
382.184	332.06
382.409	336.06
382.634	323.06
382.86	324.06
383.085	342.06
383.31	332.06
383.535	335.06
383.761	337.06
383.986	330.06
384.211	324.06
384.436	334.06
384.662	331.06
384.887	327.06
385.112	343.06
385.337	336.06
385.562	340.06
385.787	325.06
386.013	364.06
386.238	375.06
386.463	344.06
386.688	351.06
386.913	343.06
387.138	337.06
387.363	338.06
387.588	353.06
387.813	350.06
388.038	332.06
388.263	350.06
388.488	354.06
388.713	331.06
388.938	337.06
389.163	348.06
389.387	347.06
389.612	328.06
389.837	342.06
390.062	344.06
390.287	347.06
390.512	344.06
390.736	335.06
390.961	332.06
391.186	348.06
391.411	341.06
391.636	316.06
391.86	342.06
392.085	353.06
392.31	348.06
392.534	341.06
392.759	359.06
392.984	337.06
393.208	340.06
393.433	333.06
393.658	357.06
393.882	328.06
394.107	336.06
394.331	327.06
394.556	346.06
394.78	353.06
395.005	345.06
395.229	340.06
395.454	370.06
395.678	344.06
395.903	369.06
396.127	392.06
396.352	389.06
396.576	376.06
396.801	347.06
397.025	354.06
397.249	357.06
397.474	378.06
397.698	349.06
397.922	354.06
398.147	368.06
398.371	398.06
398.595	375.06
398.82	366.06
399.044	370.06
399.268	400.06
399.492	398.06
399.717	413.06
399.941	454.06
400.165	452.06
400.389	469.06
400.613	422.06
400.837	420.06
401.062	408.06
401.286	408.06
401.51	385.06
401.734	386.06
401.958	397.06
402.182	386.06
402.406	409.06
402.63	415.06
402.854	413.06
403.078	422.06
403.302	412.06
403.526	423.06
403.75	424.06
403.974	409.06
404.198	390.06
404.422	428.06
404.645	433.06
404.869	418.06
405.093	429.06
405.317	459.06
405.541	477.06
405.765	456.06
405.988	437.06
406.212	481.06
406.436	503.06
406.66	509.06
406.883	489.06
407.107	486.06
407.331	519.06
407.555	599.06
407.778	566.06
408.002	503.06
408.226	485.06
408.449	488.06
408.673	463.06
408.896	524.06
409.12	558.06
409.344	488.06
409.567	444.06
409.791	415.06
410.014	400.06
410.238	414.06
410.461	442.06
410.685	442.06
410.908	457.06
411.132	473.06
411.355	503.06
411.578	470.06
411.802	448.06
412.025	429.06
412.249	417.06
412.472	425.06
412.695	434.06
412.919	425.06
413.142	392.06
413.365	393.06
413.589	396.06
413.812	389.06
414.035	413.06
414.258	378.06
414.482	390.06
414.705	398.06
414.928	405.06
415.151	402.06
415.374	375.06
415.597	380.06
415.821	364.06
416.044	380.06
416.267	413.06
416.49	425.06
416.713	382.06
416.936	377.06
417.159	392.06
417.382	399.06
417.605	391.06
417.828	411.06
418.051	440.06
418.274	435.06
418.497	422.06
418.72	409.06
418.943	392.06
419.166	410.06
419.389	421.06
419.611	411.06
419.834	427.06
420.057	426.06
420.28	426.06
420.503	399.06
420.726	416.06
420.948	452.06
421.171	492.06
421.394	524.06
421.617	467.06
421.839	456.06
422.062	444.06
422.285	466.06
422.507	539.06
422.73	592.06
422.953	574.06
423.175	495.06
423.398	448.06
423.621	467.06
423.843	477.06
424.066	485.06
424.288	483.06
424.511	482.06
424.733	549.06
424.956	625.06
425.178	617.06
425.401	624.06
425.623	649.06
425.846	557.06
426.068	514.06
426.291	512.06
426.513	491.06
426.735	539.06
426.958	552.06
427.18	633.06
427.402	752.06
427.625	836.06
427.847	788.06
428.069	660.06
428.292	553.06
428.514	532.06
428.736	494.06
428.958	491.06
429.181	460.06
429.403	435.06
429.625	481.06
429.847	512.06
430.069	584.06
430.292	565.06
430.514	489.06
430.736	468.06
430.958	448.06
431.18	436.06
431.402	436.06
431.624	433.06
431.846	427.06
432.068	432.06
432.29	426.06
432.512	434.06
432.734	442.06
432.956	410.06
433.178	428.06
433.4	448.06
433.622	436.06
433.844	426.06
434.066	420.06
434.287	418.06
434.509	394.06
434.731	436.06
434.953	441.06
435.175	461.06
435.397	480.06
435.618	489.06
435.84	534.06
436.062	628.06
436.284	709.06
436.505	606.06
436.727	525.06
436.949	483.06
437.17	469.06
437.392	473.06
437.614	494.06
437.835	547.06
438.057	660.06
438.278	754.06
438.5	749.06
438.721	780.06
438.943	742.06
439.165	608.06
439.386	548.06
439.608	532.06
439.829	557.06
440.05	568.06
440.272	605.06
440.493	570.06
440.715	536.06
440.936	502.06
441.158	468.06
441.379	486.06
441.6	503.06
441.822	517.06
442.043	561.06
442.264	642.06
442.486	676.06
442.707	587.06
442.928	538.06
443.149	562.06
443.371	582.06
443.592	603.06
443.813	669.06
444.034	754.06
444.255	602.06
444.476	549.06
444.698	511.06
444.919	485.06
445.14	586.06
445.361	558.06
445.582	558.06
445.803	621.06
446.024	721.06
446.245	747.06
446.466	658.06
446.687	588.06
446.908	512.06
447.129	501.06
447.35	481.06
447.571	490.06
447.792	472.06
448.013	474.06
448.234	518.06
448.455	572.06
448.675	660.06
448.896	751.06
449.117	660.06
449.338	625.06
449.559	686.06
449.779	788.06
450	652.06
450.221	564.06
450.442	510.06
450.662	509.06
450.883	488.06
451.104	530.06
451.324	516.06
451.545	471.06
451.766	474.06
451.986	450.06
452.207	442.06
452.428	432.06
452.648	427.06
452.869	432.06
453.089	445.06
453.31	452.06
453.53	442.06
453.751	450.06
453.971	452.06
454.192	489.06
454.412	446.06
454.633	444.06
454.853	443.06
455.073	437.06
455.294	485.06
455.514	541.06
455.734	532.06
455.955	444.06
456.175	403.06
456.395	400.06
456.616	402.06
456.836	415.06
457.056	376.06
457.276	360.06
457.497	378.06
457.717	402.06
457.937	406.06
458.157	400.06
458.377	411.06
458.598	437.06
458.818	534.06
459.038	638.06
459.258	644.06
459.478	514.06
459.698	468.06
459.918	434.06
460.138	418.06
460.358	423.06
460.578	420.06
460.798	415.06
461.018	429.06
461.238	423.06
461.458	404.06
461.678	421.06
461.898	418.06
462.118	393.06
462.338	405.06
462.558	408.06
462.777	410.06
462.997	438.06
463.217	426.06
463.437	414.06
463.657	412.06
463.876	419.06
464.096	441.06
464.316	432.06
464.536	433.06
464.755	456.06
464.975	460.06
465.195	526.06
465.414	692.06
465.634	574.06
465.854	524.06
466.073	470.06
466.293	441.06
466.512	410.06
466.732	418.06
466.951	436.06
467.171	421.06
467.391	440.06
467.61	444.06
467.829	468.06
468.049	443.06
468.268	425.06
468.488	428.06
468.707	407.06
468.927	405.06
469.146	378.06
469.365	375.06
469.585	391.06
469.804	412.06
470.023	446.06
470.243	421.06
470.462	436.06
470.681	475.06
470.901	475.06
471.12	451.06
471.339	438.06
471.558	432.06
471.777	424.06
471.997	404.06
472.216	436.06
472.435	421.06
472.654	412.06
472.873	394.06
473.092	420.06
473.311	416.06
473.53	425.06
473.749	433.06
473.968	470.06
474.187	604.06
474.406	619.06
474.625	503.06
474.844	457.06
475.063	429.06
475.282	432.06
475.501	415.06
475.72	445.06
475.939	437.06
476.158	463.06
476.377	445.06
476.596	441.06
476.814	429.06
477.033	462.06
477.252	444.06
477.471	439.06
477.69	449.06
477.908	449.06
478.127	436.06
478.346	454.06
478.564	457.06
478.783	446.06
479.002	477.06
479.22	472.06
479.439	497.06
479.658	525.06
479.876	534.06
480.095	533.06
480.313	563.06
480.532	518.06
480.751	531.06
480.969	528.06
481.188	540.06
481.406	541.06
481.624	520.06
481.843	514.06
482.061	500.06
482.28	510.06
482.498	498.06
482.717	509.06
482.935	484.06
483.153	498.06
483.372	484.06
483.59	508.06
483.808	503.06
484.027	497.06
484.245	516.06
484.463	501.06
484.681	500.06
484.9	512.06
485.118	496.06
485.336	509.06
485.554	521.06
485.772	526.06
485.99	526.06
486.209	529.06
486.427	496.06
486.645	539.06
486.863	580.06
487.081	566.06
487.299	555.06
487.517	535.06
487.735	565.06
487.953	546.06
488.171	568.06
488.389	534.06
488.607	573.06
488.825	572.06
489.043	535.06
489.261	582.06
489.479	559.06
489.696	585.06
489.914	572.06
490.132	569.06
490.35	572.06
490.568	595.06
490.786	569.06
491.003	590.06
491.221	619.06
491.439	618.06
491.657	616.06
491.874	633.06
492.092	634.06
492.31	635.06
492.527	652.06
492.745	638.06
492.963	641.06
493.18	623.06
493.398	634.06
493.615	661.06
493.833	674.06
494.05	679.06
494.268	663.06
494.485	656.06
494.703	632.06
494.92	667.06
495.138	670.06
495.355	659.06
495.573	672.06
495.79	673.06
496.008	685.06
496.225	688.06
496.442	677.06
496.66	660.06
496.877	654.06
497.094	662.06
497.312	675.06
497.529	669.06
497.746	683.06
497.963	676.06
498.181	708.06
498.398	690.06
498.615	694.06
498.832	742.06
499.049	722.06
499.267	710.06
499.484	729.06
499.701	739.06
499.918	742.06
500.135	764.06
500.352	784.06
500.569	772.06
500.786	775.06
501.003	780.06
501.22	768.06
501.437	763.06
501.654	772.06
501.871	781.06
