Data from 1987.PennyLincolnUp.Lamp.En5.5.200Scan.071819.P2_HRD10591_17-15-12-973.txt Node
Date: Thu Jul 18 17:15:12 EDT 2019
User: cochatt
Spectrometer: HR+D1059
Trigger mode: 1
Integration Time (sec): 1.000000E-1
Scans to average: 1
Electric dark correction enabled: true
Nonlinearity correction enabled: false
Boxcar width: 0
XAxis mode: Wavelengths
Number of Pixels in Spectrum: 2048
>>>>>Begin Spectral Data<<<<<
223.165	-18.38
223.4	-18.38
223.635	-18.38
223.869	-26.38
224.104	-13.38
224.338	-15.38
224.573	-8.38
224.808	-7.38
225.042	-5.38
225.277	15.62
225.511	-12.38
225.746	-6.38
225.98	8.62
226.215	15.62
226.449	13.62
226.683	12.62
226.918	12.62
227.152	34.62
227.387	28.62
227.621	42.62
227.856	41.62
228.09	49.62
228.324	46.62
228.559	70.62
228.793	65.62
229.027	109.62
229.262	125.62
229.496	131.62
229.73	139.62
229.964	185.62
230.199	141.62
230.433	124.62
230.667	125.62
230.901	119.62
231.136	98.62
231.37	114.62
231.604	116.62
231.838	102.62
232.072	108.62
232.306	112.62
232.541	97.62
232.775	108.62
233.009	112.62
233.243	124.62
233.477	92.62
233.711	122.62
233.945	119.62
234.179	112.62
234.413	122.62
234.647	116.62
234.881	123.62
235.115	121.62
235.349	123.62
235.583	120.62
235.817	129.62
236.051	124.62
236.285	142.62
236.519	136.62
236.753	135.62
236.987	155.62
237.221	197.62
237.455	241.62
237.689	202.62
237.922	147.62
238.156	128.62
238.39	140.62
238.624	109.62
238.858	106.62
239.091	121.62
239.325	124.62
239.559	121.62
239.793	116.62
240.027	128.62
240.26	141.62
240.494	160.62
240.728	165.62
240.961	151.62
241.195	146.62
241.429	147.62
241.662	125.62
241.896	138.62
242.13	130.62
242.363	132.62
242.597	116.62
242.83	139.62
243.064	142.62
243.298	148.62
243.531	141.62
243.765	142.62
243.998	135.62
244.232	138.62
244.465	149.62
244.699	134.62
244.932	130.62
245.166	129.62
245.399	143.62
245.633	136.62
245.866	136.62
246.099	128.62
246.333	137.62
246.566	142.62
246.8	148.62
247.033	156.62
247.266	147.62
247.5	167.62
247.733	167.62
247.966	177.62
248.2	159.62
248.433	171.62
248.666	176.62
248.899	171.62
249.133	198.62
249.366	207.62
249.599	200.62
249.832	183.62
250.066	183.62
250.299	167.62
250.532	181.62
250.765	182.62
250.998	206.62
251.231	230.62
251.465	209.62
251.698	196.62
251.931	180.62
252.164	191.62
252.397	196.62
252.63	200.62
252.863	188.62
253.096	206.62
253.329	221.62
253.562	227.62
253.795	232.62
254.028	205.62
254.261	226.62
254.494	236.62
254.727	242.62
254.96	258.62
255.193	273.62
255.426	244.62
255.659	229.62
255.892	241.62
256.124	206.62
256.357	189.62
256.59	216.62
256.823	193.62
257.056	203.62
257.289	194.62
257.521	196.62
257.754	185.62
257.987	196.62
258.22	200.62
258.452	194.62
258.685	197.62
258.918	181.62
259.151	188.62
259.383	211.62
259.616	207.62
259.849	205.62
260.081	216.62
260.314	232.62
260.547	246.62
260.779	226.62
261.012	221.62
261.244	227.62
261.477	209.62
261.71	205.62
261.942	210.62
262.175	234.62
262.407	228.62
262.64	201.62
262.872	198.62
263.105	201.62
263.337	192.62
263.57	202.62
263.802	179.62
264.035	215.62
264.267	202.62
264.499	180.62
264.732	204.62
264.964	187.62
265.197	192.62
265.429	189.62
265.661	178.62
265.894	212.62
266.126	189.62
266.358	206.62
266.591	179.62
266.823	202.62
267.055	194.62
267.287	201.62
267.52	192.62
267.752	207.62
267.984	198.62
268.216	214.62
268.448	210.62
268.681	203.62
268.913	219.62
269.145	220.62
269.377	249.62
269.609	253.62
269.841	253.62
270.073	239.62
270.306	274.62
270.538	305.62
270.77	297.62
271.002	295.62
271.234	275.62
271.466	288.62
271.698	296.62
271.93	297.62
272.162	293.62
272.394	307.62
272.626	295.62
272.858	269.62
273.09	261.62
273.322	250.62
273.553	257.62
273.785	218.62
274.017	229.62
274.249	244.62
274.481	239.62
274.713	240.62
274.945	244.62
275.176	227.62
275.408	242.62
275.64	248.62
275.872	235.62
276.104	231.62
276.335	240.62
276.567	233.62
276.799	268.62
277.031	297.62
277.262	281.62
277.494	280.62
277.726	272.62
277.957	282.62
278.189	256.62
278.421	247.62
278.652	245.62
278.884	238.62
279.115	232.62
279.347	219.62
279.579	238.62
279.81	232.62
280.042	231.62
280.273	206.62
280.505	244.62
280.736	232.62
280.968	241.62
281.199	229.62
281.431	232.62
281.662	225.62
281.894	214.62
282.125	248.62
282.356	244.62
282.588	288.62
282.819	290.62
283.051	269.62
283.282	226.62
283.513	227.62
283.745	236.62
283.976	246.62
284.207	240.62
284.439	233.62
284.67	231.62
284.901	224.62
285.132	233.62
285.364	224.62
285.595	217.62
285.826	214.62
286.057	247.62
286.288	234.62
286.52	246.62
286.751	237.62
286.982	230.62
287.213	240.62
287.444	232.62
287.675	242.62
287.906	250.62
288.138	248.62
288.369	240.62
288.6	244.62
288.831	257.62
289.062	242.62
289.293	242.62
289.524	230.62
289.755	249.62
289.986	231.62
290.217	238.62
290.448	236.62
290.679	224.62
290.91	246.62
291.141	227.62
291.371	216.62
291.602	235.62
291.833	242.62
292.064	245.62
292.295	212.62
292.526	244.62
292.757	227.62
292.987	238.62
293.218	223.62
293.449	234.62
293.68	242.62
293.91	248.62
294.141	223.62
294.372	237.62
294.603	230.62
294.833	254.62
295.064	226.62
295.295	227.62
295.525	224.62
295.756	236.62
295.987	262.62
296.217	286.62
296.448	290.62
296.679	271.62
296.909	242.62
297.14	245.62
297.37	242.62
297.601	248.62
297.831	233.62
298.062	232.62
298.292	237.62
298.523	244.62
298.753	235.62
298.984	259.62
299.214	264.62
299.445	255.62
299.675	264.62
299.905	271.62
300.136	266.62
300.366	243.62
300.597	250.62
300.827	265.62
301.057	267.62
301.288	258.62
301.518	286.62
301.748	278.62
301.979	266.62
302.209	267.62
302.439	262.62
302.669	253.62
302.9	273.62
303.13	244.62
303.36	265.62
303.59	266.62
303.82	291.62
304.051	277.62
304.281	278.62
304.511	261.62
304.741	254.62
304.971	269.62
305.201	269.62
305.431	257.62
305.661	264.62
305.891	289.62
306.121	274.62
306.352	272.62
306.582	296.62
306.812	299.62
307.042	277.62
307.272	261.62
307.502	261.62
307.731	266.62
307.961	264.62
308.191	275.62
308.421	267.62
308.651	291.62
308.881	293.62
309.111	284.62
309.341	295.62
309.571	312.62
309.8	333.62
310.03	324.62
310.26	329.62
310.49	323.62
310.72	353.62
310.949	354.62
311.179	375.62
311.409	350.62
311.639	350.62
311.868	340.62
312.098	329.62
312.328	361.62
312.557	373.62
312.787	389.62
313.017	398.62
313.246	358.62
313.476	331.62
313.706	334.62
313.935	352.62
314.165	351.62
314.394	366.62
314.624	362.62
314.853	365.62
315.083	343.62
315.312	333.62
315.542	338.62
315.771	339.62
316.001	315.62
316.23	332.62
316.46	312.62
316.689	329.62
316.919	335.62
317.148	351.62
317.377	339.62
317.607	351.62
317.836	345.62
318.065	341.62
318.295	336.62
318.524	324.62
318.753	328.62
318.983	318.62
319.212	322.62
319.441	342.62
319.67	346.62
319.9	337.62
320.129	310.62
320.358	351.62
320.587	332.62
320.816	334.62
321.046	337.62
321.275	353.62
321.504	360.62
321.733	369.62
321.962	386.62
322.191	397.62
322.42	397.62
322.649	433.62
322.878	432.62
323.108	456.62
323.337	486.62
323.566	511.62
323.795	574.62
324.024	630.62
324.253	802.62
324.482	1163.62
324.71	1814.62
324.939	2540.62
325.168	2229.62
325.397	1238.62
325.626	792.62
325.855	647.62
326.084	565.62
326.313	532.62
326.542	543.62
326.77	608.62
326.999	732.62
327.228	1021.62
327.457	1594.62
327.686	1913.62
327.914	1302.62
328.143	852.62
328.372	720.62
328.6	651.62
328.829	611.62
329.058	642.62
329.287	663.62
329.515	578.62
329.744	526.62
329.972	502.62
330.201	491.62
330.43	549.62
330.658	565.62
330.887	658.62
331.115	652.62
331.344	532.62
331.572	474.62
331.801	507.62
332.03	478.62
332.258	420.62
332.486	419.62
332.715	386.62
332.943	377.62
333.172	385.62
333.4	381.62
333.629	395.62
333.857	404.62
334.085	389.62
334.314	399.62
334.542	377.62
334.771	381.62
334.999	396.62
335.227	378.62
335.455	396.62
335.684	379.62
335.912	374.62
336.14	348.62
336.369	363.62
336.597	378.62
336.825	386.62
337.053	372.62
337.281	365.62
337.51	349.62
337.738	365.62
337.966	380.62
338.194	388.62
338.422	381.62
338.65	344.62
338.878	372.62
339.106	357.62
339.334	362.62
339.562	354.62
339.79	360.62
340.018	384.62
340.246	373.62
340.474	381.62
340.702	385.62
340.93	356.62
341.158	361.62
341.386	362.62
341.614	361.62
341.842	360.62
342.07	369.62
342.298	368.62
342.526	373.62
342.754	353.62
342.981	362.62
343.209	339.62
343.437	337.62
343.665	337.62
343.893	349.62
344.12	350.62
344.348	359.62
344.576	374.62
344.804	360.62
345.031	404.62
345.259	420.62
345.487	396.62
345.714	380.62
345.942	390.62
346.17	371.62
346.397	358.62
346.625	367.62
346.853	367.62
347.08	355.62
347.308	365.62
347.535	380.62
347.763	382.62
347.99	388.62
348.218	393.62
348.445	387.62
348.673	387.62
348.9	378.62
349.128	364.62
349.355	369.62
349.583	355.62
349.81	360.62
350.037	326.62
350.265	350.62
350.492	328.62
350.72	345.62
350.947	361.62
351.174	369.62
351.402	386.62
351.629	394.62
351.856	388.62
352.083	395.62
352.311	402.62
352.538	406.62
352.765	411.62
352.992	393.62
353.22	387.62
353.447	385.62
353.674	354.62
353.901	353.62
354.128	357.62
354.355	327.62
354.583	320.62
354.81	326.62
355.037	332.62
355.264	322.62
355.491	320.62
355.718	295.62
355.945	320.62
356.172	313.62
356.399	315.62
356.626	320.62
356.853	328.62
357.08	327.62
357.307	318.62
357.534	332.62
357.761	335.62
357.988	326.62
358.215	320.62
358.441	322.62
358.668	333.62
358.895	334.62
359.122	344.62
359.349	358.62
359.576	383.62
359.802	402.62
360.029	444.62
360.256	482.62
360.483	456.62
360.709	407.62
360.936	388.62
361.163	398.62
361.39	371.62
361.616	392.62
361.843	374.62
362.07	387.62
362.296	393.62
362.523	374.62
362.749	392.62
362.976	378.62
363.203	353.62
363.429	336.62
363.656	357.62
363.882	354.62
364.109	339.62
364.335	348.62
364.562	340.62
364.788	351.62
365.015	364.62
365.241	353.62
365.468	358.62
365.694	347.62
365.92	345.62
366.147	363.62
366.373	340.62
366.599	339.62
366.826	347.62
367.052	331.62
367.278	358.62
367.505	359.62
367.731	354.62
367.957	342.62
368.184	348.62
368.41	344.62
368.636	351.62
368.862	372.62
369.089	364.62
369.315	364.62
369.541	333.62
369.767	338.62
369.993	321.62
370.219	341.62
370.445	336.62
370.672	343.62
370.898	339.62
371.124	330.62
371.35	333.62
371.576	342.62
371.802	337.62
372.028	324.62
372.254	339.62
372.48	336.62
372.706	329.62
372.932	333.62
373.158	319.62
373.384	330.62
373.61	332.62
373.835	322.62
374.061	326.62
374.287	316.62
374.513	351.62
374.739	338.62
374.965	331.62
375.191	321.62
375.416	339.62
375.642	327.62
375.868	332.62
376.094	337.62
376.319	314.62
376.545	319.62
376.771	308.62
376.997	325.62
377.222	338.62
377.448	334.62
377.674	325.62
377.899	320.62
378.125	321.62
378.35	344.62
378.576	336.62
378.802	313.62
379.027	306.62
379.253	331.62
379.478	308.62
379.704	332.62
379.929	311.62
380.155	338.62
380.38	328.62
380.606	325.62
380.831	333.62
381.057	329.62
381.282	341.62
381.507	336.62
381.733	329.62
381.958	322.62
382.184	318.62
382.409	316.62
382.634	310.62
382.86	318.62
383.085	354.62
383.31	344.62
383.535	317.62
383.761	337.62
383.986	338.62
384.211	333.62
384.436	348.62
384.662	347.62
384.887	347.62
385.112	345.62
385.337	354.62
385.562	342.62
385.787	359.62
386.013	396.62
386.238	360.62
386.463	377.62
386.688	336.62
386.913	342.62
387.138	329.62
387.363	362.62
387.588	348.62
387.813	337.62
388.038	349.62
388.263	333.62
388.488	346.62
388.713	350.62
388.938	359.62
389.163	357.62
389.387	364.62
389.612	348.62
389.837	335.62
390.062	325.62
390.287	365.62
390.512	346.62
390.736	365.62
390.961	357.62
391.186	362.62
391.411	359.62
391.636	334.62
391.86	347.62
392.085	358.62
392.31	337.62
392.534	355.62
392.759	342.62
392.984	354.62
393.208	330.62
393.433	345.62
393.658	362.62
393.882	346.62
394.107	334.62
394.331	339.62
394.556	336.62
394.78	361.62
395.005	365.62
395.229	349.62
395.454	354.62
395.678	344.62
395.903	383.62
396.127	387.62
396.352	395.62
396.576	372.62
396.801	365.62
397.025	376.62
397.249	381.62
397.474	363.62
397.698	359.62
397.922	402.62
398.147	409.62
398.371	393.62
398.595	395.62
398.82	382.62
399.044	405.62
399.268	388.62
399.492	403.62
399.717	435.62
399.941	455.62
400.165	482.62
400.389	498.62
400.613	431.62
400.837	416.62
401.062	421.62
401.286	398.62
401.51	410.62
401.734	417.62
401.958	395.62
402.182	391.62
402.406	430.62
402.63	416.62
402.854	418.62
403.078	415.62
403.302	442.62
403.526	442.62
403.75	416.62
403.974	405.62
404.198	429.62
404.422	400.62
404.645	408.62
404.869	406.62
405.093	450.62
405.317	476.62
405.541	503.62
405.765	470.62
405.988	437.62
406.212	443.62
406.436	505.62
406.66	524.62
406.883	482.62
407.107	483.62
407.331	533.62
407.555	601.62
407.778	589.62
408.002	534.62
408.226	512.62
408.449	489.62
408.673	474.62
408.896	497.62
409.12	557.62
409.344	499.62
409.567	452.62
409.791	452.62
410.014	429.62
410.238	436.62
410.461	427.62
410.685	447.62
410.908	439.62
411.132	477.62
411.355	523.62
411.578	486.62
411.802	446.62
412.025	424.62
412.249	425.62
412.472	397.62
412.695	439.62
412.919	428.62
413.142	419.62
413.365	405.62
413.589	400.62
413.812	399.62
414.035	390.62
414.258	386.62
414.482	389.62
414.705	382.62
414.928	388.62
415.151	380.62
415.374	369.62
415.597	400.62
415.821	395.62
416.044	386.62
416.267	391.62
416.49	375.62
416.713	372.62
416.936	403.62
417.159	427.62
417.382	407.62
417.605	413.62
417.828	417.62
418.051	436.62
418.274	438.62
418.497	414.62
418.72	421.62
418.943	401.62
419.166	419.62
419.389	444.62
419.611	424.62
419.834	432.62
420.057	433.62
420.28	425.62
420.503	433.62
420.726	433.62
420.948	458.62
421.171	481.62
421.394	517.62
421.617	486.62
421.839	433.62
422.062	443.62
422.285	462.62
422.507	530.62
422.73	600.62
422.953	560.62
423.175	511.62
423.398	484.62
423.621	470.62
423.843	458.62
424.066	475.62
424.288	486.62
424.511	525.62
424.733	564.62
424.956	652.62
425.178	655.62
425.401	631.62
425.623	632.62
425.846	544.62
426.068	527.62
426.291	514.62
426.513	505.62
426.735	513.62
426.958	539.62
427.18	639.62
427.402	754.62
427.625	840.62
427.847	790.62
428.069	656.62
428.292	579.62
428.514	500.62
428.736	525.62
428.958	494.62
429.181	464.62
429.403	455.62
429.625	491.62
429.847	531.62
430.069	564.62
430.292	573.62
430.514	504.62
430.736	459.62
430.958	467.62
431.18	404.62
431.402	437.62
431.624	404.62
431.846	427.62
432.068	429.62
432.29	433.62
432.512	428.62
432.734	442.62
432.956	437.62
433.178	436.62
433.4	465.62
433.622	432.62
433.844	428.62
434.066	439.62
434.287	419.62
434.509	446.62
434.731	434.62
434.953	444.62
435.175	439.62
435.397	483.62
435.618	502.62
435.84	534.62
436.062	642.62
436.284	706.62
436.505	613.62
436.727	554.62
436.949	499.62
437.17	484.62
437.392	474.62
437.614	490.62
437.835	542.62
438.057	658.62
438.278	736.62
438.5	717.62
438.721	794.62
438.943	762.62
439.165	636.62
439.386	545.62
439.608	546.62
439.829	550.62
440.05	572.62
440.272	622.62
440.493	587.62
440.715	537.62
440.936	508.62
441.158	467.62
441.379	462.62
441.6	496.62
441.822	505.62
442.043	578.62
442.264	622.62
442.486	676.62
442.707	594.62
442.928	549.62
443.149	529.62
443.371	549.62
443.592	612.62
443.813	654.62
444.034	728.62
444.255	614.62
444.476	540.62
444.698	513.62
444.919	516.62
445.14	618.62
445.361	568.62
445.582	548.62
445.803	658.62
446.024	716.62
446.245	759.62
446.466	669.62
446.687	584.62
446.908	538.62
447.129	509.62
447.35	489.62
447.571	492.62
447.792	463.62
448.013	480.62
448.234	517.62
448.455	581.62
448.675	684.62
448.896	757.62
449.117	655.62
449.338	619.62
449.559	710.62
449.779	778.62
450	656.62
450.221	550.62
450.442	504.62
450.662	524.62
450.883	505.62
451.104	541.62
451.324	537.62
451.545	462.62
451.766	454.62
451.986	446.62
452.207	439.62
452.428	435.62
452.648	442.62
452.869	444.62
453.089	442.62
453.31	446.62
453.53	434.62
453.751	438.62
453.971	453.62
454.192	492.62
454.412	498.62
454.633	445.62
454.853	437.62
455.073	439.62
455.294	488.62
455.514	534.62
455.734	512.62
455.955	458.62
456.175	418.62
456.395	411.62
456.616	395.62
456.836	364.62
457.056	374.62
457.276	386.62
457.497	374.62
457.717	381.62
457.937	402.62
458.157	404.62
458.377	425.62
458.598	439.62
458.818	538.62
459.038	644.62
459.258	617.62
459.478	517.62
459.698	454.62
459.918	427.62
460.138	442.62
460.358	441.62
460.578	431.62
460.798	430.62
461.018	428.62
461.238	412.62
461.458	410.62
461.678	387.62
461.898	421.62
462.118	425.62
462.338	423.62
462.558	423.62
462.777	413.62
462.997	421.62
463.217	422.62
463.437	450.62
463.657	425.62
463.876	434.62
464.096	446.62
464.316	439.62
464.536	432.62
464.755	448.62
464.975	470.62
465.195	549.62
465.414	677.62
465.634	573.62
465.854	485.62
466.073	480.62
466.293	470.62
466.512	441.62
466.732	434.62
466.951	412.62
467.171	409.62
467.391	423.62
467.61	455.62
467.829	466.62
468.049	418.62
468.268	426.62
468.488	426.62
468.707	409.62
468.927	425.62
469.146	412.62
469.365	426.62
469.585	411.62
469.804	417.62
470.023	454.62
470.243	442.62
470.462	458.62
470.681	475.62
470.901	489.62
471.12	439.62
471.339	438.62
471.558	444.62
471.777	424.62
471.997	424.62
472.216	419.62
472.435	443.62
472.654	416.62
472.873	408.62
473.092	408.62
473.311	420.62
473.53	410.62
473.749	438.62
473.968	496.62
474.187	605.62
474.406	634.62
474.625	500.62
474.844	438.62
475.063	438.62
475.282	432.62
475.501	417.62
475.72	434.62
475.939	430.62
476.158	444.62
476.377	438.62
476.596	435.62
476.814	456.62
477.033	467.62
477.252	471.62
477.471	463.62
477.69	469.62
477.908	468.62
478.127	456.62
478.346	454.62
478.564	452.62
478.783	476.62
479.002	477.62
479.22	484.62
479.439	488.62
479.658	520.62
479.876	517.62
480.095	525.62
480.313	531.62
480.532	537.62
480.751	518.62
480.969	533.62
481.188	530.62
481.406	533.62
481.624	511.62
481.843	510.62
482.061	506.62
482.28	494.62
482.498	536.62
482.717	509.62
482.935	492.62
483.153	491.62
483.372	515.62
483.59	522.62
483.808	512.62
484.027	505.62
484.245	530.62
484.463	526.62
484.681	532.62
484.9	490.62
485.118	505.62
485.336	530.62
485.554	533.62
485.772	537.62
485.99	524.62
486.209	534.62
486.427	520.62
486.645	566.62
486.863	594.62
487.081	580.62
487.299	553.62
487.517	576.62
487.735	545.62
487.953	572.62
488.171	575.62
488.389	554.62
488.607	541.62
488.825	555.62
489.043	560.62
489.261	570.62
489.479	576.62
489.696	585.62
489.914	570.62
490.132	566.62
490.35	566.62
490.568	585.62
490.786	600.62
491.003	579.62
491.221	630.62
491.439	653.62
491.657	627.62
491.874	603.62
492.092	607.62
492.31	637.62
492.527	612.62
492.745	622.62
492.963	643.62
493.18	648.62
493.398	646.62
493.615	653.62
493.833	661.62
494.05	660.62
494.268	654.62
494.485	634.62
494.703	658.62
494.92	662.62
495.138	701.62
495.355	662.62
495.573	671.62
495.79	679.62
496.008	680.62
496.225	677.62
496.442	668.62
496.66	645.62
496.877	694.62
497.094	676.62
497.312	676.62
497.529	683.62
497.746	678.62
497.963	686.62
498.181	713.62
498.398	698.62
498.615	700.62
498.832	726.62
499.049	710.62
499.267	686.62
499.484	711.62
499.701	738.62
499.918	758.62
500.135	776.62
500.352	796.62
500.569	790.62
500.786	784.62
501.003	797.62
501.22	790.62
501.437	774.62
501.654	777.62
501.871	821.62
