Data from 1987.PennyLincolnUp.Lamp.En5.5.200Scan.071819.P2_HRD10591_17-16-24-972.txt Node
Date: Thu Jul 18 17:16:24 EDT 2019
User: cochatt
Spectrometer: HR+D1059
Trigger mode: 1
Integration Time (sec): 1.000000E-1
Scans to average: 1
Electric dark correction enabled: true
Nonlinearity correction enabled: false
Boxcar width: 0
XAxis mode: Wavelengths
Number of Pixels in Spectrum: 2048
>>>>>Begin Spectral Data<<<<<
223.165	-15.75
223.4	-15.75
223.635	-15.75
223.869	-10.75
224.104	-19.75
224.338	-4.75
224.573	-26.75
224.808	-17.75
225.042	-12.75
225.277	0.25
225.511	-1.75
225.746	-2.75
225.98	12.25
226.215	3.25
226.449	20.25
226.683	25.25
226.918	22.25
227.152	29.25
227.387	29.25
227.621	35.25
227.856	40.25
228.09	45.25
228.324	25.25
228.559	56.25
228.793	84.25
229.027	122.25
229.262	108.25
229.496	128.25
229.73	150.25
229.964	173.25
230.199	139.25
230.433	122.25
230.667	121.25
230.901	113.25
231.136	124.25
231.37	118.25
231.604	118.25
231.838	116.25
232.072	119.25
232.306	118.25
232.541	113.25
232.775	123.25
233.009	117.25
233.243	102.25
233.477	108.25
233.711	104.25
233.945	106.25
234.179	119.25
234.413	120.25
234.647	120.25
234.881	108.25
235.115	113.25
235.349	118.25
235.583	120.25
235.817	108.25
236.051	134.25
236.285	133.25
236.519	143.25
236.753	128.25
236.987	164.25
237.221	201.25
237.455	257.25
237.689	210.25
237.922	153.25
238.156	141.25
238.39	128.25
238.624	120.25
238.858	118.25
239.091	119.25
239.325	118.25
239.559	120.25
239.793	124.25
240.027	134.25
240.26	153.25
240.494	155.25
240.728	139.25
240.961	161.25
241.195	153.25
241.429	133.25
241.662	128.25
241.896	138.25
242.13	124.25
242.363	134.25
242.597	139.25
242.83	134.25
243.064	130.25
243.298	133.25
243.531	128.25
243.765	131.25
243.998	141.25
244.232	143.25
244.465	134.25
244.699	154.25
244.932	150.25
245.166	139.25
245.399	121.25
245.633	135.25
245.866	151.25
246.099	151.25
246.333	140.25
246.566	131.25
246.8	156.25
247.033	149.25
247.266	154.25
247.5	152.25
247.733	177.25
247.966	174.25
248.2	168.25
248.433	158.25
248.666	165.25
248.899	173.25
249.133	202.25
249.366	220.25
249.599	199.25
249.832	178.25
250.066	183.25
250.299	181.25
250.532	176.25
250.765	186.25
250.998	228.25
251.231	244.25
251.465	229.25
251.698	213.25
251.931	202.25
252.164	197.25
252.397	200.25
252.63	188.25
252.863	202.25
253.096	219.25
253.329	225.25
253.562	232.25
253.795	226.25
254.028	217.25
254.261	215.25
254.494	217.25
254.727	258.25
254.96	278.25
255.193	276.25
255.426	244.25
255.659	222.25
255.892	226.25
256.124	213.25
256.357	209.25
256.59	226.25
256.823	198.25
257.056	212.25
257.289	195.25
257.521	195.25
257.754	203.25
257.987	195.25
258.22	202.25
258.452	203.25
258.685	197.25
258.918	195.25
259.151	205.25
259.383	196.25
259.616	214.25
259.849	226.25
260.081	214.25
260.314	254.25
260.547	251.25
260.779	243.25
261.012	211.25
261.244	225.25
261.477	206.25
261.71	208.25
261.942	225.25
262.175	220.25
262.407	229.25
262.64	214.25
262.872	196.25
263.105	206.25
263.337	199.25
263.57	176.25
263.802	187.25
264.035	187.25
264.267	189.25
264.499	197.25
264.732	201.25
264.964	176.25
265.197	190.25
265.429	189.25
265.661	182.25
265.894	192.25
266.126	191.25
266.358	201.25
266.591	201.25
266.823	205.25
267.055	211.25
267.287	198.25
267.52	201.25
267.752	198.25
267.984	193.25
268.216	201.25
268.448	212.25
268.681	200.25
268.913	223.25
269.145	237.25
269.377	247.25
269.609	261.25
269.841	262.25
270.073	249.25
270.306	270.25
270.538	301.25
270.77	330.25
271.002	316.25
271.234	304.25
271.466	303.25
271.698	306.25
271.93	325.25
272.162	318.25
272.394	321.25
272.626	307.25
272.858	278.25
273.09	274.25
273.322	273.25
273.553	267.25
273.785	249.25
274.017	250.25
274.249	258.25
274.481	241.25
274.713	249.25
274.945	229.25
275.176	244.25
275.408	241.25
275.64	240.25
275.872	236.25
276.104	228.25
276.335	236.25
276.567	253.25
276.799	277.25
277.031	294.25
277.262	315.25
277.494	309.25
277.726	283.25
277.957	262.25
278.189	237.25
278.421	247.25
278.652	235.25
278.884	233.25
279.115	229.25
279.347	245.25
279.579	243.25
279.81	225.25
280.042	229.25
280.273	226.25
280.505	238.25
280.736	209.25
280.968	251.25
281.199	229.25
281.431	226.25
281.662	219.25
281.894	215.25
282.125	216.25
282.356	252.25
282.588	290.25
282.819	300.25
283.051	245.25
283.282	221.25
283.513	225.25
283.745	247.25
283.976	226.25
284.207	266.25
284.439	232.25
284.67	261.25
284.901	215.25
285.132	233.25
285.364	248.25
285.595	245.25
285.826	225.25
286.057	241.25
286.288	237.25
286.52	224.25
286.751	231.25
286.982	222.25
287.213	216.25
287.444	224.25
287.675	245.25
287.906	252.25
288.138	264.25
288.369	261.25
288.6	263.25
288.831	241.25
289.062	260.25
289.293	247.25
289.524	253.25
289.755	226.25
289.986	236.25
290.217	234.25
290.448	248.25
290.679	247.25
290.91	221.25
291.141	234.25
291.371	224.25
291.602	238.25
291.833	241.25
292.064	237.25
292.295	237.25
292.526	245.25
292.757	241.25
292.987	231.25
293.218	247.25
293.449	235.25
293.68	232.25
293.91	243.25
294.141	244.25
294.372	257.25
294.603	226.25
294.833	248.25
295.064	247.25
295.295	252.25
295.525	239.25
295.756	260.25
295.987	276.25
296.217	329.25
296.448	312.25
296.679	270.25
296.909	242.25
297.14	237.25
297.37	256.25
297.601	271.25
297.831	246.25
298.062	240.25
298.292	260.25
298.523	266.25
298.753	242.25
298.984	261.25
299.214	258.25
299.445	246.25
299.675	242.25
299.905	269.25
300.136	263.25
300.366	263.25
300.597	268.25
300.827	257.25
301.057	263.25
301.288	286.25
301.518	277.25
301.748	281.25
301.979	264.25
302.209	288.25
302.439	292.25
302.669	273.25
302.9	276.25
303.13	273.25
303.36	266.25
303.59	274.25
303.82	290.25
304.051	294.25
304.281	277.25
304.511	267.25
304.741	246.25
304.971	245.25
305.201	269.25
305.431	251.25
305.661	287.25
305.891	273.25
306.121	263.25
306.352	288.25
306.582	290.25
306.812	261.25
307.042	276.25
307.272	281.25
307.502	270.25
307.731	276.25
307.961	290.25
308.191	284.25
308.421	266.25
308.651	285.25
308.881	280.25
309.111	291.25
309.341	308.25
309.571	311.25
309.8	333.25
310.03	349.25
310.26	349.25
310.49	343.25
310.72	347.25
310.949	402.25
311.179	388.25
311.409	335.25
311.639	328.25
311.868	344.25
312.098	340.25
312.328	345.25
312.557	377.25
312.787	412.25
313.017	382.25
313.246	368.25
313.476	357.25
313.706	322.25
313.935	354.25
314.165	375.25
314.394	386.25
314.624	373.25
314.853	354.25
315.083	346.25
315.312	337.25
315.542	327.25
315.771	334.25
316.001	296.25
316.23	330.25
316.46	342.25
316.689	336.25
316.919	318.25
317.148	353.25
317.377	370.25
317.607	370.25
317.836	351.25
318.065	325.25
318.295	328.25
318.524	339.25
318.753	334.25
318.983	341.25
319.212	348.25
319.441	335.25
319.67	369.25
319.9	332.25
320.129	320.25
320.358	327.25
320.587	342.25
320.816	352.25
321.046	377.25
321.275	382.25
321.504	387.25
321.733	371.25
321.962	401.25
322.191	404.25
322.42	430.25
322.649	447.25
322.878	481.25
323.108	485.25
323.337	513.25
323.566	564.25
323.795	604.25
324.024	675.25
324.253	841.25
324.482	1272.25
324.71	1904.25
324.939	2717.25
325.168	2429.25
325.397	1302.25
325.626	824.25
325.855	639.25
326.084	555.25
326.313	542.25
326.542	560.25
326.77	631.25
326.999	754.25
327.228	1047.25
327.457	1691.25
327.686	2064.25
327.914	1405.25
328.143	909.25
328.372	750.25
328.6	677.25
328.829	635.25
329.058	659.25
329.287	670.25
329.515	633.25
329.744	528.25
329.972	498.25
330.201	524.25
330.43	532.25
330.658	620.25
330.887	704.25
331.115	674.25
331.344	566.25
331.572	503.25
331.801	481.25
332.03	492.25
332.258	459.25
332.486	417.25
332.715	396.25
332.943	391.25
333.172	404.25
333.4	372.25
333.629	393.25
333.857	396.25
334.085	433.25
334.314	397.25
334.542	394.25
334.771	399.25
334.999	373.25
335.227	412.25
335.455	388.25
335.684	372.25
335.912	383.25
336.14	378.25
336.369	382.25
336.597	395.25
336.825	379.25
337.053	408.25
337.281	381.25
337.51	382.25
337.738	365.25
337.966	386.25
338.194	386.25
338.422	401.25
338.65	386.25
338.878	360.25
339.106	378.25
339.334	381.25
339.562	365.25
339.79	362.25
340.018	364.25
340.246	381.25
340.474	380.25
340.702	389.25
340.93	368.25
341.158	372.25
341.386	369.25
341.614	386.25
341.842	358.25
342.07	366.25
342.298	362.25
342.526	373.25
342.754	334.25
342.981	350.25
343.209	360.25
343.437	339.25
343.665	360.25
343.893	358.25
344.12	360.25
344.348	369.25
344.576	376.25
344.804	382.25
345.031	420.25
345.259	418.25
345.487	397.25
345.714	392.25
345.942	364.25
346.17	360.25
346.397	375.25
346.625	361.25
346.853	353.25
347.08	368.25
347.308	355.25
347.535	380.25
347.763	385.25
347.99	427.25
348.218	392.25
348.445	409.25
348.673	399.25
348.9	365.25
349.128	359.25
349.355	356.25
349.583	368.25
349.81	350.25
350.037	348.25
350.265	373.25
350.492	357.25
350.72	340.25
350.947	370.25
351.174	396.25
351.402	414.25
351.629	386.25
351.856	391.25
352.083	419.25
352.311	409.25
352.538	405.25
352.765	428.25
352.992	399.25
353.22	388.25
353.447	383.25
353.674	369.25
353.901	360.25
354.128	363.25
354.355	337.25
354.583	347.25
354.81	336.25
355.037	341.25
355.264	333.25
355.491	332.25
355.718	299.25
355.945	320.25
356.172	300.25
356.399	329.25
356.626	333.25
356.853	332.25
357.08	309.25
357.307	330.25
357.534	326.25
357.761	327.25
357.988	340.25
358.215	336.25
358.441	324.25
358.668	335.25
358.895	334.25
359.122	345.25
359.349	366.25
359.576	384.25
359.802	414.25
360.029	466.25
360.256	486.25
360.483	461.25
360.709	380.25
360.936	373.25
361.163	392.25
361.39	424.25
361.616	405.25
361.843	382.25
362.07	387.25
362.296	393.25
362.523	377.25
362.749	359.25
362.976	374.25
363.203	361.25
363.429	368.25
363.656	363.25
363.882	366.25
364.109	356.25
364.335	341.25
364.562	365.25
364.788	361.25
365.015	348.25
365.241	332.25
365.468	365.25
365.694	354.25
365.92	366.25
366.147	344.25
366.373	335.25
366.599	337.25
366.826	332.25
367.052	344.25
367.278	344.25
367.505	340.25
367.731	342.25
367.957	371.25
368.184	360.25
368.41	364.25
368.636	375.25
368.862	376.25
369.089	369.25
369.315	351.25
369.541	348.25
369.767	330.25
369.993	356.25
370.219	353.25
370.445	338.25
370.672	327.25
370.898	316.25
371.124	323.25
371.35	340.25
371.576	315.25
371.802	330.25
372.028	332.25
372.254	345.25
372.48	318.25
372.706	320.25
372.932	325.25
373.158	346.25
373.384	327.25
373.61	324.25
373.835	363.25
374.061	352.25
374.287	329.25
374.513	337.25
374.739	346.25
374.965	344.25
375.191	324.25
375.416	318.25
375.642	356.25
375.868	338.25
376.094	332.25
376.319	338.25
376.545	313.25
376.771	322.25
376.997	323.25
377.222	308.25
377.448	333.25
377.674	322.25
377.899	339.25
378.125	307.25
378.35	310.25
378.576	336.25
378.802	333.25
379.027	330.25
379.253	311.25
379.478	345.25
379.704	323.25
379.929	317.25
380.155	330.25
380.38	345.25
380.606	343.25
380.831	333.25
381.057	331.25
381.282	343.25
381.507	342.25
381.733	352.25
381.958	318.25
382.184	342.25
382.409	322.25
382.634	348.25
382.86	359.25
383.085	350.25
383.31	342.25
383.535	330.25
383.761	330.25
383.986	339.25
384.211	341.25
384.436	345.25
384.662	348.25
384.887	332.25
385.112	348.25
385.337	340.25
385.562	347.25
385.787	348.25
386.013	380.25
386.238	377.25
386.463	363.25
386.688	373.25
386.913	355.25
387.138	350.25
387.363	366.25
387.588	330.25
387.813	323.25
388.038	340.25
388.263	334.25
388.488	355.25
388.713	334.25
388.938	357.25
389.163	338.25
389.387	342.25
389.612	333.25
389.837	329.25
390.062	341.25
390.287	339.25
390.512	337.25
390.736	319.25
390.961	332.25
391.186	351.25
391.411	346.25
391.636	351.25
391.86	357.25
392.085	361.25
392.31	328.25
392.534	358.25
392.759	346.25
392.984	333.25
393.208	331.25
393.433	353.25
393.658	353.25
393.882	351.25
394.107	357.25
394.331	357.25
394.556	348.25
394.78	352.25
395.005	360.25
395.229	337.25
395.454	341.25
395.678	339.25
395.903	361.25
396.127	401.25
396.352	405.25
396.576	363.25
396.801	356.25
397.025	375.25
397.249	350.25
397.474	379.25
397.698	388.25
397.922	381.25
398.147	402.25
398.371	380.25
398.595	426.25
398.82	399.25
399.044	381.25
399.268	416.25
399.492	408.25
399.717	421.25
399.941	444.25
400.165	497.25
400.389	482.25
400.613	473.25
400.837	425.25
401.062	421.25
401.286	416.25
401.51	383.25
401.734	405.25
401.958	412.25
402.182	398.25
402.406	423.25
402.63	424.25
402.854	415.25
403.078	417.25
403.302	420.25
403.526	448.25
403.75	431.25
403.974	428.25
404.198	413.25
404.422	430.25
404.645	410.25
404.869	421.25
405.093	452.25
405.317	488.25
405.541	488.25
405.765	453.25
405.988	441.25
406.212	471.25
406.436	505.25
406.66	536.25
406.883	487.25
407.107	515.25
407.331	535.25
407.555	586.25
407.778	591.25
408.002	563.25
408.226	509.25
408.449	493.25
408.673	473.25
408.896	493.25
409.12	546.25
409.344	522.25
409.567	451.25
409.791	430.25
410.014	442.25
410.238	419.25
410.461	434.25
410.685	439.25
410.908	472.25
411.132	482.25
411.355	536.25
411.578	503.25
411.802	447.25
412.025	417.25
412.249	424.25
412.472	419.25
412.695	446.25
412.919	425.25
413.142	422.25
413.365	429.25
413.589	413.25
413.812	404.25
414.035	408.25
414.258	400.25
414.482	390.25
414.705	415.25
414.928	422.25
415.151	393.25
415.374	382.25
415.597	389.25
415.821	402.25
416.044	396.25
416.267	399.25
416.49	416.25
416.713	406.25
416.936	405.25
417.159	412.25
417.382	420.25
417.605	412.25
417.828	439.25
418.051	453.25
418.274	443.25
418.497	399.25
418.72	406.25
418.943	412.25
419.166	424.25
419.389	450.25
419.611	436.25
419.834	426.25
420.057	429.25
420.28	427.25
420.503	421.25
420.726	440.25
420.948	447.25
421.171	487.25
421.394	535.25
421.617	475.25
421.839	429.25
422.062	452.25
422.285	465.25
422.507	512.25
422.73	561.25
422.953	590.25
423.175	505.25
423.398	466.25
423.621	470.25
423.843	507.25
424.066	499.25
424.288	505.25
424.511	507.25
424.733	577.25
424.956	654.25
425.178	652.25
425.401	632.25
425.623	633.25
425.846	570.25
426.068	523.25
426.291	501.25
426.513	512.25
426.735	505.25
426.958	545.25
427.18	658.25
427.402	772.25
427.625	880.25
427.847	812.25
428.069	698.25
428.292	602.25
428.514	547.25
428.736	498.25
428.958	521.25
429.181	481.25
429.403	475.25
429.625	491.25
429.847	528.25
430.069	615.25
430.292	570.25
430.514	485.25
430.736	465.25
430.958	487.25
431.18	446.25
431.402	453.25
431.624	430.25
431.846	434.25
432.068	405.25
432.29	444.25
432.512	437.25
432.734	459.25
432.956	459.25
433.178	438.25
433.4	455.25
433.622	452.25
433.844	448.25
434.066	439.25
434.287	436.25
434.509	442.25
434.731	449.25
434.953	445.25
435.175	477.25
435.397	522.25
435.618	521.25
435.84	580.25
436.062	644.25
436.284	724.25
436.505	635.25
436.727	543.25
436.949	502.25
437.17	493.25
437.392	472.25
437.614	518.25
437.835	556.25
438.057	675.25
438.278	761.25
438.5	722.25
438.721	805.25
438.943	778.25
439.165	642.25
439.386	557.25
439.608	535.25
439.829	560.25
440.05	600.25
440.272	631.25
440.493	611.25
440.715	558.25
440.936	506.25
441.158	514.25
441.379	505.25
441.6	533.25
441.822	530.25
442.043	564.25
442.264	655.25
442.486	699.25
442.707	577.25
442.928	554.25
443.149	541.25
443.371	566.25
443.592	616.25
443.813	708.25
444.034	735.25
444.255	621.25
444.476	541.25
444.698	484.25
444.919	488.25
445.14	617.25
445.361	578.25
445.582	579.25
445.803	638.25
446.024	746.25
446.245	742.25
446.466	681.25
446.687	620.25
446.908	548.25
447.129	521.25
447.35	491.25
447.571	493.25
447.792	493.25
448.013	493.25
448.234	516.25
448.455	576.25
448.675	693.25
448.896	770.25
449.117	680.25
449.338	648.25
449.559	740.25
449.779	776.25
450	665.25
450.221	585.25
450.442	535.25
450.662	502.25
450.883	507.25
451.104	536.25
451.324	525.25
451.545	504.25
451.766	472.25
451.986	449.25
452.207	454.25
452.428	428.25
452.648	447.25
452.869	436.25
453.089	460.25
453.31	461.25
453.53	461.25
453.751	444.25
453.971	454.25
454.192	501.25
454.412	482.25
454.633	458.25
454.853	425.25
455.073	411.25
455.294	473.25
455.514	527.25
455.734	539.25
455.955	458.25
456.175	410.25
456.395	411.25
456.616	390.25
456.836	412.25
457.056	396.25
457.276	399.25
457.497	393.25
457.717	401.25
457.937	393.25
458.157	410.25
458.377	417.25
458.598	456.25
458.818	552.25
459.038	631.25
459.258	635.25
459.478	518.25
459.698	473.25
459.918	440.25
460.138	436.25
460.358	418.25
460.578	422.25
460.798	441.25
461.018	448.25
461.238	440.25
461.458	428.25
461.678	420.25
461.898	422.25
462.118	421.25
462.338	410.25
462.558	417.25
462.777	417.25
462.997	421.25
463.217	431.25
463.437	432.25
463.657	420.25
463.876	404.25
464.096	438.25
464.316	444.25
464.536	442.25
464.755	460.25
464.975	492.25
465.195	550.25
465.414	695.25
465.634	583.25
465.854	527.25
466.073	483.25
466.293	453.25
466.512	446.25
466.732	429.25
466.951	417.25
467.171	435.25
467.391	440.25
467.61	435.25
467.829	461.25
468.049	439.25
468.268	444.25
468.488	428.25
468.707	405.25
468.927	408.25
469.146	427.25
469.365	408.25
469.585	419.25
469.804	436.25
470.023	432.25
470.243	443.25
470.462	451.25
470.681	491.25
470.901	484.25
471.12	446.25
471.339	464.25
471.558	427.25
471.777	417.25
471.997	404.25
472.216	420.25
472.435	431.25
472.654	444.25
472.873	419.25
473.092	413.25
473.311	412.25
473.53	439.25
473.749	444.25
473.968	501.25
474.187	609.25
474.406	628.25
474.625	506.25
474.844	447.25
475.063	448.25
475.282	444.25
475.501	457.25
475.72	445.25
475.939	452.25
476.158	440.25
476.377	440.25
476.596	435.25
476.814	451.25
477.033	449.25
477.252	458.25
477.471	479.25
477.69	465.25
477.908	461.25
478.127	451.25
478.346	473.25
478.564	464.25
478.783	483.25
479.002	471.25
479.22	483.25
479.439	491.25
479.658	532.25
479.876	548.25
480.095	546.25
480.313	573.25
480.532	549.25
480.751	545.25
480.969	533.25
481.188	560.25
481.406	551.25
481.624	524.25
481.843	526.25
482.061	522.25
482.28	518.25
482.498	498.25
482.717	501.25
482.935	492.25
483.153	506.25
483.372	489.25
483.59	500.25
483.808	498.25
484.027	509.25
484.245	537.25
484.463	544.25
484.681	509.25
484.9	528.25
485.118	511.25
485.336	521.25
485.554	514.25
485.772	535.25
485.99	542.25
486.209	521.25
486.427	549.25
486.645	562.25
486.863	588.25
487.081	572.25
487.299	596.25
487.517	566.25
487.735	572.25
487.953	569.25
488.171	568.25
488.389	557.25
488.607	567.25
488.825	579.25
489.043	556.25
489.261	552.25
489.479	578.25
489.696	578.25
489.914	609.25
490.132	578.25
490.35	566.25
490.568	587.25
490.786	603.25
491.003	598.25
491.221	619.25
491.439	641.25
491.657	612.25
491.874	642.25
492.092	658.25
492.31	668.25
492.527	634.25
492.745	635.25
492.963	667.25
493.18	689.25
493.398	677.25
493.615	664.25
493.833	668.25
494.05	670.25
494.268	660.25
494.485	675.25
494.703	668.25
494.92	684.25
495.138	690.25
495.355	658.25
495.573	708.25
495.79	687.25
496.008	709.25
496.225	681.25
496.442	648.25
496.66	658.25
496.877	680.25
497.094	682.25
497.312	672.25
497.529	692.25
497.746	712.25
497.963	690.25
498.181	727.25
498.398	723.25
498.615	737.25
498.832	741.25
499.049	695.25
499.267	744.25
499.484	771.25
499.701	749.25
499.918	737.25
500.135	779.25
500.352	802.25
500.569	784.25
500.786	795.25
501.003	830.25
501.22	776.25
501.437	793.25
501.654	806.25
501.871	820.25
