Data from 1987.PennyLincolnUp.Lamp.En5.5.200Scan.071819.P2_HRD10591_17-16-02-971.txt Node
Date: Thu Jul 18 17:16:02 EDT 2019
User: cochatt
Spectrometer: HR+D1059
Trigger mode: 1
Integration Time (sec): 1.000000E-1
Scans to average: 1
Electric dark correction enabled: true
Nonlinearity correction enabled: false
Boxcar width: 0
XAxis mode: Wavelengths
Number of Pixels in Spectrum: 2048
>>>>>Begin Spectral Data<<<<<
223.165	-19.38
223.4	-19.38
223.635	-19.38
223.869	-23.38
224.104	-16.38
224.338	-23.38
224.573	-16.38
224.808	-10.38
225.042	2.62
225.277	2.62
225.511	-10.38
225.746	0.62
225.98	10.62
226.215	6.62
226.449	7.62
226.683	27.62
226.918	25.62
227.152	35.62
227.387	41.62
227.621	45.62
227.856	51.62
228.09	56.62
228.324	61.62
228.559	56.62
228.793	69.62
229.027	113.62
229.262	111.62
229.496	121.62
229.73	147.62
229.964	178.62
230.199	126.62
230.433	134.62
230.667	117.62
230.901	113.62
231.136	116.62
231.37	115.62
231.604	124.62
231.838	114.62
232.072	118.62
232.306	117.62
232.541	122.62
232.775	111.62
233.009	122.62
233.243	130.62
233.477	116.62
233.711	111.62
233.945	138.62
234.179	127.62
234.413	105.62
234.647	101.62
234.881	135.62
235.115	118.62
235.349	103.62
235.583	123.62
235.817	134.62
236.051	136.62
236.285	126.62
236.519	114.62
236.753	138.62
236.987	153.62
237.221	204.62
237.455	239.62
237.689	199.62
237.922	157.62
238.156	127.62
238.39	142.62
238.624	125.62
238.858	126.62
239.091	123.62
239.325	138.62
239.559	131.62
239.793	130.62
240.027	142.62
240.26	144.62
240.494	170.62
240.728	170.62
240.961	165.62
241.195	137.62
241.429	147.62
241.662	127.62
241.896	138.62
242.13	144.62
242.363	123.62
242.597	127.62
242.83	130.62
243.064	130.62
243.298	113.62
243.531	127.62
243.765	145.62
243.998	136.62
244.232	134.62
244.465	148.62
244.699	137.62
244.932	148.62
245.166	128.62
245.399	140.62
245.633	138.62
245.866	143.62
246.099	141.62
246.333	151.62
246.566	139.62
246.8	148.62
247.033	162.62
247.266	169.62
247.5	159.62
247.733	157.62
247.966	155.62
248.2	178.62
248.433	173.62
248.666	170.62
248.899	182.62
249.133	190.62
249.366	220.62
249.599	207.62
249.832	164.62
250.066	171.62
250.299	184.62
250.532	170.62
250.765	183.62
250.998	204.62
251.231	223.62
251.465	214.62
251.698	205.62
251.931	173.62
252.164	201.62
252.397	189.62
252.63	190.62
252.863	203.62
253.096	219.62
253.329	226.62
253.562	228.62
253.795	216.62
254.028	220.62
254.261	225.62
254.494	229.62
254.727	258.62
254.96	310.62
255.193	283.62
255.426	244.62
255.659	229.62
255.892	238.62
256.124	218.62
256.357	210.62
256.59	208.62
256.823	218.62
257.056	197.62
257.289	214.62
257.521	203.62
257.754	201.62
257.987	201.62
258.22	198.62
258.452	205.62
258.685	209.62
258.918	205.62
259.151	193.62
259.383	213.62
259.616	217.62
259.849	214.62
260.081	213.62
260.314	253.62
260.547	259.62
260.779	238.62
261.012	226.62
261.244	214.62
261.477	219.62
261.71	209.62
261.942	221.62
262.175	230.62
262.407	226.62
262.64	218.62
262.872	211.62
263.105	195.62
263.337	205.62
263.57	206.62
263.802	206.62
264.035	194.62
264.267	192.62
264.499	195.62
264.732	202.62
264.964	200.62
265.197	204.62
265.429	199.62
265.661	189.62
265.894	196.62
266.126	199.62
266.358	218.62
266.591	203.62
266.823	198.62
267.055	212.62
267.287	218.62
267.52	205.62
267.752	206.62
267.984	205.62
268.216	205.62
268.448	219.62
268.681	216.62
268.913	224.62
269.145	250.62
269.377	268.62
269.609	249.62
269.841	275.62
270.073	263.62
270.306	278.62
270.538	299.62
270.77	306.62
271.002	297.62
271.234	306.62
271.466	288.62
271.698	310.62
271.93	290.62
272.162	324.62
272.394	309.62
272.626	297.62
272.858	290.62
273.09	286.62
273.322	248.62
273.553	252.62
273.785	247.62
274.017	232.62
274.249	246.62
274.481	236.62
274.713	252.62
274.945	223.62
275.176	240.62
275.408	253.62
275.64	245.62
275.872	237.62
276.104	248.62
276.335	252.62
276.567	228.62
276.799	266.62
277.031	296.62
277.262	298.62
277.494	290.62
277.726	271.62
277.957	277.62
278.189	258.62
278.421	243.62
278.652	247.62
278.884	246.62
279.115	243.62
279.347	236.62
279.579	251.62
279.81	245.62
280.042	226.62
280.273	234.62
280.505	248.62
280.736	218.62
280.968	235.62
281.199	235.62
281.431	227.62
281.662	230.62
281.894	237.62
282.125	234.62
282.356	264.62
282.588	274.62
282.819	283.62
283.051	267.62
283.282	224.62
283.513	247.62
283.745	231.62
283.976	219.62
284.207	215.62
284.439	244.62
284.67	223.62
284.901	238.62
285.132	233.62
285.364	224.62
285.595	241.62
285.826	231.62
286.057	236.62
286.288	232.62
286.52	210.62
286.751	232.62
286.982	236.62
287.213	225.62
287.444	225.62
287.675	247.62
287.906	245.62
288.138	265.62
288.369	271.62
288.6	272.62
288.831	254.62
289.062	235.62
289.293	232.62
289.524	252.62
289.755	240.62
289.986	238.62
290.217	234.62
290.448	232.62
290.679	235.62
290.91	247.62
291.141	250.62
291.371	250.62
291.602	251.62
291.833	229.62
292.064	226.62
292.295	255.62
292.526	244.62
292.757	236.62
292.987	238.62
293.218	226.62
293.449	234.62
293.68	242.62
293.91	238.62
294.141	235.62
294.372	228.62
294.603	242.62
294.833	245.62
295.064	251.62
295.295	237.62
295.525	237.62
295.756	238.62
295.987	259.62
296.217	285.62
296.448	310.62
296.679	278.62
296.909	262.62
297.14	257.62
297.37	257.62
297.601	228.62
297.831	228.62
298.062	254.62
298.292	248.62
298.523	260.62
298.753	258.62
298.984	255.62
299.214	236.62
299.445	250.62
299.675	268.62
299.905	266.62
300.136	258.62
300.366	269.62
300.597	258.62
300.827	245.62
301.057	263.62
301.288	264.62
301.518	288.62
301.748	280.62
301.979	269.62
302.209	255.62
302.439	242.62
302.669	265.62
302.9	271.62
303.13	263.62
303.36	283.62
303.59	281.62
303.82	280.62
304.051	295.62
304.281	270.62
304.511	265.62
304.741	282.62
304.971	267.62
305.201	282.62
305.431	265.62
305.661	282.62
305.891	265.62
306.121	275.62
306.352	284.62
306.582	292.62
306.812	268.62
307.042	283.62
307.272	270.62
307.502	271.62
307.731	275.62
307.961	291.62
308.191	285.62
308.421	301.62
308.651	278.62
308.881	290.62
309.111	293.62
309.341	295.62
309.571	330.62
309.8	314.62
310.03	344.62
310.26	354.62
310.49	352.62
310.72	371.62
310.949	382.62
311.179	382.62
311.409	359.62
311.639	341.62
311.868	365.62
312.098	357.62
312.328	367.62
312.557	396.62
312.787	416.62
313.017	388.62
313.246	375.62
313.476	343.62
313.706	340.62
313.935	358.62
314.165	375.62
314.394	387.62
314.624	414.62
314.853	359.62
315.083	344.62
315.312	342.62
315.542	326.62
315.771	340.62
316.001	317.62
316.23	324.62
316.46	328.62
316.689	334.62
316.919	346.62
317.148	355.62
317.377	363.62
317.607	357.62
317.836	351.62
318.065	346.62
318.295	329.62
318.524	325.62
318.753	326.62
318.983	322.62
319.212	334.62
319.441	331.62
319.67	352.62
319.9	354.62
320.129	326.62
320.358	339.62
320.587	356.62
320.816	349.62
321.046	374.62
321.275	378.62
321.504	372.62
321.733	383.62
321.962	393.62
322.191	394.62
322.42	413.62
322.649	468.62
322.878	464.62
323.108	456.62
323.337	526.62
323.566	542.62
323.795	603.62
324.024	675.62
324.253	845.62
324.482	1232.62
324.71	1875.62
324.939	2723.62
325.168	2376.62
325.397	1253.62
325.626	825.62
325.855	638.62
326.084	560.62
326.313	549.62
326.542	558.62
326.77	605.62
326.999	757.62
327.228	1093.62
327.457	1654.62
327.686	2052.62
327.914	1392.62
328.143	892.62
328.372	744.62
328.6	696.62
328.829	616.62
329.058	662.62
329.287	658.62
329.515	601.62
329.744	550.62
329.972	502.62
330.201	528.62
330.43	570.62
330.658	611.62
330.887	688.62
331.115	670.62
331.344	556.62
331.572	484.62
331.801	507.62
332.03	478.62
332.258	463.62
332.486	408.62
332.715	411.62
332.943	399.62
333.172	401.62
333.4	412.62
333.629	399.62
333.857	417.62
334.085	397.62
334.314	389.62
334.542	407.62
334.771	411.62
334.999	408.62
335.227	376.62
335.455	393.62
335.684	380.62
335.912	382.62
336.14	349.62
336.369	368.62
336.597	402.62
336.825	394.62
337.053	384.62
337.281	398.62
337.51	380.62
337.738	399.62
337.966	403.62
338.194	382.62
338.422	389.62
338.65	388.62
338.878	384.62
339.106	375.62
339.334	366.62
339.562	378.62
339.79	352.62
340.018	375.62
340.246	396.62
340.474	396.62
340.702	396.62
340.93	371.62
341.158	358.62
341.386	368.62
341.614	384.62
341.842	386.62
342.07	373.62
342.298	385.62
342.526	379.62
342.754	352.62
342.981	354.62
343.209	344.62
343.437	346.62
343.665	359.62
343.893	362.62
344.12	368.62
344.348	360.62
344.576	370.62
344.804	375.62
345.031	395.62
345.259	407.62
345.487	387.62
345.714	387.62
345.942	378.62
346.17	358.62
346.397	379.62
346.625	371.62
346.853	360.62
347.08	382.62
347.308	370.62
347.535	380.62
347.763	411.62
347.99	392.62
348.218	404.62
348.445	413.62
348.673	399.62
348.9	379.62
349.128	356.62
349.355	352.62
349.583	362.62
349.81	333.62
350.037	366.62
350.265	362.62
350.492	344.62
350.72	360.62
350.947	377.62
351.174	395.62
351.402	418.62
351.629	390.62
351.856	381.62
352.083	401.62
352.311	398.62
352.538	419.62
352.765	407.62
352.992	398.62
353.22	398.62
353.447	399.62
353.674	379.62
353.901	354.62
354.128	328.62
354.355	361.62
354.583	347.62
354.81	346.62
355.037	341.62
355.264	354.62
355.491	328.62
355.718	333.62
355.945	328.62
356.172	329.62
356.399	326.62
356.626	335.62
356.853	340.62
357.08	329.62
357.307	319.62
357.534	329.62
357.761	324.62
357.988	342.62
358.215	314.62
358.441	337.62
358.668	346.62
358.895	349.62
359.122	335.62
359.349	377.62
359.576	378.62
359.802	412.62
360.029	466.62
360.256	493.62
360.483	454.62
360.709	404.62
360.936	384.62
361.163	396.62
361.39	388.62
361.616	396.62
361.843	374.62
362.07	386.62
362.296	396.62
362.523	384.62
362.749	379.62
362.976	367.62
363.203	353.62
363.429	346.62
363.656	339.62
363.882	357.62
364.109	360.62
364.335	360.62
364.562	368.62
364.788	346.62
365.015	367.62
365.241	335.62
365.468	366.62
365.694	357.62
365.92	362.62
366.147	363.62
366.373	349.62
366.599	377.62
366.826	352.62
367.052	330.62
367.278	341.62
367.505	341.62
367.731	342.62
367.957	355.62
368.184	351.62
368.41	356.62
368.636	380.62
368.862	363.62
369.089	372.62
369.315	309.62
369.541	351.62
369.767	332.62
369.993	343.62
370.219	366.62
370.445	342.62
370.672	336.62
370.898	333.62
371.124	342.62
371.35	333.62
371.576	348.62
371.802	337.62
372.028	311.62
372.254	344.62
372.48	314.62
372.706	341.62
372.932	342.62
373.158	333.62
373.384	346.62
373.61	340.62
373.835	344.62
374.061	356.62
374.287	339.62
374.513	307.62
374.739	329.62
374.965	319.62
375.191	340.62
375.416	330.62
375.642	339.62
375.868	345.62
376.094	349.62
376.319	342.62
376.545	326.62
376.771	328.62
376.997	343.62
377.222	322.62
377.448	345.62
377.674	340.62
377.899	320.62
378.125	313.62
378.35	319.62
378.576	319.62
378.802	339.62
379.027	326.62
379.253	326.62
379.478	336.62
379.704	312.62
379.929	352.62
380.155	327.62
380.38	343.62
380.606	348.62
380.831	353.62
381.057	351.62
381.282	345.62
381.507	335.62
381.733	322.62
381.958	344.62
382.184	332.62
382.409	332.62
382.634	328.62
382.86	320.62
383.085	323.62
383.31	339.62
383.535	341.62
383.761	337.62
383.986	338.62
384.211	342.62
384.436	343.62
384.662	351.62
384.887	348.62
385.112	338.62
385.337	333.62
385.562	358.62
385.787	362.62
386.013	367.62
386.238	367.62
386.463	382.62
386.688	345.62
386.913	335.62
387.138	347.62
387.363	336.62
387.588	339.62
387.813	342.62
388.038	356.62
388.263	352.62
388.488	357.62
388.713	363.62
388.938	357.62
389.163	341.62
389.387	346.62
389.612	359.62
389.837	351.62
390.062	343.62
390.287	364.62
390.512	354.62
390.736	350.62
390.961	375.62
391.186	342.62
391.411	334.62
391.636	356.62
391.86	353.62
392.085	354.62
392.31	339.62
392.534	343.62
392.759	357.62
392.984	364.62
393.208	346.62
393.433	365.62
393.658	373.62
393.882	342.62
394.107	340.62
394.331	363.62
394.556	369.62
394.78	361.62
395.005	356.62
395.229	352.62
395.454	354.62
395.678	355.62
395.903	371.62
396.127	378.62
396.352	400.62
396.576	374.62
396.801	380.62
397.025	367.62
397.249	392.62
397.474	382.62
397.698	367.62
397.922	402.62
398.147	396.62
398.371	396.62
398.595	395.62
398.82	403.62
399.044	380.62
399.268	412.62
399.492	420.62
399.717	425.62
399.941	462.62
400.165	510.62
400.389	505.62
400.613	456.62
400.837	431.62
401.062	423.62
401.286	401.62
401.51	416.62
401.734	404.62
401.958	406.62
402.182	408.62
402.406	425.62
402.63	424.62
402.854	399.62
403.078	425.62
403.302	418.62
403.526	441.62
403.75	448.62
403.974	422.62
404.198	422.62
404.422	431.62
404.645	448.62
404.869	430.62
405.093	451.62
405.317	463.62
405.541	506.62
405.765	478.62
405.988	450.62
406.212	494.62
406.436	525.62
406.66	520.62
406.883	484.62
407.107	508.62
407.331	544.62
407.555	603.62
407.778	612.62
408.002	536.62
408.226	495.62
408.449	502.62
408.673	498.62
408.896	532.62
409.12	567.62
409.344	520.62
409.567	475.62
409.791	458.62
410.014	437.62
410.238	431.62
410.461	450.62
410.685	434.62
410.908	459.62
411.132	490.62
411.355	525.62
411.578	504.62
411.802	459.62
412.025	442.62
412.249	408.62
412.472	434.62
412.695	454.62
412.919	427.62
413.142	423.62
413.365	400.62
413.589	428.62
413.812	420.62
414.035	380.62
414.258	411.62
414.482	415.62
414.705	403.62
414.928	397.62
415.151	398.62
415.374	409.62
415.597	418.62
415.821	393.62
416.044	397.62
416.267	404.62
416.49	397.62
416.713	401.62
416.936	394.62
417.159	410.62
417.382	429.62
417.605	428.62
417.828	441.62
418.051	441.62
418.274	435.62
418.497	413.62
418.72	424.62
418.943	431.62
419.166	445.62
419.389	454.62
419.611	430.62
419.834	424.62
420.057	437.62
420.28	448.62
420.503	450.62
420.726	451.62
420.948	455.62
421.171	510.62
421.394	518.62
421.617	503.62
421.839	442.62
422.062	467.62
422.285	478.62
422.507	545.62
422.73	591.62
422.953	564.62
423.175	524.62
423.398	490.62
423.621	484.62
423.843	479.62
424.066	495.62
424.288	478.62
424.511	527.62
424.733	592.62
424.956	668.62
425.178	673.62
425.401	632.62
425.623	652.62
425.846	570.62
426.068	517.62
426.291	500.62
426.513	534.62
426.735	545.62
426.958	588.62
427.18	665.62
427.402	767.62
427.625	852.62
427.847	805.62
428.069	654.62
428.292	574.62
428.514	541.62
428.736	499.62
428.958	496.62
429.181	487.62
429.403	500.62
429.625	511.62
429.847	525.62
430.069	590.62
430.292	586.62
430.514	507.62
430.736	485.62
430.958	477.62
431.18	463.62
431.402	447.62
431.624	418.62
431.846	428.62
432.068	437.62
432.29	436.62
432.512	439.62
432.734	438.62
432.956	460.62
433.178	458.62
433.4	444.62
433.622	446.62
433.844	400.62
434.066	417.62
434.287	419.62
434.509	425.62
434.731	438.62
434.953	455.62
435.175	473.62
435.397	502.62
435.618	523.62
435.84	568.62
436.062	650.62
436.284	711.62
436.505	641.62
436.727	548.62
436.949	506.62
437.17	476.62
437.392	485.62
437.614	510.62
437.835	557.62
438.057	659.62
438.278	744.62
438.5	726.62
438.721	797.62
438.943	734.62
439.165	630.62
439.386	562.62
439.608	544.62
439.829	547.62
440.05	614.62
440.272	659.62
440.493	621.62
440.715	544.62
440.936	518.62
441.158	494.62
441.379	475.62
441.6	502.62
441.822	528.62
442.043	583.62
442.264	671.62
442.486	693.62
442.707	590.62
442.928	558.62
443.149	554.62
443.371	571.62
443.592	652.62
443.813	715.62
444.034	747.62
444.255	635.62
444.476	536.62
444.698	526.62
444.919	507.62
445.14	589.62
445.361	555.62
445.582	591.62
445.803	652.62
446.024	751.62
446.245	743.62
446.466	699.62
446.687	623.62
446.908	512.62
447.129	495.62
447.35	482.62
447.571	480.62
447.792	479.62
448.013	504.62
448.234	530.62
448.455	595.62
448.675	687.62
448.896	786.62
449.117	668.62
449.338	646.62
449.559	724.62
449.779	780.62
450	671.62
450.221	586.62
450.442	527.62
450.662	495.62
450.883	524.62
451.104	521.62
451.324	511.62
451.545	518.62
451.766	483.62
451.986	448.62
452.207	463.62
452.428	447.62
452.648	450.62
452.869	431.62
453.089	444.62
453.31	446.62
453.53	459.62
453.751	456.62
453.971	458.62
454.192	492.62
454.412	473.62
454.633	446.62
454.853	451.62
455.073	446.62
455.294	464.62
455.514	557.62
455.734	519.62
455.955	427.62
456.175	426.62
456.395	405.62
456.616	387.62
456.836	382.62
457.056	363.62
457.276	398.62
457.497	392.62
457.717	399.62
457.937	415.62
458.157	414.62
458.377	426.62
458.598	441.62
458.818	537.62
459.038	645.62
459.258	660.62
459.478	544.62
459.698	472.62
459.918	440.62
460.138	437.62
460.358	435.62
460.578	429.62
460.798	426.62
461.018	456.62
461.238	427.62
461.458	426.62
461.678	404.62
461.898	409.62
462.118	420.62
462.338	406.62
462.558	412.62
462.777	415.62
462.997	436.62
463.217	446.62
463.437	444.62
463.657	424.62
463.876	458.62
464.096	444.62
464.316	435.62
464.536	458.62
464.755	483.62
464.975	518.62
465.195	552.62
465.414	699.62
465.634	577.62
465.854	534.62
466.073	475.62
466.293	454.62
466.512	442.62
466.732	431.62
466.951	436.62
467.171	424.62
467.391	432.62
467.61	439.62
467.829	448.62
468.049	438.62
468.268	430.62
468.488	415.62
468.707	442.62
468.927	408.62
469.146	380.62
469.365	416.62
469.585	419.62
469.804	419.62
470.023	462.62
470.243	450.62
470.462	468.62
470.681	487.62
470.901	468.62
471.12	443.62
471.339	452.62
471.558	441.62
471.777	471.62
471.997	417.62
472.216	413.62
472.435	434.62
472.654	438.62
472.873	429.62
473.092	422.62
473.311	430.62
473.53	446.62
473.749	438.62
473.968	491.62
474.187	606.62
474.406	641.62
474.625	511.62
474.844	477.62
475.063	459.62
475.282	445.62
475.501	446.62
475.72	436.62
475.939	436.62
476.158	438.62
476.377	446.62
476.596	443.62
476.814	472.62
477.033	463.62
477.252	463.62
477.471	463.62
477.69	493.62
477.908	460.62
478.127	484.62
478.346	463.62
478.564	475.62
478.783	468.62
479.002	487.62
479.22	484.62
479.439	515.62
479.658	531.62
479.876	540.62
480.095	539.62
480.313	577.62
480.532	548.62
480.751	527.62
480.969	514.62
481.188	559.62
481.406	536.62
481.624	540.62
481.843	524.62
482.061	547.62
482.28	506.62
482.498	498.62
482.717	505.62
482.935	499.62
483.153	505.62
483.372	495.62
483.59	498.62
483.808	517.62
484.027	520.62
484.245	509.62
484.463	523.62
484.681	526.62
484.9	525.62
485.118	523.62
485.336	538.62
485.554	547.62
485.772	537.62
485.99	507.62
486.209	544.62
486.427	536.62
486.645	560.62
486.863	591.62
487.081	589.62
487.299	563.62
487.517	585.62
487.735	576.62
487.953	554.62
488.171	582.62
488.389	546.62
488.607	571.62
488.825	556.62
489.043	573.62
489.261	564.62
489.479	586.62
489.696	583.62
489.914	593.62
490.132	605.62
490.35	600.62
490.568	606.62
490.786	624.62
491.003	609.62
491.221	595.62
491.439	636.62
491.657	639.62
491.874	635.62
492.092	654.62
492.31	664.62
492.527	663.62
492.745	656.62
492.963	648.62
493.18	697.62
493.398	671.62
493.615	665.62
493.833	657.62
494.05	662.62
494.268	686.62
494.485	674.62
494.703	661.62
494.92	659.62
495.138	693.62
495.355	690.62
495.573	709.62
495.79	695.62
496.008	692.62
496.225	659.62
496.442	696.62
496.66	692.62
496.877	693.62
497.094	678.62
497.312	690.62
497.529	668.62
497.746	720.62
497.963	708.62
498.181	705.62
498.398	709.62
498.615	697.62
498.832	731.62
499.049	717.62
499.267	740.62
499.484	760.62
499.701	732.62
499.918	740.62
500.135	809.62
500.352	778.62
500.569	793.62
500.786	821.62
501.003	803.62
501.22	795.62
501.437	819.62
501.654	809.62
501.871	820.62
