Data from 1987.PennyLincolnUp.Lamp.En5.5.200Scan.071819.P2_HRD10591_17-16-36-971.txt Node
Date: Thu Jul 18 17:16:36 EDT 2019
User: cochatt
Spectrometer: HR+D1059
Trigger mode: 1
Integration Time (sec): 1.000000E-1
Scans to average: 1
Electric dark correction enabled: true
Nonlinearity correction enabled: false
Boxcar width: 0
XAxis mode: Wavelengths
Number of Pixels in Spectrum: 2048
>>>>>Begin Spectral Data<<<<<
223.165	-31.94
223.4	-31.94
223.635	-31.94
223.869	-13.94
224.104	-17.94
224.338	-15.94
224.573	-6.94
224.808	-23.94
225.042	-9.94
225.277	8.06
225.511	2.06
225.746	-5.94
225.98	23.06
226.215	9.06
226.449	11.06
226.683	24.06
226.918	27.06
227.152	22.06
227.387	47.06
227.621	44.06
227.856	51.06
228.09	52.06
228.324	45.06
228.559	59.06
228.793	67.06
229.027	109.06
229.262	107.06
229.496	138.06
229.73	153.06
229.964	183.06
230.199	150.06
230.433	124.06
230.667	110.06
230.901	120.06
231.136	110.06
231.37	118.06
231.604	124.06
231.838	110.06
232.072	114.06
232.306	132.06
232.541	122.06
232.775	108.06
233.009	116.06
233.243	92.06
233.477	108.06
233.711	120.06
233.945	125.06
234.179	117.06
234.413	104.06
234.647	118.06
234.881	125.06
235.115	106.06
235.349	128.06
235.583	125.06
235.817	116.06
236.051	144.06
236.285	131.06
236.519	141.06
236.753	148.06
236.987	154.06
237.221	205.06
237.455	244.06
237.689	199.06
237.922	138.06
238.156	152.06
238.39	128.06
238.624	136.06
238.858	127.06
239.091	115.06
239.325	126.06
239.559	132.06
239.793	136.06
240.027	134.06
240.26	143.06
240.494	165.06
240.728	165.06
240.961	162.06
241.195	164.06
241.429	154.06
241.662	136.06
241.896	130.06
242.13	145.06
242.363	136.06
242.597	130.06
242.83	139.06
243.064	134.06
243.298	146.06
243.531	128.06
243.765	147.06
243.998	138.06
244.232	128.06
244.465	135.06
244.699	143.06
244.932	127.06
245.166	159.06
245.399	149.06
245.633	132.06
245.866	143.06
246.099	145.06
246.333	132.06
246.566	132.06
246.8	148.06
247.033	146.06
247.266	145.06
247.5	170.06
247.733	158.06
247.966	173.06
248.2	182.06
248.433	160.06
248.666	176.06
248.899	169.06
249.133	214.06
249.366	212.06
249.599	210.06
249.832	188.06
250.066	204.06
250.299	190.06
250.532	201.06
250.765	192.06
250.998	218.06
251.231	230.06
251.465	204.06
251.698	207.06
251.931	209.06
252.164	205.06
252.397	200.06
252.63	199.06
252.863	194.06
253.096	226.06
253.329	246.06
253.562	236.06
253.795	228.06
254.028	229.06
254.261	226.06
254.494	232.06
254.727	252.06
254.96	311.06
255.193	287.06
255.426	252.06
255.659	249.06
255.892	232.06
256.124	208.06
256.357	203.06
256.59	214.06
256.823	226.06
257.056	226.06
257.289	204.06
257.521	202.06
257.754	203.06
257.987	207.06
258.22	215.06
258.452	198.06
258.685	198.06
258.918	200.06
259.151	199.06
259.383	203.06
259.616	211.06
259.849	216.06
260.081	248.06
260.314	245.06
260.547	249.06
260.779	235.06
261.012	234.06
261.244	226.06
261.477	238.06
261.71	230.06
261.942	212.06
262.175	240.06
262.407	261.06
262.64	202.06
262.872	200.06
263.105	209.06
263.337	202.06
263.57	198.06
263.802	191.06
264.035	195.06
264.267	189.06
264.499	201.06
264.732	197.06
264.964	196.06
265.197	201.06
265.429	182.06
265.661	214.06
265.894	198.06
266.126	200.06
266.358	207.06
266.591	200.06
266.823	218.06
267.055	200.06
267.287	207.06
267.52	215.06
267.752	212.06
267.984	211.06
268.216	217.06
268.448	215.06
268.681	213.06
268.913	222.06
269.145	242.06
269.377	254.06
269.609	273.06
269.841	260.06
270.073	262.06
270.306	279.06
270.538	316.06
270.77	303.06
271.002	286.06
271.234	283.06
271.466	290.06
271.698	308.06
271.93	319.06
272.162	330.06
272.394	333.06
272.626	299.06
272.858	303.06
273.09	278.06
273.322	262.06
273.553	264.06
273.785	255.06
274.017	249.06
274.249	257.06
274.481	239.06
274.713	253.06
274.945	245.06
275.176	258.06
275.408	256.06
275.64	253.06
275.872	250.06
276.104	252.06
276.335	243.06
276.567	224.06
276.799	277.06
277.031	300.06
277.262	299.06
277.494	302.06
277.726	295.06
277.957	282.06
278.189	269.06
278.421	263.06
278.652	231.06
278.884	233.06
279.115	242.06
279.347	225.06
279.579	223.06
279.81	245.06
280.042	242.06
280.273	237.06
280.505	221.06
280.736	209.06
280.968	224.06
281.199	222.06
281.431	225.06
281.662	225.06
281.894	231.06
282.125	238.06
282.356	248.06
282.588	300.06
282.819	311.06
283.051	249.06
283.282	219.06
283.513	215.06
283.745	229.06
283.976	240.06
284.207	251.06
284.439	252.06
284.67	235.06
284.901	246.06
285.132	234.06
285.364	246.06
285.595	251.06
285.826	222.06
286.057	238.06
286.288	237.06
286.52	236.06
286.751	234.06
286.982	235.06
287.213	231.06
287.444	238.06
287.675	238.06
287.906	245.06
288.138	272.06
288.369	258.06
288.6	278.06
288.831	276.06
289.062	250.06
289.293	239.06
289.524	243.06
289.755	239.06
289.986	252.06
290.217	232.06
290.448	240.06
290.679	243.06
290.91	235.06
291.141	260.06
291.371	229.06
291.602	246.06
291.833	222.06
292.064	244.06
292.295	251.06
292.526	234.06
292.757	243.06
292.987	245.06
293.218	221.06
293.449	255.06
293.68	236.06
293.91	231.06
294.141	254.06
294.372	234.06
294.603	239.06
294.833	236.06
295.064	253.06
295.295	246.06
295.525	231.06
295.756	258.06
295.987	271.06
296.217	298.06
296.448	306.06
296.679	279.06
296.909	239.06
297.14	256.06
297.37	257.06
297.601	250.06
297.831	234.06
298.062	239.06
298.292	247.06
298.523	258.06
298.753	250.06
298.984	237.06
299.214	258.06
299.445	273.06
299.675	269.06
299.905	262.06
300.136	267.06
300.366	264.06
300.597	256.06
300.827	255.06
301.057	293.06
301.288	272.06
301.518	278.06
301.748	258.06
301.979	280.06
302.209	271.06
302.439	281.06
302.669	266.06
302.9	286.06
303.13	284.06
303.36	284.06
303.59	284.06
303.82	306.06
304.051	306.06
304.281	274.06
304.511	270.06
304.741	280.06
304.971	268.06
305.201	271.06
305.431	272.06
305.661	272.06
305.891	265.06
306.121	284.06
306.352	293.06
306.582	304.06
306.812	292.06
307.042	274.06
307.272	279.06
307.502	276.06
307.731	280.06
307.961	287.06
308.191	289.06
308.421	272.06
308.651	292.06
308.881	304.06
309.111	303.06
309.341	307.06
309.571	300.06
309.8	327.06
310.03	344.06
310.26	359.06
310.49	345.06
310.72	370.06
310.949	392.06
311.179	401.06
311.409	367.06
311.639	338.06
311.868	357.06
312.098	371.06
312.328	399.06
312.557	388.06
312.787	406.06
313.017	392.06
313.246	377.06
313.476	341.06
313.706	333.06
313.935	354.06
314.165	363.06
314.394	379.06
314.624	388.06
314.853	365.06
315.083	347.06
315.312	343.06
315.542	324.06
315.771	328.06
316.001	339.06
316.23	329.06
316.46	324.06
316.689	344.06
316.919	339.06
317.148	365.06
317.377	374.06
317.607	346.06
317.836	352.06
318.065	328.06
318.295	317.06
318.524	330.06
318.753	331.06
318.983	334.06
319.212	340.06
319.441	351.06
319.67	362.06
319.9	335.06
320.129	351.06
320.358	349.06
320.587	362.06
320.816	363.06
321.046	381.06
321.275	372.06
321.504	368.06
321.733	388.06
321.962	373.06
322.191	396.06
322.42	431.06
322.649	460.06
322.878	461.06
323.108	473.06
323.337	512.06
323.566	560.06
323.795	607.06
324.024	706.06
324.253	863.06
324.482	1314.06
324.71	2019.06
324.939	2764.06
325.168	2452.06
325.397	1330.06
325.626	858.06
325.855	669.06
326.084	579.06
326.313	567.06
326.542	566.06
326.77	644.06
326.999	802.06
327.228	1138.06
327.457	1755.06
327.686	2172.06
327.914	1497.06
328.143	920.06
328.372	770.06
328.6	702.06
328.829	668.06
329.058	660.06
329.287	677.06
329.515	626.06
329.744	559.06
329.972	542.06
330.201	529.06
330.43	559.06
330.658	637.06
330.887	725.06
331.115	706.06
331.344	575.06
331.572	509.06
331.801	503.06
332.03	489.06
332.258	471.06
332.486	424.06
332.715	395.06
332.943	398.06
333.172	388.06
333.4	402.06
333.629	409.06
333.857	426.06
334.085	418.06
334.314	403.06
334.542	391.06
334.771	422.06
334.999	393.06
335.227	414.06
335.455	396.06
335.684	375.06
335.912	380.06
336.14	381.06
336.369	386.06
336.597	396.06
336.825	406.06
337.053	388.06
337.281	381.06
337.51	371.06
337.738	376.06
337.966	376.06
338.194	403.06
338.422	399.06
338.65	384.06
338.878	388.06
339.106	384.06
339.334	382.06
339.562	355.06
339.79	376.06
340.018	375.06
340.246	365.06
340.474	406.06
340.702	381.06
340.93	364.06
341.158	363.06
341.386	399.06
341.614	373.06
341.842	395.06
342.07	368.06
342.298	365.06
342.526	370.06
342.754	354.06
342.981	330.06
343.209	351.06
343.437	343.06
343.665	364.06
343.893	364.06
344.12	362.06
344.348	357.06
344.576	365.06
344.804	372.06
345.031	398.06
345.259	398.06
345.487	426.06
345.714	390.06
345.942	381.06
346.17	382.06
346.397	379.06
346.625	393.06
346.853	371.06
347.08	379.06
347.308	396.06
347.535	384.06
347.763	415.06
347.99	411.06
348.218	404.06
348.445	418.06
348.673	402.06
348.9	382.06
349.128	365.06
349.355	370.06
349.583	363.06
349.81	344.06
350.037	362.06
350.265	359.06
350.492	359.06
350.72	365.06
350.947	361.06
351.174	403.06
351.402	409.06
351.629	387.06
351.856	406.06
352.083	419.06
352.311	421.06
352.538	428.06
352.765	415.06
352.992	414.06
353.22	383.06
353.447	389.06
353.674	391.06
353.901	351.06
354.128	357.06
354.355	356.06
354.583	339.06
354.81	356.06
355.037	358.06
355.264	344.06
355.491	354.06
355.718	319.06
355.945	328.06
356.172	312.06
356.399	333.06
356.626	343.06
356.853	337.06
357.08	326.06
357.307	317.06
357.534	339.06
357.761	324.06
357.988	327.06
358.215	332.06
358.441	334.06
358.668	348.06
358.895	352.06
359.122	354.06
359.349	357.06
359.576	388.06
359.802	414.06
360.029	486.06
360.256	487.06
360.483	452.06
360.709	413.06
360.936	408.06
361.163	391.06
361.39	419.06
361.616	390.06
361.843	367.06
362.07	390.06
362.296	390.06
362.523	399.06
362.749	378.06
362.976	380.06
363.203	371.06
363.429	345.06
363.656	351.06
363.882	371.06
364.109	344.06
364.335	348.06
364.562	359.06
364.788	342.06
365.015	364.06
365.241	361.06
365.468	364.06
365.694	390.06
365.92	400.06
366.147	344.06
366.373	344.06
366.599	351.06
366.826	357.06
367.052	347.06
367.278	330.06
367.505	340.06
367.731	338.06
367.957	362.06
368.184	354.06
368.41	358.06
368.636	370.06
368.862	365.06
369.089	372.06
369.315	360.06
369.541	353.06
369.767	339.06
369.993	352.06
370.219	362.06
370.445	350.06
370.672	342.06
370.898	331.06
371.124	348.06
371.35	293.06
371.576	347.06
371.802	343.06
372.028	328.06
372.254	308.06
372.48	330.06
372.706	319.06
372.932	342.06
373.158	316.06
373.384	334.06
373.61	336.06
373.835	335.06
374.061	336.06
374.287	359.06
374.513	325.06
374.739	340.06
374.965	340.06
375.191	328.06
375.416	350.06
375.642	329.06
375.868	334.06
376.094	339.06
376.319	327.06
376.545	306.06
376.771	317.06
376.997	322.06
377.222	329.06
377.448	339.06
377.674	313.06
377.899	329.06
378.125	337.06
378.35	315.06
378.576	316.06
378.802	319.06
379.027	317.06
379.253	334.06
379.478	322.06
379.704	313.06
379.929	327.06
380.155	350.06
380.38	327.06
380.606	349.06
380.831	345.06
381.057	350.06
381.282	343.06
381.507	334.06
381.733	314.06
381.958	314.06
382.184	336.06
382.409	348.06
382.634	353.06
382.86	337.06
383.085	323.06
383.31	318.06
383.535	331.06
383.761	335.06
383.986	327.06
384.211	343.06
384.436	320.06
384.662	343.06
384.887	346.06
385.112	350.06
385.337	336.06
385.562	340.06
385.787	347.06
386.013	374.06
386.238	372.06
386.463	364.06
386.688	338.06
386.913	345.06
387.138	343.06
387.363	338.06
387.588	349.06
387.813	345.06
388.038	349.06
388.263	349.06
388.488	350.06
388.713	350.06
388.938	354.06
389.163	344.06
389.387	335.06
389.612	330.06
389.837	327.06
390.062	350.06
390.287	353.06
390.512	343.06
390.736	347.06
390.961	330.06
391.186	330.06
391.411	335.06
391.636	346.06
391.86	342.06
392.085	350.06
392.31	362.06
392.534	346.06
392.759	342.06
392.984	344.06
393.208	358.06
393.433	351.06
393.658	341.06
393.882	342.06
394.107	342.06
394.331	360.06
394.556	352.06
394.78	346.06
395.005	352.06
395.229	344.06
395.454	357.06
395.678	356.06
395.903	370.06
396.127	393.06
396.352	400.06
396.576	365.06
396.801	359.06
397.025	374.06
397.249	364.06
397.474	363.06
397.698	373.06
397.922	381.06
398.147	415.06
398.371	409.06
398.595	394.06
398.82	371.06
399.044	377.06
399.268	390.06
399.492	414.06
399.717	428.06
399.941	440.06
400.165	473.06
400.389	475.06
400.613	454.06
400.837	418.06
401.062	406.06
401.286	399.06
401.51	399.06
401.734	398.06
401.958	406.06
402.182	413.06
402.406	419.06
402.63	408.06
402.854	421.06
403.078	397.06
403.302	429.06
403.526	425.06
403.75	419.06
403.974	412.06
404.198	424.06
404.422	414.06
404.645	408.06
404.869	394.06
405.093	462.06
405.317	483.06
405.541	496.06
405.765	486.06
405.988	470.06
406.212	458.06
406.436	513.06
406.66	516.06
406.883	466.06
407.107	507.06
407.331	525.06
407.555	603.06
407.778	583.06
408.002	525.06
408.226	492.06
408.449	475.06
408.673	472.06
408.896	508.06
409.12	535.06
409.344	502.06
409.567	461.06
409.791	451.06
410.014	404.06
410.238	422.06
410.461	426.06
410.685	428.06
410.908	451.06
411.132	494.06
411.355	514.06
411.578	493.06
411.802	443.06
412.025	448.06
412.249	420.06
412.472	437.06
412.695	442.06
412.919	443.06
413.142	392.06
413.365	397.06
413.589	383.06
413.812	400.06
414.035	383.06
414.258	393.06
414.482	393.06
414.705	385.06
414.928	396.06
415.151	371.06
415.374	400.06
415.597	397.06
415.821	397.06
416.044	403.06
416.267	402.06
416.49	404.06
416.713	405.06
416.936	399.06
417.159	394.06
417.382	445.06
417.605	429.06
417.828	420.06
418.051	458.06
418.274	440.06
418.497	420.06
418.72	420.06
418.943	415.06
419.166	410.06
419.389	412.06
419.611	425.06
419.834	425.06
420.057	428.06
420.28	426.06
420.503	419.06
420.726	420.06
420.948	442.06
421.171	490.06
421.394	532.06
421.617	458.06
421.839	452.06
422.062	443.06
422.285	460.06
422.507	519.06
422.73	590.06
422.953	579.06
423.175	489.06
423.398	469.06
423.621	476.06
423.843	485.06
424.066	478.06
424.288	485.06
424.511	526.06
424.733	542.06
424.956	642.06
425.178	652.06
425.401	635.06
425.623	647.06
425.846	547.06
426.068	518.06
426.291	527.06
426.513	514.06
426.735	533.06
426.958	590.06
427.18	650.06
427.402	752.06
427.625	850.06
427.847	813.06
428.069	671.06
428.292	580.06
428.514	538.06
428.736	488.06
428.958	510.06
429.181	487.06
429.403	478.06
429.625	461.06
429.847	532.06
430.069	564.06
430.292	573.06
430.514	491.06
430.736	479.06
430.958	458.06
431.18	439.06
431.402	447.06
431.624	419.06
431.846	410.06
432.068	400.06
432.29	436.06
432.512	430.06
432.734	450.06
432.956	432.06
433.178	451.06
433.4	450.06
433.622	447.06
433.844	430.06
434.066	436.06
434.287	416.06
434.509	420.06
434.731	434.06
434.953	444.06
435.175	478.06
435.397	498.06
435.618	505.06
435.84	557.06
436.062	645.06
436.284	706.06
436.505	604.06
436.727	537.06
436.949	486.06
437.17	474.06
437.392	480.06
437.614	502.06
437.835	575.06
438.057	684.06
438.278	795.06
438.5	759.06
438.721	790.06
438.943	742.06
439.165	609.06
439.386	556.06
439.608	560.06
439.829	564.06
440.05	575.06
440.272	642.06
440.493	591.06
440.715	540.06
440.936	521.06
441.158	504.06
441.379	498.06
441.6	507.06
441.822	526.06
442.043	561.06
442.264	638.06
442.486	682.06
442.707	575.06
442.928	567.06
443.149	555.06
443.371	575.06
443.592	626.06
443.813	690.06
444.034	748.06
444.255	632.06
444.476	550.06
444.698	514.06
444.919	518.06
445.14	594.06
445.361	576.06
445.582	560.06
445.803	652.06
446.024	750.06
446.245	734.06
446.466	686.06
446.687	610.06
446.908	527.06
447.129	531.06
447.35	498.06
447.571	491.06
447.792	495.06
448.013	486.06
448.234	523.06
448.455	589.06
448.675	690.06
448.896	761.06
449.117	660.06
449.338	642.06
449.559	705.06
449.779	789.06
450	674.06
450.221	549.06
450.442	516.06
450.662	492.06
450.883	510.06
451.104	550.06
451.324	533.06
451.545	487.06
451.766	460.06
451.986	447.06
452.207	448.06
452.428	457.06
452.648	428.06
452.869	439.06
453.089	453.06
453.31	463.06
453.53	439.06
453.751	436.06
453.971	447.06
454.192	500.06
454.412	488.06
454.633	454.06
454.853	444.06
455.073	425.06
455.294	467.06
455.514	549.06
455.734	528.06
455.955	458.06
456.175	432.06
456.395	412.06
456.616	400.06
456.836	401.06
457.056	394.06
457.276	376.06
457.497	402.06
457.717	409.06
457.937	413.06
458.157	415.06
458.377	415.06
458.598	451.06
458.818	548.06
459.038	662.06
459.258	670.06
459.478	543.06
459.698	477.06
459.918	437.06
460.138	437.06
460.358	451.06
460.578	434.06
460.798	409.06
461.018	406.06
461.238	415.06
461.458	420.06
461.678	418.06
461.898	416.06
462.118	399.06
462.338	422.06
462.558	422.06
462.777	404.06
462.997	398.06
463.217	430.06
463.437	453.06
463.657	434.06
463.876	441.06
464.096	425.06
464.316	459.06
464.536	448.06
464.755	452.06
464.975	482.06
465.195	557.06
465.414	696.06
465.634	590.06
465.854	517.06
466.073	493.06
466.293	446.06
466.512	453.06
466.732	434.06
466.951	430.06
467.171	438.06
467.391	436.06
467.61	443.06
467.829	474.06
468.049	439.06
468.268	434.06
468.488	430.06
468.707	420.06
468.927	415.06
469.146	425.06
469.365	399.06
469.585	388.06
469.804	435.06
470.023	442.06
470.243	455.06
470.462	454.06
470.681	494.06
470.901	485.06
471.12	459.06
471.339	443.06
471.558	438.06
471.777	456.06
471.997	440.06
472.216	414.06
472.435	425.06
472.654	431.06
472.873	431.06
473.092	417.06
473.311	426.06
473.53	437.06
473.749	431.06
473.968	487.06
474.187	604.06
474.406	657.06
474.625	517.06
474.844	450.06
475.063	447.06
475.282	416.06
475.501	436.06
475.72	443.06
475.939	448.06
476.158	439.06
476.377	447.06
476.596	439.06
476.814	459.06
477.033	447.06
477.252	473.06
477.471	447.06
477.69	446.06
477.908	463.06
478.127	474.06
478.346	466.06
478.564	461.06
478.783	462.06
479.002	470.06
479.22	484.06
479.439	509.06
479.658	526.06
479.876	549.06
480.095	548.06
480.313	578.06
480.532	571.06
480.751	520.06
480.969	528.06
481.188	539.06
481.406	553.06
481.624	541.06
481.843	504.06
482.061	483.06
482.28	515.06
482.498	521.06
482.717	501.06
482.935	506.06
483.153	498.06
483.372	496.06
483.59	516.06
483.808	522.06
484.027	501.06
484.245	522.06
484.463	501.06
484.681	506.06
484.9	524.06
485.118	534.06
485.336	520.06
485.554	524.06
485.772	530.06
485.99	542.06
486.209	531.06
486.427	542.06
486.645	550.06
486.863	617.06
487.081	600.06
487.299	574.06
487.517	550.06
487.735	555.06
487.953	570.06
488.171	556.06
488.389	553.06
488.607	582.06
488.825	576.06
489.043	556.06
489.261	552.06
489.479	586.06
489.696	588.06
489.914	555.06
490.132	596.06
490.35	590.06
490.568	606.06
490.786	616.06
491.003	603.06
491.221	638.06
491.439	637.06
491.657	639.06
491.874	649.06
492.092	645.06
492.31	653.06
492.527	656.06
492.745	659.06
492.963	664.06
493.18	667.06
493.398	668.06
493.615	671.06
493.833	676.06
494.05	659.06
494.268	657.06
494.485	676.06
494.703	683.06
494.92	678.06
495.138	680.06
495.355	697.06
495.573	696.06
495.79	687.06
496.008	698.06
496.225	675.06
496.442	686.06
496.66	690.06
496.877	702.06
497.094	668.06
497.312	664.06
497.529	699.06
497.746	660.06
497.963	696.06
498.181	720.06
498.398	743.06
498.615	747.06
498.832	755.06
499.049	729.06
499.267	735.06
499.484	740.06
499.701	739.06
499.918	755.06
500.135	747.06
500.352	778.06
500.569	764.06
500.786	785.06
501.003	772.06
501.22	800.06
501.437	790.06
501.654	794.06
501.871	786.06
