Data from 1987.PennyLincolnUp.Lamp.En5.5.200Scan.071819.P2_HRD10591_17-14-26-973.txt Node
Date: Thu Jul 18 17:14:26 EDT 2019
User: cochatt
Spectrometer: HR+D1059
Trigger mode: 1
Integration Time (sec): 1.000000E-1
Scans to average: 1
Electric dark correction enabled: true
Nonlinearity correction enabled: false
Boxcar width: 0
XAxis mode: Wavelengths
Number of Pixels in Spectrum: 2048
>>>>>Begin Spectral Data<<<<<
223.165	-13.69
223.4	-13.69
223.635	-13.69
223.869	-8.69
224.104	-13.69
224.338	-4.69
224.573	-18.69
224.808	-25.69
225.042	-13.69
225.277	3.31
225.511	-10.69
225.746	11.31
225.98	3.31
226.215	30.31
226.449	7.31
226.683	2.31
226.918	26.31
227.152	25.31
227.387	41.31
227.621	54.31
227.856	36.31
228.09	51.31
228.324	54.31
228.559	61.31
228.793	69.31
229.027	112.31
229.262	125.31
229.496	118.31
229.73	148.31
229.964	151.31
230.199	141.31
230.433	108.31
230.667	121.31
230.901	110.31
231.136	117.31
231.37	130.31
231.604	127.31
231.838	118.31
232.072	119.31
232.306	97.31
232.541	107.31
232.775	112.31
233.009	121.31
233.243	117.31
233.477	106.31
233.711	117.31
233.945	106.31
234.179	111.31
234.413	116.31
234.647	113.31
234.881	113.31
235.115	112.31
235.349	121.31
235.583	119.31
235.817	122.31
236.051	130.31
236.285	135.31
236.519	120.31
236.753	120.31
236.987	157.31
237.221	193.31
237.455	250.31
237.689	183.31
237.922	149.31
238.156	131.31
238.39	121.31
238.624	124.31
238.858	130.31
239.091	127.31
239.325	123.31
239.559	124.31
239.793	123.31
240.027	118.31
240.26	146.31
240.494	153.31
240.728	155.31
240.961	149.31
241.195	152.31
241.429	134.31
241.662	132.31
241.896	121.31
242.13	125.31
242.363	130.31
242.597	130.31
242.83	133.31
243.064	132.31
243.298	125.31
243.531	133.31
243.765	134.31
243.998	134.31
244.232	138.31
244.465	131.31
244.699	134.31
244.932	126.31
245.166	116.31
245.399	124.31
245.633	138.31
245.866	142.31
246.099	145.31
246.333	147.31
246.566	144.31
246.8	150.31
247.033	138.31
247.266	131.31
247.5	137.31
247.733	151.31
247.966	160.31
248.2	153.31
248.433	143.31
248.666	159.31
248.899	183.31
249.133	182.31
249.366	194.31
249.599	179.31
249.832	175.31
250.066	164.31
250.299	170.31
250.532	167.31
250.765	183.31
250.998	202.31
251.231	218.31
251.465	214.31
251.698	186.31
251.931	178.31
252.164	200.31
252.397	198.31
252.63	198.31
252.863	188.31
253.096	218.31
253.329	213.31
253.562	211.31
253.795	196.31
254.028	205.31
254.261	211.31
254.494	226.31
254.727	245.31
254.96	277.31
255.193	258.31
255.426	245.31
255.659	220.31
255.892	211.31
256.124	214.31
256.357	211.31
256.59	167.31
256.823	202.31
257.056	201.31
257.289	199.31
257.521	195.31
257.754	188.31
257.987	191.31
258.22	215.31
258.452	195.31
258.685	181.31
258.918	186.31
259.151	189.31
259.383	198.31
259.616	207.31
259.849	201.31
260.081	205.31
260.314	249.31
260.547	226.31
260.779	228.31
261.012	210.31
261.244	210.31
261.477	216.31
261.71	230.31
261.942	218.31
262.175	235.31
262.407	218.31
262.64	191.31
262.872	194.31
263.105	190.31
263.337	179.31
263.57	186.31
263.802	178.31
264.035	187.31
264.267	182.31
264.499	182.31
264.732	195.31
264.964	182.31
265.197	182.31
265.429	179.31
265.661	194.31
265.894	174.31
266.126	173.31
266.358	190.31
266.591	186.31
266.823	201.31
267.055	195.31
267.287	200.31
267.52	180.31
267.752	207.31
267.984	201.31
268.216	202.31
268.448	184.31
268.681	204.31
268.913	205.31
269.145	222.31
269.377	246.31
269.609	237.31
269.841	238.31
270.073	248.31
270.306	263.31
270.538	289.31
270.77	273.31
271.002	278.31
271.234	257.31
271.466	264.31
271.698	279.31
271.93	283.31
272.162	274.31
272.394	281.31
272.626	274.31
272.858	267.31
273.09	249.31
273.322	237.31
273.553	238.31
273.785	218.31
274.017	238.31
274.249	222.31
274.481	229.31
274.713	210.31
274.945	226.31
275.176	224.31
275.408	239.31
275.64	231.31
275.872	219.31
276.104	220.31
276.335	218.31
276.567	233.31
276.799	245.31
277.031	270.31
277.262	291.31
277.494	289.31
277.726	273.31
277.957	253.31
278.189	229.31
278.421	223.31
278.652	229.31
278.884	228.31
279.115	209.31
279.347	226.31
279.579	221.31
279.81	203.31
280.042	229.31
280.273	218.31
280.505	215.31
280.736	222.31
280.968	219.31
281.199	219.31
281.431	212.31
281.662	218.31
281.894	218.31
282.125	231.31
282.356	251.31
282.588	267.31
282.819	267.31
283.051	229.31
283.282	205.31
283.513	201.31
283.745	219.31
283.976	234.31
284.207	207.31
284.439	247.31
284.67	216.31
284.901	219.31
285.132	217.31
285.364	203.31
285.595	233.31
285.826	227.31
286.057	225.31
286.288	232.31
286.52	225.31
286.751	217.31
286.982	232.31
287.213	228.31
287.444	226.31
287.675	203.31
287.906	249.31
288.138	231.31
288.369	234.31
288.6	233.31
288.831	225.31
289.062	228.31
289.293	234.31
289.524	235.31
289.755	228.31
289.986	237.31
290.217	218.31
290.448	214.31
290.679	217.31
290.91	223.31
291.141	232.31
291.371	221.31
291.602	215.31
291.833	198.31
292.064	230.31
292.295	233.31
292.526	217.31
292.757	219.31
292.987	217.31
293.218	228.31
293.449	223.31
293.68	223.31
293.91	217.31
294.141	238.31
294.372	234.31
294.603	219.31
294.833	227.31
295.064	220.31
295.295	218.31
295.525	231.31
295.756	230.31
295.987	261.31
296.217	266.31
296.448	253.31
296.679	237.31
296.909	223.31
297.14	223.31
297.37	237.31
297.601	255.31
297.831	215.31
298.062	224.31
298.292	223.31
298.523	228.31
298.753	246.31
298.984	245.31
299.214	242.31
299.445	238.31
299.675	238.31
299.905	234.31
300.136	247.31
300.366	247.31
300.597	247.31
300.827	283.31
301.057	257.31
301.288	262.31
301.518	257.31
301.748	270.31
301.979	250.31
302.209	247.31
302.439	247.31
302.669	253.31
302.9	249.31
303.13	235.31
303.36	257.31
303.59	267.31
303.82	270.31
304.051	250.31
304.281	251.31
304.511	230.31
304.741	246.31
304.971	225.31
305.201	243.31
305.431	277.31
305.661	253.31
305.891	271.31
306.121	249.31
306.352	262.31
306.582	272.31
306.812	276.31
307.042	245.31
307.272	265.31
307.502	257.31
307.731	282.31
307.961	259.31
308.191	261.31
308.421	265.31
308.651	271.31
308.881	269.31
309.111	280.31
309.341	263.31
309.571	282.31
309.8	311.31
310.03	299.31
310.26	325.31
310.49	329.31
310.72	345.31
310.949	339.31
311.179	349.31
311.409	343.31
311.639	329.31
311.868	301.31
312.098	327.31
312.328	318.31
312.557	299.31
312.787	348.31
313.017	372.31
313.246	342.31
313.476	314.31
313.706	327.31
313.935	320.31
314.165	326.31
314.394	372.31
314.624	325.31
314.853	333.31
315.083	327.31
315.312	302.31
315.542	294.31
315.771	266.31
316.001	298.31
316.23	280.31
316.46	302.31
316.689	331.31
316.919	328.31
317.148	320.31
317.377	330.31
317.607	319.31
317.836	312.31
318.065	297.31
318.295	305.31
318.524	309.31
318.753	312.31
318.983	301.31
319.212	321.31
319.441	324.31
319.67	321.31
319.9	322.31
320.129	329.31
320.358	309.31
320.587	321.31
320.816	325.31
321.046	340.31
321.275	343.31
321.504	327.31
321.733	345.31
321.962	345.31
322.191	357.31
322.42	386.31
322.649	393.31
322.878	404.31
323.108	418.31
323.337	453.31
323.566	465.31
323.795	523.31
324.024	579.31
324.253	718.31
324.482	1029.31
324.71	1581.31
324.939	2215.31
325.168	1974.31
325.397	1107.31
325.626	697.31
325.855	566.31
326.084	499.31
326.313	464.31
326.542	482.31
326.77	554.31
326.999	664.31
327.228	892.31
327.457	1373.31
327.686	1698.31
327.914	1191.31
328.143	778.31
328.372	646.31
328.6	589.31
328.829	563.31
329.058	561.31
329.287	586.31
329.515	538.31
329.744	465.31
329.972	443.31
330.201	442.31
330.43	496.31
330.658	535.31
330.887	595.31
331.115	592.31
331.344	483.31
331.572	428.31
331.801	426.31
332.03	421.31
332.258	389.31
332.486	387.31
332.715	359.31
332.943	361.31
333.172	359.31
333.4	372.31
333.629	363.31
333.857	379.31
334.085	364.31
334.314	358.31
334.542	357.31
334.771	369.31
334.999	378.31
335.227	364.31
335.455	354.31
335.684	359.31
335.912	357.31
336.14	334.31
336.369	374.31
336.597	371.31
336.825	383.31
337.053	358.31
337.281	335.31
337.51	326.31
337.738	338.31
337.966	343.31
338.194	377.31
338.422	357.31
338.65	341.31
338.878	344.31
339.106	342.31
339.334	362.31
339.562	344.31
339.79	342.31
340.018	355.31
340.246	357.31
340.474	373.31
340.702	376.31
340.93	340.31
341.158	351.31
341.386	330.31
341.614	346.31
341.842	350.31
342.07	355.31
342.298	351.31
342.526	324.31
342.754	345.31
342.981	330.31
343.209	325.31
343.437	326.31
343.665	319.31
343.893	325.31
344.12	353.31
344.348	349.31
344.576	338.31
344.804	361.31
345.031	353.31
345.259	378.31
345.487	358.31
345.714	361.31
345.942	346.31
346.17	359.31
346.397	355.31
346.625	328.31
346.853	330.31
347.08	334.31
347.308	361.31
347.535	362.31
347.763	343.31
347.99	364.31
348.218	354.31
348.445	375.31
348.673	346.31
348.9	339.31
349.128	326.31
349.355	325.31
349.583	327.31
349.81	346.31
350.037	329.31
350.265	332.31
350.492	313.31
350.72	333.31
350.947	326.31
351.174	354.31
351.402	361.31
351.629	360.31
351.856	355.31
352.083	370.31
352.311	371.31
352.538	388.31
352.765	379.31
352.992	364.31
353.22	351.31
353.447	364.31
353.674	350.31
353.901	327.31
354.128	344.31
354.355	331.31
354.583	304.31
354.81	299.31
355.037	328.31
355.264	314.31
355.491	302.31
355.718	312.31
355.945	306.31
356.172	309.31
356.399	312.31
356.626	302.31
356.853	309.31
357.08	309.31
357.307	312.31
357.534	311.31
357.761	317.31
357.988	315.31
358.215	330.31
358.441	330.31
358.668	328.31
358.895	331.31
359.122	329.31
359.349	360.31
359.576	357.31
359.802	373.31
360.029	424.31
360.256	427.31
360.483	423.31
360.709	375.31
360.936	354.31
361.163	356.31
361.39	357.31
361.616	362.31
361.843	365.31
362.07	339.31
362.296	363.31
362.523	346.31
362.749	337.31
362.976	352.31
363.203	353.31
363.429	338.31
363.656	322.31
363.882	324.31
364.109	322.31
364.335	323.31
364.562	323.31
364.788	308.31
365.015	337.31
365.241	319.31
365.468	346.31
365.694	353.31
365.92	341.31
366.147	342.31
366.373	329.31
366.599	339.31
366.826	328.31
367.052	322.31
367.278	340.31
367.505	311.31
367.731	331.31
367.957	322.31
368.184	347.31
368.41	338.31
368.636	334.31
368.862	337.31
369.089	353.31
369.315	321.31
369.541	327.31
369.767	317.31
369.993	305.31
370.219	310.31
370.445	311.31
370.672	322.31
370.898	328.31
371.124	321.31
371.35	309.31
371.576	306.31
371.802	302.31
372.028	305.31
372.254	310.31
372.48	299.31
372.706	317.31
372.932	324.31
373.158	311.31
373.384	324.31
373.61	326.31
373.835	317.31
374.061	323.31
374.287	306.31
374.513	310.31
374.739	322.31
374.965	338.31
375.191	313.31
375.416	310.31
375.642	305.31
375.868	311.31
376.094	317.31
376.319	310.31
376.545	313.31
376.771	317.31
376.997	293.31
377.222	319.31
377.448	309.31
377.674	317.31
377.899	307.31
378.125	314.31
378.35	309.31
378.576	307.31
378.802	309.31
379.027	288.31
379.253	317.31
379.478	316.31
379.704	323.31
379.929	330.31
380.155	308.31
380.38	341.31
380.606	315.31
380.831	301.31
381.057	325.31
381.282	335.31
381.507	334.31
381.733	324.31
381.958	328.31
382.184	319.31
382.409	327.31
382.634	327.31
382.86	329.31
383.085	333.31
383.31	332.31
383.535	326.31
383.761	294.31
383.986	339.31
384.211	325.31
384.436	337.31
384.662	335.31
384.887	337.31
385.112	320.31
385.337	347.31
385.562	345.31
385.787	348.31
386.013	345.31
386.238	320.31
386.463	361.31
386.688	355.31
386.913	338.31
387.138	321.31
387.363	324.31
387.588	324.31
387.813	330.31
388.038	325.31
388.263	339.31
388.488	321.31
388.713	337.31
388.938	330.31
389.163	340.31
389.387	341.31
389.612	322.31
389.837	337.31
390.062	358.31
390.287	335.31
390.512	331.31
390.736	342.31
390.961	336.31
391.186	326.31
391.411	330.31
391.636	334.31
391.86	333.31
392.085	331.31
392.31	348.31
392.534	337.31
392.759	348.31
392.984	349.31
393.208	355.31
393.433	364.31
393.658	348.31
393.882	343.31
394.107	347.31
394.331	347.31
394.556	336.31
394.78	343.31
395.005	340.31
395.229	335.31
395.454	335.31
395.678	356.31
395.903	351.31
396.127	392.31
396.352	387.31
396.576	356.31
396.801	366.31
397.025	354.31
397.249	385.31
397.474	362.31
397.698	355.31
397.922	365.31
398.147	380.31
398.371	381.31
398.595	375.31
398.82	374.31
399.044	373.31
399.268	376.31
399.492	381.31
399.717	397.31
399.941	435.31
400.165	464.31
400.389	480.31
400.613	443.31
400.837	397.31
401.062	381.31
401.286	394.31
401.51	391.31
401.734	377.31
401.958	375.31
402.182	376.31
402.406	408.31
402.63	407.31
402.854	390.31
403.078	389.31
403.302	396.31
403.526	411.31
403.75	395.31
403.974	396.31
404.198	397.31
404.422	395.31
404.645	397.31
404.869	420.31
405.093	425.31
405.317	477.31
405.541	466.31
405.765	440.31
405.988	433.31
406.212	447.31
406.436	449.31
406.66	498.31
406.883	446.31
407.107	466.31
407.331	491.31
407.555	554.31
407.778	554.31
408.002	518.31
408.226	463.31
408.449	453.31
408.673	454.31
408.896	484.31
409.12	520.31
409.344	503.31
409.567	440.31
409.791	401.31
410.014	400.31
410.238	404.31
410.461	390.31
410.685	411.31
410.908	427.31
411.132	464.31
411.355	475.31
411.578	467.31
411.802	410.31
412.025	395.31
412.249	423.31
412.472	414.31
412.695	416.31
412.919	408.31
413.142	407.31
413.365	387.31
413.589	387.31
413.812	373.31
414.035	387.31
414.258	390.31
414.482	353.31
414.705	392.31
414.928	378.31
415.151	363.31
415.374	390.31
415.597	373.31
415.821	369.31
416.044	377.31
416.267	375.31
416.49	385.31
416.713	376.31
416.936	393.31
417.159	404.31
417.382	383.31
417.605	384.31
417.828	393.31
418.051	414.31
418.274	421.31
418.497	389.31
418.72	402.31
418.943	378.31
419.166	421.31
419.389	406.31
419.611	404.31
419.834	395.31
420.057	409.31
420.28	415.31
420.503	411.31
420.726	407.31
420.948	421.31
421.171	477.31
421.394	508.31
421.617	458.31
421.839	439.31
422.062	430.31
422.285	444.31
422.507	511.31
422.73	569.31
422.953	543.31
423.175	463.31
423.398	441.31
423.621	441.31
423.843	467.31
424.066	451.31
424.288	463.31
424.511	473.31
424.733	537.31
424.956	605.31
425.178	598.31
425.401	574.31
425.623	604.31
425.846	539.31
426.068	476.31
426.291	477.31
426.513	487.31
426.735	498.31
426.958	508.31
427.18	606.31
427.402	706.31
427.625	806.31
427.847	728.31
428.069	620.31
428.292	541.31
428.514	484.31
428.736	476.31
428.958	461.31
429.181	448.31
429.403	446.31
429.625	446.31
429.847	482.31
430.069	555.31
430.292	533.31
430.514	481.31
430.736	427.31
430.958	420.31
431.18	425.31
431.402	415.31
431.624	398.31
431.846	397.31
432.068	406.31
432.29	422.31
432.512	428.31
432.734	434.31
432.956	405.31
433.178	421.31
433.4	444.31
433.622	429.31
433.844	420.31
434.066	405.31
434.287	382.31
434.509	406.31
434.731	419.31
434.953	422.31
435.175	429.31
435.397	483.31
435.618	501.31
435.84	521.31
436.062	604.31
436.284	646.31
436.505	563.31
436.727	513.31
436.949	482.31
437.17	451.31
437.392	445.31
437.614	477.31
437.835	509.31
438.057	612.31
438.278	721.31
438.5	692.31
438.721	740.31
438.943	710.31
439.165	572.31
439.386	541.31
439.608	529.31
439.829	519.31
440.05	535.31
440.272	591.31
440.493	539.31
440.715	501.31
440.936	466.31
441.158	481.31
441.379	459.31
441.6	473.31
441.822	498.31
442.043	519.31
442.264	606.31
442.486	644.31
442.707	546.31
442.928	537.31
443.149	530.31
443.371	545.31
443.592	571.31
443.813	636.31
444.034	710.31
444.255	590.31
444.476	515.31
444.698	488.31
444.919	467.31
445.14	543.31
445.361	530.31
445.582	536.31
445.803	611.31
446.024	698.31
446.245	689.31
446.466	641.31
446.687	548.31
446.908	492.31
447.129	481.31
447.35	458.31
447.571	472.31
447.792	450.31
448.013	459.31
448.234	503.31
448.455	537.31
448.675	654.31
448.896	709.31
449.117	649.31
449.338	594.31
449.559	659.31
449.779	747.31
450	613.31
450.221	523.31
450.442	473.31
450.662	473.31
450.883	454.31
451.104	501.31
451.324	481.31
451.545	459.31
451.766	435.31
451.986	434.31
452.207	412.31
452.428	410.31
452.648	407.31
452.869	429.31
453.089	427.31
453.31	424.31
453.53	417.31
453.751	425.31
453.971	408.31
454.192	429.31
454.412	416.31
454.633	410.31
454.853	396.31
455.073	390.31
455.294	439.31
455.514	493.31
455.734	485.31
455.955	404.31
456.175	396.31
456.395	375.31
456.616	369.31
456.836	386.31
457.056	388.31
457.276	364.31
457.497	387.31
457.717	385.31
457.937	379.31
458.157	394.31
458.377	379.31
458.598	404.31
458.818	482.31
459.038	593.31
459.258	602.31
459.478	492.31
459.698	425.31
459.918	430.31
460.138	421.31
460.358	413.31
460.578	410.31
460.798	411.31
461.018	402.31
461.238	405.31
461.458	416.31
461.678	385.31
461.898	390.31
462.118	389.31
462.338	396.31
462.558	399.31
462.777	409.31
462.997	401.31
463.217	436.31
463.437	436.31
463.657	390.31
463.876	396.31
464.096	425.31
464.316	415.31
464.536	425.31
464.755	416.31
464.975	437.31
465.195	513.31
465.414	611.31
465.634	520.31
465.854	476.31
466.073	453.31
466.293	429.31
466.512	413.31
466.732	386.31
466.951	393.31
467.171	388.31
467.391	391.31
467.61	418.31
467.829	449.31
468.049	404.31
468.268	428.31
468.488	387.31
468.707	385.31
468.927	386.31
469.146	397.31
469.365	394.31
469.585	394.31
469.804	404.31
470.023	398.31
470.243	412.31
470.462	421.31
470.681	444.31
470.901	419.31
471.12	414.31
471.339	410.31
471.558	419.31
471.777	438.31
471.997	414.31
472.216	396.31
472.435	406.31
472.654	396.31
472.873	404.31
473.092	416.31
473.311	427.31
473.53	405.31
473.749	422.31
473.968	457.31
474.187	573.31
474.406	606.31
474.625	485.31
474.844	429.31
475.063	441.31
475.282	421.31
475.501	411.31
475.72	450.31
475.939	440.31
476.158	423.31
476.377	443.31
476.596	424.31
476.814	445.31
477.033	446.31
477.252	431.31
477.471	447.31
477.69	437.31
477.908	438.31
478.127	438.31
478.346	437.31
478.564	446.31
478.783	450.31
479.002	457.31
479.22	449.31
479.439	468.31
479.658	498.31
479.876	501.31
480.095	505.31
480.313	518.31
480.532	531.31
480.751	504.31
480.969	518.31
481.188	511.31
481.406	519.31
481.624	522.31
481.843	476.31
482.061	465.31
482.28	483.31
482.498	463.31
482.717	468.31
482.935	467.31
483.153	483.31
483.372	484.31
483.59	479.31
483.808	498.31
484.027	502.31
484.245	486.31
484.463	496.31
484.681	491.31
484.9	505.31
485.118	505.31
485.336	506.31
485.554	523.31
485.772	497.31
485.99	518.31
486.209	518.31
486.427	506.31
486.645	521.31
486.863	535.31
487.081	533.31
487.299	551.31
487.517	522.31
487.735	531.31
487.953	537.31
488.171	520.31
488.389	522.31
488.607	554.31
488.825	532.31
489.043	547.31
489.261	537.31
489.479	547.31
489.696	549.31
489.914	554.31
490.132	531.31
490.35	561.31
490.568	553.31
490.786	571.31
491.003	574.31
491.221	570.31
491.439	618.31
491.657	615.31
491.874	610.31
492.092	608.31
492.31	622.31
492.527	602.31
492.745	612.31
492.963	616.31
493.18	618.31
493.398	634.31
493.615	644.31
493.833	602.31
494.05	630.31
494.268	621.31
494.485	629.31
494.703	626.31
494.92	656.31
495.138	650.31
495.355	652.31
495.573	643.31
495.79	668.31
496.008	668.31
496.225	642.31
496.442	659.31
496.66	665.31
496.877	638.31
497.094	650.31
497.312	646.31
497.529	674.31
497.746	669.31
497.963	676.31
498.181	691.31
498.398	691.31
498.615	681.31
498.832	675.31
499.049	703.31
499.267	694.31
499.484	691.31
499.701	715.31
499.918	724.31
500.135	728.31
500.352	754.31
500.569	743.31
500.786	759.31
501.003	741.31
501.22	737.31
501.437	733.31
501.654	762.31
501.871	765.31
