Data from 1987.PennyLincolnUp.Lamp.En5.5.200Scan.071819.P2_HRD10591_17-16-40-971.txt Node
Date: Thu Jul 18 17:16:40 EDT 2019
User: cochatt
Spectrometer: HR+D1059
Trigger mode: 1
Integration Time (sec): 1.000000E-1
Scans to average: 1
Electric dark correction enabled: true
Nonlinearity correction enabled: false
Boxcar width: 0
XAxis mode: Wavelengths
Number of Pixels in Spectrum: 2048
>>>>>Begin Spectral Data<<<<<
223.165	-12.81
223.4	-12.81
223.635	-12.81
223.869	-11.81
224.104	-24.81
224.338	-21.81
224.573	-8.81
224.808	1.19
225.042	-14.81
225.277	1.19
225.511	0.19
225.746	2.19
225.98	-1.81
226.215	20.19
226.449	2.19
226.683	21.19
226.918	21.19
227.152	27.19
227.387	39.19
227.621	37.19
227.856	26.19
228.09	48.19
228.324	46.19
228.559	55.19
228.793	66.19
229.027	88.19
229.262	124.19
229.496	125.19
229.73	155.19
229.964	177.19
230.199	138.19
230.433	111.19
230.667	131.19
230.901	125.19
231.136	106.19
231.37	127.19
231.604	133.19
231.838	123.19
232.072	122.19
232.306	113.19
232.541	114.19
232.775	105.19
233.009	113.19
233.243	118.19
233.477	107.19
233.711	121.19
233.945	115.19
234.179	113.19
234.413	127.19
234.647	114.19
234.881	115.19
235.115	118.19
235.349	116.19
235.583	127.19
235.817	121.19
236.051	118.19
236.285	114.19
236.519	116.19
236.753	133.19
236.987	155.19
237.221	191.19
237.455	251.19
237.689	210.19
237.922	153.19
238.156	140.19
238.39	144.19
238.624	124.19
238.858	117.19
239.091	129.19
239.325	124.19
239.559	107.19
239.793	117.19
240.027	125.19
240.26	140.19
240.494	163.19
240.728	148.19
240.961	163.19
241.195	143.19
241.429	136.19
241.662	134.19
241.896	142.19
242.13	144.19
242.363	137.19
242.597	117.19
242.83	128.19
243.064	133.19
243.298	134.19
243.531	133.19
243.765	125.19
243.998	131.19
244.232	133.19
244.465	139.19
244.699	141.19
244.932	145.19
245.166	140.19
245.399	138.19
245.633	129.19
245.866	132.19
246.099	143.19
246.333	147.19
246.566	128.19
246.8	157.19
247.033	157.19
247.266	147.19
247.5	156.19
247.733	157.19
247.966	171.19
248.2	178.19
248.433	177.19
248.666	172.19
248.899	190.19
249.133	197.19
249.366	197.19
249.599	216.19
249.832	199.19
250.066	179.19
250.299	180.19
250.532	183.19
250.765	201.19
250.998	225.19
251.231	225.19
251.465	217.19
251.698	197.19
251.931	190.19
252.164	184.19
252.397	205.19
252.63	194.19
252.863	205.19
253.096	219.19
253.329	229.19
253.562	224.19
253.795	223.19
254.028	213.19
254.261	206.19
254.494	245.19
254.727	266.19
254.96	300.19
255.193	284.19
255.426	256.19
255.659	237.19
255.892	237.19
256.124	229.19
256.357	204.19
256.59	221.19
256.823	202.19
257.056	203.19
257.289	189.19
257.521	202.19
257.754	215.19
257.987	211.19
258.22	186.19
258.452	194.19
258.685	195.19
258.918	178.19
259.151	189.19
259.383	196.19
259.616	211.19
259.849	195.19
260.081	226.19
260.314	236.19
260.547	256.19
260.779	252.19
261.012	235.19
261.244	211.19
261.477	226.19
261.71	234.19
261.942	228.19
262.175	247.19
262.407	211.19
262.64	213.19
262.872	203.19
263.105	209.19
263.337	214.19
263.57	214.19
263.802	199.19
264.035	190.19
264.267	200.19
264.499	194.19
264.732	198.19
264.964	206.19
265.197	182.19
265.429	184.19
265.661	187.19
265.894	186.19
266.126	187.19
266.358	200.19
266.591	198.19
266.823	197.19
267.055	220.19
267.287	207.19
267.52	199.19
267.752	215.19
267.984	205.19
268.216	203.19
268.448	198.19
268.681	219.19
268.913	223.19
269.145	228.19
269.377	252.19
269.609	262.19
269.841	275.19
270.073	249.19
270.306	262.19
270.538	303.19
270.77	306.19
271.002	287.19
271.234	289.19
271.466	298.19
271.698	304.19
271.93	335.19
272.162	311.19
272.394	303.19
272.626	289.19
272.858	278.19
273.09	266.19
273.322	229.19
273.553	263.19
273.785	247.19
274.017	265.19
274.249	242.19
274.481	247.19
274.713	235.19
274.945	255.19
275.176	243.19
275.408	258.19
275.64	238.19
275.872	237.19
276.104	244.19
276.335	230.19
276.567	245.19
276.799	254.19
277.031	302.19
277.262	302.19
277.494	315.19
277.726	298.19
277.957	265.19
278.189	234.19
278.421	228.19
278.652	228.19
278.884	227.19
279.115	213.19
279.347	232.19
279.579	235.19
279.81	233.19
280.042	237.19
280.273	235.19
280.505	229.19
280.736	228.19
280.968	236.19
281.199	236.19
281.431	214.19
281.662	229.19
281.894	225.19
282.125	231.19
282.356	270.19
282.588	269.19
282.819	279.19
283.051	232.19
283.282	231.19
283.513	221.19
283.745	238.19
283.976	229.19
284.207	242.19
284.439	231.19
284.67	230.19
284.901	220.19
285.132	252.19
285.364	228.19
285.595	218.19
285.826	232.19
286.057	234.19
286.288	241.19
286.52	214.19
286.751	239.19
286.982	227.19
287.213	223.19
287.444	229.19
287.675	224.19
287.906	248.19
288.138	259.19
288.369	251.19
288.6	268.19
288.831	263.19
289.062	238.19
289.293	246.19
289.524	229.19
289.755	237.19
289.986	238.19
290.217	246.19
290.448	237.19
290.679	215.19
290.91	242.19
291.141	227.19
291.371	231.19
291.602	246.19
291.833	210.19
292.064	229.19
292.295	237.19
292.526	232.19
292.757	236.19
292.987	226.19
293.218	237.19
293.449	243.19
293.68	228.19
293.91	233.19
294.141	223.19
294.372	228.19
294.603	228.19
294.833	235.19
295.064	239.19
295.295	225.19
295.525	236.19
295.756	248.19
295.987	253.19
296.217	301.19
296.448	290.19
296.679	281.19
296.909	241.19
297.14	215.19
297.37	249.19
297.601	253.19
297.831	257.19
298.062	249.19
298.292	268.19
298.523	255.19
298.753	244.19
298.984	248.19
299.214	256.19
299.445	263.19
299.675	257.19
299.905	256.19
300.136	254.19
300.366	258.19
300.597	256.19
300.827	253.19
301.057	267.19
301.288	283.19
301.518	279.19
301.748	260.19
301.979	261.19
302.209	278.19
302.439	281.19
302.669	267.19
302.9	270.19
303.13	265.19
303.36	257.19
303.59	268.19
303.82	289.19
304.051	280.19
304.281	267.19
304.511	247.19
304.741	258.19
304.971	257.19
305.201	255.19
305.431	251.19
305.661	280.19
305.891	263.19
306.121	269.19
306.352	279.19
306.582	280.19
306.812	270.19
307.042	278.19
307.272	253.19
307.502	269.19
307.731	251.19
307.961	270.19
308.191	290.19
308.421	293.19
308.651	296.19
308.881	271.19
309.111	285.19
309.341	306.19
309.571	302.19
309.8	323.19
310.03	328.19
310.26	342.19
310.49	353.19
310.72	377.19
310.949	387.19
311.179	383.19
311.409	360.19
311.639	355.19
311.868	338.19
312.098	347.19
312.328	350.19
312.557	375.19
312.787	420.19
313.017	394.19
313.246	366.19
313.476	341.19
313.706	353.19
313.935	343.19
314.165	366.19
314.394	379.19
314.624	369.19
314.853	365.19
315.083	360.19
315.312	333.19
315.542	335.19
315.771	325.19
316.001	317.19
316.23	327.19
316.46	317.19
316.689	318.19
316.919	342.19
317.148	346.19
317.377	349.19
317.607	338.19
317.836	355.19
318.065	348.19
318.295	324.19
318.524	328.19
318.753	321.19
318.983	302.19
319.212	343.19
319.441	349.19
319.67	372.19
319.9	344.19
320.129	330.19
320.358	343.19
320.587	345.19
320.816	347.19
321.046	352.19
321.275	362.19
321.504	370.19
321.733	373.19
321.962	382.19
322.191	401.19
322.42	419.19
322.649	460.19
322.878	476.19
323.108	478.19
323.337	521.19
323.566	563.19
323.795	590.19
324.024	685.19
324.253	859.19
324.482	1239.19
324.71	1953.19
324.939	2703.19
325.168	2421.19
325.397	1325.19
325.626	860.19
325.855	641.19
326.084	587.19
326.313	534.19
326.542	549.19
326.77	623.19
326.999	777.19
327.228	1101.19
327.457	1684.19
327.686	2053.19
327.914	1414.19
328.143	889.19
328.372	745.19
328.6	683.19
328.829	649.19
329.058	659.19
329.287	693.19
329.515	588.19
329.744	539.19
329.972	515.19
330.201	548.19
330.43	567.19
330.658	645.19
330.887	692.19
331.115	677.19
331.344	569.19
331.572	497.19
331.801	517.19
332.03	499.19
332.258	427.19
332.486	411.19
332.715	392.19
332.943	385.19
333.172	403.19
333.4	381.19
333.629	395.19
333.857	402.19
334.085	411.19
334.314	399.19
334.542	393.19
334.771	385.19
334.999	382.19
335.227	387.19
335.455	397.19
335.684	371.19
335.912	388.19
336.14	393.19
336.369	371.19
336.597	390.19
336.825	369.19
337.053	374.19
337.281	358.19
337.51	358.19
337.738	381.19
337.966	366.19
338.194	397.19
338.422	375.19
338.65	385.19
338.878	353.19
339.106	378.19
339.334	357.19
339.562	355.19
339.79	360.19
340.018	370.19
340.246	378.19
340.474	372.19
340.702	379.19
340.93	385.19
341.158	375.19
341.386	367.19
341.614	371.19
341.842	371.19
342.07	370.19
342.298	379.19
342.526	371.19
342.754	358.19
342.981	342.19
343.209	339.19
343.437	358.19
343.665	350.19
343.893	343.19
344.12	347.19
344.348	339.19
344.576	354.19
344.804	373.19
345.031	379.19
345.259	413.19
345.487	403.19
345.714	401.19
345.942	362.19
346.17	397.19
346.397	379.19
346.625	372.19
346.853	354.19
347.08	366.19
347.308	372.19
347.535	397.19
347.763	386.19
347.99	400.19
348.218	383.19
348.445	386.19
348.673	406.19
348.9	395.19
349.128	363.19
349.355	363.19
349.583	349.19
349.81	356.19
350.037	354.19
350.265	356.19
350.492	332.19
350.72	347.19
350.947	375.19
351.174	389.19
351.402	388.19
351.629	411.19
351.856	391.19
352.083	396.19
352.311	412.19
352.538	402.19
352.765	422.19
352.992	389.19
353.22	396.19
353.447	385.19
353.674	378.19
353.901	370.19
354.128	339.19
354.355	327.19
354.583	338.19
354.81	332.19
355.037	343.19
355.264	315.19
355.491	339.19
355.718	333.19
355.945	339.19
356.172	319.19
356.399	307.19
356.626	335.19
356.853	316.19
357.08	329.19
357.307	311.19
357.534	305.19
357.761	320.19
357.988	330.19
358.215	327.19
358.441	327.19
358.668	332.19
358.895	340.19
359.122	338.19
359.349	367.19
359.576	365.19
359.802	425.19
360.029	471.19
360.256	509.19
360.483	445.19
360.709	395.19
360.936	379.19
361.163	385.19
361.39	394.19
361.616	399.19
361.843	383.19
362.07	370.19
362.296	382.19
362.523	414.19
362.749	403.19
362.976	407.19
363.203	378.19
363.429	347.19
363.656	373.19
363.882	358.19
364.109	331.19
364.335	345.19
364.562	367.19
364.788	344.19
365.015	333.19
365.241	360.19
365.468	359.19
365.694	373.19
365.92	389.19
366.147	361.19
366.373	346.19
366.599	350.19
366.826	348.19
367.052	354.19
367.278	339.19
367.505	350.19
367.731	330.19
367.957	349.19
368.184	340.19
368.41	362.19
368.636	363.19
368.862	367.19
369.089	359.19
369.315	331.19
369.541	349.19
369.767	356.19
369.993	357.19
370.219	341.19
370.445	340.19
370.672	334.19
370.898	327.19
371.124	315.19
371.35	329.19
371.576	333.19
371.802	335.19
372.028	319.19
372.254	316.19
372.48	315.19
372.706	309.19
372.932	316.19
373.158	295.19
373.384	322.19
373.61	323.19
373.835	349.19
374.061	327.19
374.287	342.19
374.513	346.19
374.739	334.19
374.965	342.19
375.191	347.19
375.416	321.19
375.642	321.19
375.868	322.19
376.094	339.19
376.319	317.19
376.545	317.19
376.771	329.19
376.997	308.19
377.222	320.19
377.448	317.19
377.674	314.19
377.899	304.19
378.125	311.19
378.35	319.19
378.576	331.19
378.802	326.19
379.027	333.19
379.253	314.19
379.478	316.19
379.704	310.19
379.929	320.19
380.155	332.19
380.38	319.19
380.606	323.19
380.831	319.19
381.057	313.19
381.282	324.19
381.507	346.19
381.733	334.19
381.958	339.19
382.184	329.19
382.409	331.19
382.634	339.19
382.86	337.19
383.085	331.19
383.31	317.19
383.535	322.19
383.761	353.19
383.986	333.19
384.211	326.19
384.436	341.19
384.662	332.19
384.887	331.19
385.112	354.19
385.337	338.19
385.562	349.19
385.787	333.19
386.013	358.19
386.238	389.19
386.463	369.19
386.688	335.19
386.913	332.19
387.138	363.19
387.363	335.19
387.588	338.19
387.813	354.19
388.038	363.19
388.263	352.19
388.488	343.19
388.713	319.19
388.938	335.19
389.163	331.19
389.387	347.19
389.612	340.19
389.837	314.19
390.062	346.19
390.287	356.19
390.512	338.19
390.736	344.19
390.961	357.19
391.186	327.19
391.411	331.19
391.636	329.19
391.86	333.19
392.085	342.19
392.31	362.19
392.534	331.19
392.759	343.19
392.984	349.19
393.208	354.19
393.433	346.19
393.658	352.19
393.882	356.19
394.107	359.19
394.331	353.19
394.556	339.19
394.78	349.19
395.005	349.19
395.229	349.19
395.454	349.19
395.678	332.19
395.903	364.19
396.127	371.19
396.352	355.19
396.576	357.19
396.801	369.19
397.025	364.19
397.249	386.19
397.474	350.19
397.698	377.19
397.922	387.19
398.147	414.19
398.371	391.19
398.595	369.19
398.82	369.19
399.044	379.19
399.268	385.19
399.492	419.19
399.717	411.19
399.941	442.19
400.165	477.19
400.389	482.19
400.613	433.19
400.837	421.19
401.062	389.19
401.286	412.19
401.51	395.19
401.734	411.19
401.958	402.19
402.182	389.19
402.406	407.19
402.63	415.19
402.854	430.19
403.078	417.19
403.302	422.19
403.526	426.19
403.75	402.19
403.974	412.19
404.198	414.19
404.422	429.19
404.645	399.19
404.869	430.19
405.093	428.19
405.317	446.19
405.541	502.19
405.765	458.19
405.988	445.19
406.212	454.19
406.436	491.19
406.66	509.19
406.883	477.19
407.107	484.19
407.331	521.19
407.555	593.19
407.778	584.19
408.002	535.19
408.226	504.19
408.449	484.19
408.673	459.19
408.896	509.19
409.12	555.19
409.344	529.19
409.567	467.19
409.791	423.19
410.014	412.19
410.238	405.19
410.461	420.19
410.685	416.19
410.908	447.19
411.132	502.19
411.355	494.19
411.578	495.19
411.802	426.19
412.025	427.19
412.249	430.19
412.472	433.19
412.695	431.19
412.919	420.19
413.142	407.19
413.365	396.19
413.589	413.19
413.812	387.19
414.035	398.19
414.258	401.19
414.482	385.19
414.705	387.19
414.928	394.19
415.151	380.19
415.374	385.19
415.597	378.19
415.821	391.19
416.044	403.19
416.267	401.19
416.49	416.19
416.713	408.19
416.936	422.19
417.159	406.19
417.382	403.19
417.605	401.19
417.828	447.19
418.051	433.19
418.274	414.19
418.497	399.19
418.72	390.19
418.943	415.19
419.166	411.19
419.389	452.19
419.611	428.19
419.834	413.19
420.057	422.19
420.28	404.19
420.503	421.19
420.726	428.19
420.948	444.19
421.171	497.19
421.394	521.19
421.617	438.19
421.839	427.19
422.062	435.19
422.285	461.19
422.507	515.19
422.73	560.19
422.953	582.19
423.175	508.19
423.398	467.19
423.621	472.19
423.843	467.19
424.066	479.19
424.288	486.19
424.511	492.19
424.733	556.19
424.956	653.19
425.178	629.19
425.401	625.19
425.623	632.19
425.846	553.19
426.068	540.19
426.291	514.19
426.513	501.19
426.735	510.19
426.958	583.19
427.18	653.19
427.402	765.19
427.625	847.19
427.847	781.19
428.069	691.19
428.292	582.19
428.514	507.19
428.736	498.19
428.958	510.19
429.181	507.19
429.403	467.19
429.625	483.19
429.847	533.19
430.069	563.19
430.292	576.19
430.514	505.19
430.736	471.19
430.958	455.19
431.18	429.19
431.402	417.19
431.624	418.19
431.846	423.19
432.068	420.19
432.29	417.19
432.512	413.19
432.734	445.19
432.956	460.19
433.178	450.19
433.4	467.19
433.622	442.19
433.844	425.19
434.066	408.19
434.287	421.19
434.509	427.19
434.731	441.19
434.953	442.19
435.175	458.19
435.397	491.19
435.618	497.19
435.84	543.19
436.062	636.19
436.284	711.19
436.505	593.19
436.727	513.19
436.949	474.19
437.17	465.19
437.392	481.19
437.614	502.19
437.835	545.19
438.057	672.19
438.278	773.19
438.5	744.19
438.721	791.19
438.943	739.19
439.165	630.19
439.386	557.19
439.608	557.19
439.829	551.19
440.05	591.19
440.272	592.19
440.493	596.19
440.715	534.19
440.936	497.19
441.158	486.19
441.379	500.19
441.6	515.19
441.822	521.19
442.043	567.19
442.264	653.19
442.486	685.19
442.707	605.19
442.928	548.19
443.149	549.19
443.371	568.19
443.592	611.19
443.813	681.19
444.034	729.19
444.255	600.19
444.476	544.19
444.698	513.19
444.919	486.19
445.14	582.19
445.361	565.19
445.582	568.19
445.803	650.19
446.024	741.19
446.245	748.19
446.466	691.19
446.687	590.19
446.908	527.19
447.129	493.19
447.35	487.19
447.571	465.19
447.792	475.19
448.013	485.19
448.234	512.19
448.455	601.19
448.675	676.19
448.896	762.19
449.117	673.19
449.338	641.19
449.559	739.19
449.779	803.19
450	658.19
450.221	557.19
450.442	520.19
450.662	494.19
450.883	503.19
451.104	539.19
451.324	535.19
451.545	487.19
451.766	479.19
451.986	458.19
452.207	428.19
452.428	442.19
452.648	421.19
452.869	439.19
453.089	441.19
453.31	469.19
453.53	462.19
453.751	437.19
453.971	450.19
454.192	501.19
454.412	487.19
454.633	423.19
454.853	422.19
455.073	431.19
455.294	465.19
455.514	534.19
455.734	529.19
455.955	437.19
456.175	403.19
456.395	408.19
456.616	397.19
456.836	400.19
457.056	397.19
457.276	389.19
457.497	376.19
457.717	378.19
457.937	399.19
458.157	408.19
458.377	408.19
458.598	452.19
458.818	548.19
459.038	628.19
459.258	628.19
459.478	498.19
459.698	475.19
459.918	443.19
460.138	425.19
460.358	415.19
460.578	406.19
460.798	424.19
461.018	453.19
461.238	414.19
461.458	407.19
461.678	414.19
461.898	415.19
462.118	391.19
462.338	428.19
462.558	396.19
462.777	404.19
462.997	418.19
463.217	424.19
463.437	399.19
463.657	410.19
463.876	418.19
464.096	443.19
464.316	435.19
464.536	434.19
464.755	448.19
464.975	460.19
465.195	553.19
465.414	688.19
465.634	577.19
465.854	500.19
466.073	477.19
466.293	452.19
466.512	450.19
466.732	408.19
466.951	422.19
467.171	413.19
467.391	438.19
467.61	445.19
467.829	441.19
468.049	434.19
468.268	411.19
468.488	413.19
468.707	417.19
468.927	411.19
469.146	412.19
469.365	400.19
469.585	409.19
469.804	421.19
470.023	439.19
470.243	429.19
470.462	453.19
470.681	474.19
470.901	458.19
471.12	451.19
471.339	435.19
471.558	448.19
471.777	429.19
471.997	412.19
472.216	417.19
472.435	430.19
472.654	419.19
472.873	435.19
473.092	425.19
473.311	421.19
473.53	423.19
473.749	443.19
473.968	517.19
474.187	577.19
474.406	621.19
474.625	527.19
474.844	456.19
475.063	433.19
475.282	421.19
475.501	418.19
475.72	432.19
475.939	412.19
476.158	435.19
476.377	434.19
476.596	422.19
476.814	456.19
477.033	428.19
477.252	456.19
477.471	453.19
477.69	461.19
477.908	442.19
478.127	454.19
478.346	451.19
478.564	464.19
478.783	460.19
479.002	454.19
479.22	478.19
479.439	483.19
479.658	542.19
479.876	528.19
480.095	523.19
480.313	554.19
480.532	546.19
480.751	532.19
480.969	523.19
481.188	545.19
481.406	551.19
481.624	522.19
481.843	515.19
482.061	499.19
482.28	505.19
482.498	517.19
482.717	502.19
482.935	486.19
483.153	496.19
483.372	499.19
483.59	521.19
483.808	507.19
484.027	502.19
484.245	502.19
484.463	512.19
484.681	529.19
484.9	509.19
485.118	508.19
485.336	508.19
485.554	530.19
485.772	525.19
485.99	534.19
486.209	539.19
486.427	582.19
486.645	565.19
486.863	589.19
487.081	574.19
487.299	581.19
487.517	555.19
487.735	541.19
487.953	549.19
488.171	560.19
488.389	549.19
488.607	561.19
488.825	575.19
489.043	559.19
489.261	559.19
489.479	558.19
489.696	554.19
489.914	567.19
490.132	570.19
490.35	584.19
490.568	575.19
490.786	595.19
491.003	600.19
491.221	589.19
491.439	629.19
491.657	613.19
491.874	624.19
492.092	632.19
492.31	617.19
492.527	631.19
492.745	663.19
492.963	635.19
493.18	664.19
493.398	661.19
493.615	657.19
493.833	652.19
494.05	668.19
494.268	689.19
494.485	659.19
494.703	662.19
494.92	666.19
495.138	678.19
495.355	666.19
495.573	661.19
495.79	695.19
496.008	659.19
496.225	669.19
496.442	669.19
496.66	642.19
496.877	657.19
497.094	669.19
497.312	683.19
497.529	665.19
497.746	690.19
497.963	696.19
498.181	717.19
498.398	701.19
498.615	716.19
498.832	716.19
499.049	712.19
499.267	732.19
499.484	724.19
499.701	750.19
499.918	740.19
500.135	766.19
500.352	733.19
500.569	775.19
500.786	777.19
501.003	748.19
501.22	758.19
501.437	763.19
501.654	755.19
501.871	777.19
