Data from 1987.PennyLincolnUp.Lamp.En5.5.200Scan.071819.P2_HRD10591_17-17-05-971.txt Node
Date: Thu Jul 18 17:17:05 EDT 2019
User: cochatt
Spectrometer: HR+D1059
Trigger mode: 1
Integration Time (sec): 1.000000E-1
Scans to average: 1
Electric dark correction enabled: true
Nonlinearity correction enabled: false
Boxcar width: 0
XAxis mode: Wavelengths
Number of Pixels in Spectrum: 2048
>>>>>Begin Spectral Data<<<<<
223.165	-9.88
223.4	-9.88
223.635	-9.88
223.869	-18.88
224.104	-14.88
224.338	-19.88
224.573	-11.88
224.808	-18.88
225.042	-3.88
225.277	3.12
225.511	-10.88
225.746	0.12
225.98	2.12
226.215	16.12
226.449	24.12
226.683	19.12
226.918	18.12
227.152	26.12
227.387	12.12
227.621	48.12
227.856	38.12
228.09	43.12
228.324	57.12
228.559	61.12
228.793	73.12
229.027	105.12
229.262	111.12
229.496	120.12
229.73	143.12
229.964	183.12
230.199	140.12
230.433	139.12
230.667	104.12
230.901	117.12
231.136	130.12
231.37	108.12
231.604	112.12
231.838	114.12
232.072	116.12
232.306	114.12
232.541	124.12
232.775	116.12
233.009	114.12
233.243	112.12
233.477	115.12
233.711	106.12
233.945	110.12
234.179	112.12
234.413	125.12
234.647	112.12
234.881	115.12
235.115	115.12
235.349	115.12
235.583	115.12
235.817	124.12
236.051	130.12
236.285	128.12
236.519	134.12
236.753	127.12
236.987	138.12
237.221	191.12
237.455	255.12
237.689	209.12
237.922	146.12
238.156	135.12
238.39	141.12
238.624	130.12
238.858	116.12
239.091	116.12
239.325	110.12
239.559	127.12
239.793	138.12
240.027	124.12
240.26	138.12
240.494	175.12
240.728	150.12
240.961	166.12
241.195	143.12
241.429	144.12
241.662	148.12
241.896	132.12
242.13	136.12
242.363	122.12
242.597	122.12
242.83	123.12
243.064	136.12
243.298	137.12
243.531	140.12
243.765	132.12
243.998	147.12
244.232	130.12
244.465	131.12
244.699	135.12
244.932	136.12
245.166	129.12
245.399	127.12
245.633	138.12
245.866	141.12
246.099	164.12
246.333	152.12
246.566	123.12
246.8	130.12
247.033	138.12
247.266	158.12
247.5	162.12
247.733	172.12
247.966	165.12
248.2	155.12
248.433	164.12
248.666	158.12
248.899	165.12
249.133	194.12
249.366	214.12
249.599	219.12
249.832	175.12
250.066	167.12
250.299	174.12
250.532	187.12
250.765	186.12
250.998	210.12
251.231	230.12
251.465	216.12
251.698	211.12
251.931	190.12
252.164	190.12
252.397	185.12
252.63	194.12
252.863	189.12
253.096	217.12
253.329	234.12
253.562	217.12
253.795	207.12
254.028	203.12
254.261	219.12
254.494	226.12
254.727	250.12
254.96	295.12
255.193	287.12
255.426	265.12
255.659	246.12
255.892	217.12
256.124	200.12
256.357	216.12
256.59	203.12
256.823	196.12
257.056	200.12
257.289	204.12
257.521	196.12
257.754	202.12
257.987	196.12
258.22	196.12
258.452	202.12
258.685	191.12
258.918	195.12
259.151	207.12
259.383	203.12
259.616	208.12
259.849	214.12
260.081	221.12
260.314	228.12
260.547	250.12
260.779	224.12
261.012	238.12
261.244	222.12
261.477	220.12
261.71	215.12
261.942	220.12
262.175	232.12
262.407	239.12
262.64	209.12
262.872	187.12
263.105	204.12
263.337	179.12
263.57	216.12
263.802	210.12
264.035	199.12
264.267	204.12
264.499	205.12
264.732	180.12
264.964	177.12
265.197	191.12
265.429	184.12
265.661	191.12
265.894	196.12
266.126	203.12
266.358	198.12
266.591	215.12
266.823	198.12
267.055	200.12
267.287	193.12
267.52	204.12
267.752	223.12
267.984	191.12
268.216	208.12
268.448	204.12
268.681	219.12
268.913	213.12
269.145	226.12
269.377	252.12
269.609	252.12
269.841	259.12
270.073	256.12
270.306	268.12
270.538	307.12
270.77	295.12
271.002	280.12
271.234	274.12
271.466	299.12
271.698	312.12
271.93	306.12
272.162	318.12
272.394	314.12
272.626	294.12
272.858	279.12
273.09	286.12
273.322	265.12
273.553	226.12
273.785	240.12
274.017	235.12
274.249	238.12
274.481	237.12
274.713	240.12
274.945	247.12
275.176	254.12
275.408	226.12
275.64	250.12
275.872	238.12
276.104	249.12
276.335	243.12
276.567	265.12
276.799	247.12
277.031	304.12
277.262	306.12
277.494	290.12
277.726	277.12
277.957	278.12
278.189	236.12
278.421	239.12
278.652	245.12
278.884	241.12
279.115	246.12
279.347	245.12
279.579	223.12
279.81	226.12
280.042	216.12
280.273	211.12
280.505	236.12
280.736	228.12
280.968	228.12
281.199	226.12
281.431	223.12
281.662	223.12
281.894	212.12
282.125	235.12
282.356	254.12
282.588	289.12
282.819	274.12
283.051	258.12
283.282	223.12
283.513	214.12
283.745	228.12
283.976	240.12
284.207	230.12
284.439	234.12
284.67	241.12
284.901	202.12
285.132	216.12
285.364	232.12
285.595	224.12
285.826	235.12
286.057	242.12
286.288	230.12
286.52	222.12
286.751	233.12
286.982	233.12
287.213	255.12
287.444	240.12
287.675	248.12
287.906	226.12
288.138	269.12
288.369	244.12
288.6	258.12
288.831	254.12
289.062	244.12
289.293	252.12
289.524	235.12
289.755	224.12
289.986	230.12
290.217	228.12
290.448	230.12
290.679	224.12
290.91	239.12
291.141	229.12
291.371	229.12
291.602	226.12
291.833	226.12
292.064	224.12
292.295	232.12
292.526	227.12
292.757	244.12
292.987	230.12
293.218	236.12
293.449	228.12
293.68	247.12
293.91	225.12
294.141	242.12
294.372	228.12
294.603	231.12
294.833	228.12
295.064	225.12
295.295	261.12
295.525	239.12
295.756	249.12
295.987	248.12
296.217	287.12
296.448	299.12
296.679	262.12
296.909	250.12
297.14	244.12
297.37	243.12
297.601	241.12
297.831	230.12
298.062	231.12
298.292	240.12
298.523	244.12
298.753	236.12
298.984	237.12
299.214	254.12
299.445	216.12
299.675	249.12
299.905	258.12
300.136	256.12
300.366	254.12
300.597	244.12
300.827	258.12
301.057	262.12
301.288	271.12
301.518	293.12
301.748	266.12
301.979	268.12
302.209	255.12
302.439	269.12
302.669	264.12
302.9	259.12
303.13	254.12
303.36	266.12
303.59	283.12
303.82	274.12
304.051	270.12
304.281	259.12
304.511	256.12
304.741	266.12
304.971	257.12
305.201	262.12
305.431	268.12
305.661	259.12
305.891	269.12
306.121	260.12
306.352	286.12
306.582	275.12
306.812	278.12
307.042	275.12
307.272	269.12
307.502	254.12
307.731	268.12
307.961	274.12
308.191	272.12
308.421	290.12
308.651	279.12
308.881	272.12
309.111	274.12
309.341	282.12
309.571	305.12
309.8	300.12
310.03	337.12
310.26	342.12
310.49	350.12
310.72	352.12
310.949	389.12
311.179	384.12
311.409	345.12
311.639	354.12
311.868	360.12
312.098	345.12
312.328	351.12
312.557	385.12
312.787	386.12
313.017	404.12
313.246	358.12
313.476	326.12
313.706	314.12
313.935	351.12
314.165	376.12
314.394	370.12
314.624	375.12
314.853	357.12
315.083	336.12
315.312	331.12
315.542	311.12
315.771	302.12
316.001	322.12
316.23	318.12
316.46	327.12
316.689	327.12
316.919	332.12
317.148	352.12
317.377	348.12
317.607	342.12
317.836	328.12
318.065	338.12
318.295	325.12
318.524	324.12
318.753	330.12
318.983	324.12
319.212	339.12
319.441	326.12
319.67	355.12
319.9	333.12
320.129	327.12
320.358	349.12
320.587	326.12
320.816	356.12
321.046	350.12
321.275	376.12
321.504	347.12
321.733	379.12
321.962	377.12
322.191	406.12
322.42	424.12
322.649	439.12
322.878	452.12
323.108	488.12
323.337	513.12
323.566	555.12
323.795	611.12
324.024	654.12
324.253	849.12
324.482	1252.12
324.71	1954.12
324.939	2760.12
325.168	2347.12
325.397	1281.12
325.626	854.12
325.855	688.12
326.084	550.12
326.313	562.12
326.542	575.12
326.77	621.12
326.999	762.12
327.228	1097.12
327.457	1696.12
327.686	2050.12
327.914	1420.12
328.143	902.12
328.372	755.12
328.6	685.12
328.829	638.12
329.058	655.12
329.287	681.12
329.515	588.12
329.744	548.12
329.972	506.12
330.201	520.12
330.43	567.12
330.658	614.12
330.887	695.12
331.115	673.12
331.344	546.12
331.572	502.12
331.801	488.12
332.03	472.12
332.258	445.12
332.486	424.12
332.715	408.12
332.943	372.12
333.172	409.12
333.4	405.12
333.629	387.12
333.857	427.12
334.085	413.12
334.314	384.12
334.542	389.12
334.771	405.12
334.999	392.12
335.227	392.12
335.455	396.12
335.684	390.12
335.912	367.12
336.14	360.12
336.369	382.12
336.597	376.12
336.825	391.12
337.053	386.12
337.281	386.12
337.51	367.12
337.738	370.12
337.966	378.12
338.194	363.12
338.422	390.12
338.65	373.12
338.878	374.12
339.106	373.12
339.334	362.12
339.562	352.12
339.79	351.12
340.018	358.12
340.246	360.12
340.474	398.12
340.702	374.12
340.93	376.12
341.158	369.12
341.386	368.12
341.614	363.12
341.842	384.12
342.07	376.12
342.298	373.12
342.526	346.12
342.754	346.12
342.981	343.12
343.209	339.12
343.437	362.12
343.665	327.12
343.893	343.12
344.12	349.12
344.348	380.12
344.576	364.12
344.804	390.12
345.031	400.12
345.259	402.12
345.487	407.12
345.714	382.12
345.942	371.12
346.17	376.12
346.397	369.12
346.625	376.12
346.853	356.12
347.08	374.12
347.308	372.12
347.535	382.12
347.763	388.12
347.99	393.12
348.218	391.12
348.445	395.12
348.673	397.12
348.9	375.12
349.128	353.12
349.355	331.12
349.583	340.12
349.81	340.12
350.037	362.12
350.265	342.12
350.492	346.12
350.72	354.12
350.947	370.12
351.174	375.12
351.402	411.12
351.629	391.12
351.856	394.12
352.083	400.12
352.311	415.12
352.538	418.12
352.765	408.12
352.992	393.12
353.22	388.12
353.447	386.12
353.674	369.12
353.901	350.12
354.128	331.12
354.355	325.12
354.583	329.12
354.81	338.12
355.037	344.12
355.264	310.12
355.491	335.12
355.718	319.12
355.945	337.12
356.172	316.12
356.399	324.12
356.626	306.12
356.853	307.12
357.08	334.12
357.307	326.12
357.534	320.12
357.761	307.12
357.988	325.12
358.215	333.12
358.441	325.12
358.668	324.12
358.895	338.12
359.122	345.12
359.349	342.12
359.576	382.12
359.802	418.12
360.029	467.12
360.256	495.12
360.483	448.12
360.709	402.12
360.936	386.12
361.163	384.12
361.39	373.12
361.616	403.12
361.843	372.12
362.07	379.12
362.296	394.12
362.523	395.12
362.749	370.12
362.976	354.12
363.203	357.12
363.429	349.12
363.656	345.12
363.882	358.12
364.109	349.12
364.335	318.12
364.562	355.12
364.788	333.12
365.015	361.12
365.241	364.12
365.468	341.12
365.694	376.12
365.92	374.12
366.147	352.12
366.373	356.12
366.599	350.12
366.826	321.12
367.052	340.12
367.278	342.12
367.505	325.12
367.731	339.12
367.957	326.12
368.184	344.12
368.41	334.12
368.636	371.12
368.862	355.12
369.089	346.12
369.315	342.12
369.541	332.12
369.767	331.12
369.993	345.12
370.219	331.12
370.445	339.12
370.672	327.12
370.898	320.12
371.124	324.12
371.35	319.12
371.576	329.12
371.802	323.12
372.028	309.12
372.254	313.12
372.48	317.12
372.706	323.12
372.932	333.12
373.158	329.12
373.384	330.12
373.61	319.12
373.835	321.12
374.061	328.12
374.287	338.12
374.513	325.12
374.739	338.12
374.965	340.12
375.191	325.12
375.416	336.12
375.642	312.12
375.868	327.12
376.094	322.12
376.319	332.12
376.545	311.12
376.771	310.12
376.997	316.12
377.222	314.12
377.448	330.12
377.674	310.12
377.899	320.12
378.125	347.12
378.35	290.12
378.576	302.12
378.802	315.12
379.027	313.12
379.253	311.12
379.478	318.12
379.704	323.12
379.929	304.12
380.155	340.12
380.38	335.12
380.606	347.12
380.831	331.12
381.057	332.12
381.282	346.12
381.507	326.12
381.733	341.12
381.958	341.12
382.184	338.12
382.409	335.12
382.634	332.12
382.86	326.12
383.085	321.12
383.31	340.12
383.535	331.12
383.761	330.12
383.986	327.12
384.211	314.12
384.436	342.12
384.662	332.12
384.887	304.12
385.112	299.12
385.337	338.12
385.562	338.12
385.787	337.12
386.013	351.12
386.238	370.12
386.463	369.12
386.688	341.12
386.913	345.12
387.138	323.12
387.363	342.12
387.588	354.12
387.813	342.12
388.038	335.12
388.263	358.12
388.488	340.12
388.713	335.12
388.938	340.12
389.163	335.12
389.387	353.12
389.612	344.12
389.837	347.12
390.062	332.12
390.287	350.12
390.512	333.12
390.736	339.12
390.961	342.12
391.186	342.12
391.411	338.12
391.636	345.12
391.86	338.12
392.085	332.12
392.31	339.12
392.534	339.12
392.759	344.12
392.984	340.12
393.208	345.12
393.433	345.12
393.658	343.12
393.882	350.12
394.107	322.12
394.331	335.12
394.556	353.12
394.78	322.12
395.005	357.12
395.229	355.12
395.454	340.12
395.678	352.12
395.903	371.12
396.127	382.12
396.352	394.12
396.576	356.12
396.801	354.12
397.025	354.12
397.249	356.12
397.474	357.12
397.698	364.12
397.922	370.12
398.147	384.12
398.371	378.12
398.595	372.12
398.82	371.12
399.044	360.12
399.268	360.12
399.492	400.12
399.717	415.12
399.941	441.12
400.165	475.12
400.389	466.12
400.613	456.12
400.837	420.12
401.062	414.12
401.286	403.12
401.51	382.12
401.734	398.12
401.958	410.12
402.182	406.12
402.406	422.12
402.63	433.12
402.854	418.12
403.078	392.12
403.302	389.12
403.526	400.12
403.75	408.12
403.974	416.12
404.198	400.12
404.422	425.12
404.645	406.12
404.869	407.12
405.093	424.12
405.317	474.12
405.541	473.12
405.765	454.12
405.988	464.12
406.212	447.12
406.436	484.12
406.66	522.12
406.883	477.12
407.107	486.12
407.331	510.12
407.555	591.12
407.778	580.12
408.002	551.12
408.226	467.12
408.449	457.12
408.673	482.12
408.896	498.12
409.12	542.12
409.344	494.12
409.567	443.12
409.791	419.12
410.014	432.12
410.238	426.12
410.461	431.12
410.685	400.12
410.908	446.12
411.132	443.12
411.355	506.12
411.578	502.12
411.802	465.12
412.025	416.12
412.249	424.12
412.472	422.12
412.695	445.12
412.919	430.12
413.142	418.12
413.365	386.12
413.589	388.12
413.812	386.12
414.035	396.12
414.258	390.12
414.482	375.12
414.705	378.12
414.928	378.12
415.151	374.12
415.374	383.12
415.597	368.12
415.821	376.12
416.044	394.12
416.267	426.12
416.49	398.12
416.713	394.12
416.936	406.12
417.159	411.12
417.382	398.12
417.605	405.12
417.828	424.12
418.051	439.12
418.274	428.12
418.497	404.12
418.72	418.12
418.943	405.12
419.166	394.12
419.389	423.12
419.611	430.12
419.834	418.12
420.057	426.12
420.28	434.12
420.503	434.12
420.726	415.12
420.948	447.12
421.171	477.12
421.394	523.12
421.617	485.12
421.839	432.12
422.062	442.12
422.285	444.12
422.507	512.12
422.73	596.12
422.953	573.12
423.175	487.12
423.398	463.12
423.621	463.12
423.843	479.12
424.066	482.12
424.288	502.12
424.511	526.12
424.733	552.12
424.956	623.12
425.178	593.12
425.401	614.12
425.623	613.12
425.846	522.12
426.068	521.12
426.291	502.12
426.513	509.12
426.735	510.12
426.958	579.12
427.18	650.12
427.402	741.12
427.625	835.12
427.847	786.12
428.069	670.12
428.292	571.12
428.514	521.12
428.736	495.12
428.958	518.12
429.181	495.12
429.403	460.12
429.625	501.12
429.847	489.12
430.069	560.12
430.292	593.12
430.514	484.12
430.736	451.12
430.958	460.12
431.18	432.12
431.402	408.12
431.624	411.12
431.846	417.12
432.068	424.12
432.29	421.12
432.512	415.12
432.734	423.12
432.956	435.12
433.178	433.12
433.4	435.12
433.622	441.12
433.844	403.12
434.066	416.12
434.287	424.12
434.509	434.12
434.731	438.12
434.953	435.12
435.175	459.12
435.397	495.12
435.618	524.12
435.84	547.12
436.062	636.12
436.284	697.12
436.505	586.12
436.727	517.12
436.949	479.12
437.17	476.12
437.392	471.12
437.614	507.12
437.835	541.12
438.057	659.12
438.278	735.12
438.5	730.12
438.721	754.12
438.943	746.12
439.165	622.12
439.386	546.12
439.608	544.12
439.829	560.12
440.05	596.12
440.272	629.12
440.493	570.12
440.715	522.12
440.936	497.12
441.158	482.12
441.379	467.12
441.6	500.12
441.822	512.12
442.043	560.12
442.264	653.12
442.486	693.12
442.707	595.12
442.928	538.12
443.149	534.12
443.371	555.12
443.592	609.12
443.813	703.12
444.034	752.12
444.255	611.12
444.476	550.12
444.698	514.12
444.919	509.12
445.14	598.12
445.361	562.12
445.582	556.12
445.803	636.12
446.024	722.12
446.245	750.12
446.466	679.12
446.687	566.12
446.908	532.12
447.129	499.12
447.35	497.12
447.571	489.12
447.792	457.12
448.013	491.12
448.234	517.12
448.455	548.12
448.675	670.12
448.896	747.12
449.117	704.12
449.338	626.12
449.559	694.12
449.779	795.12
450	665.12
450.221	563.12
450.442	521.12
450.662	480.12
450.883	496.12
451.104	532.12
451.324	508.12
451.545	464.12
451.766	454.12
451.986	440.12
452.207	414.12
452.428	432.12
452.648	424.12
452.869	437.12
453.089	435.12
453.31	448.12
453.53	458.12
453.751	411.12
453.971	456.12
454.192	475.12
454.412	474.12
454.633	442.12
454.853	425.12
455.073	443.12
455.294	476.12
455.514	536.12
455.734	502.12
455.955	433.12
456.175	423.12
456.395	392.12
456.616	376.12
456.836	386.12
457.056	393.12
457.276	360.12
457.497	398.12
457.717	402.12
457.937	400.12
458.157	406.12
458.377	417.12
458.598	443.12
458.818	559.12
459.038	635.12
459.258	618.12
459.478	532.12
459.698	446.12
459.918	462.12
460.138	436.12
460.358	427.12
460.578	412.12
460.798	393.12
461.018	427.12
461.238	409.12
461.458	413.12
461.678	388.12
461.898	411.12
462.118	407.12
462.338	399.12
462.558	410.12
462.777	421.12
462.997	412.12
463.217	425.12
463.437	420.12
463.657	410.12
463.876	420.12
464.096	431.12
464.316	436.12
464.536	452.12
464.755	452.12
464.975	475.12
465.195	554.12
465.414	678.12
465.634	586.12
465.854	525.12
466.073	485.12
466.293	449.12
466.512	443.12
466.732	443.12
466.951	417.12
467.171	420.12
467.391	450.12
467.61	443.12
467.829	436.12
468.049	451.12
468.268	426.12
468.488	413.12
468.707	397.12
468.927	399.12
469.146	411.12
469.365	416.12
469.585	387.12
469.804	410.12
470.023	432.12
470.243	434.12
470.462	433.12
470.681	460.12
470.901	455.12
471.12	431.12
471.339	434.12
471.558	428.12
471.777	412.12
471.997	414.12
472.216	414.12
472.435	427.12
472.654	402.12
472.873	424.12
473.092	406.12
473.311	425.12
473.53	427.12
473.749	444.12
473.968	490.12
474.187	603.12
474.406	652.12
474.625	523.12
474.844	459.12
475.063	433.12
475.282	411.12
475.501	447.12
475.72	453.12
475.939	420.12
476.158	435.12
476.377	446.12
476.596	434.12
476.814	457.12
477.033	456.12
477.252	459.12
477.471	438.12
477.69	446.12
477.908	452.12
478.127	447.12
478.346	478.12
478.564	454.12
478.783	476.12
479.002	477.12
479.22	465.12
479.439	520.12
479.658	560.12
479.876	531.12
480.095	532.12
480.313	560.12
480.532	524.12
480.751	528.12
480.969	524.12
481.188	530.12
481.406	542.12
481.624	519.12
481.843	495.12
482.061	497.12
482.28	496.12
482.498	501.12
482.717	497.12
482.935	510.12
483.153	470.12
483.372	508.12
483.59	474.12
483.808	495.12
484.027	496.12
484.245	498.12
484.463	491.12
484.681	519.12
484.9	508.12
485.118	511.12
485.336	515.12
485.554	519.12
485.772	531.12
485.99	522.12
486.209	534.12
486.427	525.12
486.645	556.12
486.863	579.12
487.081	598.12
487.299	572.12
487.517	551.12
487.735	552.12
487.953	563.12
488.171	540.12
488.389	561.12
488.607	574.12
488.825	564.12
489.043	567.12
489.261	547.12
489.479	542.12
489.696	546.12
489.914	566.12
490.132	562.12
490.35	602.12
490.568	592.12
490.786	577.12
491.003	594.12
491.221	611.12
491.439	616.12
491.657	645.12
491.874	607.12
492.092	646.12
492.31	626.12
492.527	638.12
492.745	642.12
492.963	646.12
493.18	650.12
493.398	673.12
493.615	665.12
493.833	666.12
494.05	647.12
494.268	636.12
494.485	652.12
494.703	673.12
494.92	671.12
495.138	686.12
495.355	650.12
495.573	695.12
495.79	681.12
496.008	705.12
496.225	662.12
496.442	658.12
496.66	648.12
496.877	643.12
497.094	679.12
497.312	658.12
497.529	671.12
497.746	687.12
497.963	691.12
498.181	716.12
498.398	712.12
498.615	706.12
498.832	731.12
499.049	713.12
499.267	722.12
499.484	732.12
499.701	733.12
499.918	738.12
500.135	750.12
500.352	776.12
500.569	754.12
500.786	776.12
501.003	761.12
501.22	770.12
501.437	747.12
501.654	766.12
501.871	780.12
