Data from 1987.PennyLincolnUp.Lamp.En5.5.200Scan.071819.P2_HRD10591_17-16-05-972.txt Node
Date: Thu Jul 18 17:16:05 EDT 2019
User: cochatt
Spectrometer: HR+D1059
Trigger mode: 1
Integration Time (sec): 1.000000E-1
Scans to average: 1
Electric dark correction enabled: true
Nonlinearity correction enabled: false
Boxcar width: 0
XAxis mode: Wavelengths
Number of Pixels in Spectrum: 2048
>>>>>Begin Spectral Data<<<<<
223.165	-14.62
223.4	-14.62
223.635	-14.62
223.869	-18.62
224.104	-11.62
224.338	-7.62
224.573	-2.62
224.808	-19.62
225.042	-26.62
225.277	-14.62
225.511	-4.62
225.746	18.38
225.98	15.38
226.215	17.38
226.449	5.38
226.683	21.38
226.918	26.38
227.152	16.38
227.387	34.38
227.621	33.38
227.856	44.38
228.09	58.38
228.324	60.38
228.559	65.38
228.793	82.38
229.027	97.38
229.262	110.38
229.496	130.38
229.73	150.38
229.964	174.38
230.199	145.38
230.433	114.38
230.667	130.38
230.901	121.38
231.136	128.38
231.37	112.38
231.604	111.38
231.838	106.38
232.072	121.38
232.306	110.38
232.541	113.38
232.775	122.38
233.009	108.38
233.243	109.38
233.477	114.38
233.711	123.38
233.945	116.38
234.179	105.38
234.413	107.38
234.647	109.38
234.881	99.38
235.115	106.38
235.349	126.38
235.583	118.38
235.817	129.38
236.051	135.38
236.285	119.38
236.519	131.38
236.753	139.38
236.987	163.38
237.221	211.38
237.455	265.38
237.689	204.38
237.922	150.38
238.156	145.38
238.39	121.38
238.624	131.38
238.858	131.38
239.091	131.38
239.325	122.38
239.559	127.38
239.793	129.38
240.027	131.38
240.26	129.38
240.494	174.38
240.728	145.38
240.961	149.38
241.195	134.38
241.429	153.38
241.662	134.38
241.896	123.38
242.13	130.38
242.363	130.38
242.597	118.38
242.83	130.38
243.064	149.38
243.298	138.38
243.531	134.38
243.765	125.38
243.998	133.38
244.232	121.38
244.465	145.38
244.699	142.38
244.932	133.38
245.166	137.38
245.399	136.38
245.633	139.38
245.866	144.38
246.099	152.38
246.333	141.38
246.566	155.38
246.8	162.38
247.033	156.38
247.266	143.38
247.5	162.38
247.733	162.38
247.966	167.38
248.2	179.38
248.433	155.38
248.666	182.38
248.899	181.38
249.133	206.38
249.366	206.38
249.599	205.38
249.832	191.38
250.066	197.38
250.299	170.38
250.532	179.38
250.765	195.38
250.998	197.38
251.231	220.38
251.465	218.38
251.698	214.38
251.931	201.38
252.164	185.38
252.397	198.38
252.63	203.38
252.863	201.38
253.096	203.38
253.329	254.38
253.562	243.38
253.795	222.38
254.028	216.38
254.261	223.38
254.494	262.38
254.727	239.38
254.96	274.38
255.193	292.38
255.426	251.38
255.659	247.38
255.892	218.38
256.124	220.38
256.357	219.38
256.59	218.38
256.823	214.38
257.056	201.38
257.289	211.38
257.521	192.38
257.754	209.38
257.987	208.38
258.22	202.38
258.452	197.38
258.685	180.38
258.918	196.38
259.151	185.38
259.383	215.38
259.616	216.38
259.849	201.38
260.081	227.38
260.314	253.38
260.547	253.38
260.779	232.38
261.012	223.38
261.244	230.38
261.477	223.38
261.71	212.38
261.942	237.38
262.175	240.38
262.407	238.38
262.64	225.38
262.872	209.38
263.105	194.38
263.337	199.38
263.57	205.38
263.802	198.38
264.035	193.38
264.267	191.38
264.499	187.38
264.732	193.38
264.964	200.38
265.197	199.38
265.429	197.38
265.661	196.38
265.894	197.38
266.126	208.38
266.358	181.38
266.591	188.38
266.823	211.38
267.055	198.38
267.287	211.38
267.52	217.38
267.752	186.38
267.984	198.38
268.216	199.38
268.448	207.38
268.681	222.38
268.913	243.38
269.145	248.38
269.377	275.38
269.609	266.38
269.841	241.38
270.073	265.38
270.306	283.38
270.538	309.38
270.77	309.38
271.002	294.38
271.234	276.38
271.466	284.38
271.698	312.38
271.93	314.38
272.162	324.38
272.394	315.38
272.626	308.38
272.858	267.38
273.09	237.38
273.322	263.38
273.553	249.38
273.785	242.38
274.017	239.38
274.249	225.38
274.481	231.38
274.713	243.38
274.945	246.38
275.176	238.38
275.408	246.38
275.64	232.38
275.872	230.38
276.104	251.38
276.335	252.38
276.567	255.38
276.799	290.38
277.031	297.38
277.262	322.38
277.494	299.38
277.726	286.38
277.957	280.38
278.189	262.38
278.421	249.38
278.652	238.38
278.884	257.38
279.115	231.38
279.347	238.38
279.579	237.38
279.81	239.38
280.042	230.38
280.273	238.38
280.505	252.38
280.736	234.38
280.968	228.38
281.199	218.38
281.431	231.38
281.662	234.38
281.894	223.38
282.125	233.38
282.356	271.38
282.588	271.38
282.819	302.38
283.051	269.38
283.282	220.38
283.513	249.38
283.745	218.38
283.976	239.38
284.207	232.38
284.439	240.38
284.67	225.38
284.901	243.38
285.132	238.38
285.364	229.38
285.595	220.38
285.826	227.38
286.057	248.38
286.288	228.38
286.52	214.38
286.751	245.38
286.982	248.38
287.213	245.38
287.444	238.38
287.675	235.38
287.906	259.38
288.138	250.38
288.369	262.38
288.6	276.38
288.831	259.38
289.062	231.38
289.293	254.38
289.524	244.38
289.755	224.38
289.986	240.38
290.217	241.38
290.448	214.38
290.679	241.38
290.91	233.38
291.141	236.38
291.371	247.38
291.602	232.38
291.833	253.38
292.064	232.38
292.295	240.38
292.526	230.38
292.757	236.38
292.987	227.38
293.218	242.38
293.449	258.38
293.68	235.38
293.91	229.38
294.141	237.38
294.372	234.38
294.603	228.38
294.833	228.38
295.064	241.38
295.295	231.38
295.525	259.38
295.756	252.38
295.987	265.38
296.217	281.38
296.448	302.38
296.679	259.38
296.909	265.38
297.14	265.38
297.37	259.38
297.601	233.38
297.831	236.38
298.062	246.38
298.292	239.38
298.523	262.38
298.753	252.38
298.984	238.38
299.214	250.38
299.445	262.38
299.675	245.38
299.905	261.38
300.136	273.38
300.366	268.38
300.597	253.38
300.827	260.38
301.057	249.38
301.288	274.38
301.518	283.38
301.748	270.38
301.979	273.38
302.209	273.38
302.439	290.38
302.669	282.38
302.9	286.38
303.13	250.38
303.36	282.38
303.59	274.38
303.82	275.38
304.051	282.38
304.281	270.38
304.511	269.38
304.741	263.38
304.971	270.38
305.201	270.38
305.431	290.38
305.661	278.38
305.891	278.38
306.121	290.38
306.352	293.38
306.582	288.38
306.812	294.38
307.042	290.38
307.272	269.38
307.502	279.38
307.731	282.38
307.961	267.38
308.191	294.38
308.421	309.38
308.651	280.38
308.881	282.38
309.111	294.38
309.341	306.38
309.571	323.38
309.8	322.38
310.03	341.38
310.26	363.38
310.49	354.38
310.72	364.38
310.949	372.38
311.179	397.38
311.409	359.38
311.639	345.38
311.868	354.38
312.098	350.38
312.328	370.38
312.557	393.38
312.787	407.38
313.017	400.38
313.246	385.38
313.476	361.38
313.706	333.38
313.935	362.38
314.165	371.38
314.394	387.38
314.624	372.38
314.853	358.38
315.083	350.38
315.312	327.38
315.542	326.38
315.771	328.38
316.001	319.38
316.23	332.38
316.46	333.38
316.689	326.38
316.919	323.38
317.148	335.38
317.377	365.38
317.607	342.38
317.836	356.38
318.065	333.38
318.295	316.38
318.524	329.38
318.753	322.38
318.983	319.38
319.212	316.38
319.441	340.38
319.67	367.38
319.9	343.38
320.129	344.38
320.358	349.38
320.587	353.38
320.816	375.38
321.046	371.38
321.275	370.38
321.504	366.38
321.733	367.38
321.962	394.38
322.191	414.38
322.42	439.38
322.649	458.38
322.878	470.38
323.108	474.38
323.337	525.38
323.566	571.38
323.795	610.38
324.024	673.38
324.253	859.38
324.482	1268.38
324.71	1966.38
324.939	2721.38
325.168	2428.38
325.397	1326.38
325.626	838.38
325.855	673.38
326.084	569.38
326.313	547.38
326.542	569.38
326.77	641.38
326.999	779.38
327.228	1096.38
327.457	1713.38
327.686	2111.38
327.914	1461.38
328.143	890.38
328.372	739.38
328.6	694.38
328.829	671.38
329.058	666.38
329.287	701.38
329.515	620.38
329.744	553.38
329.972	538.38
330.201	531.38
330.43	558.38
330.658	606.38
330.887	698.38
331.115	683.38
331.344	546.38
331.572	494.38
331.801	498.38
332.03	515.38
332.258	458.38
332.486	419.38
332.715	413.38
332.943	406.38
333.172	393.38
333.4	401.38
333.629	389.38
333.857	391.38
334.085	405.38
334.314	382.38
334.542	406.38
334.771	412.38
334.999	409.38
335.227	407.38
335.455	397.38
335.684	385.38
335.912	376.38
336.14	382.38
336.369	398.38
336.597	387.38
336.825	400.38
337.053	396.38
337.281	363.38
337.51	373.38
337.738	387.38
337.966	381.38
338.194	391.38
338.422	397.38
338.65	391.38
338.878	373.38
339.106	354.38
339.334	373.38
339.562	377.38
339.79	382.38
340.018	377.38
340.246	378.38
340.474	394.38
340.702	386.38
340.93	373.38
341.158	359.38
341.386	363.38
341.614	404.38
341.842	386.38
342.07	369.38
342.298	381.38
342.526	373.38
342.754	363.38
342.981	347.38
343.209	366.38
343.437	362.38
343.665	349.38
343.893	341.38
344.12	359.38
344.348	349.38
344.576	357.38
344.804	390.38
345.031	425.38
345.259	411.38
345.487	414.38
345.714	393.38
345.942	398.38
346.17	357.38
346.397	378.38
346.625	385.38
346.853	362.38
347.08	367.38
347.308	408.38
347.535	396.38
347.763	421.38
347.99	399.38
348.218	392.38
348.445	403.38
348.673	402.38
348.9	374.38
349.128	367.38
349.355	357.38
349.583	341.38
349.81	372.38
350.037	353.38
350.265	361.38
350.492	350.38
350.72	358.38
350.947	372.38
351.174	381.38
351.402	416.38
351.629	413.38
351.856	389.38
352.083	411.38
352.311	422.38
352.538	427.38
352.765	429.38
352.992	401.38
353.22	401.38
353.447	383.38
353.674	372.38
353.901	366.38
354.128	362.38
354.355	369.38
354.583	362.38
354.81	346.38
355.037	328.38
355.264	339.38
355.491	327.38
355.718	328.38
355.945	319.38
356.172	327.38
356.399	337.38
356.626	341.38
356.853	314.38
357.08	337.38
357.307	349.38
357.534	319.38
357.761	343.38
357.988	336.38
358.215	335.38
358.441	351.38
358.668	333.38
358.895	343.38
359.122	372.38
359.349	364.38
359.576	386.38
359.802	425.38
360.029	470.38
360.256	493.38
360.483	449.38
360.709	401.38
360.936	390.38
361.163	391.38
361.39	384.38
361.616	400.38
361.843	380.38
362.07	369.38
362.296	410.38
362.523	381.38
362.749	378.38
362.976	350.38
363.203	361.38
363.429	375.38
363.656	380.38
363.882	355.38
364.109	348.38
364.335	342.38
364.562	341.38
364.788	358.38
365.015	353.38
365.241	353.38
365.468	366.38
365.694	371.38
365.92	365.38
366.147	371.38
366.373	356.38
366.599	346.38
366.826	337.38
367.052	357.38
367.278	363.38
367.505	387.38
367.731	348.38
367.957	339.38
368.184	352.38
368.41	361.38
368.636	377.38
368.862	374.38
369.089	379.38
369.315	348.38
369.541	341.38
369.767	336.38
369.993	346.38
370.219	332.38
370.445	338.38
370.672	338.38
370.898	330.38
371.124	323.38
371.35	357.38
371.576	345.38
371.802	321.38
372.028	329.38
372.254	337.38
372.48	329.38
372.706	322.38
372.932	345.38
373.158	343.38
373.384	333.38
373.61	328.38
373.835	327.38
374.061	335.38
374.287	350.38
374.513	345.38
374.739	332.38
374.965	348.38
375.191	332.38
375.416	332.38
375.642	347.38
375.868	339.38
376.094	327.38
376.319	327.38
376.545	326.38
376.771	328.38
376.997	335.38
377.222	336.38
377.448	329.38
377.674	335.38
377.899	335.38
378.125	311.38
378.35	307.38
378.576	328.38
378.802	319.38
379.027	337.38
379.253	339.38
379.478	322.38
379.704	314.38
379.929	334.38
380.155	333.38
380.38	333.38
380.606	352.38
380.831	336.38
381.057	332.38
381.282	333.38
381.507	339.38
381.733	335.38
381.958	340.38
382.184	328.38
382.409	335.38
382.634	341.38
382.86	335.38
383.085	332.38
383.31	332.38
383.535	335.38
383.761	344.38
383.986	330.38
384.211	309.38
384.436	349.38
384.662	335.38
384.887	341.38
385.112	324.38
385.337	359.38
385.562	350.38
385.787	344.38
386.013	374.38
386.238	362.38
386.463	371.38
386.688	349.38
386.913	363.38
387.138	359.38
387.363	361.38
387.588	346.38
387.813	348.38
388.038	342.38
388.263	345.38
388.488	350.38
388.713	352.38
388.938	360.38
389.163	360.38
389.387	356.38
389.612	359.38
389.837	341.38
390.062	360.38
390.287	342.38
390.512	346.38
390.736	358.38
390.961	353.38
391.186	332.38
391.411	345.38
391.636	359.38
391.86	358.38
392.085	370.38
392.31	360.38
392.534	335.38
392.759	358.38
392.984	345.38
393.208	357.38
393.433	358.38
393.658	363.38
393.882	350.38
394.107	347.38
394.331	372.38
394.556	341.38
394.78	360.38
395.005	371.38
395.229	351.38
395.454	369.38
395.678	390.38
395.903	375.38
396.127	397.38
396.352	391.38
396.576	364.38
396.801	392.38
397.025	370.38
397.249	377.38
397.474	361.38
397.698	374.38
397.922	401.38
398.147	408.38
398.371	420.38
398.595	388.38
398.82	409.38
399.044	406.38
399.268	395.38
399.492	411.38
399.717	446.38
399.941	462.38
400.165	502.38
400.389	487.38
400.613	463.38
400.837	453.38
401.062	408.38
401.286	419.38
401.51	401.38
401.734	407.38
401.958	408.38
402.182	409.38
402.406	431.38
402.63	430.38
402.854	437.38
403.078	437.38
403.302	424.38
403.526	421.38
403.75	428.38
403.974	409.38
404.198	417.38
404.422	434.38
404.645	427.38
404.869	432.38
405.093	457.38
405.317	475.38
405.541	490.38
405.765	485.38
405.988	462.38
406.212	468.38
406.436	483.38
406.66	526.38
406.883	500.38
407.107	524.38
407.331	547.38
407.555	595.38
407.778	599.38
408.002	538.38
408.226	487.38
408.449	490.38
408.673	499.38
408.896	523.38
409.12	557.38
409.344	495.38
409.567	458.38
409.791	452.38
410.014	440.38
410.238	455.38
410.461	439.38
410.685	446.38
410.908	439.38
411.132	483.38
411.355	522.38
411.578	516.38
411.802	458.38
412.025	446.38
412.249	422.38
412.472	422.38
412.695	438.38
412.919	447.38
413.142	408.38
413.365	408.38
413.589	400.38
413.812	425.38
414.035	414.38
414.258	394.38
414.482	406.38
414.705	397.38
414.928	395.38
415.151	393.38
415.374	395.38
415.597	385.38
415.821	405.38
416.044	405.38
416.267	415.38
416.49	411.38
416.713	395.38
416.936	388.38
417.159	422.38
417.382	421.38
417.605	394.38
417.828	419.38
418.051	443.38
418.274	428.38
418.497	415.38
418.72	411.38
418.943	423.38
419.166	437.38
419.389	448.38
419.611	425.38
419.834	415.38
420.057	438.38
420.28	425.38
420.503	437.38
420.726	449.38
420.948	440.38
421.171	515.38
421.394	541.38
421.617	490.38
421.839	459.38
422.062	452.38
422.285	485.38
422.507	537.38
422.73	609.38
422.953	565.38
423.175	500.38
423.398	476.38
423.621	487.38
423.843	504.38
424.066	499.38
424.288	499.38
424.511	530.38
424.733	564.38
424.956	663.38
425.178	654.38
425.401	650.38
425.623	673.38
425.846	567.38
426.068	535.38
426.291	516.38
426.513	491.38
426.735	501.38
426.958	575.38
427.18	645.38
427.402	789.38
427.625	835.38
427.847	798.38
428.069	691.38
428.292	598.38
428.514	565.38
428.736	526.38
428.958	490.38
429.181	491.38
429.403	481.38
429.625	481.38
429.847	549.38
430.069	615.38
430.292	599.38
430.514	524.38
430.736	466.38
430.958	455.38
431.18	443.38
431.402	458.38
431.624	443.38
431.846	441.38
432.068	421.38
432.29	427.38
432.512	435.38
432.734	451.38
432.956	430.38
433.178	449.38
433.4	459.38
433.622	458.38
433.844	420.38
434.066	437.38
434.287	433.38
434.509	421.38
434.731	448.38
434.953	459.38
435.175	460.38
435.397	493.38
435.618	517.38
435.84	531.38
436.062	659.38
436.284	726.38
436.505	616.38
436.727	535.38
436.949	515.38
437.17	472.38
437.392	477.38
437.614	500.38
437.835	547.38
438.057	678.38
438.278	763.38
438.5	753.38
438.721	807.38
438.943	772.38
439.165	628.38
439.386	579.38
439.608	556.38
439.829	579.38
440.05	611.38
440.272	656.38
440.493	598.38
440.715	541.38
440.936	520.38
441.158	477.38
441.379	500.38
441.6	509.38
441.822	542.38
442.043	575.38
442.264	673.38
442.486	712.38
442.707	611.38
442.928	579.38
443.149	569.38
443.371	587.38
443.592	611.38
443.813	679.38
444.034	753.38
444.255	649.38
444.476	532.38
444.698	531.38
444.919	515.38
445.14	600.38
445.361	575.38
445.582	580.38
445.803	646.38
446.024	760.38
446.245	773.38
446.466	675.38
446.687	607.38
446.908	575.38
447.129	533.38
447.35	502.38
447.571	505.38
447.792	498.38
448.013	515.38
448.234	532.38
448.455	564.38
448.675	684.38
448.896	774.38
449.117	677.38
449.338	650.38
449.559	748.38
449.779	831.38
450	679.38
450.221	568.38
450.442	517.38
450.662	490.38
450.883	498.38
451.104	555.38
451.324	538.38
451.545	509.38
451.766	468.38
451.986	463.38
452.207	423.38
452.428	422.38
452.648	435.38
452.869	454.38
453.089	462.38
453.31	487.38
453.53	468.38
453.751	462.38
453.971	457.38
454.192	506.38
454.412	471.38
454.633	457.38
454.853	447.38
455.073	430.38
455.294	482.38
455.514	538.38
455.734	521.38
455.955	447.38
456.175	440.38
456.395	407.38
456.616	397.38
456.836	407.38
457.056	408.38
457.276	391.38
457.497	385.38
457.717	390.38
457.937	402.38
458.157	414.38
458.377	421.38
458.598	452.38
458.818	552.38
459.038	671.38
459.258	657.38
459.478	536.38
459.698	486.38
459.918	445.38
460.138	447.38
460.358	440.38
460.578	427.38
460.798	431.38
461.018	435.38
461.238	436.38
461.458	419.38
461.678	405.38
461.898	410.38
462.118	399.38
462.338	430.38
462.558	419.38
462.777	423.38
462.997	413.38
463.217	451.38
463.437	434.38
463.657	424.38
463.876	440.38
464.096	437.38
464.316	444.38
464.536	461.38
464.755	453.38
464.975	488.38
465.195	570.38
465.414	713.38
465.634	585.38
465.854	535.38
466.073	494.38
466.293	476.38
466.512	433.38
466.732	442.38
466.951	439.38
467.171	424.38
467.391	435.38
467.61	445.38
467.829	471.38
468.049	452.38
468.268	438.38
468.488	426.38
468.707	411.38
468.927	417.38
469.146	386.38
469.365	409.38
469.585	415.38
469.804	422.38
470.023	433.38
470.243	435.38
470.462	456.38
470.681	477.38
470.901	478.38
471.12	457.38
471.339	447.38
471.558	438.38
471.777	445.38
471.997	410.38
472.216	439.38
472.435	445.38
472.654	441.38
472.873	431.38
473.092	408.38
473.311	417.38
473.53	449.38
473.749	457.38
473.968	493.38
474.187	608.38
474.406	635.38
474.625	521.38
474.844	474.38
475.063	458.38
475.282	442.38
475.501	453.38
475.72	452.38
475.939	458.38
476.158	455.38
476.377	447.38
476.596	458.38
476.814	457.38
477.033	472.38
477.252	477.38
477.471	447.38
477.69	463.38
477.908	457.38
478.127	457.38
478.346	485.38
478.564	487.38
478.783	473.38
479.002	470.38
479.22	469.38
479.439	518.38
479.658	533.38
479.876	551.38
480.095	540.38
480.313	559.38
480.532	555.38
480.751	545.38
480.969	534.38
481.188	543.38
481.406	554.38
481.624	551.38
481.843	549.38
482.061	517.38
482.28	497.38
482.498	516.38
482.717	547.38
482.935	510.38
483.153	524.38
483.372	509.38
483.59	513.38
483.808	520.38
484.027	501.38
484.245	506.38
484.463	526.38
484.681	517.38
484.9	525.38
485.118	532.38
485.336	498.38
485.554	520.38
485.772	549.38
485.99	551.38
486.209	558.38
486.427	545.38
486.645	577.38
486.863	595.38
487.081	598.38
487.299	571.38
487.517	563.38
487.735	548.38
487.953	561.38
488.171	546.38
488.389	570.38
488.607	574.38
488.825	583.38
489.043	550.38
489.261	556.38
489.479	569.38
489.696	593.38
489.914	577.38
490.132	577.38
490.35	595.38
490.568	606.38
490.786	632.38
491.003	614.38
491.221	661.38
491.439	645.38
491.657	622.38
491.874	642.38
492.092	637.38
492.31	674.38
492.527	656.38
492.745	666.38
492.963	664.38
493.18	675.38
493.398	661.38
493.615	670.38
493.833	663.38
494.05	685.38
494.268	670.38
494.485	643.38
494.703	669.38
494.92	685.38
495.138	684.38
495.355	684.38
495.573	699.38
495.79	657.38
496.008	679.38
496.225	666.38
496.442	689.38
496.66	689.38
496.877	701.38
497.094	663.38
497.312	687.38
497.529	703.38
497.746	698.38
497.963	709.38
498.181	730.38
498.398	732.38
498.615	717.38
498.832	723.38
499.049	749.38
499.267	750.38
499.484	755.38
499.701	757.38
499.918	741.38
500.135	780.38
500.352	772.38
500.569	777.38
500.786	793.38
501.003	802.38
501.22	813.38
501.437	794.38
501.654	801.38
501.871	840.38
