Data from 1987.PennyLincolnUp.Lamp.En5.5.200Scan.071819.P2_HRD10591_17-15-53-972.txt Node
Date: Thu Jul 18 17:15:53 EDT 2019
User: cochatt
Spectrometer: HR+D1059
Trigger mode: 1
Integration Time (sec): 1.000000E-1
Scans to average: 1
Electric dark correction enabled: true
Nonlinearity correction enabled: false
Boxcar width: 0
XAxis mode: Wavelengths
Number of Pixels in Spectrum: 2048
>>>>>Begin Spectral Data<<<<<
223.165	-19.12
223.4	-19.12
223.635	-19.12
223.869	-25.12
224.104	-13.12
224.338	-13.12
224.573	-14.12
224.808	-14.12
225.042	-17.12
225.277	-1.12
225.511	5.88
225.746	-0.12
225.98	2.88
226.215	7.88
226.449	25.88
226.683	28.88
226.918	28.88
227.152	16.88
227.387	28.88
227.621	40.88
227.856	36.88
228.09	45.88
228.324	37.88
228.559	72.88
228.793	75.88
229.027	109.88
229.262	120.88
229.496	121.88
229.73	124.88
229.964	164.88
230.199	144.88
230.433	151.88
230.667	134.88
230.901	120.88
231.136	116.88
231.37	102.88
231.604	123.88
231.838	109.88
232.072	126.88
232.306	124.88
232.541	118.88
232.775	116.88
233.009	134.88
233.243	119.88
233.477	119.88
233.711	120.88
233.945	107.88
234.179	114.88
234.413	120.88
234.647	130.88
234.881	107.88
235.115	103.88
235.349	106.88
235.583	118.88
235.817	103.88
236.051	136.88
236.285	136.88
236.519	116.88
236.753	123.88
236.987	163.88
237.221	200.88
237.455	278.88
237.689	216.88
237.922	148.88
238.156	146.88
238.39	149.88
238.624	128.88
238.858	132.88
239.091	109.88
239.325	125.88
239.559	125.88
239.793	126.88
240.027	143.88
240.26	134.88
240.494	166.88
240.728	164.88
240.961	143.88
241.195	159.88
241.429	148.88
241.662	127.88
241.896	135.88
242.13	139.88
242.363	138.88
242.597	120.88
242.83	132.88
243.064	133.88
243.298	124.88
243.531	136.88
243.765	130.88
243.998	144.88
244.232	133.88
244.465	148.88
244.699	134.88
244.932	133.88
245.166	133.88
245.399	146.88
245.633	138.88
245.866	149.88
246.099	153.88
246.333	155.88
246.566	141.88
246.8	140.88
247.033	144.88
247.266	146.88
247.5	155.88
247.733	164.88
247.966	168.88
248.2	150.88
248.433	158.88
248.666	184.88
248.899	184.88
249.133	195.88
249.366	222.88
249.599	205.88
249.832	192.88
250.066	197.88
250.299	174.88
250.532	186.88
250.765	198.88
250.998	215.88
251.231	218.88
251.465	206.88
251.698	204.88
251.931	205.88
252.164	198.88
252.397	199.88
252.63	191.88
252.863	214.88
253.096	220.88
253.329	244.88
253.562	230.88
253.795	228.88
254.028	203.88
254.261	231.88
254.494	224.88
254.727	263.88
254.96	291.88
255.193	298.88
255.426	248.88
255.659	223.88
255.892	226.88
256.124	212.88
256.357	206.88
256.59	197.88
256.823	200.88
257.056	217.88
257.289	198.88
257.521	217.88
257.754	217.88
257.987	209.88
258.22	201.88
258.452	204.88
258.685	187.88
258.918	209.88
259.151	192.88
259.383	203.88
259.616	203.88
259.849	224.88
260.081	225.88
260.314	242.88
260.547	242.88
260.779	236.88
261.012	243.88
261.244	220.88
261.477	218.88
261.71	186.88
261.942	227.88
262.175	242.88
262.407	226.88
262.64	200.88
262.872	201.88
263.105	213.88
263.337	200.88
263.57	199.88
263.802	188.88
264.035	202.88
264.267	187.88
264.499	205.88
264.732	185.88
264.964	190.88
265.197	187.88
265.429	190.88
265.661	190.88
265.894	184.88
266.126	183.88
266.358	187.88
266.591	203.88
266.823	206.88
267.055	195.88
267.287	211.88
267.52	199.88
267.752	205.88
267.984	204.88
268.216	210.88
268.448	214.88
268.681	212.88
268.913	237.88
269.145	227.88
269.377	255.88
269.609	268.88
269.841	255.88
270.073	274.88
270.306	285.88
270.538	316.88
270.77	317.88
271.002	301.88
271.234	304.88
271.466	280.88
271.698	310.88
271.93	313.88
272.162	297.88
272.394	329.88
272.626	294.88
272.858	281.88
273.09	270.88
273.322	252.88
273.553	257.88
273.785	256.88
274.017	246.88
274.249	246.88
274.481	259.88
274.713	260.88
274.945	255.88
275.176	246.88
275.408	244.88
275.64	248.88
275.872	226.88
276.104	244.88
276.335	241.88
276.567	265.88
276.799	282.88
277.031	295.88
277.262	323.88
277.494	301.88
277.726	285.88
277.957	280.88
278.189	258.88
278.421	230.88
278.652	256.88
278.884	231.88
279.115	229.88
279.347	234.88
279.579	240.88
279.81	222.88
280.042	225.88
280.273	248.88
280.505	236.88
280.736	238.88
280.968	228.88
281.199	237.88
281.431	208.88
281.662	217.88
281.894	242.88
282.125	220.88
282.356	252.88
282.588	294.88
282.819	306.88
283.051	255.88
283.282	241.88
283.513	217.88
283.745	234.88
283.976	229.88
284.207	260.88
284.439	244.88
284.67	214.88
284.901	229.88
285.132	228.88
285.364	224.88
285.595	231.88
285.826	237.88
286.057	224.88
286.288	241.88
286.52	231.88
286.751	235.88
286.982	224.88
287.213	234.88
287.444	236.88
287.675	248.88
287.906	242.88
288.138	255.88
288.369	267.88
288.6	266.88
288.831	247.88
289.062	256.88
289.293	244.88
289.524	245.88
289.755	252.88
289.986	230.88
290.217	250.88
290.448	230.88
290.679	222.88
290.91	225.88
291.141	243.88
291.371	225.88
291.602	244.88
291.833	246.88
292.064	242.88
292.295	242.88
292.526	248.88
292.757	228.88
292.987	229.88
293.218	251.88
293.449	250.88
293.68	249.88
293.91	242.88
294.141	245.88
294.372	233.88
294.603	222.88
294.833	239.88
295.064	232.88
295.295	233.88
295.525	241.88
295.756	262.88
295.987	276.88
296.217	301.88
296.448	316.88
296.679	262.88
296.909	263.88
297.14	244.88
297.37	224.88
297.601	231.88
297.831	241.88
298.062	248.88
298.292	246.88
298.523	252.88
298.753	246.88
298.984	256.88
299.214	251.88
299.445	252.88
299.675	254.88
299.905	266.88
300.136	243.88
300.366	247.88
300.597	261.88
300.827	274.88
301.057	277.88
301.288	276.88
301.518	285.88
301.748	268.88
301.979	261.88
302.209	274.88
302.439	285.88
302.669	299.88
302.9	272.88
303.13	263.88
303.36	280.88
303.59	281.88
303.82	266.88
304.051	290.88
304.281	261.88
304.511	244.88
304.741	259.88
304.971	277.88
305.201	266.88
305.431	280.88
305.661	271.88
305.891	268.88
306.121	267.88
306.352	282.88
306.582	288.88
306.812	249.88
307.042	267.88
307.272	264.88
307.502	279.88
307.731	286.88
307.961	282.88
308.191	292.88
308.421	269.88
308.651	304.88
308.881	279.88
309.111	280.88
309.341	284.88
309.571	303.88
309.8	315.88
310.03	352.88
310.26	362.88
310.49	352.88
310.72	353.88
310.949	389.88
311.179	384.88
311.409	359.88
311.639	343.88
311.868	333.88
312.098	352.88
312.328	360.88
312.557	388.88
312.787	404.88
313.017	383.88
313.246	372.88
313.476	325.88
313.706	350.88
313.935	359.88
314.165	356.88
314.394	377.88
314.624	365.88
314.853	353.88
315.083	324.88
315.312	347.88
315.542	327.88
315.771	325.88
316.001	326.88
316.23	331.88
316.46	309.88
316.689	342.88
316.919	328.88
317.148	342.88
317.377	344.88
317.607	350.88
317.836	346.88
318.065	354.88
318.295	320.88
318.524	333.88
318.753	326.88
318.983	329.88
319.212	337.88
319.441	342.88
319.67	356.88
319.9	357.88
320.129	363.88
320.358	326.88
320.587	337.88
320.816	341.88
321.046	373.88
321.275	381.88
321.504	373.88
321.733	371.88
321.962	383.88
322.191	402.88
322.42	431.88
322.649	457.88
322.878	451.88
323.108	470.88
323.337	508.88
323.566	556.88
323.795	577.88
324.024	655.88
324.253	849.88
324.482	1205.88
324.71	1870.88
324.939	2612.88
325.168	2310.88
325.397	1272.88
325.626	793.88
325.855	645.88
326.084	564.88
326.313	564.88
326.542	569.88
326.77	618.88
326.999	739.88
327.228	1044.88
327.457	1610.88
327.686	2060.88
327.914	1392.88
328.143	894.88
328.372	746.88
328.6	666.88
328.829	607.88
329.058	636.88
329.287	643.88
329.515	613.88
329.744	531.88
329.972	484.88
330.201	493.88
330.43	564.88
330.658	605.88
330.887	683.88
331.115	672.88
331.344	544.88
331.572	488.88
331.801	479.88
332.03	476.88
332.258	456.88
332.486	413.88
332.715	417.88
332.943	433.88
333.172	421.88
333.4	382.88
333.629	394.88
333.857	399.88
334.085	422.88
334.314	382.88
334.542	405.88
334.771	393.88
334.999	404.88
335.227	394.88
335.455	380.88
335.684	364.88
335.912	376.88
336.14	365.88
336.369	386.88
336.597	388.88
336.825	377.88
337.053	389.88
337.281	375.88
337.51	361.88
337.738	374.88
337.966	382.88
338.194	382.88
338.422	386.88
338.65	374.88
338.878	365.88
339.106	357.88
339.334	341.88
339.562	372.88
339.79	364.88
340.018	380.88
340.246	374.88
340.474	395.88
340.702	391.88
340.93	382.88
341.158	385.88
341.386	350.88
341.614	374.88
341.842	363.88
342.07	372.88
342.298	364.88
342.526	354.88
342.754	362.88
342.981	353.88
343.209	336.88
343.437	333.88
343.665	348.88
343.893	354.88
344.12	339.88
344.348	359.88
344.576	361.88
344.804	381.88
345.031	392.88
345.259	422.88
345.487	376.88
345.714	364.88
345.942	371.88
346.17	365.88
346.397	351.88
346.625	354.88
346.853	376.88
347.08	384.88
347.308	390.88
347.535	392.88
347.763	407.88
347.99	391.88
348.218	388.88
348.445	408.88
348.673	394.88
348.9	388.88
349.128	375.88
349.355	364.88
349.583	360.88
349.81	346.88
350.037	364.88
350.265	359.88
350.492	346.88
350.72	358.88
350.947	372.88
351.174	372.88
351.402	387.88
351.629	369.88
351.856	384.88
352.083	408.88
352.311	428.88
352.538	410.88
352.765	424.88
352.992	398.88
353.22	388.88
353.447	370.88
353.674	362.88
353.901	345.88
354.128	343.88
354.355	329.88
354.583	352.88
354.81	348.88
355.037	338.88
355.264	314.88
355.491	311.88
355.718	312.88
355.945	321.88
356.172	331.88
356.399	325.88
356.626	324.88
356.853	335.88
357.08	312.88
357.307	325.88
357.534	317.88
357.761	326.88
357.988	326.88
358.215	343.88
358.441	322.88
358.668	345.88
358.895	346.88
359.122	341.88
359.349	349.88
359.576	376.88
359.802	408.88
360.029	456.88
360.256	482.88
360.483	446.88
360.709	390.88
360.936	380.88
361.163	375.88
361.39	381.88
361.616	401.88
361.843	380.88
362.07	386.88
362.296	401.88
362.523	377.88
362.749	387.88
362.976	378.88
363.203	365.88
363.429	343.88
363.656	346.88
363.882	357.88
364.109	370.88
364.335	339.88
364.562	347.88
364.788	344.88
365.015	349.88
365.241	354.88
365.468	367.88
365.694	361.88
365.92	382.88
366.147	345.88
366.373	347.88
366.599	340.88
366.826	344.88
367.052	343.88
367.278	325.88
367.505	364.88
367.731	342.88
367.957	353.88
368.184	349.88
368.41	359.88
368.636	348.88
368.862	369.88
369.089	363.88
369.315	347.88
369.541	345.88
369.767	355.88
369.993	340.88
370.219	339.88
370.445	338.88
370.672	333.88
370.898	344.88
371.124	332.88
371.35	320.88
371.576	318.88
371.802	322.88
372.028	324.88
372.254	326.88
372.48	328.88
372.706	321.88
372.932	331.88
373.158	320.88
373.384	325.88
373.61	338.88
373.835	329.88
374.061	327.88
374.287	347.88
374.513	326.88
374.739	345.88
374.965	348.88
375.191	330.88
375.416	323.88
375.642	335.88
375.868	327.88
376.094	344.88
376.319	332.88
376.545	339.88
376.771	323.88
376.997	310.88
377.222	337.88
377.448	322.88
377.674	320.88
377.899	322.88
378.125	310.88
378.35	331.88
378.576	317.88
378.802	331.88
379.027	346.88
379.253	343.88
379.478	341.88
379.704	338.88
379.929	338.88
380.155	347.88
380.38	332.88
380.606	333.88
380.831	339.88
381.057	349.88
381.282	340.88
381.507	334.88
381.733	325.88
381.958	336.88
382.184	359.88
382.409	330.88
382.634	352.88
382.86	332.88
383.085	329.88
383.31	343.88
383.535	335.88
383.761	338.88
383.986	352.88
384.211	347.88
384.436	330.88
384.662	322.88
384.887	328.88
385.112	324.88
385.337	344.88
385.562	345.88
385.787	344.88
386.013	369.88
386.238	352.88
386.463	350.88
386.688	340.88
386.913	324.88
387.138	330.88
387.363	331.88
387.588	337.88
387.813	353.88
388.038	356.88
388.263	335.88
388.488	344.88
388.713	344.88
388.938	347.88
389.163	357.88
389.387	357.88
389.612	352.88
389.837	337.88
390.062	341.88
390.287	343.88
390.512	337.88
390.736	334.88
390.961	328.88
391.186	345.88
391.411	353.88
391.636	355.88
391.86	353.88
392.085	342.88
392.31	350.88
392.534	365.88
392.759	371.88
392.984	378.88
393.208	352.88
393.433	326.88
393.658	349.88
393.882	343.88
394.107	352.88
394.331	358.88
394.556	369.88
394.78	357.88
395.005	345.88
395.229	350.88
395.454	340.88
395.678	350.88
395.903	368.88
396.127	392.88
396.352	390.88
396.576	357.88
396.801	369.88
397.025	361.88
397.249	368.88
397.474	365.88
397.698	377.88
397.922	386.88
398.147	372.88
398.371	435.88
398.595	381.88
398.82	381.88
399.044	388.88
399.268	388.88
399.492	391.88
399.717	417.88
399.941	460.88
400.165	470.88
400.389	491.88
400.613	445.88
400.837	411.88
401.062	405.88
401.286	412.88
401.51	413.88
401.734	388.88
401.958	379.88
402.182	403.88
402.406	422.88
402.63	405.88
402.854	411.88
403.078	405.88
403.302	404.88
403.526	421.88
403.75	408.88
403.974	411.88
404.198	414.88
404.422	416.88
404.645	444.88
404.869	408.88
405.093	437.88
405.317	469.88
405.541	492.88
405.765	466.88
405.988	442.88
406.212	451.88
406.436	500.88
406.66	502.88
406.883	455.88
407.107	493.88
407.331	536.88
407.555	577.88
407.778	603.88
408.002	534.88
408.226	496.88
408.449	474.88
408.673	474.88
408.896	519.88
409.12	549.88
409.344	526.88
409.567	485.88
409.791	425.88
410.014	425.88
410.238	424.88
410.461	425.88
410.685	443.88
410.908	461.88
411.132	487.88
411.355	501.88
411.578	504.88
411.802	453.88
412.025	412.88
412.249	416.88
412.472	426.88
412.695	429.88
412.919	427.88
413.142	425.88
413.365	388.88
413.589	401.88
413.812	385.88
414.035	389.88
414.258	390.88
414.482	407.88
414.705	390.88
414.928	389.88
415.151	383.88
415.374	408.88
415.597	386.88
415.821	388.88
416.044	412.88
416.267	408.88
416.49	388.88
416.713	399.88
416.936	393.88
417.159	396.88
417.382	408.88
417.605	413.88
417.828	404.88
418.051	448.88
418.274	441.88
418.497	440.88
418.72	402.88
418.943	405.88
419.166	402.88
419.389	432.88
419.611	422.88
419.834	419.88
420.057	444.88
420.28	425.88
420.503	409.88
420.726	420.88
420.948	434.88
421.171	512.88
421.394	538.88
421.617	464.88
421.839	449.88
422.062	460.88
422.285	443.88
422.507	520.88
422.73	601.88
422.953	590.88
423.175	490.88
423.398	483.88
423.621	497.88
423.843	512.88
424.066	493.88
424.288	492.88
424.511	538.88
424.733	566.88
424.956	647.88
425.178	610.88
425.401	629.88
425.623	664.88
425.846	556.88
426.068	502.88
426.291	514.88
426.513	509.88
426.735	528.88
426.958	598.88
427.18	630.88
427.402	786.88
427.625	855.88
427.847	827.88
428.069	653.88
428.292	592.88
428.514	528.88
428.736	517.88
428.958	511.88
429.181	477.88
429.403	480.88
429.625	485.88
429.847	546.88
430.069	600.88
430.292	581.88
430.514	503.88
430.736	455.88
430.958	465.88
431.18	424.88
431.402	427.88
431.624	412.88
431.846	447.88
432.068	412.88
432.29	418.88
432.512	436.88
432.734	446.88
432.956	442.88
433.178	450.88
433.4	436.88
433.622	442.88
433.844	439.88
434.066	436.88
434.287	417.88
434.509	426.88
434.731	410.88
434.953	446.88
435.175	460.88
435.397	477.88
435.618	500.88
435.84	557.88
436.062	636.88
436.284	694.88
436.505	602.88
436.727	558.88
436.949	497.88
437.17	481.88
437.392	475.88
437.614	508.88
437.835	579.88
438.057	673.88
438.278	737.88
438.5	783.88
438.721	786.88
438.943	761.88
439.165	617.88
439.386	568.88
439.608	537.88
439.829	566.88
440.05	590.88
440.272	616.88
440.493	587.88
440.715	520.88
440.936	491.88
441.158	466.88
441.379	508.88
441.6	490.88
441.822	528.88
442.043	570.88
442.264	634.88
442.486	697.88
442.707	593.88
442.928	549.88
443.149	513.88
443.371	555.88
443.592	616.88
443.813	685.88
444.034	720.88
444.255	648.88
444.476	548.88
444.698	506.88
444.919	526.88
445.14	590.88
445.361	572.88
445.582	564.88
445.803	658.88
446.024	759.88
446.245	744.88
446.466	665.88
446.687	587.88
446.908	557.88
447.129	510.88
447.35	482.88
447.571	492.88
447.792	502.88
448.013	497.88
448.234	539.88
448.455	598.88
448.675	673.88
448.896	780.88
449.117	664.88
449.338	640.88
449.559	718.88
449.779	805.88
450	674.88
450.221	577.88
450.442	521.88
450.662	502.88
450.883	513.88
451.104	532.88
451.324	548.88
451.545	505.88
451.766	476.88
451.986	447.88
452.207	434.88
452.428	442.88
452.648	411.88
452.869	454.88
453.089	463.88
453.31	428.88
453.53	440.88
453.751	447.88
453.971	459.88
454.192	480.88
454.412	486.88
454.633	439.88
454.853	448.88
455.073	437.88
455.294	461.88
455.514	515.88
455.734	532.88
455.955	450.88
456.175	416.88
456.395	409.88
456.616	391.88
456.836	398.88
457.056	401.88
457.276	368.88
457.497	385.88
457.717	377.88
457.937	393.88
458.157	403.88
458.377	410.88
458.598	446.88
458.818	516.88
459.038	632.88
459.258	640.88
459.478	522.88
459.698	468.88
459.918	431.88
460.138	450.88
460.358	417.88
460.578	439.88
460.798	425.88
461.018	416.88
461.238	426.88
461.458	422.88
461.678	421.88
461.898	415.88
462.118	440.88
462.338	427.88
462.558	412.88
462.777	429.88
462.997	422.88
463.217	427.88
463.437	421.88
463.657	422.88
463.876	459.88
464.096	418.88
464.316	447.88
464.536	454.88
464.755	440.88
464.975	482.88
465.195	563.88
465.414	679.88
465.634	565.88
465.854	492.88
466.073	471.88
466.293	442.88
466.512	443.88
466.732	436.88
466.951	441.88
467.171	423.88
467.391	433.88
467.61	456.88
467.829	462.88
468.049	435.88
468.268	429.88
468.488	418.88
468.707	413.88
468.927	419.88
469.146	386.88
469.365	407.88
469.585	390.88
469.804	427.88
470.023	449.88
470.243	465.88
470.462	446.88
470.681	476.88
470.901	462.88
471.12	449.88
471.339	424.88
471.558	428.88
471.777	452.88
471.997	432.88
472.216	399.88
472.435	428.88
472.654	429.88
472.873	420.88
473.092	406.88
473.311	439.88
473.53	434.88
473.749	435.88
473.968	490.88
474.187	624.88
474.406	645.88
474.625	504.88
474.844	433.88
475.063	431.88
475.282	452.88
475.501	449.88
475.72	430.88
475.939	441.88
476.158	474.88
476.377	424.88
476.596	427.88
476.814	444.88
477.033	470.88
477.252	465.88
477.471	467.88
477.69	483.88
477.908	468.88
478.127	483.88
478.346	469.88
478.564	489.88
478.783	467.88
479.002	491.88
479.22	482.88
479.439	502.88
479.658	536.88
479.876	518.88
480.095	525.88
480.313	555.88
480.532	570.88
480.751	534.88
480.969	538.88
481.188	527.88
481.406	561.88
481.624	532.88
481.843	516.88
482.061	518.88
482.28	524.88
482.498	497.88
482.717	515.88
482.935	494.88
483.153	499.88
483.372	524.88
483.59	504.88
483.808	502.88
484.027	507.88
484.245	526.88
484.463	535.88
484.681	526.88
484.9	522.88
485.118	538.88
485.336	526.88
485.554	522.88
485.772	549.88
485.99	523.88
486.209	540.88
486.427	516.88
486.645	553.88
486.863	598.88
487.081	598.88
487.299	575.88
487.517	565.88
487.735	543.88
487.953	545.88
488.171	577.88
488.389	583.88
488.607	569.88
488.825	571.88
489.043	567.88
489.261	557.88
489.479	574.88
489.696	584.88
489.914	576.88
490.132	591.88
490.35	580.88
490.568	589.88
490.786	619.88
491.003	609.88
491.221	617.88
491.439	643.88
491.657	652.88
491.874	625.88
492.092	660.88
492.31	658.88
492.527	640.88
492.745	661.88
492.963	654.88
493.18	660.88
493.398	656.88
493.615	671.88
493.833	667.88
494.05	680.88
494.268	650.88
494.485	663.88
494.703	664.88
494.92	684.88
495.138	685.88
495.355	690.88
495.573	676.88
495.79	696.88
496.008	704.88
496.225	668.88
496.442	687.88
496.66	662.88
496.877	670.88
497.094	714.88
497.312	690.88
497.529	716.88
497.746	725.88
497.963	697.88
498.181	717.88
498.398	728.88
498.615	699.88
498.832	711.88
499.049	711.88
499.267	741.88
499.484	745.88
499.701	764.88
499.918	748.88
500.135	789.88
500.352	784.88
500.569	772.88
500.786	789.88
501.003	796.88
501.22	783.88
501.437	778.88
501.654	793.88
501.871	836.88
