Data from 1987.PennyLincolnUp.Lamp.En5.5.200Scan.071819.P2_HRD10591_17-14-01-972.txt Node
Date: Thu Jul 18 17:14:01 EDT 2019
User: cochatt
Spectrometer: HR+D1059
Trigger mode: 1
Integration Time (sec): 1.000000E-1
Scans to average: 1
Electric dark correction enabled: true
Nonlinearity correction enabled: false
Boxcar width: 0
XAxis mode: Wavelengths
Number of Pixels in Spectrum: 2048
>>>>>Begin Spectral Data<<<<<
223.165	-14.31
223.4	-14.31
223.635	-14.31
223.869	-17.31
224.104	-20.31
224.338	-11.31
224.573	3.69
224.808	-20.31
225.042	-4.31
225.277	-11.31
225.511	5.69
225.746	19.69
225.98	12.69
226.215	-6.31
226.449	13.69
226.683	20.69
226.918	13.69
227.152	15.69
227.387	26.69
227.621	28.69
227.856	43.69
228.09	34.69
228.324	53.69
228.559	56.69
228.793	52.69
229.027	92.69
229.262	97.69
229.496	114.69
229.73	124.69
229.964	152.69
230.199	122.69
230.433	129.69
230.667	111.69
230.901	103.69
231.136	106.69
231.37	106.69
231.604	107.69
231.838	104.69
232.072	101.69
232.306	113.69
232.541	108.69
232.775	98.69
233.009	111.69
233.243	118.69
233.477	127.69
233.711	100.69
233.945	102.69
234.179	103.69
234.413	95.69
234.647	100.69
234.881	123.69
235.115	124.69
235.349	114.69
235.583	110.69
235.817	122.69
236.051	117.69
236.285	121.69
236.519	128.69
236.753	111.69
236.987	143.69
237.221	159.69
237.455	210.69
237.689	180.69
237.922	137.69
238.156	121.69
238.39	122.69
238.624	110.69
238.858	121.69
239.091	112.69
239.325	120.69
239.559	105.69
239.793	112.69
240.027	122.69
240.26	117.69
240.494	136.69
240.728	125.69
240.961	144.69
241.195	133.69
241.429	121.69
241.662	123.69
241.896	127.69
242.13	130.69
242.363	122.69
242.597	128.69
242.83	131.69
243.064	128.69
243.298	137.69
243.531	131.69
243.765	121.69
243.998	121.69
244.232	119.69
244.465	124.69
244.699	133.69
244.932	125.69
245.166	112.69
245.399	142.69
245.633	132.69
245.866	127.69
246.099	126.69
246.333	149.69
246.566	139.69
246.8	146.69
247.033	154.69
247.266	129.69
247.5	146.69
247.733	136.69
247.966	165.69
248.2	158.69
248.433	158.69
248.666	145.69
248.899	166.69
249.133	172.69
249.366	198.69
249.599	173.69
249.832	167.69
250.066	179.69
250.299	151.69
250.532	153.69
250.765	168.69
250.998	197.69
251.231	191.69
251.465	195.69
251.698	175.69
251.931	184.69
252.164	194.69
252.397	184.69
252.63	188.69
252.863	202.69
253.096	194.69
253.329	186.69
253.562	204.69
253.795	196.69
254.028	189.69
254.261	154.69
254.494	191.69
254.727	224.69
254.96	223.69
255.193	246.69
255.426	222.69
255.659	201.69
255.892	182.69
256.124	187.69
256.357	181.69
256.59	189.69
256.823	190.69
257.056	190.69
257.289	182.69
257.521	174.69
257.754	188.69
257.987	170.69
258.22	179.69
258.452	180.69
258.685	169.69
258.918	178.69
259.151	176.69
259.383	178.69
259.616	178.69
259.849	190.69
260.081	192.69
260.314	213.69
260.547	204.69
260.779	190.69
261.012	200.69
261.244	218.69
261.477	196.69
261.71	190.69
261.942	190.69
262.175	196.69
262.407	180.69
262.64	180.69
262.872	177.69
263.105	195.69
263.337	171.69
263.57	170.69
263.802	174.69
264.035	164.69
264.267	178.69
264.499	182.69
264.732	179.69
264.964	162.69
265.197	171.69
265.429	169.69
265.661	182.69
265.894	182.69
266.126	166.69
266.358	167.69
266.591	169.69
266.823	177.69
267.055	185.69
267.287	178.69
267.52	176.69
267.752	178.69
267.984	181.69
268.216	168.69
268.448	178.69
268.681	171.69
268.913	196.69
269.145	210.69
269.377	216.69
269.609	207.69
269.841	225.69
270.073	239.69
270.306	231.69
270.538	257.69
270.77	281.69
271.002	247.69
271.234	236.69
271.466	255.69
271.698	232.69
271.93	248.69
272.162	259.69
272.394	264.69
272.626	243.69
272.858	243.69
273.09	223.69
273.322	222.69
273.553	213.69
273.785	215.69
274.017	213.69
274.249	192.69
274.481	203.69
274.713	205.69
274.945	205.69
275.176	199.69
275.408	218.69
275.64	206.69
275.872	208.69
276.104	196.69
276.335	210.69
276.567	204.69
276.799	217.69
277.031	251.69
277.262	253.69
277.494	248.69
277.726	243.69
277.957	220.69
278.189	210.69
278.421	218.69
278.652	207.69
278.884	212.69
279.115	214.69
279.347	208.69
279.579	204.69
279.81	204.69
280.042	203.69
280.273	200.69
280.505	194.69
280.736	205.69
280.968	189.69
281.199	213.69
281.431	201.69
281.662	198.69
281.894	197.69
282.125	186.69
282.356	218.69
282.588	245.69
282.819	240.69
283.051	189.69
283.282	201.69
283.513	201.69
283.745	209.69
283.976	199.69
284.207	208.69
284.439	214.69
284.67	208.69
284.901	220.69
285.132	213.69
285.364	215.69
285.595	206.69
285.826	195.69
286.057	205.69
286.288	199.69
286.52	199.69
286.751	207.69
286.982	194.69
287.213	206.69
287.444	203.69
287.675	203.69
287.906	229.69
288.138	226.69
288.369	222.69
288.6	235.69
288.831	244.69
289.062	214.69
289.293	204.69
289.524	198.69
289.755	209.69
289.986	206.69
290.217	194.69
290.448	202.69
290.679	201.69
290.91	187.69
291.141	213.69
291.371	207.69
291.602	214.69
291.833	208.69
292.064	218.69
292.295	197.69
292.526	198.69
292.757	215.69
292.987	204.69
293.218	214.69
293.449	197.69
293.68	216.69
293.91	214.69
294.141	207.69
294.372	202.69
294.603	199.69
294.833	213.69
295.064	202.69
295.295	237.69
295.525	199.69
295.756	206.69
295.987	216.69
296.217	239.69
296.448	241.69
296.679	220.69
296.909	222.69
297.14	213.69
297.37	224.69
297.601	210.69
297.831	226.69
298.062	219.69
298.292	219.69
298.523	196.69
298.753	221.69
298.984	218.69
299.214	218.69
299.445	216.69
299.675	215.69
299.905	234.69
300.136	214.69
300.366	223.69
300.597	218.69
300.827	223.69
301.057	229.69
301.288	243.69
301.518	230.69
301.748	204.69
301.979	227.69
302.209	213.69
302.439	234.69
302.669	225.69
302.9	244.69
303.13	221.69
303.36	229.69
303.59	231.69
303.82	254.69
304.051	245.69
304.281	231.69
304.511	232.69
304.741	228.69
304.971	221.69
305.201	223.69
305.431	225.69
305.661	246.69
305.891	238.69
306.121	245.69
306.352	229.69
306.582	252.69
306.812	240.69
307.042	244.69
307.272	238.69
307.502	220.69
307.731	248.69
307.961	248.69
308.191	238.69
308.421	242.69
308.651	237.69
308.881	235.69
309.111	238.69
309.341	256.69
309.571	246.69
309.8	260.69
310.03	251.69
310.26	286.69
310.49	279.69
310.72	285.69
310.949	294.69
311.179	323.69
311.409	281.69
311.639	284.69
311.868	277.69
312.098	260.69
312.328	287.69
312.557	298.69
312.787	312.69
313.017	315.69
313.246	304.69
313.476	266.69
313.706	286.69
313.935	284.69
314.165	296.69
314.394	294.69
314.624	304.69
314.853	291.69
315.083	276.69
315.312	284.69
315.542	275.69
315.771	251.69
316.001	259.69
316.23	268.69
316.46	282.69
316.689	268.69
316.919	292.69
317.148	267.69
317.377	288.69
317.607	282.69
317.836	275.69
318.065	288.69
318.295	282.69
318.524	261.69
318.753	272.69
318.983	270.69
319.212	269.69
319.441	293.69
319.67	295.69
319.9	279.69
320.129	293.69
320.358	300.69
320.587	274.69
320.816	299.69
321.046	307.69
321.275	301.69
321.504	295.69
321.733	297.69
321.962	295.69
322.191	315.69
322.42	335.69
322.649	346.69
322.878	366.69
323.108	346.69
323.337	383.69
323.566	392.69
323.795	430.69
324.024	490.69
324.253	601.69
324.482	841.69
324.71	1286.69
324.939	1802.69
325.168	1662.69
325.397	894.69
325.626	587.69
325.855	470.69
326.084	420.69
326.313	412.69
326.542	420.69
326.77	470.69
326.999	538.69
327.228	775.69
327.457	1126.69
327.686	1442.69
327.914	968.69
328.143	638.69
328.372	555.69
328.6	489.69
328.829	491.69
329.058	491.69
329.287	477.69
329.515	447.69
329.744	410.69
329.972	395.69
330.201	382.69
330.43	393.69
330.658	441.69
330.887	489.69
331.115	481.69
331.344	405.69
331.572	402.69
331.801	388.69
332.03	392.69
332.258	358.69
332.486	349.69
332.715	317.69
332.943	312.69
333.172	319.69
333.4	325.69
333.629	345.69
333.857	334.69
334.085	326.69
334.314	335.69
334.542	320.69
334.771	324.69
334.999	326.69
335.227	327.69
335.455	292.69
335.684	318.69
335.912	308.69
336.14	309.69
336.369	287.69
336.597	330.69
336.825	322.69
337.053	302.69
337.281	311.69
337.51	319.69
337.738	323.69
337.966	314.69
338.194	327.69
338.422	328.69
338.65	327.69
338.878	287.69
339.106	296.69
339.334	322.69
339.562	308.69
339.79	319.69
340.018	320.69
340.246	325.69
340.474	332.69
340.702	326.69
340.93	315.69
341.158	310.69
341.386	319.69
341.614	316.69
341.842	326.69
342.07	319.69
342.298	302.69
342.526	313.69
342.754	301.69
342.981	276.69
343.209	293.69
343.437	314.69
343.665	282.69
343.893	314.69
344.12	307.69
344.348	309.69
344.576	307.69
344.804	327.69
345.031	333.69
345.259	341.69
345.487	330.69
345.714	320.69
345.942	300.69
346.17	310.69
346.397	302.69
346.625	295.69
346.853	303.69
347.08	317.69
347.308	325.69
347.535	339.69
347.763	329.69
347.99	330.69
348.218	311.69
348.445	314.69
348.673	324.69
348.9	320.69
349.128	302.69
349.355	300.69
349.583	299.69
349.81	296.69
350.037	289.69
350.265	287.69
350.492	299.69
350.72	307.69
350.947	300.69
351.174	340.69
351.402	331.69
351.629	323.69
351.856	316.69
352.083	332.69
352.311	313.69
352.538	329.69
352.765	338.69
352.992	310.69
353.22	303.69
353.447	306.69
353.674	287.69
353.901	281.69
354.128	316.69
354.355	291.69
354.583	288.69
354.81	298.69
355.037	287.69
355.264	280.69
355.491	290.69
355.718	282.69
355.945	294.69
356.172	287.69
356.399	281.69
356.626	265.69
356.853	271.69
357.08	260.69
357.307	257.69
357.534	288.69
357.761	295.69
357.988	272.69
358.215	278.69
358.441	275.69
358.668	290.69
358.895	303.69
359.122	293.69
359.349	320.69
359.576	314.69
359.802	342.69
360.029	346.69
360.256	372.69
360.483	363.69
360.709	318.69
360.936	312.69
361.163	316.69
361.39	328.69
361.616	328.69
361.843	311.69
362.07	312.69
362.296	319.69
362.523	300.69
362.749	328.69
362.976	317.69
363.203	317.69
363.429	292.69
363.656	305.69
363.882	301.69
364.109	296.69
364.335	298.69
364.562	291.69
364.788	303.69
365.015	301.69
365.241	303.69
365.468	295.69
365.694	292.69
365.92	300.69
366.147	297.69
366.373	297.69
366.599	287.69
366.826	293.69
367.052	308.69
367.278	283.69
367.505	289.69
367.731	306.69
367.957	280.69
368.184	313.69
368.41	290.69
368.636	301.69
368.862	310.69
369.089	311.69
369.315	304.69
369.541	290.69
369.767	295.69
369.993	289.69
370.219	280.69
370.445	314.69
370.672	298.69
370.898	301.69
371.124	292.69
371.35	302.69
371.576	281.69
371.802	286.69
372.028	301.69
372.254	290.69
372.48	296.69
372.706	292.69
372.932	305.69
373.158	282.69
373.384	290.69
373.61	288.69
373.835	301.69
374.061	289.69
374.287	316.69
374.513	314.69
374.739	325.69
374.965	307.69
375.191	299.69
375.416	296.69
375.642	308.69
375.868	283.69
376.094	300.69
376.319	300.69
376.545	291.69
376.771	298.69
376.997	290.69
377.222	315.69
377.448	313.69
377.674	290.69
377.899	283.69
378.125	280.69
378.35	313.69
378.576	302.69
378.802	292.69
379.027	301.69
379.253	304.69
379.478	282.69
379.704	282.69
379.929	301.69
380.155	307.69
380.38	306.69
380.606	304.69
380.831	296.69
381.057	301.69
381.282	274.69
381.507	299.69
381.733	297.69
381.958	286.69
382.184	302.69
382.409	307.69
382.634	300.69
382.86	301.69
383.085	318.69
383.31	311.69
383.535	297.69
383.761	315.69
383.986	318.69
384.211	301.69
384.436	290.69
384.662	313.69
384.887	328.69
385.112	306.69
385.337	314.69
385.562	318.69
385.787	311.69
386.013	333.69
386.238	325.69
386.463	318.69
386.688	314.69
386.913	311.69
387.138	315.69
387.363	300.69
387.588	317.69
387.813	300.69
388.038	312.69
388.263	312.69
388.488	318.69
388.713	317.69
388.938	325.69
389.163	319.69
389.387	298.69
389.612	327.69
389.837	314.69
390.062	314.69
390.287	311.69
390.512	316.69
390.736	301.69
390.961	316.69
391.186	302.69
391.411	313.69
391.636	312.69
391.86	326.69
392.085	320.69
392.31	331.69
392.534	285.69
392.759	313.69
392.984	320.69
393.208	341.69
393.433	346.69
393.658	357.69
393.882	346.69
394.107	335.69
394.331	326.69
394.556	322.69
394.78	316.69
395.005	330.69
395.229	320.69
395.454	323.69
395.678	328.69
395.903	326.69
396.127	334.69
396.352	360.69
396.576	354.69
396.801	325.69
397.025	347.69
397.249	334.69
397.474	322.69
397.698	339.69
397.922	342.69
398.147	359.69
398.371	356.69
398.595	363.69
398.82	359.69
399.044	375.69
399.268	380.69
399.492	363.69
399.717	392.69
399.941	416.69
400.165	432.69
400.389	439.69
400.613	401.69
400.837	404.69
401.062	384.69
401.286	354.69
401.51	363.69
401.734	355.69
401.958	341.69
402.182	353.69
402.406	376.69
402.63	367.69
402.854	358.69
403.078	362.69
403.302	359.69
403.526	374.69
403.75	396.69
403.974	376.69
404.198	365.69
404.422	376.69
404.645	370.69
404.869	376.69
405.093	392.69
405.317	412.69
405.541	426.69
405.765	387.69
405.988	392.69
406.212	391.69
406.436	420.69
406.66	421.69
406.883	407.69
407.107	412.69
407.331	449.69
407.555	512.69
407.778	516.69
408.002	469.69
408.226	426.69
408.449	417.69
408.673	409.69
408.896	443.69
409.12	481.69
409.344	453.69
409.567	398.69
409.791	393.69
410.014	395.69
410.238	376.69
410.461	394.69
410.685	382.69
410.908	386.69
411.132	454.69
411.355	463.69
411.578	424.69
411.802	413.69
412.025	378.69
412.249	370.69
412.472	375.69
412.695	402.69
412.919	364.69
413.142	362.69
413.365	366.69
413.589	370.69
413.812	352.69
414.035	340.69
414.258	343.69
414.482	342.69
414.705	359.69
414.928	345.69
415.151	353.69
415.374	345.69
415.597	360.69
415.821	356.69
416.044	361.69
416.267	362.69
416.49	358.69
416.713	363.69
416.936	395.69
417.159	358.69
417.382	356.69
417.605	373.69
417.828	376.69
418.051	390.69
418.274	383.69
418.497	372.69
418.72	370.69
418.943	365.69
419.166	380.69
419.389	377.69
419.611	383.69
419.834	379.69
420.057	387.69
420.28	396.69
420.503	389.69
420.726	399.69
420.948	407.69
421.171	421.69
421.394	464.69
421.617	422.69
421.839	367.69
422.062	400.69
422.285	388.69
422.507	450.69
422.73	526.69
422.953	509.69
423.175	448.69
423.398	417.69
423.621	395.69
423.843	435.69
424.066	425.69
424.288	434.69
424.511	427.69
424.733	507.69
424.956	582.69
425.178	544.69
425.401	554.69
425.623	553.69
425.846	459.69
426.068	448.69
426.291	438.69
426.513	432.69
426.735	470.69
426.958	489.69
427.18	546.69
427.402	655.69
427.625	705.69
427.847	660.69
428.069	563.69
428.292	507.69
428.514	451.69
428.736	458.69
428.958	418.69
429.181	430.69
429.403	415.69
429.625	411.69
429.847	463.69
430.069	504.69
430.292	522.69
430.514	447.69
430.736	410.69
430.958	395.69
431.18	384.69
431.402	393.69
431.624	394.69
431.846	389.69
432.068	376.69
432.29	366.69
432.512	360.69
432.734	383.69
432.956	381.69
433.178	422.69
433.4	392.69
433.622	387.69
433.844	378.69
434.066	382.69
434.287	376.69
434.509	376.69
434.731	385.69
434.953	393.69
435.175	387.69
435.397	430.69
435.618	463.69
435.84	475.69
436.062	550.69
436.284	645.69
436.505	518.69
436.727	454.69
436.949	432.69
437.17	410.69
437.392	407.69
437.614	440.69
437.835	456.69
438.057	584.69
438.278	635.69
438.5	648.69
438.721	692.69
438.943	655.69
439.165	544.69
439.386	488.69
439.608	465.69
439.829	469.69
440.05	494.69
440.272	527.69
440.493	498.69
440.715	441.69
440.936	429.69
441.158	416.69
441.379	418.69
441.6	412.69
441.822	438.69
442.043	478.69
442.264	551.69
442.486	589.69
442.707	509.69
442.928	462.69
443.149	466.69
443.371	493.69
443.592	534.69
443.813	603.69
444.034	618.69
444.255	527.69
444.476	474.69
444.698	447.69
444.919	449.69
445.14	540.69
445.361	500.69
445.582	470.69
445.803	560.69
446.024	626.69
446.245	610.69
446.466	561.69
446.687	511.69
446.908	464.69
447.129	454.69
447.35	419.69
447.571	418.69
447.792	411.69
448.013	408.69
448.234	440.69
448.455	480.69
448.675	600.69
448.896	672.69
449.117	582.69
449.338	575.69
449.559	638.69
449.779	686.69
450	565.69
450.221	476.69
450.442	442.69
450.662	446.69
450.883	413.69
451.104	444.69
451.324	431.69
451.545	418.69
451.766	394.69
451.986	373.69
452.207	367.69
452.428	362.69
452.648	372.69
452.869	382.69
453.089	391.69
453.31	396.69
453.53	384.69
453.751	398.69
453.971	387.69
454.192	394.69
454.412	391.69
454.633	382.69
454.853	368.69
455.073	383.69
455.294	392.69
455.514	457.69
455.734	443.69
455.955	396.69
456.175	358.69
456.395	358.69
456.616	357.69
456.836	342.69
457.056	329.69
457.276	331.69
457.497	344.69
457.717	328.69
457.937	360.69
458.157	358.69
458.377	372.69
458.598	358.69
458.818	430.69
459.038	524.69
459.258	538.69
459.478	425.69
459.698	398.69
459.918	391.69
460.138	374.69
460.358	366.69
460.578	388.69
460.798	371.69
461.018	379.69
461.238	373.69
461.458	361.69
461.678	372.69
461.898	382.69
462.118	359.69
462.338	374.69
462.558	374.69
462.777	394.69
462.997	383.69
463.217	412.69
463.437	380.69
463.657	402.69
463.876	387.69
464.096	379.69
464.316	381.69
464.536	420.69
464.755	407.69
464.975	413.69
465.195	451.69
465.414	520.69
465.634	454.69
465.854	438.69
466.073	393.69
466.293	389.69
466.512	371.69
466.732	381.69
466.951	360.69
467.171	386.69
467.391	361.69
467.61	366.69
467.829	419.69
468.049	375.69
468.268	368.69
468.488	358.69
468.707	378.69
468.927	360.69
469.146	374.69
469.365	378.69
469.585	377.69
469.804	372.69
470.023	395.69
470.243	386.69
470.462	382.69
470.681	396.69
470.901	400.69
471.12	387.69
471.339	371.69
471.558	361.69
471.777	392.69
471.997	386.69
472.216	380.69
472.435	390.69
472.654	371.69
472.873	384.69
473.092	372.69
473.311	405.69
473.53	396.69
473.749	384.69
473.968	423.69
474.187	534.69
474.406	535.69
474.625	448.69
474.844	391.69
475.063	368.69
475.282	380.69
475.501	400.69
475.72	382.69
475.939	394.69
476.158	388.69
476.377	401.69
476.596	411.69
476.814	410.69
477.033	430.69
477.252	406.69
477.471	395.69
477.69	408.69
477.908	389.69
478.127	407.69
478.346	384.69
478.564	437.69
478.783	441.69
479.002	434.69
479.22	420.69
479.439	453.69
479.658	472.69
479.876	487.69
480.095	483.69
480.313	496.69
480.532	458.69
480.751	454.69
480.969	444.69
481.188	487.69
481.406	472.69
481.624	438.69
481.843	449.69
482.061	458.69
482.28	438.69
482.498	452.69
482.717	430.69
482.935	429.69
483.153	446.69
483.372	444.69
483.59	460.69
483.808	452.69
484.027	461.69
484.245	477.69
484.463	476.69
484.681	451.69
484.9	443.69
485.118	479.69
485.336	456.69
485.554	450.69
485.772	482.69
485.99	452.69
486.209	483.69
486.427	470.69
486.645	482.69
486.863	499.69
487.081	498.69
487.299	489.69
487.517	496.69
487.735	475.69
487.953	493.69
488.171	475.69
488.389	481.69
488.607	509.69
488.825	495.69
489.043	496.69
489.261	486.69
489.479	506.69
489.696	502.69
489.914	516.69
490.132	501.69
490.35	523.69
490.568	514.69
490.786	520.69
491.003	549.69
491.221	558.69
491.439	522.69
491.657	562.69
491.874	559.69
492.092	541.69
492.31	546.69
492.527	552.69
492.745	569.69
492.963	586.69
493.18	575.69
493.398	598.69
493.615	586.69
493.833	584.69
494.05	593.69
494.268	598.69
494.485	587.69
494.703	607.69
494.92	572.69
495.138	589.69
495.355	601.69
495.573	559.69
495.79	595.69
496.008	611.69
496.225	589.69
496.442	562.69
496.66	600.69
496.877	589.69
497.094	599.69
497.312	616.69
497.529	597.69
497.746	623.69
497.963	629.69
498.181	632.69
498.398	642.69
498.615	643.69
498.832	644.69
499.049	632.69
499.267	660.69
499.484	644.69
499.701	694.69
499.918	700.69
500.135	710.69
500.352	696.69
500.569	695.69
500.786	718.69
501.003	713.69
501.22	717.69
501.437	725.69
501.654	715.69
501.871	710.69
502.088	678.69
