Data from 1987.PennyLincolnUp.Lamp.En5.5.200Scan.071819.P2_HRD10591_17-14-07-972.txt Node
Date: Thu Jul 18 17:14:07 EDT 2019
User: cochatt
Spectrometer: HR+D1059
Trigger mode: 1
Integration Time (sec): 1.000000E-1
Scans to average: 1
Electric dark correction enabled: true
Nonlinearity correction enabled: false
Boxcar width: 0
XAxis mode: Wavelengths
Number of Pixels in Spectrum: 2048
>>>>>Begin Spectral Data<<<<<
223.165	-19.06
223.4	-19.06
223.635	-19.06
223.869	-13.06
224.104	-16.06
224.338	-8.06
224.573	-23.06
224.808	-12.06
225.042	-7.06
225.277	-0.06
225.511	3.94
225.746	-2.06
225.98	19.94
226.215	9.94
226.449	11.94
226.683	10.94
226.918	21.94
227.152	21.94
227.387	34.94
227.621	41.94
227.856	46.94
228.09	35.94
228.324	56.94
228.559	51.94
228.793	63.94
229.027	96.94
229.262	101.94
229.496	114.94
229.73	137.94
229.964	163.94
230.199	119.94
230.433	114.94
230.667	106.94
230.901	103.94
231.136	99.94
231.37	106.94
231.604	121.94
231.838	115.94
232.072	113.94
232.306	120.94
232.541	121.94
232.775	123.94
233.009	106.94
233.243	103.94
233.477	83.94
233.711	106.94
233.945	107.94
234.179	109.94
234.413	121.94
234.647	111.94
234.881	99.94
235.115	107.94
235.349	118.94
235.583	109.94
235.817	115.94
236.051	115.94
236.285	115.94
236.519	119.94
236.753	139.94
236.987	127.94
237.221	168.94
237.455	217.94
237.689	187.94
237.922	133.94
238.156	117.94
238.39	117.94
238.624	129.94
238.858	118.94
239.091	127.94
239.325	96.94
239.559	121.94
239.793	121.94
240.027	117.94
240.26	113.94
240.494	149.94
240.728	130.94
240.961	140.94
241.195	129.94
241.429	126.94
241.662	129.94
241.896	120.94
242.13	122.94
242.363	125.94
242.597	114.94
242.83	124.94
243.064	121.94
243.298	124.94
243.531	126.94
243.765	114.94
243.998	127.94
244.232	124.94
244.465	117.94
244.699	127.94
244.932	124.94
245.166	137.94
245.399	133.94
245.633	132.94
245.866	132.94
246.099	142.94
246.333	132.94
246.566	141.94
246.8	117.94
247.033	135.94
247.266	133.94
247.5	151.94
247.733	139.94
247.966	147.94
248.2	158.94
248.433	139.94
248.666	157.94
248.899	163.94
249.133	194.94
249.366	196.94
249.599	179.94
249.832	166.94
250.066	171.94
250.299	178.94
250.532	175.94
250.765	162.94
250.998	193.94
251.231	210.94
251.465	191.94
251.698	181.94
251.931	180.94
252.164	170.94
252.397	182.94
252.63	182.94
252.863	185.94
253.096	193.94
253.329	199.94
253.562	192.94
253.795	214.94
254.028	204.94
254.261	191.94
254.494	209.94
254.727	227.94
254.96	243.94
255.193	240.94
255.426	223.94
255.659	206.94
255.892	209.94
256.124	187.94
256.357	177.94
256.59	188.94
256.823	183.94
257.056	167.94
257.289	196.94
257.521	184.94
257.754	189.94
257.987	182.94
258.22	173.94
258.452	172.94
258.685	189.94
258.918	162.94
259.151	183.94
259.383	203.94
259.616	187.94
259.849	196.94
260.081	194.94
260.314	216.94
260.547	215.94
260.779	205.94
261.012	195.94
261.244	203.94
261.477	194.94
261.71	194.94
261.942	200.94
262.175	206.94
262.407	220.94
262.64	197.94
262.872	172.94
263.105	186.94
263.337	179.94
263.57	179.94
263.802	172.94
264.035	170.94
264.267	158.94
264.499	185.94
264.732	187.94
264.964	183.94
265.197	172.94
265.429	182.94
265.661	181.94
265.894	174.94
266.126	176.94
266.358	180.94
266.591	179.94
266.823	181.94
267.055	187.94
267.287	191.94
267.52	193.94
267.752	196.94
267.984	180.94
268.216	180.94
268.448	188.94
268.681	183.94
268.913	190.94
269.145	212.94
269.377	232.94
269.609	203.94
269.841	207.94
270.073	232.94
270.306	241.94
270.538	261.94
270.77	260.94
271.002	242.94
271.234	249.94
271.466	262.94
271.698	251.94
271.93	267.94
272.162	258.94
272.394	267.94
272.626	265.94
272.858	233.94
273.09	257.94
273.322	240.94
273.553	228.94
273.785	220.94
274.017	226.94
274.249	207.94
274.481	202.94
274.713	218.94
274.945	213.94
275.176	215.94
275.408	212.94
275.64	213.94
275.872	227.94
276.104	208.94
276.335	214.94
276.567	216.94
276.799	244.94
277.031	243.94
277.262	262.94
277.494	247.94
277.726	255.94
277.957	240.94
278.189	240.94
278.421	215.94
278.652	221.94
278.884	206.94
279.115	208.94
279.347	217.94
279.579	205.94
279.81	208.94
280.042	218.94
280.273	205.94
280.505	241.94
280.736	203.94
280.968	210.94
281.199	197.94
281.431	204.94
281.662	194.94
281.894	201.94
282.125	200.94
282.356	224.94
282.588	259.94
282.819	252.94
283.051	220.94
283.282	219.94
283.513	205.94
283.745	211.94
283.976	212.94
284.207	217.94
284.439	229.94
284.67	224.94
284.901	196.94
285.132	194.94
285.364	200.94
285.595	196.94
285.826	213.94
286.057	212.94
286.288	217.94
286.52	213.94
286.751	191.94
286.982	212.94
287.213	213.94
287.444	212.94
287.675	226.94
287.906	236.94
288.138	229.94
288.369	217.94
288.6	235.94
288.831	218.94
289.062	218.94
289.293	219.94
289.524	224.94
289.755	197.94
289.986	216.94
290.217	215.94
290.448	225.94
290.679	219.94
290.91	200.94
291.141	212.94
291.371	210.94
291.602	203.94
291.833	220.94
292.064	206.94
292.295	216.94
292.526	210.94
292.757	206.94
292.987	216.94
293.218	221.94
293.449	215.94
293.68	207.94
293.91	202.94
294.141	201.94
294.372	202.94
294.603	221.94
294.833	217.94
295.064	212.94
295.295	212.94
295.525	224.94
295.756	236.94
295.987	233.94
296.217	253.94
296.448	289.94
296.679	228.94
296.909	227.94
297.14	199.94
297.37	218.94
297.601	215.94
297.831	206.94
298.062	220.94
298.292	218.94
298.523	228.94
298.753	219.94
298.984	207.94
299.214	217.94
299.445	224.94
299.675	223.94
299.905	227.94
300.136	246.94
300.366	225.94
300.597	226.94
300.827	232.94
301.057	242.94
301.288	245.94
301.518	236.94
301.748	243.94
301.979	233.94
302.209	248.94
302.439	237.94
302.669	224.94
302.9	247.94
303.13	233.94
303.36	233.94
303.59	247.94
303.82	242.94
304.051	241.94
304.281	224.94
304.511	241.94
304.741	228.94
304.971	222.94
305.201	233.94
305.431	245.94
305.661	248.94
305.891	234.94
306.121	240.94
306.352	262.94
306.582	247.94
306.812	229.94
307.042	251.94
307.272	237.94
307.502	252.94
307.731	225.94
307.961	249.94
308.191	248.94
308.421	247.94
308.651	257.94
308.881	259.94
309.111	255.94
309.341	235.94
309.571	269.94
309.8	281.94
310.03	293.94
310.26	289.94
310.49	290.94
310.72	297.94
310.949	317.94
311.179	329.94
311.409	306.94
311.639	298.94
311.868	298.94
312.098	294.94
312.328	296.94
312.557	316.94
312.787	342.94
313.017	318.94
313.246	318.94
313.476	280.94
313.706	296.94
313.935	293.94
314.165	306.94
314.394	333.94
314.624	316.94
314.853	293.94
315.083	281.94
315.312	299.94
315.542	275.94
315.771	277.94
316.001	291.94
316.23	274.94
316.46	278.94
316.689	287.94
316.919	301.94
317.148	287.94
317.377	306.94
317.607	299.94
317.836	299.94
318.065	281.94
318.295	265.94
318.524	262.94
318.753	282.94
318.983	274.94
319.212	300.94
319.441	288.94
319.67	315.94
319.9	280.94
320.129	280.94
320.358	283.94
320.587	316.94
320.816	307.94
321.046	306.94
321.275	305.94
321.504	329.94
321.733	321.94
321.962	325.94
322.191	333.94
322.42	348.94
322.649	368.94
322.878	393.94
323.108	375.94
323.337	401.94
323.566	436.94
323.795	489.94
324.024	522.94
324.253	677.94
324.482	934.94
324.71	1457.94
324.939	2085.94
325.168	1793.94
325.397	987.94
325.626	669.94
325.855	492.94
326.084	460.94
326.313	443.94
326.542	431.94
326.77	506.94
326.999	603.94
327.228	816.94
327.457	1247.94
327.686	1531.94
327.914	1060.94
328.143	703.94
328.372	573.94
328.6	542.94
328.829	500.94
329.058	520.94
329.287	520.94
329.515	464.94
329.744	425.94
329.972	423.94
330.201	411.94
330.43	454.94
330.658	490.94
330.887	540.94
331.115	539.94
331.344	447.94
331.572	397.94
331.801	397.94
332.03	384.94
332.258	383.94
332.486	359.94
332.715	332.94
332.943	345.94
333.172	334.94
333.4	343.94
333.629	352.94
333.857	361.94
334.085	362.94
334.314	338.94
334.542	345.94
334.771	359.94
334.999	365.94
335.227	344.94
335.455	343.94
335.684	355.94
335.912	348.94
336.14	326.94
336.369	308.94
336.597	357.94
336.825	335.94
337.053	334.94
337.281	322.94
337.51	341.94
337.738	329.94
337.966	323.94
338.194	324.94
338.422	340.94
338.65	319.94
338.878	324.94
339.106	313.94
339.334	343.94
339.562	310.94
339.79	316.94
340.018	349.94
340.246	328.94
340.474	331.94
340.702	334.94
340.93	325.94
341.158	317.94
341.386	315.94
341.614	345.94
341.842	336.94
342.07	316.94
342.298	311.94
342.526	304.94
342.754	307.94
342.981	305.94
343.209	312.94
343.437	299.94
343.665	300.94
343.893	316.94
344.12	320.94
344.348	326.94
344.576	321.94
344.804	330.94
345.031	339.94
345.259	337.94
345.487	333.94
345.714	327.94
345.942	333.94
346.17	306.94
346.397	321.94
346.625	309.94
346.853	313.94
347.08	322.94
347.308	306.94
347.535	329.94
347.763	346.94
347.99	331.94
348.218	324.94
348.445	332.94
348.673	320.94
348.9	322.94
349.128	321.94
349.355	305.94
349.583	300.94
349.81	298.94
350.037	304.94
350.265	303.94
350.492	319.94
350.72	314.94
350.947	316.94
351.174	329.94
351.402	329.94
351.629	345.94
351.856	349.94
352.083	358.94
352.311	351.94
352.538	325.94
352.765	360.94
352.992	349.94
353.22	323.94
353.447	329.94
353.674	323.94
353.901	324.94
354.128	321.94
354.355	304.94
354.583	316.94
354.81	309.94
355.037	304.94
355.264	303.94
355.491	296.94
355.718	292.94
355.945	298.94
356.172	298.94
356.399	292.94
356.626	288.94
356.853	290.94
357.08	296.94
357.307	280.94
357.534	288.94
357.761	290.94
357.988	295.94
358.215	293.94
358.441	296.94
358.668	296.94
358.895	304.94
359.122	322.94
359.349	309.94
359.576	338.94
359.802	357.94
360.029	382.94
360.256	371.94
360.483	375.94
360.709	355.94
360.936	335.94
361.163	332.94
361.39	335.94
361.616	348.94
361.843	336.94
362.07	337.94
362.296	352.94
362.523	339.94
362.749	347.94
362.976	313.94
363.203	329.94
363.429	319.94
363.656	308.94
363.882	322.94
364.109	315.94
364.335	310.94
364.562	313.94
364.788	308.94
365.015	298.94
365.241	291.94
365.468	296.94
365.694	315.94
365.92	337.94
366.147	309.94
366.373	324.94
366.599	297.94
366.826	307.94
367.052	323.94
367.278	304.94
367.505	306.94
367.731	310.94
367.957	312.94
368.184	298.94
368.41	309.94
368.636	320.94
368.862	333.94
369.089	322.94
369.315	301.94
369.541	296.94
369.767	320.94
369.993	316.94
370.219	317.94
370.445	323.94
370.672	308.94
370.898	289.94
371.124	303.94
371.35	283.94
371.576	307.94
371.802	305.94
372.028	300.94
372.254	292.94
372.48	308.94
372.706	307.94
372.932	300.94
373.158	298.94
373.384	298.94
373.61	299.94
373.835	306.94
374.061	291.94
374.287	305.94
374.513	298.94
374.739	295.94
374.965	315.94
375.191	310.94
375.416	306.94
375.642	301.94
375.868	301.94
376.094	303.94
376.319	297.94
376.545	300.94
376.771	287.94
376.997	305.94
377.222	279.94
377.448	285.94
377.674	293.94
377.899	284.94
378.125	303.94
378.35	304.94
378.576	309.94
378.802	288.94
379.027	295.94
379.253	293.94
379.478	290.94
379.704	306.94
379.929	300.94
380.155	300.94
380.38	314.94
380.606	307.94
380.831	318.94
381.057	302.94
381.282	312.94
381.507	314.94
381.733	310.94
381.958	307.94
382.184	291.94
382.409	303.94
382.634	310.94
382.86	318.94
383.085	311.94
383.31	307.94
383.535	325.94
383.761	301.94
383.986	321.94
384.211	317.94
384.436	313.94
384.662	307.94
384.887	301.94
385.112	319.94
385.337	329.94
385.562	327.94
385.787	305.94
386.013	309.94
386.238	308.94
386.463	341.94
386.688	330.94
386.913	308.94
387.138	331.94
387.363	314.94
387.588	305.94
387.813	319.94
388.038	314.94
388.263	319.94
388.488	298.94
388.713	338.94
388.938	325.94
389.163	308.94
389.387	328.94
389.612	316.94
389.837	325.94
390.062	317.94
390.287	338.94
390.512	307.94
390.736	329.94
390.961	315.94
391.186	314.94
391.411	332.94
391.636	326.94
391.86	341.94
392.085	319.94
392.31	331.94
392.534	331.94
392.759	340.94
392.984	325.94
393.208	326.94
393.433	343.94
393.658	365.94
393.882	333.94
394.107	328.94
394.331	323.94
394.556	313.94
394.78	317.94
395.005	329.94
395.229	343.94
395.454	329.94
395.678	342.94
395.903	349.94
396.127	351.94
396.352	369.94
396.576	339.94
396.801	344.94
397.025	359.94
397.249	333.94
397.474	349.94
397.698	352.94
397.922	351.94
398.147	372.94
398.371	361.94
398.595	370.94
398.82	360.94
399.044	345.94
399.268	372.94
399.492	367.94
399.717	396.94
399.941	401.94
400.165	455.94
400.389	469.94
400.613	427.94
400.837	392.94
401.062	389.94
401.286	377.94
401.51	379.94
401.734	373.94
401.958	373.94
402.182	356.94
402.406	377.94
402.63	385.94
402.854	387.94
403.078	374.94
403.302	388.94
403.526	406.94
403.75	376.94
403.974	381.94
404.198	392.94
404.422	404.94
404.645	379.94
404.869	381.94
405.093	414.94
405.317	409.94
405.541	449.94
405.765	390.94
405.988	388.94
406.212	412.94
406.436	446.94
406.66	456.94
406.883	444.94
407.107	452.94
407.331	471.94
407.555	531.94
407.778	532.94
408.002	471.94
408.226	434.94
408.449	431.94
408.673	440.94
408.896	437.94
409.12	477.94
409.344	478.94
409.567	421.94
409.791	421.94
410.014	405.94
410.238	394.94
410.461	377.94
410.685	389.94
410.908	411.94
411.132	455.94
411.355	457.94
411.578	433.94
411.802	432.94
412.025	379.94
412.249	383.94
412.472	378.94
412.695	403.94
412.919	395.94
413.142	381.94
413.365	356.94
413.589	356.94
413.812	348.94
414.035	379.94
414.258	370.94
414.482	355.94
414.705	365.94
414.928	348.94
415.151	379.94
415.374	363.94
415.597	374.94
415.821	371.94
416.044	360.94
416.267	376.94
416.49	347.94
416.713	381.94
416.936	379.94
417.159	371.94
417.382	377.94
417.605	388.94
417.828	395.94
418.051	389.94
418.274	395.94
418.497	373.94
418.72	387.94
418.943	362.94
419.166	359.94
419.389	394.94
419.611	415.94
419.834	400.94
420.057	393.94
420.28	385.94
420.503	396.94
420.726	403.94
420.948	409.94
421.171	458.94
421.394	495.94
421.617	433.94
421.839	421.94
422.062	420.94
422.285	395.94
422.507	456.94
422.73	541.94
422.953	539.94
423.175	461.94
423.398	439.94
423.621	407.94
423.843	430.94
424.066	447.94
424.288	447.94
424.511	455.94
424.733	508.94
424.956	573.94
425.178	571.94
425.401	568.94
425.623	586.94
425.846	511.94
426.068	477.94
426.291	470.94
426.513	472.94
426.735	487.94
426.958	506.94
427.18	580.94
427.402	694.94
427.625	745.94
427.847	695.94
428.069	577.94
428.292	524.94
428.514	491.94
428.736	466.94
428.958	432.94
429.181	438.94
429.403	416.94
429.625	441.94
429.847	468.94
430.069	531.94
430.292	531.94
430.514	449.94
430.736	414.94
430.958	436.94
431.18	391.94
431.402	389.94
431.624	400.94
431.846	400.94
432.068	400.94
432.29	406.94
432.512	386.94
432.734	422.94
432.956	402.94
433.178	400.94
433.4	423.94
433.622	398.94
433.844	400.94
434.066	401.94
434.287	398.94
434.509	391.94
434.731	396.94
434.953	393.94
435.175	418.94
435.397	452.94
435.618	449.94
435.84	495.94
436.062	582.94
436.284	645.94
436.505	518.94
436.727	488.94
436.949	447.94
437.17	419.94
437.392	431.94
437.614	454.94
437.835	481.94
438.057	575.94
438.278	651.94
438.5	651.94
438.721	680.94
438.943	659.94
439.165	556.94
439.386	485.94
439.608	496.94
439.829	480.94
440.05	497.94
440.272	539.94
440.493	538.94
440.715	473.94
440.936	451.94
441.158	434.94
441.379	435.94
441.6	437.94
441.822	438.94
442.043	514.94
442.264	588.94
442.486	613.94
442.707	503.94
442.928	480.94
443.149	482.94
443.371	525.94
443.592	546.94
443.813	616.94
444.034	659.94
444.255	565.94
444.476	476.94
444.698	457.94
444.919	477.94
445.14	545.94
445.361	511.94
445.582	500.94
445.803	569.94
446.024	654.94
446.245	652.94
446.466	600.94
446.687	525.94
446.908	461.94
447.129	481.94
447.35	440.94
447.571	425.94
447.792	421.94
448.013	435.94
448.234	451.94
448.455	516.94
448.675	623.94
448.896	675.94
449.117	596.94
449.338	552.94
449.559	655.94
449.779	713.94
450	597.94
450.221	513.94
450.442	461.94
450.662	433.94
450.883	445.94
451.104	475.94
451.324	473.94
451.545	417.94
451.766	418.94
451.986	403.94
452.207	382.94
452.428	389.94
452.648	397.94
452.869	369.94
453.089	398.94
453.31	426.94
453.53	383.94
453.751	402.94
453.971	413.94
454.192	407.94
454.412	413.94
454.633	391.94
454.853	390.94
455.073	384.94
455.294	424.94
455.514	481.94
455.734	451.94
455.955	377.94
456.175	377.94
456.395	361.94
456.616	348.94
456.836	362.94
457.056	348.94
457.276	335.94
457.497	338.94
457.717	339.94
457.937	344.94
458.157	377.94
458.377	386.94
458.598	397.94
458.818	480.94
459.038	567.94
459.258	557.94
459.478	460.94
459.698	409.94
459.918	383.94
460.138	383.94
460.358	370.94
460.578	392.94
460.798	373.94
461.018	412.94
461.238	389.94
461.458	383.94
461.678	394.94
461.898	364.94
462.118	389.94
462.338	373.94
462.558	392.94
462.777	374.94
462.997	385.94
463.217	375.94
463.437	396.94
463.657	387.94
463.876	389.94
464.096	396.94
464.316	375.94
464.536	415.94
464.755	418.94
464.975	412.94
465.195	487.94
465.414	595.94
465.634	495.94
465.854	435.94
466.073	409.94
466.293	427.94
466.512	383.94
466.732	377.94
466.951	385.94
467.171	398.94
467.391	383.94
467.61	401.94
467.829	416.94
468.049	389.94
468.268	356.94
468.488	345.94
468.707	375.94
468.927	368.94
469.146	362.94
469.365	361.94
469.585	393.94
469.804	377.94
470.023	375.94
470.243	403.94
470.462	395.94
470.681	411.94
470.901	413.94
471.12	387.94
471.339	392.94
471.558	394.94
471.777	408.94
471.997	376.94
472.216	393.94
472.435	396.94
472.654	392.94
472.873	396.94
473.092	388.94
473.311	382.94
473.53	388.94
473.749	397.94
473.968	441.94
474.187	522.94
474.406	553.94
474.625	469.94
474.844	411.94
475.063	389.94
475.282	400.94
475.501	397.94
475.72	417.94
475.939	403.94
476.158	388.94
476.377	394.94
476.596	413.94
476.814	389.94
477.033	395.94
477.252	414.94
477.471	412.94
477.69	437.94
477.908	415.94
478.127	395.94
478.346	407.94
478.564	421.94
478.783	427.94
479.002	437.94
479.22	427.94
479.439	446.94
479.658	451.94
479.876	490.94
480.095	475.94
480.313	515.94
480.532	496.94
480.751	479.94
480.969	481.94
481.188	512.94
481.406	475.94
481.624	485.94
481.843	469.94
482.061	467.94
482.28	461.94
482.498	443.94
482.717	443.94
482.935	472.94
483.153	440.94
483.372	484.94
483.59	474.94
483.808	452.94
484.027	452.94
484.245	471.94
484.463	460.94
484.681	459.94
484.9	479.94
485.118	474.94
485.336	477.94
485.554	472.94
485.772	474.94
485.99	487.94
486.209	469.94
486.427	498.94
486.645	513.94
486.863	486.94
487.081	540.94
487.299	531.94
487.517	512.94
487.735	519.94
487.953	491.94
488.171	492.94
488.389	525.94
488.607	509.94
488.825	502.94
489.043	477.94
489.261	520.94
489.479	533.94
489.696	516.94
489.914	517.94
490.132	529.94
490.35	518.94
490.568	535.94
490.786	544.94
491.003	546.94
491.221	537.94
491.439	561.94
491.657	570.94
491.874	565.94
492.092	575.94
492.31	575.94
492.527	572.94
492.745	591.94
492.963	580.94
493.18	592.94
493.398	555.94
493.615	617.94
493.833	593.94
494.05	608.94
494.268	599.94
494.485	599.94
494.703	609.94
494.92	623.94
495.138	616.94
495.355	598.94
495.573	598.94
495.79	628.94
496.008	609.94
496.225	595.94
496.442	613.94
496.66	619.94
496.877	611.94
497.094	636.94
497.312	607.94
497.529	623.94
497.746	638.94
497.963	646.94
498.181	644.94
498.398	635.94
498.615	649.94
498.832	657.94
499.049	661.94
499.267	651.94
499.484	682.94
499.701	679.94
499.918	683.94
500.135	711.94
500.352	729.94
500.569	713.94
500.786	747.94
501.003	729.94
501.22	730.94
501.437	713.94
501.654	726.94
501.871	744.94
502.088	706.94
