Data from 1987.PennyLincolnUp.Lamp.En5.5.200Scan.071819.P2_HRD10591_17-13-49-972.txt Node
Date: Thu Jul 18 17:13:49 EDT 2019
User: cochatt
Spectrometer: HR+D1059
Trigger mode: 1
Integration Time (sec): 1.000000E-1
Scans to average: 1
Electric dark correction enabled: true
Nonlinearity correction enabled: false
Boxcar width: 0
XAxis mode: Wavelengths
Number of Pixels in Spectrum: 2048
>>>>>Begin Spectral Data<<<<<
223.165	-0.25
223.4	-0.25
223.635	-0.25
223.869	-21.25
224.104	-27.25
224.338	-10.25
224.573	-27.25
224.808	-12.25
225.042	-2.25
225.277	-11.25
225.511	-0.25
225.746	17.75
225.98	12.75
226.215	8.75
226.449	3.75
226.683	18.75
226.918	27.75
227.152	22.75
227.387	40.75
227.621	40.75
227.856	36.75
228.09	36.75
228.324	47.75
228.559	47.75
228.793	55.75
229.027	100.75
229.262	104.75
229.496	107.75
229.73	119.75
229.964	131.75
230.199	110.75
230.433	107.75
230.667	94.75
230.901	125.75
231.136	113.75
231.37	113.75
231.604	94.75
231.838	105.75
232.072	98.75
232.306	95.75
232.541	109.75
232.775	89.75
233.009	105.75
233.243	107.75
233.477	106.75
233.711	97.75
233.945	97.75
234.179	116.75
234.413	95.75
234.647	100.75
234.881	95.75
235.115	104.75
235.349	105.75
235.583	117.75
235.817	109.75
236.051	106.75
236.285	100.75
236.519	119.75
236.753	118.75
236.987	116.75
237.221	162.75
237.455	205.75
237.689	168.75
237.922	135.75
238.156	107.75
238.39	123.75
238.624	119.75
238.858	118.75
239.091	105.75
239.325	115.75
239.559	117.75
239.793	98.75
240.027	115.75
240.26	122.75
240.494	136.75
240.728	128.75
240.961	132.75
241.195	119.75
241.429	121.75
241.662	120.75
241.896	111.75
242.13	117.75
242.363	120.75
242.597	104.75
242.83	137.75
243.064	111.75
243.298	131.75
243.531	119.75
243.765	116.75
243.998	120.75
244.232	116.75
244.465	120.75
244.699	123.75
244.932	142.75
245.166	110.75
245.399	122.75
245.633	124.75
245.866	105.75
246.099	123.75
246.333	115.75
246.566	123.75
246.8	120.75
247.033	127.75
247.266	141.75
247.5	123.75
247.733	137.75
247.966	139.75
248.2	134.75
248.433	137.75
248.666	132.75
248.899	141.75
249.133	151.75
249.366	171.75
249.599	161.75
249.832	151.75
250.066	164.75
250.299	151.75
250.532	142.75
250.765	165.75
250.998	159.75
251.231	188.75
251.465	179.75
251.698	166.75
251.931	164.75
252.164	171.75
252.397	181.75
252.63	160.75
252.863	181.75
253.096	158.75
253.329	168.75
253.562	189.75
253.795	179.75
254.028	181.75
254.261	183.75
254.494	195.75
254.727	203.75
254.96	229.75
255.193	207.75
255.426	191.75
255.659	181.75
255.892	191.75
256.124	180.75
256.357	167.75
256.59	165.75
256.823	180.75
257.056	165.75
257.289	162.75
257.521	154.75
257.754	163.75
257.987	153.75
258.22	160.75
258.452	173.75
258.685	165.75
258.918	168.75
259.151	160.75
259.383	149.75
259.616	169.75
259.849	165.75
260.081	190.75
260.314	191.75
260.547	194.75
260.779	197.75
261.012	177.75
261.244	171.75
261.477	169.75
261.71	171.75
261.942	178.75
262.175	175.75
262.407	168.75
262.64	159.75
262.872	176.75
263.105	169.75
263.337	165.75
263.57	170.75
263.802	146.75
264.035	157.75
264.267	162.75
264.499	155.75
264.732	166.75
264.964	152.75
265.197	151.75
265.429	165.75
265.661	179.75
265.894	156.75
266.126	160.75
266.358	157.75
266.591	161.75
266.823	175.75
267.055	164.75
267.287	153.75
267.52	167.75
267.752	178.75
267.984	179.75
268.216	168.75
268.448	186.75
268.681	156.75
268.913	189.75
269.145	190.75
269.377	201.75
269.609	197.75
269.841	201.75
270.073	208.75
270.306	211.75
270.538	224.75
270.77	207.75
271.002	214.75
271.234	222.75
271.466	215.75
271.698	219.75
271.93	230.75
272.162	251.75
272.394	229.75
272.626	232.75
272.858	216.75
273.09	196.75
273.322	214.75
273.553	191.75
273.785	177.75
274.017	189.75
274.249	188.75
274.481	181.75
274.713	193.75
274.945	203.75
275.176	183.75
275.408	196.75
275.64	183.75
275.872	206.75
276.104	201.75
276.335	190.75
276.567	203.75
276.799	216.75
277.031	244.75
277.262	219.75
277.494	225.75
277.726	194.75
277.957	208.75
278.189	208.75
278.421	202.75
278.652	197.75
278.884	204.75
279.115	183.75
279.347	211.75
279.579	200.75
279.81	208.75
280.042	207.75
280.273	185.75
280.505	200.75
280.736	191.75
280.968	188.75
281.199	188.75
281.431	187.75
281.662	200.75
281.894	177.75
282.125	192.75
282.356	193.75
282.588	228.75
282.819	224.75
283.051	188.75
283.282	188.75
283.513	179.75
283.745	196.75
283.976	177.75
284.207	178.75
284.439	180.75
284.67	188.75
284.901	195.75
285.132	189.75
285.364	179.75
285.595	192.75
285.826	179.75
286.057	181.75
286.288	190.75
286.52	201.75
286.751	184.75
286.982	200.75
287.213	185.75
287.444	200.75
287.675	175.75
287.906	186.75
288.138	207.75
288.369	187.75
288.6	207.75
288.831	195.75
289.062	195.75
289.293	205.75
289.524	195.75
289.755	201.75
289.986	195.75
290.217	175.75
290.448	189.75
290.679	186.75
290.91	188.75
291.141	185.75
291.371	181.75
291.602	190.75
291.833	178.75
292.064	179.75
292.295	179.75
292.526	185.75
292.757	192.75
292.987	181.75
293.218	183.75
293.449	180.75
293.68	183.75
293.91	201.75
294.141	194.75
294.372	186.75
294.603	180.75
294.833	185.75
295.064	192.75
295.295	186.75
295.525	179.75
295.756	204.75
295.987	217.75
296.217	219.75
296.448	245.75
296.679	219.75
296.909	202.75
297.14	207.75
297.37	183.75
297.601	203.75
297.831	205.75
298.062	196.75
298.292	205.75
298.523	208.75
298.753	207.75
298.984	196.75
299.214	197.75
299.445	182.75
299.675	192.75
299.905	197.75
300.136	202.75
300.366	218.75
300.597	202.75
300.827	206.75
301.057	208.75
301.288	216.75
301.518	209.75
301.748	213.75
301.979	217.75
302.209	196.75
302.439	221.75
302.669	206.75
302.9	199.75
303.13	227.75
303.36	209.75
303.59	193.75
303.82	216.75
304.051	215.75
304.281	212.75
304.511	212.75
304.741	210.75
304.971	205.75
305.201	185.75
305.431	215.75
305.661	223.75
305.891	210.75
306.121	205.75
306.352	210.75
306.582	228.75
306.812	221.75
307.042	212.75
307.272	210.75
307.502	204.75
307.731	225.75
307.961	212.75
308.191	215.75
308.421	218.75
308.651	221.75
308.881	219.75
309.111	226.75
309.341	228.75
309.571	223.75
309.8	233.75
310.03	259.75
310.26	258.75
310.49	262.75
310.72	259.75
310.949	267.75
311.179	275.75
311.409	269.75
311.639	257.75
311.868	275.75
312.098	249.75
312.328	277.75
312.557	277.75
312.787	302.75
313.017	276.75
313.246	249.75
313.476	255.75
313.706	269.75
313.935	266.75
314.165	292.75
314.394	276.75
314.624	279.75
314.853	276.75
315.083	268.75
315.312	251.75
315.542	243.75
315.771	262.75
316.001	250.75
316.23	245.75
316.46	266.75
316.689	258.75
316.919	270.75
317.148	265.75
317.377	275.75
317.607	281.75
317.836	253.75
318.065	251.75
318.295	260.75
318.524	253.75
318.753	269.75
318.983	244.75
319.212	244.75
319.441	256.75
319.67	262.75
319.9	263.75
320.129	242.75
320.358	233.75
320.587	259.75
320.816	261.75
321.046	285.75
321.275	266.75
321.504	288.75
321.733	297.75
321.962	291.75
322.191	297.75
322.42	307.75
322.649	341.75
322.878	341.75
323.108	337.75
323.337	356.75
323.566	391.75
323.795	402.75
324.024	451.75
324.253	551.75
324.482	795.75
324.71	1202.75
324.939	1738.75
325.168	1533.75
325.397	839.75
325.626	555.75
325.855	437.75
326.084	381.75
326.313	377.75
326.542	388.75
326.77	450.75
326.999	509.75
327.228	714.75
327.457	1095.75
327.686	1305.75
327.914	912.75
328.143	579.75
328.372	492.75
328.6	459.75
328.829	436.75
329.058	431.75
329.287	451.75
329.515	434.75
329.744	376.75
329.972	352.75
330.201	360.75
330.43	385.75
330.658	411.75
330.887	477.75
331.115	452.75
331.344	401.75
331.572	346.75
331.801	361.75
332.03	352.75
332.258	336.75
332.486	310.75
332.715	297.75
332.943	288.75
333.172	292.75
333.4	303.75
333.629	288.75
333.857	282.75
334.085	307.75
334.314	310.75
334.542	317.75
334.771	303.75
334.999	313.75
335.227	312.75
335.455	296.75
335.684	292.75
335.912	271.75
336.14	292.75
336.369	317.75
336.597	285.75
336.825	300.75
337.053	285.75
337.281	296.75
337.51	289.75
337.738	293.75
337.966	292.75
338.194	276.75
338.422	283.75
338.65	289.75
338.878	267.75
339.106	284.75
339.334	285.75
339.562	281.75
339.79	280.75
340.018	291.75
340.246	286.75
340.474	294.75
340.702	286.75
340.93	282.75
341.158	281.75
341.386	295.75
341.614	278.75
341.842	295.75
342.07	296.75
342.298	303.75
342.526	287.75
342.754	274.75
342.981	270.75
343.209	272.75
343.437	279.75
343.665	278.75
343.893	279.75
344.12	275.75
344.348	285.75
344.576	276.75
344.804	283.75
345.031	290.75
345.259	298.75
345.487	296.75
345.714	299.75
345.942	287.75
346.17	296.75
346.397	290.75
346.625	275.75
346.853	277.75
347.08	282.75
347.308	284.75
347.535	289.75
347.763	283.75
347.99	279.75
348.218	303.75
348.445	290.75
348.673	289.75
348.9	288.75
349.128	261.75
349.355	278.75
349.583	273.75
349.81	278.75
350.037	270.75
350.265	279.75
350.492	285.75
350.72	272.75
350.947	288.75
351.174	296.75
351.402	290.75
351.629	291.75
351.856	300.75
352.083	291.75
352.311	314.75
352.538	319.75
352.765	309.75
352.992	316.75
353.22	283.75
353.447	300.75
353.674	283.75
353.901	271.75
354.128	263.75
354.355	253.75
354.583	277.75
354.81	265.75
355.037	263.75
355.264	264.75
355.491	265.75
355.718	274.75
355.945	255.75
356.172	242.75
356.399	249.75
356.626	282.75
356.853	256.75
357.08	255.75
357.307	274.75
357.534	251.75
357.761	255.75
357.988	255.75
358.215	278.75
358.441	269.75
358.668	249.75
358.895	300.75
359.122	283.75
359.349	285.75
359.576	292.75
359.802	301.75
360.029	321.75
360.256	341.75
360.483	332.75
360.709	296.75
360.936	286.75
361.163	274.75
361.39	303.75
361.616	300.75
361.843	283.75
362.07	281.75
362.296	298.75
362.523	293.75
362.749	268.75
362.976	289.75
363.203	297.75
363.429	276.75
363.656	261.75
363.882	281.75
364.109	279.75
364.335	275.75
364.562	280.75
364.788	280.75
365.015	282.75
365.241	267.75
365.468	284.75
365.694	277.75
365.92	299.75
366.147	277.75
366.373	284.75
366.599	285.75
366.826	270.75
367.052	276.75
367.278	287.75
367.505	257.75
367.731	268.75
367.957	294.75
368.184	270.75
368.41	282.75
368.636	300.75
368.862	282.75
369.089	296.75
369.315	277.75
369.541	274.75
369.767	270.75
369.993	290.75
370.219	279.75
370.445	273.75
370.672	267.75
370.898	275.75
371.124	284.75
371.35	266.75
371.576	258.75
371.802	267.75
372.028	282.75
372.254	277.75
372.48	267.75
372.706	266.75
372.932	260.75
373.158	266.75
373.384	291.75
373.61	293.75
373.835	274.75
374.061	274.75
374.287	292.75
374.513	285.75
374.739	276.75
374.965	277.75
375.191	263.75
375.416	265.75
375.642	270.75
375.868	275.75
376.094	269.75
376.319	265.75
376.545	273.75
376.771	279.75
376.997	275.75
377.222	265.75
377.448	266.75
377.674	274.75
377.899	279.75
378.125	278.75
378.35	285.75
378.576	266.75
378.802	257.75
379.027	277.75
379.253	281.75
379.478	269.75
379.704	270.75
379.929	269.75
380.155	260.75
380.38	276.75
380.606	279.75
380.831	286.75
381.057	266.75
381.282	279.75
381.507	295.75
381.733	273.75
381.958	273.75
382.184	281.75
382.409	276.75
382.634	290.75
382.86	277.75
383.085	283.75
383.31	281.75
383.535	276.75
383.761	272.75
383.986	292.75
384.211	272.75
384.436	269.75
384.662	275.75
384.887	274.75
385.112	279.75
385.337	284.75
385.562	267.75
385.787	283.75
386.013	283.75
386.238	308.75
386.463	292.75
386.688	271.75
386.913	287.75
387.138	277.75
387.363	290.75
387.588	307.75
387.813	284.75
388.038	301.75
388.263	292.75
388.488	288.75
388.713	295.75
388.938	277.75
389.163	288.75
389.387	297.75
389.612	268.75
389.837	273.75
390.062	291.75
390.287	283.75
390.512	295.75
390.736	295.75
390.961	308.75
391.186	295.75
391.411	281.75
391.636	268.75
391.86	285.75
392.085	299.75
392.31	280.75
392.534	292.75
392.759	318.75
392.984	315.75
393.208	369.75
393.433	447.75
393.658	459.75
393.882	336.75
394.107	311.75
394.331	287.75
394.556	297.75
394.78	289.75
395.005	298.75
395.229	314.75
395.454	307.75
395.678	311.75
395.903	317.75
396.127	319.75
396.352	333.75
396.576	340.75
396.801	363.75
397.025	387.75
397.249	356.75
397.474	320.75
397.698	311.75
397.922	322.75
398.147	340.75
398.371	348.75
398.595	329.75
398.82	347.75
399.044	336.75
399.268	333.75
399.492	340.75
399.717	339.75
399.941	359.75
400.165	366.75
400.389	403.75
400.613	370.75
400.837	351.75
401.062	330.75
401.286	343.75
401.51	335.75
401.734	337.75
401.958	348.75
402.182	338.75
402.406	361.75
402.63	345.75
402.854	340.75
403.078	355.75
403.302	360.75
403.526	351.75
403.75	351.75
403.974	348.75
404.198	340.75
404.422	342.75
404.645	335.75
404.869	344.75
405.093	358.75
405.317	379.75
405.541	395.75
405.765	380.75
405.988	356.75
406.212	358.75
406.436	385.75
406.66	415.75
406.883	379.75
407.107	394.75
407.331	432.75
407.555	486.75
407.778	470.75
408.002	427.75
408.226	386.75
408.449	392.75
408.673	394.75
408.896	421.75
409.12	452.75
409.344	418.75
409.567	375.75
409.791	346.75
410.014	355.75
410.238	361.75
410.461	326.75
410.685	365.75
410.908	370.75
411.132	383.75
411.355	421.75
411.578	403.75
411.802	356.75
412.025	372.75
412.249	338.75
412.472	341.75
412.695	346.75
412.919	370.75
413.142	341.75
413.365	337.75
413.589	335.75
413.812	348.75
414.035	338.75
414.258	322.75
414.482	335.75
414.705	329.75
414.928	346.75
415.151	337.75
415.374	348.75
415.597	323.75
415.821	326.75
416.044	320.75
416.267	339.75
416.49	328.75
416.713	321.75
416.936	324.75
417.159	327.75
417.382	347.75
417.605	328.75
417.828	347.75
418.051	368.75
418.274	355.75
418.497	356.75
418.72	319.75
418.943	333.75
419.166	346.75
419.389	343.75
419.611	345.75
419.834	375.75
420.057	335.75
420.28	362.75
420.503	349.75
420.726	361.75
420.948	383.75
421.171	403.75
421.394	417.75
421.617	390.75
421.839	361.75
422.062	348.75
422.285	379.75
422.507	427.75
422.73	492.75
422.953	505.75
423.175	417.75
423.398	392.75
423.621	367.75
423.843	384.75
424.066	398.75
424.288	380.75
424.511	411.75
424.733	455.75
424.956	499.75
425.178	493.75
425.401	489.75
425.623	502.75
425.846	448.75
426.068	406.75
426.291	399.75
426.513	388.75
426.735	405.75
426.958	424.75
427.18	511.75
427.402	582.75
427.625	676.75
427.847	608.75
428.069	497.75
428.292	459.75
428.514	410.75
428.736	398.75
428.958	386.75
429.181	366.75
429.403	369.75
429.625	389.75
429.847	421.75
430.069	445.75
430.292	465.75
430.514	386.75
430.736	395.75
430.958	363.75
431.18	357.75
431.402	345.75
431.624	324.75
431.846	343.75
432.068	342.75
432.29	343.75
432.512	348.75
432.734	346.75
432.956	353.75
433.178	350.75
433.4	362.75
433.622	367.75
433.844	366.75
434.066	358.75
434.287	356.75
434.509	367.75
434.731	337.75
434.953	351.75
435.175	362.75
435.397	394.75
435.618	394.75
435.84	438.75
436.062	505.75
436.284	572.75
436.505	470.75
436.727	435.75
436.949	380.75
437.17	376.75
437.392	373.75
437.614	397.75
437.835	420.75
438.057	508.75
438.278	564.75
438.5	555.75
438.721	607.75
438.943	608.75
439.165	477.75
439.386	437.75
439.608	434.75
439.829	416.75
440.05	456.75
440.272	481.75
440.493	451.75
440.715	422.75
440.936	387.75
441.158	374.75
441.379	394.75
441.6	380.75
441.822	418.75
442.043	435.75
442.264	509.75
442.486	548.75
442.707	474.75
442.928	431.75
443.149	447.75
443.371	438.75
443.592	480.75
443.813	548.75
444.034	602.75
444.255	498.75
444.476	420.75
444.698	420.75
444.919	395.75
445.14	503.75
445.361	463.75
445.582	463.75
445.803	488.75
446.024	564.75
446.245	572.75
446.466	507.75
446.687	459.75
446.908	407.75
447.129	409.75
447.35	365.75
447.571	394.75
447.792	348.75
448.013	393.75
448.234	419.75
448.455	439.75
448.675	537.75
448.896	612.75
449.117	533.75
449.338	500.75
449.559	591.75
449.779	617.75
450	514.75
450.221	436.75
450.442	412.75
450.662	402.75
450.883	376.75
451.104	413.75
451.324	398.75
451.545	387.75
451.766	362.75
451.986	342.75
452.207	343.75
452.428	339.75
452.648	333.75
452.869	339.75
453.089	365.75
453.31	377.75
453.53	347.75
453.751	355.75
453.971	352.75
454.192	366.75
454.412	370.75
454.633	340.75
454.853	354.75
455.073	348.75
455.294	378.75
455.514	417.75
455.734	411.75
455.955	351.75
456.175	348.75
456.395	346.75
456.616	304.75
456.836	331.75
457.056	301.75
457.276	326.75
457.497	311.75
457.717	314.75
457.937	315.75
458.157	338.75
458.377	331.75
458.598	344.75
458.818	397.75
459.038	474.75
459.258	481.75
459.478	409.75
459.698	369.75
459.918	361.75
460.138	348.75
460.358	337.75
460.578	341.75
460.798	370.75
461.018	344.75
461.238	356.75
461.458	339.75
461.678	347.75
461.898	346.75
462.118	357.75
462.338	336.75
462.558	358.75
462.777	342.75
462.997	345.75
463.217	368.75
463.437	372.75
463.657	353.75
463.876	364.75
464.096	357.75
464.316	353.75
464.536	368.75
464.755	372.75
464.975	370.75
465.195	448.75
465.414	525.75
465.634	457.75
465.854	409.75
466.073	372.75
466.293	376.75
466.512	356.75
466.732	334.75
466.951	352.75
467.171	355.75
467.391	351.75
467.61	362.75
467.829	364.75
468.049	348.75
468.268	340.75
468.488	331.75
468.707	331.75
468.927	315.75
469.146	341.75
469.365	329.75
469.585	354.75
469.804	374.75
470.023	332.75
470.243	358.75
470.462	333.75
470.681	389.75
470.901	368.75
471.12	376.75
471.339	367.75
471.558	350.75
471.777	356.75
471.997	343.75
472.216	339.75
472.435	360.75
472.654	357.75
472.873	351.75
473.092	335.75
473.311	341.75
473.53	346.75
473.749	362.75
473.968	388.75
474.187	483.75
474.406	485.75
474.625	382.75
474.844	359.75
475.063	371.75
475.282	347.75
475.501	339.75
475.72	377.75
475.939	355.75
476.158	369.75
476.377	362.75
476.596	361.75
476.814	347.75
477.033	370.75
477.252	370.75
477.471	370.75
477.69	379.75
477.908	397.75
478.127	367.75
478.346	395.75
478.564	377.75
478.783	392.75
479.002	386.75
479.22	411.75
479.439	407.75
479.658	423.75
479.876	437.75
480.095	421.75
480.313	443.75
480.532	426.75
480.751	419.75
480.969	424.75
481.188	428.75
481.406	453.75
481.624	419.75
481.843	418.75
482.061	413.75
482.28	423.75
482.498	423.75
482.717	407.75
482.935	415.75
483.153	407.75
483.372	413.75
483.59	392.75
483.808	413.75
484.027	417.75
484.245	408.75
484.463	430.75
484.681	436.75
484.9	420.75
485.118	413.75
485.336	421.75
485.554	426.75
485.772	433.75
485.99	438.75
486.209	449.75
486.427	443.75
486.645	465.75
486.863	480.75
487.081	463.75
487.299	454.75
487.517	429.75
487.735	464.75
487.953	428.75
488.171	452.75
488.389	457.75
488.607	458.75
488.825	443.75
489.043	447.75
489.261	445.75
489.479	447.75
489.696	447.75
489.914	448.75
490.132	462.75
490.35	484.75
490.568	478.75
490.786	489.75
491.003	481.75
491.221	488.75
491.439	494.75
491.657	495.75
491.874	524.75
492.092	511.75
492.31	519.75
492.527	509.75
492.745	517.75
492.963	535.75
493.18	498.75
493.398	518.75
493.615	528.75
493.833	543.75
494.05	514.75
494.268	516.75
494.485	532.75
494.703	533.75
494.92	541.75
495.138	525.75
495.355	532.75
495.573	530.75
495.79	527.75
496.008	535.75
496.225	544.75
496.442	539.75
496.66	565.75
496.877	544.75
497.094	559.75
497.312	541.75
497.529	556.75
497.746	549.75
497.963	569.75
498.181	548.75
498.398	572.75
498.615	575.75
498.832	585.75
499.049	587.75
499.267	599.75
499.484	607.75
499.701	605.75
499.918	651.75
500.135	643.75
500.352	648.75
500.569	644.75
500.786	681.75
501.003	660.75
501.22	631.75
501.437	607.75
501.654	635.75
501.871	665.75
502.088	647.75
