Data from 1987.PennyLincolnUp.Lamp.En5.5.200Scan.071819.P2_HRD10591_17-13-57-971.txt Node
Date: Thu Jul 18 17:13:57 EDT 2019
User: cochatt
Spectrometer: HR+D1059
Trigger mode: 1
Integration Time (sec): 1.000000E-1
Scans to average: 1
Electric dark correction enabled: true
Nonlinearity correction enabled: false
Boxcar width: 0
XAxis mode: Wavelengths
Number of Pixels in Spectrum: 2048
>>>>>Begin Spectral Data<<<<<
223.165	-17.69
223.4	-17.69
223.635	-17.69
223.869	-17.69
224.104	-25.69
224.338	-3.69
224.573	-13.69
224.808	-9.69
225.042	-10.69
225.277	2.31
225.511	-6.69
225.746	-0.69
225.98	3.31
226.215	15.31
226.449	15.31
226.683	14.31
226.918	28.31
227.152	27.31
227.387	24.31
227.621	46.31
227.856	39.31
228.09	55.31
228.324	63.31
228.559	47.31
228.793	72.31
229.027	92.31
229.262	104.31
229.496	99.31
229.73	131.31
229.964	139.31
230.199	111.31
230.433	97.31
230.667	90.31
230.901	103.31
231.136	118.31
231.37	91.31
231.604	99.31
231.838	87.31
232.072	104.31
232.306	113.31
232.541	105.31
232.775	109.31
233.009	110.31
233.243	121.31
233.477	90.31
233.711	106.31
233.945	106.31
234.179	118.31
234.413	107.31
234.647	109.31
234.881	119.31
235.115	103.31
235.349	95.31
235.583	102.31
235.817	103.31
236.051	122.31
236.285	120.31
236.519	118.31
236.753	122.31
236.987	122.31
237.221	164.31
237.455	206.31
237.689	166.31
237.922	126.31
238.156	119.31
238.39	110.31
238.624	104.31
238.858	112.31
239.091	107.31
239.325	105.31
239.559	108.31
239.793	109.31
240.027	113.31
240.26	120.31
240.494	129.31
240.728	135.31
240.961	129.31
241.195	140.31
241.429	126.31
241.662	111.31
241.896	119.31
242.13	108.31
242.363	106.31
242.597	112.31
242.83	122.31
243.064	119.31
243.298	134.31
243.531	127.31
243.765	123.31
243.998	123.31
244.232	128.31
244.465	127.31
244.699	129.31
244.932	122.31
245.166	127.31
245.399	118.31
245.633	119.31
245.866	138.31
246.099	128.31
246.333	130.31
246.566	127.31
246.8	131.31
247.033	143.31
247.266	135.31
247.5	147.31
247.733	143.31
247.966	144.31
248.2	135.31
248.433	164.31
248.666	139.31
248.899	142.31
249.133	171.31
249.366	174.31
249.599	176.31
249.832	147.31
250.066	180.31
250.299	164.31
250.532	164.31
250.765	166.31
250.998	176.31
251.231	189.31
251.465	194.31
251.698	180.31
251.931	191.31
252.164	170.31
252.397	168.31
252.63	172.31
252.863	163.31
253.096	175.31
253.329	199.31
253.562	169.31
253.795	190.31
254.028	182.31
254.261	180.31
254.494	197.31
254.727	216.31
254.96	227.31
255.193	225.31
255.426	209.31
255.659	191.31
255.892	191.31
256.124	185.31
256.357	178.31
256.59	194.31
256.823	174.31
257.056	182.31
257.289	177.31
257.521	184.31
257.754	167.31
257.987	186.31
258.22	165.31
258.452	158.31
258.685	160.31
258.918	196.31
259.151	190.31
259.383	162.31
259.616	189.31
259.849	170.31
260.081	170.31
260.314	188.31
260.547	202.31
260.779	199.31
261.012	189.31
261.244	195.31
261.477	175.31
261.71	171.31
261.942	177.31
262.175	186.31
262.407	189.31
262.64	168.31
262.872	172.31
263.105	175.31
263.337	167.31
263.57	154.31
263.802	166.31
264.035	157.31
264.267	168.31
264.499	156.31
264.732	167.31
264.964	146.31
265.197	155.31
265.429	166.31
265.661	159.31
265.894	166.31
266.126	172.31
266.358	172.31
266.591	169.31
266.823	167.31
267.055	170.31
267.287	180.31
267.52	174.31
267.752	174.31
267.984	151.31
268.216	168.31
268.448	180.31
268.681	181.31
268.913	188.31
269.145	195.31
269.377	213.31
269.609	206.31
269.841	200.31
270.073	203.31
270.306	200.31
270.538	235.31
270.77	255.31
271.002	237.31
271.234	234.31
271.466	226.31
271.698	225.31
271.93	250.31
272.162	237.31
272.394	243.31
272.626	230.31
272.858	224.31
273.09	215.31
273.322	209.31
273.553	207.31
273.785	213.31
274.017	203.31
274.249	196.31
274.481	207.31
274.713	197.31
274.945	195.31
275.176	206.31
275.408	193.31
275.64	204.31
275.872	182.31
276.104	185.31
276.335	206.31
276.567	200.31
276.799	218.31
277.031	239.31
277.262	237.31
277.494	245.31
277.726	211.31
277.957	206.31
278.189	212.31
278.421	207.31
278.652	205.31
278.884	187.31
279.115	218.31
279.347	208.31
279.579	195.31
279.81	200.31
280.042	188.31
280.273	189.31
280.505	182.31
280.736	182.31
280.968	175.31
281.199	176.31
281.431	187.31
281.662	192.31
281.894	191.31
282.125	195.31
282.356	198.31
282.588	213.31
282.819	224.31
283.051	186.31
283.282	173.31
283.513	198.31
283.745	200.31
283.976	183.31
284.207	188.31
284.439	201.31
284.67	192.31
284.901	194.31
285.132	187.31
285.364	188.31
285.595	204.31
285.826	191.31
286.057	206.31
286.288	195.31
286.52	203.31
286.751	192.31
286.982	189.31
287.213	201.31
287.444	208.31
287.675	213.31
287.906	200.31
288.138	217.31
288.369	221.31
288.6	228.31
288.831	199.31
289.062	194.31
289.293	203.31
289.524	192.31
289.755	199.31
289.986	198.31
290.217	196.31
290.448	200.31
290.679	204.31
290.91	192.31
291.141	187.31
291.371	203.31
291.602	206.31
291.833	199.31
292.064	197.31
292.295	203.31
292.526	213.31
292.757	183.31
292.987	185.31
293.218	192.31
293.449	195.31
293.68	188.31
293.91	199.31
294.141	214.31
294.372	194.31
294.603	197.31
294.833	203.31
295.064	212.31
295.295	200.31
295.525	206.31
295.756	207.31
295.987	212.31
296.217	236.31
296.448	235.31
296.679	214.31
296.909	208.31
297.14	192.31
297.37	212.31
297.601	189.31
297.831	199.31
298.062	212.31
298.292	196.31
298.523	221.31
298.753	212.31
298.984	199.31
299.214	202.31
299.445	214.31
299.675	214.31
299.905	210.31
300.136	208.31
300.366	202.31
300.597	204.31
300.827	209.31
301.057	221.31
301.288	229.31
301.518	229.31
301.748	221.31
301.979	207.31
302.209	208.31
302.439	233.31
302.669	230.31
302.9	233.31
303.13	217.31
303.36	221.31
303.59	227.31
303.82	227.31
304.051	224.31
304.281	220.31
304.511	199.31
304.741	226.31
304.971	228.31
305.201	239.31
305.431	208.31
305.661	222.31
305.891	230.31
306.121	232.31
306.352	225.31
306.582	226.31
306.812	223.31
307.042	237.31
307.272	227.31
307.502	223.31
307.731	224.31
307.961	232.31
308.191	218.31
308.421	236.31
308.651	233.31
308.881	227.31
309.111	229.31
309.341	240.31
309.571	281.31
309.8	256.31
310.03	243.31
310.26	252.31
310.49	254.31
310.72	276.31
310.949	286.31
311.179	286.31
311.409	259.31
311.639	260.31
311.868	259.31
312.098	272.31
312.328	256.31
312.557	277.31
312.787	284.31
313.017	280.31
313.246	284.31
313.476	256.31
313.706	250.31
313.935	277.31
314.165	278.31
314.394	268.31
314.624	291.31
314.853	276.31
315.083	278.31
315.312	266.31
315.542	253.31
315.771	252.31
316.001	247.31
316.23	247.31
316.46	246.31
316.689	241.31
316.919	262.31
317.148	262.31
317.377	256.31
317.607	253.31
317.836	255.31
318.065	261.31
318.295	265.31
318.524	270.31
318.753	260.31
318.983	260.31
319.212	266.31
319.441	261.31
319.67	262.31
319.9	282.31
320.129	267.31
320.358	258.31
320.587	276.31
320.816	270.31
321.046	279.31
321.275	277.31
321.504	277.31
321.733	282.31
321.962	308.31
322.191	284.31
322.42	311.31
322.649	328.31
322.878	331.31
323.108	343.31
323.337	345.31
323.566	376.31
323.795	409.31
324.024	419.31
324.253	519.31
324.482	730.31
324.71	1131.31
324.939	1618.31
325.168	1456.31
325.397	764.31
325.626	540.31
325.855	429.31
326.084	388.31
326.313	365.31
326.542	370.31
326.77	412.31
326.999	466.31
327.228	638.31
327.457	1029.31
327.686	1244.31
327.914	879.31
328.143	592.31
328.372	498.31
328.6	424.31
328.829	427.31
329.058	443.31
329.287	456.31
329.515	414.31
329.744	352.31
329.972	371.31
330.201	374.31
330.43	378.31
330.658	407.31
330.887	434.31
331.115	441.31
331.344	386.31
331.572	368.31
331.801	364.31
332.03	350.31
332.258	316.31
332.486	298.31
332.715	305.31
332.943	312.31
333.172	281.31
333.4	319.31
333.629	302.31
333.857	310.31
334.085	333.31
334.314	318.31
334.542	326.31
334.771	317.31
334.999	304.31
335.227	308.31
335.455	316.31
335.684	297.31
335.912	292.31
336.14	298.31
336.369	275.31
336.597	300.31
336.825	308.31
337.053	300.31
337.281	292.31
337.51	298.31
337.738	276.31
337.966	309.31
338.194	303.31
338.422	297.31
338.65	302.31
338.878	300.31
339.106	284.31
339.334	285.31
339.562	278.31
339.79	294.31
340.018	297.31
340.246	282.31
340.474	302.31
340.702	314.31
340.93	280.31
341.158	285.31
341.386	282.31
341.614	302.31
341.842	297.31
342.07	284.31
342.298	284.31
342.526	287.31
342.754	284.31
342.981	278.31
343.209	274.31
343.437	283.31
343.665	285.31
343.893	312.31
344.12	293.31
344.348	295.31
344.576	304.31
344.804	301.31
345.031	308.31
345.259	313.31
345.487	325.31
345.714	311.31
345.942	323.31
346.17	292.31
346.397	276.31
346.625	292.31
346.853	285.31
347.08	294.31
347.308	279.31
347.535	308.31
347.763	330.31
347.99	308.31
348.218	294.31
348.445	298.31
348.673	308.31
348.9	281.31
349.128	302.31
349.355	295.31
349.583	288.31
349.81	273.31
350.037	278.31
350.265	294.31
350.492	266.31
350.72	299.31
350.947	286.31
351.174	302.31
351.402	316.31
351.629	308.31
351.856	295.31
352.083	297.31
352.311	301.31
352.538	304.31
352.765	303.31
352.992	314.31
353.22	286.31
353.447	277.31
353.674	295.31
353.901	295.31
354.128	281.31
354.355	275.31
354.583	274.31
354.81	263.31
355.037	264.31
355.264	262.31
355.491	263.31
355.718	263.31
355.945	276.31
356.172	259.31
356.399	270.31
356.626	272.31
356.853	278.31
357.08	296.31
357.307	278.31
357.534	253.31
357.761	263.31
357.988	292.31
358.215	284.31
358.441	283.31
358.668	298.31
358.895	266.31
359.122	282.31
359.349	291.31
359.576	312.31
359.802	318.31
360.029	348.31
360.256	357.31
360.483	335.31
360.709	303.31
360.936	307.31
361.163	291.31
361.39	276.31
361.616	297.31
361.843	295.31
362.07	312.31
362.296	315.31
362.523	298.31
362.749	294.31
362.976	306.31
363.203	300.31
363.429	279.31
363.656	291.31
363.882	292.31
364.109	287.31
364.335	292.31
364.562	291.31
364.788	292.31
365.015	295.31
365.241	281.31
365.468	296.31
365.694	296.31
365.92	294.31
366.147	295.31
366.373	271.31
366.599	291.31
366.826	297.31
367.052	278.31
367.278	275.31
367.505	276.31
367.731	287.31
367.957	277.31
368.184	291.31
368.41	299.31
368.636	296.31
368.862	294.31
369.089	293.31
369.315	292.31
369.541	272.31
369.767	276.31
369.993	285.31
370.219	281.31
370.445	291.31
370.672	301.31
370.898	290.31
371.124	283.31
371.35	290.31
371.576	282.31
371.802	282.31
372.028	273.31
372.254	287.31
372.48	294.31
372.706	281.31
372.932	251.31
373.158	282.31
373.384	272.31
373.61	281.31
373.835	295.31
374.061	293.31
374.287	294.31
374.513	285.31
374.739	298.31
374.965	274.31
375.191	286.31
375.416	297.31
375.642	273.31
375.868	279.31
376.094	306.31
376.319	280.31
376.545	287.31
376.771	271.31
376.997	291.31
377.222	276.31
377.448	295.31
377.674	301.31
377.899	304.31
378.125	270.31
378.35	257.31
378.576	301.31
378.802	295.31
379.027	298.31
379.253	289.31
379.478	268.31
379.704	298.31
379.929	283.31
380.155	302.31
380.38	276.31
380.606	284.31
380.831	291.31
381.057	281.31
381.282	274.31
381.507	291.31
381.733	274.31
381.958	285.31
382.184	287.31
382.409	298.31
382.634	295.31
382.86	296.31
383.085	306.31
383.31	304.31
383.535	279.31
383.761	296.31
383.986	303.31
384.211	309.31
384.436	295.31
384.662	286.31
384.887	296.31
385.112	309.31
385.337	327.31
385.562	309.31
385.787	310.31
386.013	314.31
386.238	315.31
386.463	319.31
386.688	296.31
386.913	302.31
387.138	292.31
387.363	324.31
387.588	306.31
387.813	316.31
388.038	313.31
388.263	325.31
388.488	303.31
388.713	308.31
388.938	310.31
389.163	287.31
389.387	311.31
389.612	316.31
389.837	300.31
390.062	315.31
390.287	314.31
390.512	299.31
390.736	292.31
390.961	300.31
391.186	302.31
391.411	308.31
391.636	320.31
391.86	315.31
392.085	311.31
392.31	298.31
392.534	296.31
392.759	303.31
392.984	295.31
393.208	324.31
393.433	337.31
393.658	359.31
393.882	298.31
394.107	318.31
394.331	312.31
394.556	303.31
394.78	314.31
395.005	324.31
395.229	324.31
395.454	327.31
395.678	314.31
395.903	310.31
396.127	341.31
396.352	342.31
396.576	344.31
396.801	335.31
397.025	337.31
397.249	313.31
397.474	332.31
397.698	332.31
397.922	341.31
398.147	363.31
398.371	345.31
398.595	326.31
398.82	335.31
399.044	328.31
399.268	358.31
399.492	361.31
399.717	365.31
399.941	391.31
400.165	422.31
400.389	429.31
400.613	391.31
400.837	374.31
401.062	361.31
401.286	356.31
401.51	363.31
401.734	352.31
401.958	336.31
402.182	366.31
402.406	375.31
402.63	361.31
402.854	354.31
403.078	358.31
403.302	351.31
403.526	344.31
403.75	372.31
403.974	345.31
404.198	342.31
404.422	374.31
404.645	360.31
404.869	360.31
405.093	385.31
405.317	407.31
405.541	402.31
405.765	377.31
405.988	379.31
406.212	397.31
406.436	389.31
406.66	421.31
406.883	407.31
407.107	414.31
407.331	426.31
407.555	490.31
407.778	477.31
408.002	448.31
408.226	393.31
408.449	392.31
408.673	387.31
408.896	434.31
409.12	451.31
409.344	413.31
409.567	392.31
409.791	372.31
410.014	382.31
410.238	356.31
410.461	366.31
410.685	381.31
410.908	391.31
411.132	418.31
411.355	431.31
411.578	428.31
411.802	385.31
412.025	365.31
412.249	368.31
412.472	373.31
412.695	385.31
412.919	366.31
413.142	345.31
413.365	346.31
413.589	347.31
413.812	351.31
414.035	337.31
414.258	360.31
414.482	356.31
414.705	341.31
414.928	361.31
415.151	345.31
415.374	345.31
415.597	344.31
415.821	359.31
416.044	370.31
416.267	351.31
416.49	332.31
416.713	339.31
416.936	351.31
417.159	342.31
417.382	347.31
417.605	371.31
417.828	374.31
418.051	380.31
418.274	364.31
418.497	368.31
418.72	383.31
418.943	358.31
419.166	334.31
419.389	376.31
419.611	361.31
419.834	384.31
420.057	370.31
420.28	383.31
420.503	364.31
420.726	374.31
420.948	374.31
421.171	428.31
421.394	457.31
421.617	390.31
421.839	366.31
422.062	367.31
422.285	382.31
422.507	424.31
422.73	493.31
422.953	487.31
423.175	438.31
423.398	403.31
423.621	394.31
423.843	406.31
424.066	408.31
424.288	401.31
424.511	418.31
424.733	475.31
424.956	512.31
425.178	528.31
425.401	510.31
425.623	510.31
425.846	477.31
426.068	423.31
426.291	431.31
426.513	430.31
426.735	443.31
426.958	450.31
427.18	525.31
427.402	650.31
427.625	676.31
427.847	612.31
428.069	523.31
428.292	457.31
428.514	427.31
428.736	416.31
428.958	412.31
429.181	391.31
429.403	406.31
429.625	402.31
429.847	419.31
430.069	484.31
430.292	469.31
430.514	389.31
430.736	395.31
430.958	388.31
431.18	380.31
431.402	383.31
431.624	361.31
431.846	361.31
432.068	364.31
432.29	363.31
432.512	367.31
432.734	367.31
432.956	379.31
433.178	382.31
433.4	373.31
433.622	364.31
433.844	370.31
434.066	358.31
434.287	372.31
434.509	367.31
434.731	353.31
434.953	384.31
435.175	398.31
435.397	419.31
435.618	414.31
435.84	454.31
436.062	525.31
436.284	582.31
436.505	510.31
436.727	463.31
436.949	414.31
437.17	398.31
437.392	412.31
437.614	425.31
437.835	461.31
438.057	527.31
438.278	607.31
438.5	587.31
438.721	659.31
438.943	638.31
439.165	506.31
439.386	458.31
439.608	452.31
439.829	439.31
440.05	452.31
440.272	494.31
440.493	463.31
440.715	431.31
440.936	409.31
441.158	396.31
441.379	396.31
441.6	418.31
441.822	431.31
442.043	482.31
442.264	524.31
442.486	560.31
442.707	501.31
442.928	442.31
443.149	462.31
443.371	451.31
443.592	484.31
443.813	550.31
444.034	619.31
444.255	536.31
444.476	444.31
444.698	445.31
444.919	427.31
445.14	512.31
445.361	489.31
445.582	442.31
445.803	546.31
446.024	585.31
446.245	594.31
446.466	540.31
446.687	482.31
446.908	438.31
447.129	393.31
447.35	403.31
447.571	407.31
447.792	406.31
448.013	403.31
448.234	415.31
448.455	450.31
448.675	554.31
448.896	616.31
449.117	562.31
449.338	537.31
449.559	597.31
449.779	660.31
450	552.31
450.221	428.31
450.442	419.31
450.662	396.31
450.883	394.31
451.104	422.31
451.324	392.31
451.545	390.31
451.766	387.31
451.986	370.31
452.207	362.31
452.428	344.31
452.648	371.31
452.869	358.31
453.089	370.31
453.31	379.31
453.53	345.31
453.751	361.31
453.971	364.31
454.192	371.31
454.412	362.31
454.633	355.31
454.853	330.31
455.073	365.31
455.294	376.31
455.514	454.31
455.734	410.31
455.955	376.31
456.175	328.31
456.395	338.31
456.616	333.31
456.836	350.31
457.056	318.31
457.276	309.31
457.497	330.31
457.717	332.31
457.937	348.31
458.157	352.31
458.377	354.31
458.598	380.31
458.818	392.31
459.038	475.31
459.258	506.31
459.478	422.31
459.698	378.31
459.918	373.31
460.138	352.31
460.358	361.31
460.578	342.31
460.798	363.31
461.018	360.31
461.238	343.31
461.458	366.31
461.678	355.31
461.898	365.31
462.118	368.31
462.338	358.31
462.558	382.31
462.777	379.31
462.997	353.31
463.217	370.31
463.437	386.31
463.657	375.31
463.876	370.31
464.096	371.31
464.316	378.31
464.536	404.31
464.755	387.31
464.975	388.31
465.195	451.31
465.414	497.31
465.634	454.31
465.854	415.31
466.073	372.31
466.293	378.31
466.512	371.31
466.732	343.31
466.951	360.31
467.171	347.31
467.391	344.31
467.61	354.31
467.829	369.31
468.049	372.31
468.268	335.31
468.488	350.31
468.707	335.31
468.927	342.31
469.146	350.31
469.365	331.31
469.585	336.31
469.804	354.31
470.023	365.31
470.243	376.31
470.462	365.31
470.681	394.31
470.901	366.31
471.12	377.31
471.339	374.31
471.558	378.31
471.777	370.31
471.997	349.31
472.216	380.31
472.435	361.31
472.654	347.31
472.873	364.31
473.092	366.31
473.311	363.31
473.53	360.31
473.749	375.31
473.968	437.31
474.187	488.31
474.406	511.31
474.625	412.31
474.844	378.31
475.063	377.31
475.282	366.31
475.501	374.31
475.72	366.31
475.939	368.31
476.158	377.31
476.377	386.31
476.596	372.31
476.814	404.31
477.033	397.31
477.252	389.31
477.471	393.31
477.69	390.31
477.908	389.31
478.127	394.31
478.346	406.31
478.564	372.31
478.783	398.31
479.002	408.31
479.22	409.31
479.439	424.31
479.658	427.31
479.876	438.31
480.095	450.31
480.313	467.31
480.532	438.31
480.751	439.31
480.969	425.31
481.188	449.31
481.406	447.31
481.624	440.31
481.843	440.31
482.061	429.31
482.28	435.31
482.498	424.31
482.717	404.31
482.935	438.31
483.153	422.31
483.372	431.31
483.59	424.31
483.808	426.31
484.027	430.31
484.245	435.31
484.463	442.31
484.681	418.31
484.9	449.31
485.118	446.31
485.336	440.31
485.554	443.31
485.772	445.31
485.99	442.31
486.209	455.31
486.427	434.31
486.645	457.31
486.863	470.31
487.081	469.31
487.299	481.31
487.517	476.31
487.735	483.31
487.953	467.31
488.171	466.31
488.389	480.31
488.607	471.31
488.825	477.31
489.043	468.31
489.261	473.31
489.479	500.31
489.696	492.31
489.914	486.31
490.132	485.31
490.35	488.31
490.568	483.31
490.786	495.31
491.003	522.31
491.221	519.31
491.439	507.31
491.657	526.31
491.874	519.31
492.092	540.31
492.31	514.31
492.527	533.31
492.745	532.31
492.963	528.31
493.18	544.31
493.398	546.31
493.615	550.31
493.833	559.31
494.05	537.31
494.268	567.31
494.485	572.31
494.703	558.31
494.92	555.31
495.138	557.31
495.355	549.31
495.573	550.31
495.79	553.31
496.008	564.31
496.225	561.31
496.442	551.31
496.66	585.31
496.877	573.31
497.094	550.31
497.312	547.31
497.529	585.31
497.746	579.31
497.963	582.31
498.181	605.31
498.398	604.31
498.615	619.31
498.832	615.31
499.049	594.31
499.267	620.31
499.484	641.31
499.701	650.31
499.918	649.31
500.135	634.31
500.352	668.31
500.569	690.31
500.786	707.31
501.003	697.31
501.22	672.31
501.437	677.31
501.654	669.31
501.871	661.31
502.088	694.31
