Data from 1987.PennyLincolnUp.Lamp.En5.5.200Scan.071819.P2_HRD10591_17-14-32-971.txt Node
Date: Thu Jul 18 17:14:32 EDT 2019
User: cochatt
Spectrometer: HR+D1059
Trigger mode: 1
Integration Time (sec): 1.000000E-1
Scans to average: 1
Electric dark correction enabled: true
Nonlinearity correction enabled: false
Boxcar width: 0
XAxis mode: Wavelengths
Number of Pixels in Spectrum: 2048
>>>>>Begin Spectral Data<<<<<
223.165	-12.75
223.4	-12.75
223.635	-12.75
223.869	-12.75
224.104	-20.75
224.338	-17.75
224.573	-12.75
224.808	0.25
225.042	2.25
225.277	-8.75
225.511	-11.75
225.746	4.25
225.98	-0.75
226.215	-0.75
226.449	28.25
226.683	5.25
226.918	29.25
227.152	29.25
227.387	26.25
227.621	31.25
227.856	37.25
228.09	59.25
228.324	41.25
228.559	56.25
228.793	76.25
229.027	95.25
229.262	93.25
229.496	117.25
229.73	133.25
229.964	190.25
230.199	149.25
230.433	118.25
230.667	115.25
230.901	120.25
231.136	125.25
231.37	100.25
231.604	116.25
231.838	101.25
232.072	116.25
232.306	93.25
232.541	109.25
232.775	108.25
233.009	101.25
233.243	122.25
233.477	111.25
233.711	119.25
233.945	118.25
234.179	122.25
234.413	122.25
234.647	109.25
234.881	105.25
235.115	115.25
235.349	115.25
235.583	124.25
235.817	109.25
236.051	116.25
236.285	125.25
236.519	119.25
236.753	117.25
236.987	136.25
237.221	188.25
237.455	231.25
237.689	193.25
237.922	152.25
238.156	122.25
238.39	136.25
238.624	124.25
238.858	108.25
239.091	110.25
239.325	126.25
239.559	127.25
239.793	121.25
240.027	127.25
240.26	144.25
240.494	163.25
240.728	155.25
240.961	152.25
241.195	149.25
241.429	115.25
241.662	125.25
241.896	114.25
242.13	122.25
242.363	132.25
242.597	129.25
242.83	137.25
243.064	135.25
243.298	119.25
243.531	119.25
243.765	119.25
243.998	136.25
244.232	129.25
244.465	151.25
244.699	141.25
244.932	140.25
245.166	123.25
245.399	137.25
245.633	127.25
245.866	129.25
246.099	140.25
246.333	139.25
246.566	124.25
246.8	138.25
247.033	134.25
247.266	163.25
247.5	137.25
247.733	149.25
247.966	148.25
248.2	169.25
248.433	144.25
248.666	158.25
248.899	168.25
249.133	182.25
249.366	203.25
249.599	182.25
249.832	189.25
250.066	189.25
250.299	177.25
250.532	169.25
250.765	172.25
250.998	192.25
251.231	191.25
251.465	190.25
251.698	191.25
251.931	193.25
252.164	171.25
252.397	192.25
252.63	192.25
252.863	197.25
253.096	198.25
253.329	207.25
253.562	217.25
253.795	200.25
254.028	215.25
254.261	215.25
254.494	213.25
254.727	255.25
254.96	265.25
255.193	265.25
255.426	232.25
255.659	241.25
255.892	215.25
256.124	213.25
256.357	223.25
256.59	195.25
256.823	201.25
257.056	199.25
257.289	202.25
257.521	192.25
257.754	188.25
257.987	198.25
258.22	186.25
258.452	171.25
258.685	191.25
258.918	189.25
259.151	197.25
259.383	196.25
259.616	211.25
259.849	195.25
260.081	199.25
260.314	223.25
260.547	233.25
260.779	238.25
261.012	226.25
261.244	214.25
261.477	211.25
261.71	192.25
261.942	214.25
262.175	219.25
262.407	216.25
262.64	195.25
262.872	186.25
263.105	175.25
263.337	191.25
263.57	184.25
263.802	179.25
264.035	180.25
264.267	196.25
264.499	182.25
264.732	188.25
264.964	178.25
265.197	182.25
265.429	189.25
265.661	185.25
265.894	197.25
266.126	192.25
266.358	174.25
266.591	202.25
266.823	197.25
267.055	196.25
267.287	204.25
267.52	190.25
267.752	194.25
267.984	193.25
268.216	190.25
268.448	202.25
268.681	189.25
268.913	213.25
269.145	235.25
269.377	243.25
269.609	233.25
269.841	228.25
270.073	242.25
270.306	269.25
270.538	275.25
270.77	281.25
271.002	268.25
271.234	249.25
271.466	269.25
271.698	285.25
271.93	281.25
272.162	290.25
272.394	299.25
272.626	274.25
272.858	257.25
273.09	256.25
273.322	250.25
273.553	232.25
273.785	222.25
274.017	237.25
274.249	227.25
274.481	235.25
274.713	239.25
274.945	230.25
275.176	225.25
275.408	228.25
275.64	230.25
275.872	231.25
276.104	228.25
276.335	238.25
276.567	227.25
276.799	244.25
277.031	264.25
277.262	268.25
277.494	285.25
277.726	267.25
277.957	234.25
278.189	233.25
278.421	234.25
278.652	237.25
278.884	215.25
279.115	220.25
279.347	233.25
279.579	222.25
279.81	219.25
280.042	236.25
280.273	208.25
280.505	214.25
280.736	199.25
280.968	227.25
281.199	219.25
281.431	219.25
281.662	225.25
281.894	226.25
282.125	226.25
282.356	230.25
282.588	266.25
282.819	291.25
283.051	225.25
283.282	217.25
283.513	237.25
283.745	207.25
283.976	234.25
284.207	214.25
284.439	219.25
284.67	209.25
284.901	213.25
285.132	221.25
285.364	220.25
285.595	220.25
285.826	217.25
286.057	209.25
286.288	206.25
286.52	218.25
286.751	225.25
286.982	218.25
287.213	231.25
287.444	222.25
287.675	215.25
287.906	223.25
288.138	235.25
288.369	245.25
288.6	241.25
288.831	245.25
289.062	228.25
289.293	250.25
289.524	208.25
289.755	233.25
289.986	231.25
290.217	235.25
290.448	224.25
290.679	220.25
290.91	225.25
291.141	226.25
291.371	217.25
291.602	215.25
291.833	235.25
292.064	231.25
292.295	247.25
292.526	226.25
292.757	225.25
292.987	224.25
293.218	233.25
293.449	225.25
293.68	237.25
293.91	238.25
294.141	230.25
294.372	232.25
294.603	233.25
294.833	234.25
295.064	222.25
295.295	238.25
295.525	239.25
295.756	235.25
295.987	239.25
296.217	287.25
296.448	283.25
296.679	247.25
296.909	242.25
297.14	236.25
297.37	235.25
297.601	221.25
297.831	228.25
298.062	225.25
298.292	232.25
298.523	254.25
298.753	237.25
298.984	237.25
299.214	235.25
299.445	238.25
299.675	253.25
299.905	231.25
300.136	253.25
300.366	221.25
300.597	247.25
300.827	225.25
301.057	262.25
301.288	267.25
301.518	260.25
301.748	259.25
301.979	273.25
302.209	241.25
302.439	257.25
302.669	250.25
302.9	235.25
303.13	237.25
303.36	255.25
303.59	263.25
303.82	279.25
304.051	265.25
304.281	258.25
304.511	247.25
304.741	249.25
304.971	253.25
305.201	258.25
305.431	246.25
305.661	253.25
305.891	265.25
306.121	257.25
306.352	258.25
306.582	272.25
306.812	257.25
307.042	266.25
307.272	249.25
307.502	274.25
307.731	253.25
307.961	255.25
308.191	260.25
308.421	280.25
308.651	260.25
308.881	270.25
309.111	282.25
309.341	282.25
309.571	295.25
309.8	307.25
310.03	302.25
310.26	334.25
310.49	329.25
310.72	318.25
310.949	330.25
311.179	353.25
311.409	334.25
311.639	318.25
311.868	307.25
312.098	321.25
312.328	327.25
312.557	350.25
312.787	383.25
313.017	385.25
313.246	336.25
313.476	334.25
313.706	307.25
313.935	309.25
314.165	354.25
314.394	357.25
314.624	355.25
314.853	338.25
315.083	303.25
315.312	306.25
315.542	300.25
315.771	301.25
316.001	309.25
316.23	290.25
316.46	313.25
316.689	330.25
316.919	324.25
317.148	318.25
317.377	325.25
317.607	314.25
317.836	318.25
318.065	309.25
318.295	311.25
318.524	310.25
318.753	308.25
318.983	308.25
319.212	305.25
319.441	308.25
319.67	337.25
319.9	320.25
320.129	321.25
320.358	322.25
320.587	325.25
320.816	317.25
321.046	339.25
321.275	342.25
321.504	321.25
321.733	329.25
321.962	349.25
322.191	358.25
322.42	390.25
322.649	402.25
322.878	424.25
323.108	430.25
323.337	457.25
323.566	512.25
323.795	522.25
324.024	607.25
324.253	755.25
324.482	1097.25
324.71	1652.25
324.939	2307.25
325.168	1994.25
325.397	1114.25
325.626	716.25
325.855	579.25
326.084	530.25
326.313	493.25
326.542	503.25
326.77	553.25
326.999	670.25
327.228	941.25
327.457	1404.25
327.686	1754.25
327.914	1241.25
328.143	782.25
328.372	643.25
328.6	585.25
328.829	573.25
329.058	590.25
329.287	601.25
329.515	533.25
329.744	469.25
329.972	465.25
330.201	473.25
330.43	502.25
330.658	527.25
330.887	603.25
331.115	571.25
331.344	477.25
331.572	460.25
331.801	431.25
332.03	445.25
332.258	413.25
332.486	378.25
332.715	363.25
332.943	367.25
333.172	377.25
333.4	358.25
333.629	359.25
333.857	378.25
334.085	363.25
334.314	375.25
334.542	359.25
334.771	380.25
334.999	365.25
335.227	378.25
335.455	359.25
335.684	364.25
335.912	345.25
336.14	346.25
336.369	335.25
336.597	373.25
336.825	373.25
337.053	373.25
337.281	349.25
337.51	354.25
337.738	352.25
337.966	338.25
338.194	358.25
338.422	378.25
338.65	349.25
338.878	345.25
339.106	352.25
339.334	352.25
339.562	358.25
339.79	367.25
340.018	356.25
340.246	352.25
340.474	349.25
340.702	361.25
340.93	341.25
341.158	358.25
341.386	339.25
341.614	346.25
341.842	364.25
342.07	328.25
342.298	348.25
342.526	327.25
342.754	339.25
342.981	332.25
343.209	318.25
343.437	327.25
343.665	327.25
343.893	330.25
344.12	334.25
344.348	333.25
344.576	363.25
344.804	334.25
345.031	356.25
345.259	387.25
345.487	371.25
345.714	359.25
345.942	371.25
346.17	359.25
346.397	357.25
346.625	333.25
346.853	327.25
347.08	338.25
347.308	350.25
347.535	374.25
347.763	369.25
347.99	377.25
348.218	366.25
348.445	369.25
348.673	379.25
348.9	348.25
349.128	353.25
349.355	327.25
349.583	344.25
349.81	340.25
350.037	313.25
350.265	325.25
350.492	319.25
350.72	348.25
350.947	344.25
351.174	360.25
351.402	373.25
351.629	356.25
351.856	376.25
352.083	365.25
352.311	373.25
352.538	392.25
352.765	404.25
352.992	360.25
353.22	379.25
353.447	339.25
353.674	346.25
353.901	313.25
354.128	330.25
354.355	308.25
354.583	326.25
354.81	321.25
355.037	314.25
355.264	331.25
355.491	307.25
355.718	296.25
355.945	297.25
356.172	301.25
356.399	319.25
356.626	279.25
356.853	313.25
357.08	313.25
357.307	307.25
357.534	322.25
357.761	336.25
357.988	320.25
358.215	321.25
358.441	307.25
358.668	319.25
358.895	333.25
359.122	339.25
359.349	346.25
359.576	364.25
359.802	381.25
360.029	424.25
360.256	436.25
360.483	415.25
360.709	364.25
360.936	353.25
361.163	353.25
361.39	357.25
361.616	363.25
361.843	356.25
362.07	353.25
362.296	360.25
362.523	353.25
362.749	360.25
362.976	348.25
363.203	345.25
363.429	329.25
363.656	345.25
363.882	320.25
364.109	339.25
364.335	326.25
364.562	329.25
364.788	336.25
365.015	321.25
365.241	320.25
365.468	345.25
365.694	339.25
365.92	335.25
366.147	350.25
366.373	346.25
366.599	330.25
366.826	321.25
367.052	333.25
367.278	309.25
367.505	311.25
367.731	327.25
367.957	346.25
368.184	347.25
368.41	327.25
368.636	341.25
368.862	337.25
369.089	336.25
369.315	316.25
369.541	343.25
369.767	331.25
369.993	325.25
370.219	311.25
370.445	334.25
370.672	312.25
370.898	327.25
371.124	319.25
371.35	316.25
371.576	311.25
371.802	314.25
372.028	299.25
372.254	328.25
372.48	326.25
372.706	302.25
372.932	312.25
373.158	331.25
373.384	315.25
373.61	294.25
373.835	318.25
374.061	313.25
374.287	319.25
374.513	308.25
374.739	320.25
374.965	336.25
375.191	314.25
375.416	324.25
375.642	313.25
375.868	306.25
376.094	314.25
376.319	313.25
376.545	301.25
376.771	312.25
376.997	332.25
377.222	326.25
377.448	332.25
377.674	297.25
377.899	319.25
378.125	307.25
378.35	301.25
378.576	316.25
378.802	317.25
379.027	306.25
379.253	309.25
379.478	302.25
379.704	310.25
379.929	322.25
380.155	327.25
380.38	310.25
380.606	301.25
380.831	328.25
381.057	332.25
381.282	324.25
381.507	310.25
381.733	340.25
381.958	332.25
382.184	332.25
382.409	321.25
382.634	334.25
382.86	296.25
383.085	309.25
383.31	331.25
383.535	342.25
383.761	319.25
383.986	331.25
384.211	340.25
384.436	335.25
384.662	341.25
384.887	327.25
385.112	326.25
385.337	321.25
385.562	327.25
385.787	335.25
386.013	343.25
386.238	343.25
386.463	356.25
386.688	337.25
386.913	335.25
387.138	339.25
387.363	333.25
387.588	335.25
387.813	360.25
388.038	330.25
388.263	350.25
388.488	331.25
388.713	330.25
388.938	351.25
389.163	337.25
389.387	334.25
389.612	335.25
389.837	340.25
390.062	342.25
390.287	334.25
390.512	319.25
390.736	313.25
390.961	332.25
391.186	340.25
391.411	331.25
391.636	337.25
391.86	341.25
392.085	326.25
392.31	329.25
392.534	342.25
392.759	355.25
392.984	341.25
393.208	337.25
393.433	343.25
393.658	345.25
393.882	333.25
394.107	350.25
394.331	341.25
394.556	350.25
394.78	339.25
395.005	336.25
395.229	337.25
395.454	340.25
395.678	336.25
395.903	353.25
396.127	384.25
396.352	373.25
396.576	359.25
396.801	372.25
397.025	373.25
397.249	366.25
397.474	347.25
397.698	361.25
397.922	377.25
398.147	391.25
398.371	386.25
398.595	389.25
398.82	381.25
399.044	373.25
399.268	366.25
399.492	385.25
399.717	418.25
399.941	448.25
400.165	469.25
400.389	486.25
400.613	436.25
400.837	401.25
401.062	407.25
401.286	380.25
401.51	379.25
401.734	401.25
401.958	391.25
402.182	393.25
402.406	407.25
402.63	420.25
402.854	400.25
403.078	392.25
403.302	394.25
403.526	399.25
403.75	392.25
403.974	399.25
404.198	387.25
404.422	405.25
404.645	401.25
404.869	414.25
405.093	443.25
405.317	458.25
405.541	480.25
405.765	441.25
405.988	430.25
406.212	459.25
406.436	486.25
406.66	492.25
406.883	462.25
407.107	488.25
407.331	498.25
407.555	577.25
407.778	565.25
408.002	521.25
408.226	454.25
408.449	442.25
408.673	458.25
408.896	497.25
409.12	515.25
409.344	484.25
409.567	443.25
409.791	415.25
410.014	431.25
410.238	405.25
410.461	383.25
410.685	405.25
410.908	428.25
411.132	451.25
411.355	500.25
411.578	494.25
411.802	429.25
412.025	408.25
412.249	409.25
412.472	418.25
412.695	411.25
412.919	428.25
413.142	396.25
413.365	391.25
413.589	381.25
413.812	372.25
414.035	398.25
414.258	393.25
414.482	371.25
414.705	375.25
414.928	350.25
415.151	393.25
415.374	385.25
415.597	380.25
415.821	390.25
416.044	383.25
416.267	407.25
416.49	398.25
416.713	369.25
416.936	374.25
417.159	380.25
417.382	410.25
417.605	382.25
417.828	398.25
418.051	421.25
418.274	412.25
418.497	404.25
418.72	393.25
418.943	387.25
419.166	394.25
419.389	422.25
419.611	404.25
419.834	425.25
420.057	420.25
420.28	420.25
420.503	416.25
420.726	424.25
420.948	418.25
421.171	475.25
421.394	501.25
421.617	461.25
421.839	446.25
422.062	427.25
422.285	456.25
422.507	500.25
422.73	578.25
422.953	573.25
423.175	497.25
423.398	450.25
423.621	441.25
423.843	481.25
424.066	491.25
424.288	485.25
424.511	482.25
424.733	535.25
424.956	588.25
425.178	606.25
425.401	585.25
425.623	592.25
425.846	531.25
426.068	482.25
426.291	487.25
426.513	485.25
426.735	500.25
426.958	531.25
427.18	617.25
427.402	727.25
427.625	828.25
427.847	711.25
428.069	637.25
428.292	549.25
428.514	481.25
428.736	468.25
428.958	466.25
429.181	443.25
429.403	435.25
429.625	434.25
429.847	502.25
430.069	559.25
430.292	573.25
430.514	472.25
430.736	443.25
430.958	462.25
431.18	417.25
431.402	423.25
431.624	396.25
431.846	413.25
432.068	385.25
432.29	421.25
432.512	419.25
432.734	413.25
432.956	433.25
433.178	430.25
433.4	433.25
433.622	425.25
433.844	409.25
434.066	394.25
434.287	402.25
434.509	387.25
434.731	417.25
434.953	436.25
435.175	460.25
435.397	463.25
435.618	490.25
435.84	505.25
436.062	634.25
436.284	649.25
436.505	558.25
436.727	520.25
436.949	490.25
437.17	464.25
437.392	473.25
437.614	462.25
437.835	527.25
438.057	620.25
438.278	693.25
438.5	656.25
438.721	749.25
438.943	717.25
439.165	599.25
439.386	522.25
439.608	499.25
439.829	535.25
440.05	553.25
440.272	596.25
440.493	551.25
440.715	486.25
440.936	484.25
441.158	469.25
441.379	466.25
441.6	463.25
441.822	498.25
442.043	545.25
442.264	611.25
442.486	636.25
442.707	567.25
442.928	537.25
443.149	528.25
443.371	544.25
443.592	579.25
443.813	650.25
444.034	711.25
444.255	599.25
444.476	506.25
444.698	483.25
444.919	477.25
445.14	557.25
445.361	548.25
445.582	543.25
445.803	579.25
446.024	720.25
446.245	692.25
446.466	634.25
446.687	557.25
446.908	498.25
447.129	487.25
447.35	477.25
447.571	448.25
447.792	475.25
448.013	453.25
448.234	492.25
448.455	566.25
448.675	653.25
448.896	742.25
449.117	642.25
449.338	619.25
449.559	697.25
449.779	762.25
450	631.25
450.221	532.25
450.442	474.25
450.662	459.25
450.883	483.25
451.104	507.25
451.324	478.25
451.545	443.25
451.766	461.25
451.986	427.25
452.207	400.25
452.428	397.25
452.648	425.25
452.869	406.25
453.089	442.25
453.31	453.25
453.53	444.25
453.751	427.25
453.971	448.25
454.192	433.25
454.412	450.25
454.633	431.25
454.853	417.25
455.073	403.25
455.294	437.25
455.514	511.25
455.734	491.25
455.955	422.25
456.175	389.25
456.395	380.25
456.616	382.25
456.836	362.25
457.056	379.25
457.276	368.25
457.497	371.25
457.717	373.25
457.937	388.25
458.157	391.25
458.377	393.25
458.598	435.25
458.818	500.25
459.038	599.25
459.258	580.25
459.478	496.25
459.698	433.25
459.918	408.25
460.138	411.25
460.358	415.25
460.578	398.25
460.798	397.25
461.018	411.25
461.238	388.25
461.458	404.25
461.678	401.25
461.898	417.25
462.118	395.25
462.338	406.25
462.558	407.25
462.777	397.25
462.997	414.25
463.217	418.25
463.437	410.25
463.657	422.25
463.876	425.25
464.096	390.25
464.316	432.25
464.536	435.25
464.755	441.25
464.975	438.25
465.195	527.25
465.414	622.25
465.634	555.25
465.854	466.25
466.073	450.25
466.293	431.25
466.512	408.25
466.732	414.25
466.951	410.25
467.171	408.25
467.391	429.25
467.61	423.25
467.829	444.25
468.049	432.25
468.268	414.25
468.488	407.25
468.707	395.25
468.927	390.25
469.146	398.25
469.365	379.25
469.585	382.25
469.804	399.25
470.023	430.25
470.243	422.25
470.462	422.25
470.681	458.25
470.901	433.25
471.12	436.25
471.339	426.25
471.558	404.25
471.777	418.25
471.997	415.25
472.216	427.25
472.435	426.25
472.654	404.25
472.873	413.25
473.092	425.25
473.311	402.25
473.53	417.25
473.749	440.25
473.968	472.25
474.187	559.25
474.406	590.25
474.625	481.25
474.844	437.25
475.063	443.25
475.282	406.25
475.501	426.25
475.72	426.25
475.939	412.25
476.158	423.25
476.377	423.25
476.596	410.25
476.814	433.25
477.033	429.25
477.252	417.25
477.471	437.25
477.69	428.25
477.908	438.25
478.127	450.25
478.346	439.25
478.564	454.25
478.783	485.25
479.002	479.25
479.22	462.25
479.439	487.25
479.658	514.25
479.876	505.25
480.095	524.25
480.313	531.25
480.532	530.25
480.751	518.25
480.969	487.25
481.188	511.25
481.406	504.25
481.624	498.25
481.843	506.25
482.061	489.25
482.28	471.25
482.498	492.25
482.717	476.25
482.935	491.25
483.153	489.25
483.372	478.25
483.59	501.25
483.808	483.25
484.027	498.25
484.245	503.25
484.463	502.25
484.681	478.25
484.9	495.25
485.118	517.25
485.336	505.25
485.554	508.25
485.772	510.25
485.99	488.25
486.209	501.25
486.427	527.25
486.645	532.25
486.863	565.25
487.081	555.25
487.299	538.25
487.517	545.25
487.735	569.25
487.953	533.25
488.171	533.25
488.389	535.25
488.607	535.25
488.825	564.25
489.043	527.25
489.261	551.25
489.479	549.25
489.696	552.25
489.914	563.25
490.132	552.25
490.35	542.25
490.568	591.25
490.786	571.25
491.003	593.25
491.221	577.25
491.439	608.25
491.657	612.25
491.874	600.25
492.092	602.25
492.31	604.25
492.527	620.25
492.745	621.25
492.963	616.25
493.18	631.25
493.398	649.25
493.615	631.25
493.833	672.25
494.05	633.25
494.268	649.25
494.485	631.25
494.703	621.25
494.92	645.25
495.138	639.25
495.355	661.25
495.573	621.25
495.79	651.25
496.008	661.25
496.225	644.25
496.442	643.25
496.66	662.25
496.877	647.25
497.094	648.25
497.312	651.25
497.529	667.25
497.746	657.25
497.963	663.25
498.181	697.25
498.398	713.25
498.615	706.25
498.832	691.25
499.049	665.25
499.267	714.25
499.484	724.25
499.701	686.25
499.918	744.25
500.135	753.25
500.352	789.25
500.569	759.25
500.786	788.25
501.003	762.25
501.22	748.25
501.437	748.25
501.654	776.25
501.871	782.25
