Data from 1987.PennyLincolnUp.Lamp.En5.5.200Scan.071819.P2_HRD10591_17-15-58-970.txt Node
Date: Thu Jul 18 17:15:58 EDT 2019
User: cochatt
Spectrometer: HR+D1059
Trigger mode: 1
Integration Time (sec): 1.000000E-1
Scans to average: 1
Electric dark correction enabled: true
Nonlinearity correction enabled: false
Boxcar width: 0
XAxis mode: Wavelengths
Number of Pixels in Spectrum: 2048
>>>>>Begin Spectral Data<<<<<
223.165	-17.75
223.4	-17.75
223.635	-17.75
223.869	-21.75
224.104	-16.75
224.338	-26.75
224.573	-20.75
224.808	-15.75
225.042	-7.75
225.277	-4.75
225.511	-3.75
225.746	13.25
225.98	20.25
226.215	11.25
226.449	25.25
226.683	8.25
226.918	24.25
227.152	33.25
227.387	40.25
227.621	41.25
227.856	56.25
228.09	56.25
228.324	49.25
228.559	64.25
228.793	72.25
229.027	102.25
229.262	106.25
229.496	122.25
229.73	148.25
229.964	180.25
230.199	166.25
230.433	124.25
230.667	111.25
230.901	126.25
231.136	128.25
231.37	129.25
231.604	116.25
231.838	128.25
232.072	121.25
232.306	102.25
232.541	116.25
232.775	121.25
233.009	114.25
233.243	122.25
233.477	129.25
233.711	112.25
233.945	113.25
234.179	121.25
234.413	131.25
234.647	114.25
234.881	122.25
235.115	121.25
235.349	111.25
235.583	121.25
235.817	113.25
236.051	127.25
236.285	132.25
236.519	141.25
236.753	146.25
236.987	170.25
237.221	196.25
237.455	272.25
237.689	202.25
237.922	150.25
238.156	128.25
238.39	144.25
238.624	118.25
238.858	106.25
239.091	129.25
239.325	128.25
239.559	146.25
239.793	146.25
240.027	136.25
240.26	149.25
240.494	166.25
240.728	156.25
240.961	151.25
241.195	135.25
241.429	138.25
241.662	138.25
241.896	138.25
242.13	142.25
242.363	138.25
242.597	132.25
242.83	146.25
243.064	129.25
243.298	130.25
243.531	125.25
243.765	130.25
243.998	149.25
244.232	154.25
244.465	126.25
244.699	150.25
244.932	129.25
245.166	150.25
245.399	154.25
245.633	155.25
245.866	138.25
246.099	141.25
246.333	138.25
246.566	139.25
246.8	151.25
247.033	147.25
247.266	149.25
247.5	152.25
247.733	171.25
247.966	154.25
248.2	162.25
248.433	168.25
248.666	172.25
248.899	173.25
249.133	214.25
249.366	229.25
249.599	217.25
249.832	189.25
250.066	173.25
250.299	196.25
250.532	196.25
250.765	197.25
250.998	220.25
251.231	234.25
251.465	210.25
251.698	209.25
251.931	207.25
252.164	192.25
252.397	207.25
252.63	207.25
252.863	193.25
253.096	224.25
253.329	234.25
253.562	239.25
253.795	231.25
254.028	224.25
254.261	216.25
254.494	236.25
254.727	262.25
254.96	302.25
255.193	277.25
255.426	248.25
255.659	244.25
255.892	228.25
256.124	220.25
256.357	213.25
256.59	217.25
256.823	213.25
257.056	193.25
257.289	186.25
257.521	192.25
257.754	201.25
257.987	207.25
258.22	201.25
258.452	210.25
258.685	201.25
258.918	195.25
259.151	206.25
259.383	207.25
259.616	216.25
259.849	213.25
260.081	227.25
260.314	251.25
260.547	262.25
260.779	244.25
261.012	237.25
261.244	228.25
261.477	233.25
261.71	220.25
261.942	227.25
262.175	234.25
262.407	245.25
262.64	217.25
262.872	226.25
263.105	200.25
263.337	197.25
263.57	191.25
263.802	207.25
264.035	206.25
264.267	207.25
264.499	195.25
264.732	196.25
264.964	195.25
265.197	192.25
265.429	210.25
265.661	197.25
265.894	189.25
266.126	194.25
266.358	202.25
266.591	192.25
266.823	192.25
267.055	208.25
267.287	215.25
267.52	215.25
267.752	211.25
267.984	204.25
268.216	213.25
268.448	224.25
268.681	220.25
268.913	236.25
269.145	272.25
269.377	271.25
269.609	264.25
269.841	261.25
270.073	251.25
270.306	288.25
270.538	322.25
270.77	318.25
271.002	306.25
271.234	282.25
271.466	303.25
271.698	312.25
271.93	308.25
272.162	312.25
272.394	307.25
272.626	302.25
272.858	276.25
273.09	277.25
273.322	250.25
273.553	264.25
273.785	244.25
274.017	253.25
274.249	253.25
274.481	249.25
274.713	251.25
274.945	268.25
275.176	259.25
275.408	261.25
275.64	236.25
275.872	252.25
276.104	231.25
276.335	249.25
276.567	249.25
276.799	272.25
277.031	293.25
277.262	292.25
277.494	292.25
277.726	265.25
277.957	267.25
278.189	254.25
278.421	254.25
278.652	255.25
278.884	242.25
279.115	248.25
279.347	245.25
279.579	224.25
279.81	226.25
280.042	217.25
280.273	232.25
280.505	234.25
280.736	249.25
280.968	224.25
281.199	213.25
281.431	220.25
281.662	230.25
281.894	237.25
282.125	250.25
282.356	264.25
282.588	294.25
282.819	296.25
283.051	243.25
283.282	247.25
283.513	251.25
283.745	246.25
283.976	253.25
284.207	255.25
284.439	247.25
284.67	226.25
284.901	256.25
285.132	241.25
285.364	249.25
285.595	233.25
285.826	233.25
286.057	239.25
286.288	229.25
286.52	244.25
286.751	239.25
286.982	236.25
287.213	227.25
287.444	246.25
287.675	240.25
287.906	258.25
288.138	267.25
288.369	266.25
288.6	260.25
288.831	272.25
289.062	244.25
289.293	241.25
289.524	231.25
289.755	226.25
289.986	250.25
290.217	260.25
290.448	246.25
290.679	224.25
290.91	232.25
291.141	258.25
291.371	234.25
291.602	260.25
291.833	229.25
292.064	249.25
292.295	224.25
292.526	247.25
292.757	266.25
292.987	244.25
293.218	231.25
293.449	260.25
293.68	240.25
293.91	245.25
294.141	239.25
294.372	244.25
294.603	248.25
294.833	249.25
295.064	251.25
295.295	254.25
295.525	250.25
295.756	249.25
295.987	273.25
296.217	301.25
296.448	288.25
296.679	258.25
296.909	262.25
297.14	242.25
297.37	241.25
297.601	262.25
297.831	256.25
298.062	270.25
298.292	269.25
298.523	253.25
298.753	271.25
298.984	272.25
299.214	262.25
299.445	250.25
299.675	258.25
299.905	274.25
300.136	275.25
300.366	260.25
300.597	268.25
300.827	273.25
301.057	266.25
301.288	289.25
301.518	287.25
301.748	278.25
301.979	294.25
302.209	278.25
302.439	276.25
302.669	276.25
302.9	273.25
303.13	245.25
303.36	268.25
303.59	285.25
303.82	288.25
304.051	289.25
304.281	282.25
304.511	284.25
304.741	247.25
304.971	267.25
305.201	268.25
305.431	279.25
305.661	263.25
305.891	274.25
306.121	281.25
306.352	284.25
306.582	296.25
306.812	291.25
307.042	281.25
307.272	284.25
307.502	296.25
307.731	292.25
307.961	292.25
308.191	294.25
308.421	282.25
308.651	306.25
308.881	311.25
309.111	292.25
309.341	314.25
309.571	315.25
309.8	322.25
310.03	361.25
310.26	365.25
310.49	349.25
310.72	379.25
310.949	394.25
311.179	398.25
311.409	370.25
311.639	352.25
311.868	359.25
312.098	346.25
312.328	376.25
312.557	411.25
312.787	398.25
313.017	404.25
313.246	369.25
313.476	330.25
313.706	357.25
313.935	352.25
314.165	360.25
314.394	386.25
314.624	375.25
314.853	372.25
315.083	364.25
315.312	342.25
315.542	331.25
315.771	333.25
316.001	315.25
316.23	310.25
316.46	337.25
316.689	361.25
316.919	344.25
317.148	354.25
317.377	373.25
317.607	346.25
317.836	354.25
318.065	340.25
318.295	331.25
318.524	319.25
318.753	330.25
318.983	338.25
319.212	338.25
319.441	367.25
319.67	359.25
319.9	345.25
320.129	354.25
320.358	357.25
320.587	370.25
320.816	362.25
321.046	366.25
321.275	376.25
321.504	364.25
321.733	392.25
321.962	384.25
322.191	414.25
322.42	427.25
322.649	453.25
322.878	465.25
323.108	495.25
323.337	538.25
323.566	557.25
323.795	636.25
324.024	674.25
324.253	866.25
324.482	1288.25
324.71	1952.25
324.939	2694.25
325.168	2411.25
325.397	1323.25
325.626	832.25
325.855	660.25
326.084	578.25
326.313	558.25
326.542	583.25
326.77	636.25
326.999	762.25
327.228	1081.25
327.457	1664.25
327.686	2030.25
327.914	1449.25
328.143	908.25
328.372	743.25
328.6	682.25
328.829	630.25
329.058	645.25
329.287	697.25
329.515	609.25
329.744	546.25
329.972	490.25
330.201	486.25
330.43	584.25
330.658	618.25
330.887	719.25
331.115	685.25
331.344	558.25
331.572	497.25
331.801	497.25
332.03	513.25
332.258	485.25
332.486	413.25
332.715	424.25
332.943	426.25
333.172	403.25
333.4	401.25
333.629	426.25
333.857	399.25
334.085	433.25
334.314	396.25
334.542	393.25
334.771	424.25
334.999	415.25
335.227	396.25
335.455	396.25
335.684	386.25
335.912	391.25
336.14	380.25
336.369	382.25
336.597	407.25
336.825	410.25
337.053	393.25
337.281	380.25
337.51	376.25
337.738	402.25
337.966	386.25
338.194	411.25
338.422	394.25
338.65	384.25
338.878	381.25
339.106	355.25
339.334	369.25
339.562	369.25
339.79	379.25
340.018	384.25
340.246	389.25
340.474	396.25
340.702	396.25
340.93	378.25
341.158	382.25
341.386	386.25
341.614	406.25
341.842	395.25
342.07	399.25
342.298	389.25
342.526	392.25
342.754	370.25
342.981	343.25
343.209	385.25
343.437	354.25
343.665	366.25
343.893	341.25
344.12	360.25
344.348	382.25
344.576	368.25
344.804	378.25
345.031	413.25
345.259	421.25
345.487	423.25
345.714	382.25
345.942	392.25
346.17	374.25
346.397	371.25
346.625	381.25
346.853	369.25
347.08	372.25
347.308	384.25
347.535	395.25
347.763	403.25
347.99	405.25
348.218	408.25
348.445	389.25
348.673	397.25
348.9	370.25
349.128	382.25
349.355	370.25
349.583	357.25
349.81	366.25
350.037	358.25
350.265	353.25
350.492	354.25
350.72	356.25
350.947	379.25
351.174	388.25
351.402	407.25
351.629	386.25
351.856	402.25
352.083	420.25
352.311	416.25
352.538	417.25
352.765	423.25
352.992	410.25
353.22	384.25
353.447	402.25
353.674	372.25
353.901	383.25
354.128	358.25
354.355	331.25
354.583	336.25
354.81	352.25
355.037	327.25
355.264	330.25
355.491	320.25
355.718	327.25
355.945	320.25
356.172	312.25
356.399	316.25
356.626	328.25
356.853	345.25
357.08	342.25
357.307	333.25
357.534	340.25
357.761	365.25
357.988	356.25
358.215	360.25
358.441	358.25
358.668	350.25
358.895	341.25
359.122	372.25
359.349	351.25
359.576	392.25
359.802	453.25
360.029	471.25
360.256	485.25
360.483	473.25
360.709	417.25
360.936	391.25
361.163	385.25
361.39	403.25
361.616	397.25
361.843	393.25
362.07	388.25
362.296	408.25
362.523	383.25
362.749	386.25
362.976	385.25
363.203	387.25
363.429	365.25
363.656	374.25
363.882	376.25
364.109	351.25
364.335	373.25
364.562	344.25
364.788	357.25
365.015	374.25
365.241	356.25
365.468	366.25
365.694	386.25
365.92	383.25
366.147	351.25
366.373	338.25
366.599	348.25
366.826	344.25
367.052	329.25
367.278	348.25
367.505	356.25
367.731	372.25
367.957	353.25
368.184	377.25
368.41	394.25
368.636	375.25
368.862	383.25
369.089	390.25
369.315	344.25
369.541	348.25
369.767	373.25
369.993	343.25
370.219	354.25
370.445	340.25
370.672	332.25
370.898	349.25
371.124	336.25
371.35	330.25
371.576	344.25
371.802	328.25
372.028	337.25
372.254	320.25
372.48	343.25
372.706	346.25
372.932	343.25
373.158	348.25
373.384	343.25
373.61	342.25
373.835	346.25
374.061	348.25
374.287	356.25
374.513	351.25
374.739	358.25
374.965	357.25
375.191	334.25
375.416	338.25
375.642	338.25
375.868	324.25
376.094	327.25
376.319	334.25
376.545	348.25
376.771	347.25
376.997	345.25
377.222	328.25
377.448	343.25
377.674	329.25
377.899	336.25
378.125	356.25
378.35	324.25
378.576	330.25
378.802	347.25
379.027	345.25
379.253	316.25
379.478	336.25
379.704	337.25
379.929	330.25
380.155	340.25
380.38	345.25
380.606	346.25
380.831	350.25
381.057	350.25
381.282	343.25
381.507	328.25
381.733	332.25
381.958	332.25
382.184	341.25
382.409	332.25
382.634	360.25
382.86	354.25
383.085	353.25
383.31	343.25
383.535	341.25
383.761	343.25
383.986	355.25
384.211	334.25
384.436	360.25
384.662	352.25
384.887	369.25
385.112	348.25
385.337	335.25
385.562	364.25
385.787	370.25
386.013	353.25
386.238	379.25
386.463	360.25
386.688	372.25
386.913	363.25
387.138	356.25
387.363	360.25
387.588	357.25
387.813	348.25
388.038	356.25
388.263	353.25
388.488	377.25
388.713	373.25
388.938	368.25
389.163	350.25
389.387	349.25
389.612	347.25
389.837	356.25
390.062	353.25
390.287	334.25
390.512	373.25
390.736	352.25
390.961	338.25
391.186	332.25
391.411	361.25
391.636	345.25
391.86	368.25
392.085	364.25
392.31	349.25
392.534	353.25
392.759	357.25
392.984	359.25
393.208	358.25
393.433	355.25
393.658	377.25
393.882	349.25
394.107	366.25
394.331	346.25
394.556	333.25
394.78	346.25
395.005	352.25
395.229	332.25
395.454	365.25
395.678	361.25
395.903	380.25
396.127	414.25
396.352	402.25
396.576	381.25
396.801	382.25
397.025	377.25
397.249	360.25
397.474	374.25
397.698	379.25
397.922	406.25
398.147	393.25
398.371	396.25
398.595	388.25
398.82	398.25
399.044	384.25
399.268	417.25
399.492	421.25
399.717	458.25
399.941	476.25
400.165	488.25
400.389	516.25
400.613	468.25
400.837	452.25
401.062	430.25
401.286	406.25
401.51	413.25
401.734	393.25
401.958	421.25
402.182	419.25
402.406	440.25
402.63	446.25
402.854	425.25
403.078	424.25
403.302	426.25
403.526	414.25
403.75	420.25
403.974	424.25
404.198	426.25
404.422	439.25
404.645	424.25
404.869	435.25
405.093	447.25
405.317	456.25
405.541	510.25
405.765	483.25
405.988	458.25
406.212	483.25
406.436	518.25
406.66	538.25
406.883	511.25
407.107	517.25
407.331	549.25
407.555	599.25
407.778	596.25
408.002	538.25
408.226	507.25
408.449	499.25
408.673	501.25
408.896	528.25
409.12	553.25
409.344	529.25
409.567	469.25
409.791	461.25
410.014	453.25
410.238	433.25
410.461	454.25
410.685	454.25
410.908	453.25
411.132	501.25
411.355	550.25
411.578	485.25
411.802	460.25
412.025	438.25
412.249	432.25
412.472	448.25
412.695	428.25
412.919	453.25
413.142	406.25
413.365	391.25
413.589	413.25
413.812	433.25
414.035	405.25
414.258	414.25
414.482	403.25
414.705	408.25
414.928	402.25
415.151	396.25
415.374	402.25
415.597	391.25
415.821	400.25
416.044	425.25
416.267	425.25
416.49	402.25
416.713	396.25
416.936	408.25
417.159	392.25
417.382	416.25
417.605	430.25
417.828	434.25
418.051	456.25
418.274	425.25
418.497	429.25
418.72	445.25
418.943	414.25
419.166	436.25
419.389	449.25
419.611	430.25
419.834	427.25
420.057	468.25
420.28	442.25
420.503	416.25
420.726	451.25
420.948	447.25
421.171	492.25
421.394	544.25
421.617	484.25
421.839	455.25
422.062	460.25
422.285	458.25
422.507	538.25
422.73	611.25
422.953	584.25
423.175	521.25
423.398	475.25
423.621	500.25
423.843	497.25
424.066	504.25
424.288	505.25
424.511	516.25
424.733	597.25
424.956	666.25
425.178	632.25
425.401	658.25
425.623	644.25
425.846	553.25
426.068	514.25
426.291	494.25
426.513	523.25
426.735	552.25
426.958	569.25
427.18	646.25
427.402	778.25
427.625	869.25
427.847	813.25
428.069	692.25
428.292	616.25
428.514	550.25
428.736	514.25
428.958	536.25
429.181	474.25
429.403	493.25
429.625	506.25
429.847	536.25
430.069	617.25
430.292	590.25
430.514	522.25
430.736	488.25
430.958	460.25
431.18	457.25
431.402	460.25
431.624	429.25
431.846	438.25
432.068	446.25
432.29	458.25
432.512	428.25
432.734	457.25
432.956	462.25
433.178	471.25
433.4	479.25
433.622	448.25
433.844	462.25
434.066	431.25
434.287	431.25
434.509	442.25
434.731	446.25
434.953	442.25
435.175	470.25
435.397	497.25
435.618	523.25
435.84	572.25
436.062	675.25
436.284	712.25
436.505	601.25
436.727	540.25
436.949	512.25
437.17	505.25
437.392	492.25
437.614	516.25
437.835	571.25
438.057	668.25
438.278	778.25
438.5	761.25
438.721	813.25
438.943	770.25
439.165	623.25
439.386	594.25
439.608	566.25
439.829	574.25
440.05	590.25
440.272	642.25
440.493	625.25
440.715	561.25
440.936	507.25
441.158	500.25
441.379	502.25
441.6	516.25
441.822	547.25
442.043	561.25
442.264	658.25
442.486	694.25
442.707	614.25
442.928	569.25
443.149	562.25
443.371	600.25
443.592	623.25
443.813	700.25
444.034	761.25
444.255	628.25
444.476	566.25
444.698	519.25
444.919	502.25
445.14	611.25
445.361	580.25
445.582	585.25
445.803	654.25
446.024	751.25
446.245	767.25
446.466	698.25
446.687	608.25
446.908	570.25
447.129	523.25
447.35	486.25
447.571	495.25
447.792	487.25
448.013	492.25
448.234	532.25
448.455	578.25
448.675	682.25
448.896	750.25
449.117	699.25
449.338	666.25
449.559	746.25
449.779	807.25
450	687.25
450.221	545.25
450.442	542.25
450.662	517.25
450.883	506.25
451.104	569.25
451.324	535.25
451.545	508.25
451.766	474.25
451.986	468.25
452.207	430.25
452.428	434.25
452.648	464.25
452.869	445.25
453.089	452.25
453.31	466.25
453.53	471.25
453.751	463.25
453.971	452.25
454.192	488.25
454.412	501.25
454.633	450.25
454.853	460.25
455.073	447.25
455.294	473.25
455.514	567.25
455.734	548.25
455.955	469.25
456.175	452.25
456.395	402.25
456.616	420.25
456.836	400.25
457.056	393.25
457.276	402.25
457.497	412.25
457.717	400.25
457.937	415.25
458.157	420.25
458.377	432.25
458.598	466.25
458.818	546.25
459.038	638.25
459.258	636.25
459.478	545.25
459.698	485.25
459.918	447.25
460.138	450.25
460.358	422.25
460.578	431.25
460.798	440.25
461.018	470.25
461.238	444.25
461.458	429.25
461.678	443.25
461.898	428.25
462.118	409.25
462.338	415.25
462.558	419.25
462.777	450.25
462.997	421.25
463.217	442.25
463.437	459.25
463.657	448.25
463.876	432.25
464.096	459.25
464.316	435.25
464.536	455.25
464.755	481.25
464.975	486.25
465.195	543.25
465.414	678.25
465.634	608.25
465.854	526.25
466.073	492.25
466.293	480.25
466.512	430.25
466.732	443.25
466.951	439.25
467.171	427.25
467.391	429.25
467.61	460.25
467.829	488.25
468.049	468.25
468.268	435.25
468.488	430.25
468.707	424.25
468.927	410.25
469.146	414.25
469.365	428.25
469.585	432.25
469.804	422.25
470.023	440.25
470.243	458.25
470.462	450.25
470.681	467.25
470.901	495.25
471.12	469.25
471.339	451.25
471.558	447.25
471.777	458.25
471.997	439.25
472.216	433.25
472.435	413.25
472.654	420.25
472.873	418.25
473.092	424.25
473.311	433.25
473.53	421.25
473.749	473.25
473.968	512.25
474.187	617.25
474.406	656.25
474.625	516.25
474.844	479.25
475.063	446.25
475.282	446.25
475.501	434.25
475.72	466.25
475.939	451.25
476.158	441.25
476.377	448.25
476.596	433.25
476.814	478.25
477.033	477.25
477.252	480.25
477.471	468.25
477.69	472.25
477.908	477.25
478.127	470.25
478.346	469.25
478.564	474.25
478.783	475.25
479.002	496.25
479.22	496.25
479.439	523.25
479.658	534.25
479.876	538.25
480.095	552.25
480.313	558.25
480.532	543.25
480.751	525.25
480.969	540.25
481.188	540.25
481.406	548.25
481.624	526.25
481.843	522.25
482.061	536.25
482.28	503.25
482.498	493.25
482.717	522.25
482.935	510.25
483.153	503.25
483.372	525.25
483.59	528.25
483.808	518.25
484.027	507.25
484.245	527.25
484.463	533.25
484.681	553.25
484.9	541.25
485.118	530.25
485.336	533.25
485.554	521.25
485.772	542.25
485.99	549.25
486.209	542.25
486.427	549.25
486.645	587.25
486.863	595.25
487.081	602.25
487.299	579.25
487.517	583.25
487.735	569.25
487.953	583.25
488.171	574.25
488.389	538.25
488.607	577.25
488.825	578.25
489.043	571.25
489.261	568.25
489.479	594.25
489.696	578.25
489.914	590.25
490.132	581.25
490.35	594.25
490.568	578.25
490.786	569.25
491.003	610.25
491.221	620.25
491.439	650.25
491.657	624.25
491.874	631.25
492.092	654.25
492.31	650.25
492.527	668.25
492.745	668.25
492.963	675.25
493.18	666.25
493.398	664.25
493.615	685.25
493.833	673.25
494.05	666.25
494.268	686.25
494.485	681.25
494.703	658.25
494.92	696.25
495.138	680.25
495.355	681.25
495.573	696.25
495.79	684.25
496.008	642.25
496.225	689.25
496.442	687.25
496.66	685.25
496.877	688.25
497.094	703.25
497.312	704.25
497.529	712.25
497.746	697.25
497.963	688.25
498.181	716.25
498.398	712.25
498.615	724.25
498.832	740.25
499.049	730.25
499.267	742.25
499.484	786.25
499.701	772.25
499.918	780.25
500.135	786.25
500.352	820.25
500.569	799.25
500.786	781.25
501.003	837.25
501.22	822.25
501.437	792.25
501.654	824.25
501.871	836.25
