Data from 1987.PennyLincolnUp.Lamp.En5.5.200Scan.071819.P2_HRD10591_17-14-38-971.txt Node
Date: Thu Jul 18 17:14:38 EDT 2019
User: cochatt
Spectrometer: HR+D1059
Trigger mode: 1
Integration Time (sec): 1.000000E-1
Scans to average: 1
Electric dark correction enabled: true
Nonlinearity correction enabled: false
Boxcar width: 0
XAxis mode: Wavelengths
Number of Pixels in Spectrum: 2048
>>>>>Begin Spectral Data<<<<<
223.165	-1.25
223.4	-1.25
223.635	-1.25
223.869	-23.25
224.104	-19.25
224.338	-11.25
224.573	-9.25
224.808	-24.25
225.042	-12.25
225.277	-7.25
225.511	-12.25
225.746	3.75
225.98	8.75
226.215	13.75
226.449	6.75
226.683	23.75
226.918	22.75
227.152	40.75
227.387	29.75
227.621	30.75
227.856	44.75
228.09	46.75
228.324	54.75
228.559	57.75
228.793	58.75
229.027	98.75
229.262	111.75
229.496	130.75
229.73	144.75
229.964	172.75
230.199	142.75
230.433	125.75
230.667	118.75
230.901	114.75
231.136	104.75
231.37	115.75
231.604	108.75
231.838	99.75
232.072	119.75
232.306	120.75
232.541	123.75
232.775	106.75
233.009	111.75
233.243	110.75
233.477	114.75
233.711	118.75
233.945	100.75
234.179	98.75
234.413	95.75
234.647	111.75
234.881	117.75
235.115	118.75
235.349	124.75
235.583	130.75
235.817	112.75
236.051	121.75
236.285	132.75
236.519	119.75
236.753	139.75
236.987	136.75
237.221	198.75
237.455	250.75
237.689	195.75
237.922	134.75
238.156	135.75
238.39	126.75
238.624	124.75
238.858	134.75
239.091	139.75
239.325	138.75
239.559	119.75
239.793	128.75
240.027	134.75
240.26	141.75
240.494	162.75
240.728	138.75
240.961	139.75
241.195	135.75
241.429	136.75
241.662	138.75
241.896	118.75
242.13	150.75
242.363	128.75
242.597	134.75
242.83	130.75
243.064	127.75
243.298	123.75
243.531	128.75
243.765	124.75
243.998	126.75
244.232	135.75
244.465	148.75
244.699	133.75
244.932	144.75
245.166	127.75
245.399	145.75
245.633	138.75
245.866	126.75
246.099	135.75
246.333	128.75
246.566	134.75
246.8	138.75
247.033	160.75
247.266	149.75
247.5	152.75
247.733	172.75
247.966	145.75
248.2	166.75
248.433	161.75
248.666	151.75
248.899	170.75
249.133	178.75
249.366	206.75
249.599	192.75
249.832	183.75
250.066	173.75
250.299	182.75
250.532	180.75
250.765	189.75
250.998	193.75
251.231	217.75
251.465	198.75
251.698	191.75
251.931	190.75
252.164	193.75
252.397	184.75
252.63	207.75
252.863	187.75
253.096	191.75
253.329	232.75
253.562	232.75
253.795	213.75
254.028	210.75
254.261	212.75
254.494	216.75
254.727	237.75
254.96	288.75
255.193	275.75
255.426	239.75
255.659	227.75
255.892	224.75
256.124	200.75
256.357	210.75
256.59	199.75
256.823	194.75
257.056	184.75
257.289	200.75
257.521	198.75
257.754	181.75
257.987	187.75
258.22	198.75
258.452	188.75
258.685	188.75
258.918	184.75
259.151	203.75
259.383	185.75
259.616	211.75
259.849	209.75
260.081	219.75
260.314	225.75
260.547	250.75
260.779	222.75
261.012	215.75
261.244	213.75
261.477	208.75
261.71	205.75
261.942	211.75
262.175	230.75
262.407	231.75
262.64	191.75
262.872	182.75
263.105	214.75
263.337	187.75
263.57	197.75
263.802	195.75
264.035	189.75
264.267	184.75
264.499	182.75
264.732	185.75
264.964	194.75
265.197	190.75
265.429	186.75
265.661	203.75
265.894	179.75
266.126	188.75
266.358	184.75
266.591	167.75
266.823	194.75
267.055	185.75
267.287	197.75
267.52	208.75
267.752	191.75
267.984	184.75
268.216	213.75
268.448	184.75
268.681	224.75
268.913	215.75
269.145	228.75
269.377	227.75
269.609	242.75
269.841	247.75
270.073	232.75
270.306	265.75
270.538	267.75
270.77	284.75
271.002	282.75
271.234	271.75
271.466	279.75
271.698	285.75
271.93	282.75
272.162	288.75
272.394	301.75
272.626	272.75
272.858	273.75
273.09	265.75
273.322	244.75
273.553	234.75
273.785	236.75
274.017	219.75
274.249	230.75
274.481	215.75
274.713	216.75
274.945	227.75
275.176	236.75
275.408	233.75
275.64	242.75
275.872	223.75
276.104	220.75
276.335	227.75
276.567	235.75
276.799	256.75
277.031	276.75
277.262	264.75
277.494	285.75
277.726	264.75
277.957	251.75
278.189	230.75
278.421	233.75
278.652	234.75
278.884	230.75
279.115	205.75
279.347	216.75
279.579	232.75
279.81	219.75
280.042	222.75
280.273	223.75
280.505	219.75
280.736	217.75
280.968	213.75
281.199	206.75
281.431	210.75
281.662	217.75
281.894	210.75
282.125	222.75
282.356	232.75
282.588	247.75
282.819	277.75
283.051	225.75
283.282	207.75
283.513	206.75
283.745	213.75
283.976	241.75
284.207	245.75
284.439	227.75
284.67	233.75
284.901	218.75
285.132	228.75
285.364	216.75
285.595	222.75
285.826	211.75
286.057	222.75
286.288	219.75
286.52	224.75
286.751	227.75
286.982	228.75
287.213	228.75
287.444	222.75
287.675	229.75
287.906	237.75
288.138	232.75
288.369	234.75
288.6	244.75
288.831	246.75
289.062	230.75
289.293	217.75
289.524	243.75
289.755	225.75
289.986	230.75
290.217	234.75
290.448	228.75
290.679	233.75
290.91	226.75
291.141	228.75
291.371	216.75
291.602	232.75
291.833	210.75
292.064	221.75
292.295	247.75
292.526	232.75
292.757	226.75
292.987	246.75
293.218	222.75
293.449	228.75
293.68	220.75
293.91	211.75
294.141	231.75
294.372	226.75
294.603	222.75
294.833	237.75
295.064	235.75
295.295	239.75
295.525	226.75
295.756	227.75
295.987	229.75
296.217	264.75
296.448	294.75
296.679	246.75
296.909	220.75
297.14	245.75
297.37	218.75
297.601	230.75
297.831	216.75
298.062	220.75
298.292	246.75
298.523	243.75
298.753	233.75
298.984	230.75
299.214	231.75
299.445	235.75
299.675	244.75
299.905	247.75
300.136	242.75
300.366	224.75
300.597	234.75
300.827	258.75
301.057	239.75
301.288	247.75
301.518	260.75
301.748	234.75
301.979	258.75
302.209	269.75
302.439	247.75
302.669	261.75
302.9	248.75
303.13	238.75
303.36	258.75
303.59	262.75
303.82	264.75
304.051	263.75
304.281	247.75
304.511	248.75
304.741	265.75
304.971	244.75
305.201	250.75
305.431	266.75
305.661	238.75
305.891	256.75
306.121	254.75
306.352	264.75
306.582	268.75
306.812	267.75
307.042	253.75
307.272	237.75
307.502	260.75
307.731	268.75
307.961	268.75
308.191	259.75
308.421	266.75
308.651	266.75
308.881	266.75
309.111	265.75
309.341	281.75
309.571	293.75
309.8	302.75
310.03	309.75
310.26	332.75
310.49	330.75
310.72	330.75
310.949	351.75
311.179	331.75
311.409	333.75
311.639	308.75
311.868	320.75
312.098	302.75
312.328	311.75
312.557	339.75
312.787	343.75
313.017	342.75
313.246	331.75
313.476	306.75
313.706	311.75
313.935	319.75
314.165	340.75
314.394	351.75
314.624	340.75
314.853	344.75
315.083	320.75
315.312	295.75
315.542	292.75
315.771	306.75
316.001	309.75
316.23	325.75
316.46	310.75
316.689	322.75
316.919	323.75
317.148	337.75
317.377	329.75
317.607	329.75
317.836	317.75
318.065	316.75
318.295	328.75
318.524	310.75
318.753	311.75
318.983	292.75
319.212	312.75
319.441	326.75
319.67	335.75
319.9	316.75
320.129	328.75
320.358	329.75
320.587	318.75
320.816	312.75
321.046	344.75
321.275	335.75
321.504	352.75
321.733	354.75
321.962	376.75
322.191	366.75
322.42	386.75
322.649	409.75
322.878	418.75
323.108	441.75
323.337	449.75
323.566	501.75
323.795	538.75
324.024	600.75
324.253	732.75
324.482	1106.75
324.71	1651.75
324.939	2277.75
325.168	2040.75
325.397	1121.75
325.626	735.75
325.855	557.75
326.084	527.75
326.313	496.75
326.542	506.75
326.77	548.75
326.999	665.75
327.228	942.75
327.457	1438.75
327.686	1706.75
327.914	1229.75
328.143	786.75
328.372	654.75
328.6	600.75
328.829	566.75
329.058	563.75
329.287	607.75
329.515	538.75
329.744	500.75
329.972	456.75
330.201	455.75
330.43	503.75
330.658	536.75
330.887	613.75
331.115	579.75
331.344	491.75
331.572	424.75
331.801	439.75
332.03	436.75
332.258	401.75
332.486	390.75
332.715	361.75
332.943	362.75
333.172	375.75
333.4	364.75
333.629	356.75
333.857	396.75
334.085	388.75
334.314	342.75
334.542	380.75
334.771	362.75
334.999	378.75
335.227	354.75
335.455	341.75
335.684	343.75
335.912	345.75
336.14	350.75
336.369	361.75
336.597	358.75
336.825	376.75
337.053	363.75
337.281	354.75
337.51	347.75
337.738	351.75
337.966	334.75
338.194	349.75
338.422	363.75
338.65	344.75
338.878	348.75
339.106	339.75
339.334	335.75
339.562	340.75
339.79	349.75
340.018	360.75
340.246	366.75
340.474	351.75
340.702	344.75
340.93	330.75
341.158	347.75
341.386	356.75
341.614	359.75
341.842	356.75
342.07	343.75
342.298	335.75
342.526	334.75
342.754	330.75
342.981	313.75
343.209	328.75
343.437	331.75
343.665	317.75
343.893	321.75
344.12	350.75
344.348	349.75
344.576	351.75
344.804	349.75
345.031	371.75
345.259	363.75
345.487	372.75
345.714	367.75
345.942	348.75
346.17	324.75
346.397	337.75
346.625	344.75
346.853	363.75
347.08	349.75
347.308	345.75
347.535	374.75
347.763	372.75
347.99	381.75
348.218	365.75
348.445	380.75
348.673	375.75
348.9	346.75
349.128	348.75
349.355	336.75
349.583	320.75
349.81	313.75
350.037	346.75
350.265	335.75
350.492	332.75
350.72	327.75
350.947	340.75
351.174	341.75
351.402	364.75
351.629	345.75
351.856	355.75
352.083	355.75
352.311	379.75
352.538	384.75
352.765	395.75
352.992	350.75
353.22	359.75
353.447	350.75
353.674	341.75
353.901	329.75
354.128	320.75
354.355	322.75
354.583	315.75
354.81	318.75
355.037	325.75
355.264	320.75
355.491	318.75
355.718	310.75
355.945	309.75
356.172	289.75
356.399	291.75
356.626	300.75
356.853	304.75
357.08	314.75
357.307	300.75
357.534	296.75
357.761	289.75
357.988	318.75
358.215	308.75
358.441	330.75
358.668	319.75
358.895	332.75
359.122	315.75
359.349	349.75
359.576	360.75
359.802	379.75
360.029	439.75
360.256	429.75
360.483	394.75
360.709	382.75
360.936	372.75
361.163	360.75
361.39	345.75
361.616	346.75
361.843	346.75
362.07	378.75
362.296	367.75
362.523	345.75
362.749	355.75
362.976	333.75
363.203	353.75
363.429	325.75
363.656	353.75
363.882	341.75
364.109	327.75
364.335	336.75
364.562	339.75
364.788	341.75
365.015	334.75
365.241	340.75
365.468	344.75
365.694	342.75
365.92	348.75
366.147	341.75
366.373	320.75
366.599	322.75
366.826	308.75
367.052	322.75
367.278	310.75
367.505	318.75
367.731	308.75
367.957	319.75
368.184	322.75
368.41	322.75
368.636	331.75
368.862	358.75
369.089	329.75
369.315	340.75
369.541	341.75
369.767	322.75
369.993	332.75
370.219	318.75
370.445	306.75
370.672	315.75
370.898	324.75
371.124	297.75
371.35	320.75
371.576	300.75
371.802	302.75
372.028	304.75
372.254	308.75
372.48	292.75
372.706	307.75
372.932	312.75
373.158	300.75
373.384	320.75
373.61	304.75
373.835	315.75
374.061	305.75
374.287	328.75
374.513	315.75
374.739	310.75
374.965	321.75
375.191	312.75
375.416	320.75
375.642	314.75
375.868	299.75
376.094	308.75
376.319	310.75
376.545	310.75
376.771	318.75
376.997	319.75
377.222	298.75
377.448	325.75
377.674	310.75
377.899	326.75
378.125	293.75
378.35	299.75
378.576	280.75
378.802	297.75
379.027	315.75
379.253	306.75
379.478	300.75
379.704	314.75
379.929	315.75
380.155	323.75
380.38	308.75
380.606	325.75
380.831	307.75
381.057	328.75
381.282	320.75
381.507	313.75
381.733	311.75
381.958	336.75
382.184	320.75
382.409	316.75
382.634	315.75
382.86	316.75
383.085	322.75
383.31	317.75
383.535	333.75
383.761	310.75
383.986	319.75
384.211	327.75
384.436	323.75
384.662	338.75
384.887	327.75
385.112	323.75
385.337	338.75
385.562	316.75
385.787	334.75
386.013	338.75
386.238	348.75
386.463	335.75
386.688	338.75
386.913	345.75
387.138	337.75
387.363	325.75
387.588	315.75
387.813	336.75
388.038	326.75
388.263	332.75
388.488	335.75
388.713	334.75
388.938	332.75
389.163	339.75
389.387	341.75
389.612	334.75
389.837	325.75
390.062	352.75
390.287	336.75
390.512	336.75
390.736	307.75
390.961	326.75
391.186	333.75
391.411	313.75
391.636	328.75
391.86	341.75
392.085	341.75
392.31	351.75
392.534	352.75
392.759	345.75
392.984	318.75
393.208	342.75
393.433	343.75
393.658	344.75
393.882	321.75
394.107	313.75
394.331	334.75
394.556	357.75
394.78	318.75
395.005	335.75
395.229	325.75
395.454	324.75
395.678	329.75
395.903	346.75
396.127	372.75
396.352	374.75
396.576	354.75
396.801	333.75
397.025	340.75
397.249	349.75
397.474	342.75
397.698	335.75
397.922	388.75
398.147	365.75
398.371	382.75
398.595	374.75
398.82	346.75
399.044	365.75
399.268	368.75
399.492	389.75
399.717	426.75
399.941	412.75
400.165	453.75
400.389	463.75
400.613	425.75
400.837	399.75
401.062	392.75
401.286	373.75
401.51	375.75
401.734	383.75
401.958	391.75
402.182	392.75
402.406	416.75
402.63	385.75
402.854	383.75
403.078	394.75
403.302	398.75
403.526	399.75
403.75	394.75
403.974	393.75
404.198	383.75
404.422	386.75
404.645	400.75
404.869	404.75
405.093	430.75
405.317	439.75
405.541	473.75
405.765	436.75
405.988	417.75
406.212	431.75
406.436	470.75
406.66	480.75
406.883	465.75
407.107	463.75
407.331	484.75
407.555	533.75
407.778	554.75
408.002	490.75
408.226	463.75
408.449	452.75
408.673	434.75
408.896	462.75
409.12	525.75
409.344	491.75
409.567	443.75
409.791	417.75
410.014	406.75
410.238	420.75
410.461	404.75
410.685	399.75
410.908	428.75
411.132	455.75
411.355	481.75
411.578	438.75
411.802	421.75
412.025	400.75
412.249	395.75
412.472	404.75
412.695	430.75
412.919	410.75
413.142	407.75
413.365	375.75
413.589	388.75
413.812	379.75
414.035	368.75
414.258	366.75
414.482	373.75
414.705	366.75
414.928	356.75
415.151	370.75
415.374	372.75
415.597	375.75
415.821	371.75
416.044	381.75
416.267	385.75
416.49	390.75
416.713	396.75
416.936	378.75
417.159	370.75
417.382	384.75
417.605	386.75
417.828	404.75
418.051	414.75
418.274	399.75
418.497	384.75
418.72	389.75
418.943	381.75
419.166	399.75
419.389	403.75
419.611	404.75
419.834	384.75
420.057	399.75
420.28	411.75
420.503	412.75
420.726	418.75
420.948	432.75
421.171	454.75
421.394	480.75
421.617	439.75
421.839	438.75
422.062	430.75
422.285	422.75
422.507	495.75
422.73	572.75
422.953	556.75
423.175	480.75
423.398	434.75
423.621	430.75
423.843	449.75
424.066	452.75
424.288	476.75
424.511	488.75
424.733	516.75
424.956	610.75
425.178	596.75
425.401	577.75
425.623	592.75
425.846	521.75
426.068	475.75
426.291	487.75
426.513	472.75
426.735	484.75
426.958	529.75
427.18	602.75
427.402	699.75
427.625	770.75
427.847	740.75
428.069	600.75
428.292	530.75
428.514	480.75
428.736	473.75
428.958	442.75
429.181	438.75
429.403	452.75
429.625	456.75
429.847	471.75
430.069	550.75
430.292	542.75
430.514	454.75
430.736	440.75
430.958	440.75
431.18	423.75
431.402	410.75
431.624	406.75
431.846	414.75
432.068	434.75
432.29	410.75
432.512	393.75
432.734	410.75
432.956	400.75
433.178	425.75
433.4	446.75
433.622	409.75
433.844	414.75
434.066	395.75
434.287	399.75
434.509	412.75
434.731	412.75
434.953	401.75
435.175	437.75
435.397	456.75
435.618	476.75
435.84	549.75
436.062	574.75
436.284	670.75
436.505	560.75
436.727	491.75
436.949	487.75
437.17	438.75
437.392	461.75
437.614	457.75
437.835	507.75
438.057	614.75
438.278	703.75
438.5	667.75
438.721	744.75
438.943	700.75
439.165	570.75
439.386	542.75
439.608	521.75
439.829	526.75
440.05	499.75
440.272	578.75
440.493	538.75
440.715	490.75
440.936	464.75
441.158	456.75
441.379	459.75
441.6	486.75
441.822	492.75
442.043	522.75
442.264	612.75
442.486	655.75
442.707	548.75
442.928	516.75
443.149	508.75
443.371	550.75
443.592	572.75
443.813	628.75
444.034	668.75
444.255	584.75
444.476	516.75
444.698	475.75
444.919	472.75
445.14	538.75
445.361	528.75
445.582	524.75
445.803	568.75
446.024	667.75
446.245	685.75
446.466	612.75
446.687	534.75
446.908	475.75
447.129	474.75
447.35	458.75
447.571	452.75
447.792	443.75
448.013	459.75
448.234	484.75
448.455	536.75
448.675	619.75
448.896	719.75
449.117	629.75
449.338	582.75
449.559	664.75
449.779	737.75
450	640.75
450.221	512.75
450.442	460.75
450.662	485.75
450.883	469.75
451.104	517.75
451.324	483.75
451.545	457.75
451.766	425.75
451.986	394.75
452.207	414.75
452.428	403.75
452.648	416.75
452.869	424.75
453.089	436.75
453.31	445.75
453.53	422.75
453.751	402.75
453.971	435.75
454.192	440.75
454.412	444.75
454.633	415.75
454.853	392.75
455.073	421.75
455.294	454.75
455.514	491.75
455.734	508.75
455.955	408.75
456.175	392.75
456.395	387.75
456.616	376.75
456.836	378.75
457.056	382.75
457.276	346.75
457.497	349.75
457.717	359.75
457.937	362.75
458.157	383.75
458.377	375.75
458.598	415.75
458.818	512.75
459.038	597.75
459.258	567.75
459.478	473.75
459.698	452.75
459.918	427.75
460.138	384.75
460.358	392.75
460.578	384.75
460.798	400.75
461.018	417.75
461.238	400.75
461.458	406.75
461.678	392.75
461.898	394.75
462.118	400.75
462.338	393.75
462.558	410.75
462.777	414.75
462.997	396.75
463.217	402.75
463.437	412.75
463.657	407.75
463.876	395.75
464.096	409.75
464.316	415.75
464.536	436.75
464.755	441.75
464.975	455.75
465.195	525.75
465.414	620.75
465.634	546.75
465.854	471.75
466.073	448.75
466.293	428.75
466.512	426.75
466.732	396.75
466.951	403.75
467.171	378.75
467.391	393.75
467.61	429.75
467.829	416.75
468.049	420.75
468.268	411.75
468.488	410.75
468.707	371.75
468.927	404.75
469.146	391.75
469.365	388.75
469.585	395.75
469.804	398.75
470.023	418.75
470.243	398.75
470.462	416.75
470.681	428.75
470.901	446.75
471.12	427.75
471.339	425.75
471.558	410.75
471.777	410.75
471.997	387.75
472.216	383.75
472.435	387.75
472.654	395.75
472.873	394.75
473.092	384.75
473.311	393.75
473.53	401.75
473.749	434.75
473.968	470.75
474.187	570.75
474.406	599.75
474.625	486.75
474.844	437.75
475.063	416.75
475.282	395.75
475.501	424.75
475.72	414.75
475.939	426.75
476.158	419.75
476.377	417.75
476.596	446.75
476.814	412.75
477.033	452.75
477.252	403.75
477.471	405.75
477.69	430.75
477.908	439.75
478.127	433.75
478.346	436.75
478.564	438.75
478.783	436.75
479.002	441.75
479.22	462.75
479.439	468.75
479.658	486.75
479.876	487.75
480.095	514.75
480.313	494.75
480.532	481.75
480.751	461.75
480.969	488.75
481.188	513.75
481.406	518.75
481.624	475.75
481.843	482.75
482.061	476.75
482.28	480.75
482.498	516.75
482.717	502.75
482.935	477.75
483.153	477.75
483.372	461.75
483.59	464.75
483.808	476.75
484.027	478.75
484.245	467.75
484.463	490.75
484.681	494.75
484.9	489.75
485.118	502.75
485.336	493.75
485.554	494.75
485.772	516.75
485.99	500.75
486.209	518.75
486.427	512.75
486.645	508.75
486.863	565.75
487.081	561.75
487.299	547.75
487.517	531.75
487.735	520.75
487.953	524.75
488.171	511.75
488.389	549.75
488.607	514.75
488.825	534.75
489.043	540.75
489.261	532.75
489.479	547.75
489.696	517.75
489.914	558.75
490.132	555.75
490.35	572.75
490.568	543.75
490.786	570.75
491.003	574.75
491.221	581.75
491.439	589.75
491.657	597.75
491.874	603.75
492.092	596.75
492.31	605.75
492.527	623.75
492.745	616.75
492.963	608.75
493.18	608.75
493.398	609.75
493.615	635.75
493.833	630.75
494.05	646.75
494.268	620.75
494.485	624.75
494.703	648.75
494.92	658.75
495.138	638.75
495.355	648.75
495.573	633.75
495.79	618.75
496.008	655.75
496.225	642.75
496.442	644.75
496.66	651.75
496.877	640.75
497.094	647.75
497.312	644.75
497.529	640.75
497.746	662.75
497.963	659.75
498.181	680.75
498.398	680.75
498.615	650.75
498.832	687.75
499.049	682.75
499.267	703.75
499.484	704.75
499.701	700.75
499.918	705.75
500.135	708.75
500.352	756.75
500.569	743.75
500.786	754.75
501.003	747.75
501.22	754.75
501.437	740.75
501.654	761.75
501.871	759.75
502.088	754.75
