Data from 1987.PennyLincolnUp.Lamp.En5.5.200Scan.071819.P2_HRD10591_17-16-20-971.txt Node
Date: Thu Jul 18 17:16:20 EDT 2019
User: cochatt
Spectrometer: HR+D1059
Trigger mode: 1
Integration Time (sec): 1.000000E-1
Scans to average: 1
Electric dark correction enabled: true
Nonlinearity correction enabled: false
Boxcar width: 0
XAxis mode: Wavelengths
Number of Pixels in Spectrum: 2048
>>>>>Begin Spectral Data<<<<<
223.165	-13.62
223.4	-13.62
223.635	-13.62
223.869	-19.62
224.104	-21.62
224.338	-12.62
224.573	-4.62
224.808	-17.62
225.042	-5.62
225.277	-12.62
225.511	1.38
225.746	8.38
225.98	3.38
226.215	8.38
226.449	12.38
226.683	19.38
226.918	27.38
227.152	27.38
227.387	24.38
227.621	39.38
227.856	41.38
228.09	36.38
228.324	54.38
228.559	58.38
228.793	68.38
229.027	100.38
229.262	117.38
229.496	115.38
229.73	132.38
229.964	159.38
230.199	134.38
230.433	122.38
230.667	116.38
230.901	121.38
231.136	116.38
231.37	123.38
231.604	103.38
231.838	123.38
232.072	119.38
232.306	101.38
232.541	107.38
232.775	99.38
233.009	113.38
233.243	114.38
233.477	100.38
233.711	124.38
233.945	106.38
234.179	115.38
234.413	121.38
234.647	118.38
234.881	111.38
235.115	112.38
235.349	128.38
235.583	118.38
235.817	119.38
236.051	133.38
236.285	131.38
236.519	113.38
236.753	119.38
236.987	154.38
237.221	195.38
237.455	247.38
237.689	209.38
237.922	164.38
238.156	130.38
238.39	127.38
238.624	119.38
238.858	118.38
239.091	121.38
239.325	122.38
239.559	134.38
239.793	125.38
240.027	135.38
240.26	141.38
240.494	144.38
240.728	155.38
240.961	154.38
241.195	144.38
241.429	132.38
241.662	143.38
241.896	130.38
242.13	123.38
242.363	128.38
242.597	124.38
242.83	128.38
243.064	134.38
243.298	132.38
243.531	129.38
243.765	120.38
243.998	134.38
244.232	147.38
244.465	148.38
244.699	145.38
244.932	134.38
245.166	140.38
245.399	141.38
245.633	120.38
245.866	135.38
246.099	127.38
246.333	132.38
246.566	143.38
246.8	143.38
247.033	126.38
247.266	154.38
247.5	152.38
247.733	163.38
247.966	169.38
248.2	183.38
248.433	163.38
248.666	178.38
248.899	188.38
249.133	200.38
249.366	217.38
249.599	224.38
249.832	175.38
250.066	194.38
250.299	168.38
250.532	170.38
250.765	179.38
250.998	218.38
251.231	231.38
251.465	213.38
251.698	175.38
251.931	212.38
252.164	194.38
252.397	182.38
252.63	196.38
252.863	204.38
253.096	199.38
253.329	222.38
253.562	226.38
253.795	203.38
254.028	219.38
254.261	220.38
254.494	232.38
254.727	250.38
254.96	295.38
255.193	264.38
255.426	252.38
255.659	226.38
255.892	226.38
256.124	216.38
256.357	215.38
256.59	207.38
256.823	203.38
257.056	192.38
257.289	194.38
257.521	190.38
257.754	198.38
257.987	199.38
258.22	199.38
258.452	190.38
258.685	193.38
258.918	203.38
259.151	200.38
259.383	185.38
259.616	202.38
259.849	202.38
260.081	219.38
260.314	243.38
260.547	248.38
260.779	230.38
261.012	227.38
261.244	234.38
261.477	225.38
261.71	211.38
261.942	201.38
262.175	244.38
262.407	201.38
262.64	204.38
262.872	206.38
263.105	201.38
263.337	195.38
263.57	198.38
263.802	196.38
264.035	193.38
264.267	193.38
264.499	185.38
264.732	187.38
264.964	194.38
265.197	177.38
265.429	185.38
265.661	203.38
265.894	183.38
266.126	191.38
266.358	187.38
266.591	207.38
266.823	183.38
267.055	203.38
267.287	212.38
267.52	191.38
267.752	200.38
267.984	188.38
268.216	199.38
268.448	201.38
268.681	227.38
268.913	217.38
269.145	231.38
269.377	249.38
269.609	264.38
269.841	255.38
270.073	255.38
270.306	264.38
270.538	304.38
270.77	302.38
271.002	282.38
271.234	275.38
271.466	273.38
271.698	306.38
271.93	320.38
272.162	305.38
272.394	308.38
272.626	297.38
272.858	274.38
273.09	259.38
273.322	262.38
273.553	266.38
273.785	243.38
274.017	240.38
274.249	249.38
274.481	250.38
274.713	245.38
274.945	245.38
275.176	240.38
275.408	242.38
275.64	223.38
275.872	219.38
276.104	226.38
276.335	244.38
276.567	257.38
276.799	268.38
277.031	275.38
277.262	283.38
277.494	282.38
277.726	265.38
277.957	254.38
278.189	244.38
278.421	245.38
278.652	243.38
278.884	240.38
279.115	215.38
279.347	239.38
279.579	224.38
279.81	224.38
280.042	213.38
280.273	210.38
280.505	215.38
280.736	223.38
280.968	231.38
281.199	231.38
281.431	213.38
281.662	205.38
281.894	213.38
282.125	235.38
282.356	254.38
282.588	282.38
282.819	297.38
283.051	248.38
283.282	238.38
283.513	225.38
283.745	224.38
283.976	246.38
284.207	226.38
284.439	240.38
284.67	209.38
284.901	231.38
285.132	239.38
285.364	218.38
285.595	245.38
285.826	238.38
286.057	221.38
286.288	230.38
286.52	232.38
286.751	223.38
286.982	217.38
287.213	222.38
287.444	234.38
287.675	236.38
287.906	238.38
288.138	246.38
288.369	265.38
288.6	261.38
288.831	233.38
289.062	270.38
289.293	246.38
289.524	249.38
289.755	233.38
289.986	234.38
290.217	222.38
290.448	231.38
290.679	234.38
290.91	220.38
291.141	210.38
291.371	239.38
291.602	217.38
291.833	218.38
292.064	211.38
292.295	232.38
292.526	248.38
292.757	225.38
292.987	227.38
293.218	233.38
293.449	244.38
293.68	228.38
293.91	240.38
294.141	234.38
294.372	243.38
294.603	242.38
294.833	242.38
295.064	241.38
295.295	240.38
295.525	241.38
295.756	229.38
295.987	242.38
296.217	276.38
296.448	290.38
296.679	258.38
296.909	218.38
297.14	238.38
297.37	251.38
297.601	239.38
297.831	259.38
298.062	257.38
298.292	242.38
298.523	229.38
298.753	258.38
298.984	252.38
299.214	254.38
299.445	222.38
299.675	269.38
299.905	256.38
300.136	262.38
300.366	248.38
300.597	260.38
300.827	259.38
301.057	252.38
301.288	275.38
301.518	265.38
301.748	273.38
301.979	260.38
302.209	261.38
302.439	274.38
302.669	272.38
302.9	259.38
303.13	278.38
303.36	277.38
303.59	260.38
303.82	296.38
304.051	268.38
304.281	279.38
304.511	259.38
304.741	252.38
304.971	266.38
305.201	262.38
305.431	264.38
305.661	278.38
305.891	247.38
306.121	248.38
306.352	282.38
306.582	266.38
306.812	275.38
307.042	265.38
307.272	278.38
307.502	282.38
307.731	282.38
307.961	283.38
308.191	274.38
308.421	291.38
308.651	298.38
308.881	298.38
309.111	271.38
309.341	288.38
309.571	298.38
309.8	324.38
310.03	315.38
310.26	346.38
310.49	340.38
310.72	360.38
310.949	372.38
311.179	371.38
311.409	344.38
311.639	355.38
311.868	342.38
312.098	320.38
312.328	363.38
312.557	358.38
312.787	393.38
313.017	390.38
313.246	367.38
313.476	336.38
313.706	324.38
313.935	335.38
314.165	355.38
314.394	363.38
314.624	355.38
314.853	355.38
315.083	343.38
315.312	334.38
315.542	327.38
315.771	302.38
316.001	306.38
316.23	316.38
316.46	319.38
316.689	332.38
316.919	303.38
317.148	349.38
317.377	349.38
317.607	345.38
317.836	336.38
318.065	312.38
318.295	322.38
318.524	327.38
318.753	327.38
318.983	340.38
319.212	331.38
319.441	344.38
319.67	354.38
319.9	343.38
320.129	331.38
320.358	342.38
320.587	318.38
320.816	356.38
321.046	358.38
321.275	365.38
321.504	365.38
321.733	357.38
321.962	372.38
322.191	392.38
322.42	423.38
322.649	438.38
322.878	463.38
323.108	458.38
323.337	496.38
323.566	522.38
323.795	587.38
324.024	667.38
324.253	837.38
324.482	1207.38
324.71	1888.38
324.939	2609.38
325.168	2262.38
325.397	1235.38
325.626	804.38
325.855	630.38
326.084	570.38
326.313	541.38
326.542	558.38
326.77	628.38
326.999	753.38
327.228	1032.38
327.457	1598.38
327.686	1972.38
327.914	1413.38
328.143	879.38
328.372	726.38
328.6	643.38
328.829	630.38
329.058	640.38
329.287	661.38
329.515	612.38
329.744	544.38
329.972	520.38
330.201	497.38
330.43	562.38
330.658	607.38
330.887	650.38
331.115	660.38
331.344	546.38
331.572	477.38
331.801	491.38
332.03	481.38
332.258	467.38
332.486	406.38
332.715	387.38
332.943	394.38
333.172	386.38
333.4	371.38
333.629	382.38
333.857	385.38
334.085	397.38
334.314	385.38
334.542	395.38
334.771	394.38
334.999	385.38
335.227	391.38
335.455	378.38
335.684	373.38
335.912	381.38
336.14	384.38
336.369	368.38
336.597	362.38
336.825	370.38
337.053	378.38
337.281	370.38
337.51	360.38
337.738	353.38
337.966	383.38
338.194	402.38
338.422	388.38
338.65	374.38
338.878	375.38
339.106	359.38
339.334	359.38
339.562	351.38
339.79	346.38
340.018	368.38
340.246	378.38
340.474	387.38
340.702	378.38
340.93	382.38
341.158	362.38
341.386	380.38
341.614	347.38
341.842	371.38
342.07	353.38
342.298	364.38
342.526	346.38
342.754	361.38
342.981	326.38
343.209	332.38
343.437	343.38
343.665	355.38
343.893	366.38
344.12	348.38
344.348	349.38
344.576	366.38
344.804	374.38
345.031	368.38
345.259	424.38
345.487	393.38
345.714	388.38
345.942	362.38
346.17	360.38
346.397	350.38
346.625	374.38
346.853	358.38
347.08	370.38
347.308	379.38
347.535	372.38
347.763	391.38
347.99	382.38
348.218	395.38
348.445	398.38
348.673	397.38
348.9	373.38
349.128	371.38
349.355	348.38
349.583	340.38
349.81	355.38
350.037	354.38
350.265	347.38
350.492	347.38
350.72	339.38
350.947	360.38
351.174	371.38
351.402	379.38
351.629	380.38
351.856	389.38
352.083	389.38
352.311	415.38
352.538	393.38
352.765	410.38
352.992	386.38
353.22	363.38
353.447	378.38
353.674	350.38
353.901	338.38
354.128	342.38
354.355	355.38
354.583	327.38
354.81	349.38
355.037	327.38
355.264	323.38
355.491	318.38
355.718	316.38
355.945	325.38
356.172	322.38
356.399	335.38
356.626	312.38
356.853	324.38
357.08	295.38
357.307	320.38
357.534	303.38
357.761	313.38
357.988	323.38
358.215	330.38
358.441	314.38
358.668	312.38
358.895	335.38
359.122	350.38
359.349	363.38
359.576	395.38
359.802	425.38
360.029	460.38
360.256	491.38
360.483	428.38
360.709	388.38
360.936	368.38
361.163	379.38
361.39	377.38
361.616	371.38
361.843	369.38
362.07	379.38
362.296	390.38
362.523	384.38
362.749	374.38
362.976	369.38
363.203	368.38
363.429	338.38
363.656	359.38
363.882	348.38
364.109	350.38
364.335	315.38
364.562	312.38
364.788	357.38
365.015	340.38
365.241	348.38
365.468	350.38
365.694	370.38
365.92	349.38
366.147	326.38
366.373	325.38
366.599	340.38
366.826	341.38
367.052	323.38
367.278	333.38
367.505	342.38
367.731	353.38
367.957	343.38
368.184	355.38
368.41	348.38
368.636	361.38
368.862	383.38
369.089	354.38
369.315	327.38
369.541	350.38
369.767	332.38
369.993	342.38
370.219	335.38
370.445	347.38
370.672	336.38
370.898	315.38
371.124	322.38
371.35	323.38
371.576	316.38
371.802	328.38
372.028	323.38
372.254	339.38
372.48	331.38
372.706	331.38
372.932	329.38
373.158	322.38
373.384	330.38
373.61	329.38
373.835	317.38
374.061	320.38
374.287	327.38
374.513	316.38
374.739	316.38
374.965	314.38
375.191	332.38
375.416	319.38
375.642	329.38
375.868	307.38
376.094	310.38
376.319	330.38
376.545	325.38
376.771	314.38
376.997	337.38
377.222	319.38
377.448	322.38
377.674	312.38
377.899	318.38
378.125	325.38
378.35	321.38
378.576	327.38
378.802	314.38
379.027	308.38
379.253	320.38
379.478	318.38
379.704	347.38
379.929	315.38
380.155	311.38
380.38	311.38
380.606	332.38
380.831	308.38
381.057	342.38
381.282	339.38
381.507	323.38
381.733	321.38
381.958	308.38
382.184	305.38
382.409	320.38
382.634	339.38
382.86	322.38
383.085	315.38
383.31	314.38
383.535	334.38
383.761	341.38
383.986	337.38
384.211	324.38
384.436	328.38
384.662	346.38
384.887	344.38
385.112	329.38
385.337	332.38
385.562	338.38
385.787	328.38
386.013	355.38
386.238	360.38
386.463	347.38
386.688	354.38
386.913	338.38
387.138	329.38
387.363	327.38
387.588	339.38
387.813	330.38
388.038	320.38
388.263	342.38
388.488	336.38
388.713	345.38
388.938	336.38
389.163	341.38
389.387	341.38
389.612	339.38
389.837	313.38
390.062	344.38
390.287	340.38
390.512	338.38
390.736	323.38
390.961	328.38
391.186	326.38
391.411	325.38
391.636	335.38
391.86	340.38
392.085	338.38
392.31	346.38
392.534	344.38
392.759	351.38
392.984	342.38
393.208	342.38
393.433	356.38
393.658	344.38
393.882	321.38
394.107	327.38
394.331	337.38
394.556	353.38
394.78	353.38
395.005	349.38
395.229	336.38
395.454	345.38
395.678	372.38
395.903	361.38
396.127	382.38
396.352	392.38
396.576	351.38
396.801	368.38
397.025	358.38
397.249	357.38
397.474	370.38
397.698	367.38
397.922	383.38
398.147	391.38
398.371	382.38
398.595	362.38
398.82	360.38
399.044	377.38
399.268	391.38
399.492	390.38
399.717	417.38
399.941	439.38
400.165	476.38
400.389	480.38
400.613	453.38
400.837	428.38
401.062	406.38
401.286	393.38
401.51	389.38
401.734	403.38
401.958	384.38
402.182	384.38
402.406	427.38
402.63	426.38
402.854	407.38
403.078	403.38
403.302	402.38
403.526	407.38
403.75	403.38
403.974	396.38
404.198	395.38
404.422	383.38
404.645	405.38
404.869	399.38
405.093	431.38
405.317	458.38
405.541	462.38
405.765	463.38
405.988	452.38
406.212	453.38
406.436	495.38
406.66	512.38
406.883	480.38
407.107	496.38
407.331	539.38
407.555	573.38
407.778	561.38
408.002	517.38
408.226	472.38
408.449	445.38
408.673	460.38
408.896	493.38
409.12	527.38
409.344	497.38
409.567	452.38
409.791	432.38
410.014	435.38
410.238	422.38
410.461	426.38
410.685	425.38
410.908	444.38
411.132	478.38
411.355	520.38
411.578	473.38
411.802	433.38
412.025	448.38
412.249	435.38
412.472	415.38
412.695	433.38
412.919	448.38
413.142	406.38
413.365	389.38
413.589	398.38
413.812	396.38
414.035	393.38
414.258	387.38
414.482	378.38
414.705	394.38
414.928	358.38
415.151	376.38
415.374	379.38
415.597	364.38
415.821	386.38
416.044	379.38
416.267	400.38
416.49	376.38
416.713	390.38
416.936	379.38
417.159	392.38
417.382	392.38
417.605	414.38
417.828	414.38
418.051	440.38
418.274	443.38
418.497	410.38
418.72	416.38
418.943	382.38
419.166	398.38
419.389	416.38
419.611	426.38
419.834	410.38
420.057	423.38
420.28	425.38
420.503	400.38
420.726	411.38
420.948	413.38
421.171	492.38
421.394	500.38
421.617	446.38
421.839	435.38
422.062	440.38
422.285	453.38
422.507	494.38
422.73	584.38
422.953	577.38
423.175	492.38
423.398	458.38
423.621	445.38
423.843	489.38
424.066	475.38
424.288	478.38
424.511	512.38
424.733	559.38
424.956	642.38
425.178	615.38
425.401	630.38
425.623	634.38
425.846	559.38
426.068	512.38
426.291	516.38
426.513	478.38
426.735	514.38
426.958	559.38
427.18	633.38
427.402	731.38
427.625	800.38
427.847	792.38
428.069	681.38
428.292	594.38
428.514	551.38
428.736	510.38
428.958	486.38
429.181	459.38
429.403	461.38
429.625	467.38
429.847	495.38
430.069	577.38
430.292	575.38
430.514	483.38
430.736	449.38
430.958	426.38
431.18	419.38
431.402	430.38
431.624	411.38
431.846	419.38
432.068	411.38
432.29	412.38
432.512	412.38
432.734	422.38
432.956	443.38
433.178	440.38
433.4	448.38
433.622	432.38
433.844	422.38
434.066	430.38
434.287	434.38
434.509	439.38
434.731	442.38
434.953	450.38
435.175	459.38
435.397	474.38
435.618	485.38
435.84	544.38
436.062	640.38
436.284	694.38
436.505	589.38
436.727	540.38
436.949	473.38
437.17	490.38
437.392	462.38
437.614	487.38
437.835	544.38
438.057	638.38
438.278	729.38
438.5	714.38
438.721	774.38
438.943	728.38
439.165	611.38
439.386	540.38
439.608	551.38
439.829	553.38
440.05	603.38
440.272	601.38
440.493	554.38
440.715	519.38
440.936	487.38
441.158	482.38
441.379	464.38
441.6	482.38
441.822	516.38
442.043	553.38
442.264	628.38
442.486	666.38
442.707	580.38
442.928	546.38
443.149	537.38
443.371	545.38
443.592	608.38
443.813	656.38
444.034	704.38
444.255	603.38
444.476	529.38
444.698	491.38
444.919	478.38
445.14	577.38
445.361	552.38
445.582	564.38
445.803	595.38
446.024	700.38
446.245	703.38
446.466	669.38
446.687	560.38
446.908	524.38
447.129	467.38
447.35	467.38
447.571	484.38
447.792	468.38
448.013	481.38
448.234	507.38
448.455	570.38
448.675	666.38
448.896	730.38
449.117	660.38
449.338	625.38
449.559	683.38
449.779	785.38
450	647.38
450.221	574.38
450.442	494.38
450.662	491.38
450.883	482.38
451.104	507.38
451.324	501.38
451.545	475.38
451.766	449.38
451.986	447.38
452.207	422.38
452.428	446.38
452.648	450.38
452.869	437.38
453.089	439.38
453.31	455.38
453.53	428.38
453.751	426.38
453.971	421.38
454.192	495.38
454.412	451.38
454.633	438.38
454.853	424.38
455.073	422.38
455.294	462.38
455.514	525.38
455.734	522.38
455.955	434.38
456.175	410.38
456.395	403.38
456.616	381.38
456.836	401.38
457.056	398.38
457.276	379.38
457.497	371.38
457.717	383.38
457.937	386.38
458.157	389.38
458.377	417.38
458.598	441.38
458.818	532.38
459.038	614.38
459.258	622.38
459.478	532.38
459.698	464.38
459.918	438.38
460.138	427.38
460.358	420.38
460.578	418.38
460.798	446.38
461.018	426.38
461.238	377.38
461.458	414.38
461.678	414.38
461.898	417.38
462.118	382.38
462.338	400.38
462.558	403.38
462.777	420.38
462.997	415.38
463.217	405.38
463.437	409.38
463.657	420.38
463.876	420.38
464.096	422.38
464.316	420.38
464.536	436.38
464.755	452.38
464.975	464.38
465.195	536.38
465.414	696.38
465.634	601.38
465.854	518.38
466.073	464.38
466.293	438.38
466.512	438.38
466.732	419.38
466.951	409.38
467.171	416.38
467.391	425.38
467.61	453.38
467.829	465.38
468.049	437.38
468.268	393.38
468.488	411.38
468.707	410.38
468.927	389.38
469.146	401.38
469.365	393.38
469.585	400.38
469.804	409.38
470.023	435.38
470.243	442.38
470.462	441.38
470.681	460.38
470.901	458.38
471.12	441.38
471.339	427.38
471.558	432.38
471.777	414.38
471.997	411.38
472.216	412.38
472.435	431.38
472.654	417.38
472.873	387.38
473.092	400.38
473.311	420.38
473.53	415.38
473.749	432.38
473.968	476.38
474.187	620.38
474.406	604.38
474.625	509.38
474.844	453.38
475.063	424.38
475.282	427.38
475.501	450.38
475.72	445.38
475.939	432.38
476.158	426.38
476.377	436.38
476.596	426.38
476.814	446.38
477.033	469.38
477.252	460.38
477.471	444.38
477.69	436.38
477.908	454.38
478.127	458.38
478.346	454.38
478.564	444.38
478.783	457.38
479.002	451.38
479.22	496.38
479.439	486.38
479.658	528.38
479.876	514.38
480.095	508.38
480.313	560.38
480.532	516.38
480.751	524.38
480.969	511.38
481.188	512.38
481.406	537.38
481.624	498.38
481.843	494.38
482.061	510.38
482.28	485.38
482.498	512.38
482.717	518.38
482.935	512.38
483.153	497.38
483.372	502.38
483.59	499.38
483.808	497.38
484.027	502.38
484.245	502.38
484.463	507.38
484.681	513.38
484.9	492.38
485.118	516.38
485.336	530.38
485.554	511.38
485.772	509.38
485.99	531.38
486.209	516.38
486.427	527.38
486.645	547.38
486.863	586.38
487.081	572.38
487.299	549.38
487.517	549.38
487.735	543.38
487.953	542.38
488.171	551.38
488.389	544.38
488.607	567.38
488.825	532.38
489.043	566.38
489.261	554.38
489.479	548.38
489.696	558.38
489.914	567.38
490.132	562.38
490.35	578.38
490.568	591.38
490.786	607.38
491.003	603.38
491.221	615.38
491.439	602.38
491.657	601.38
491.874	626.38
492.092	619.38
492.31	631.38
492.527	650.38
492.745	653.38
492.963	644.38
493.18	654.38
493.398	650.38
493.615	653.38
493.833	640.38
494.05	664.38
494.268	678.38
494.485	653.38
494.703	666.38
494.92	659.38
495.138	662.38
495.355	670.38
495.573	667.38
495.79	650.38
496.008	670.38
496.225	663.38
496.442	667.38
496.66	649.38
496.877	674.38
497.094	681.38
497.312	676.38
497.529	683.38
497.746	702.38
497.963	681.38
498.181	675.38
498.398	700.38
498.615	708.38
498.832	698.38
499.049	703.38
499.267	715.38
499.484	726.38
499.701	752.38
499.918	726.38
500.135	753.38
500.352	784.38
500.569	786.38
500.786	774.38
501.003	770.38
501.22	755.38
501.437	784.38
501.654	775.38
501.871	788.38
