Data from 1987.PennyLincolnUp.Lamp.En5.5.200Scan.071819.P2_HRD10591_17-16-47-973.txt Node
Date: Thu Jul 18 17:16:47 EDT 2019
User: cochatt
Spectrometer: HR+D1059
Trigger mode: 1
Integration Time (sec): 1.000000E-1
Scans to average: 1
Electric dark correction enabled: true
Nonlinearity correction enabled: false
Boxcar width: 0
XAxis mode: Wavelengths
Number of Pixels in Spectrum: 2048
>>>>>Begin Spectral Data<<<<<
223.165	-26.06
223.4	-26.06
223.635	-26.06
223.869	-4.06
224.104	-13.06
224.338	-18.06
224.573	-13.06
224.808	-6.06
225.042	-1.06
225.277	-14.06
225.511	0.94
225.746	8.94
225.98	3.94
226.215	11.94
226.449	-4.06
226.683	14.94
226.918	29.94
227.152	28.94
227.387	35.94
227.621	28.94
227.856	29.94
228.09	37.94
228.324	49.94
228.559	50.94
228.793	67.94
229.027	106.94
229.262	118.94
229.496	121.94
229.73	150.94
229.964	180.94
230.199	162.94
230.433	126.94
230.667	137.94
230.901	121.94
231.136	103.94
231.37	118.94
231.604	114.94
231.838	115.94
232.072	107.94
232.306	95.94
232.541	108.94
232.775	112.94
233.009	109.94
233.243	124.94
233.477	122.94
233.711	112.94
233.945	106.94
234.179	120.94
234.413	106.94
234.647	114.94
234.881	126.94
235.115	129.94
235.349	117.94
235.583	122.94
235.817	134.94
236.051	132.94
236.285	134.94
236.519	121.94
236.753	140.94
236.987	145.94
237.221	212.94
237.455	264.94
237.689	205.94
237.922	161.94
238.156	129.94
238.39	141.94
238.624	137.94
238.858	132.94
239.091	130.94
239.325	120.94
239.559	127.94
239.793	125.94
240.027	126.94
240.26	145.94
240.494	162.94
240.728	157.94
240.961	151.94
241.195	152.94
241.429	138.94
241.662	118.94
241.896	134.94
242.13	122.94
242.363	131.94
242.597	146.94
242.83	136.94
243.064	140.94
243.298	127.94
243.531	129.94
243.765	140.94
243.998	148.94
244.232	135.94
244.465	147.94
244.699	151.94
244.932	154.94
245.166	140.94
245.399	131.94
245.633	142.94
245.866	145.94
246.099	139.94
246.333	145.94
246.566	128.94
246.8	143.94
247.033	149.94
247.266	153.94
247.5	148.94
247.733	159.94
247.966	177.94
248.2	178.94
248.433	169.94
248.666	184.94
248.899	181.94
249.133	201.94
249.366	227.94
249.599	198.94
249.832	187.94
250.066	173.94
250.299	184.94
250.532	184.94
250.765	198.94
250.998	221.94
251.231	221.94
251.465	216.94
251.698	205.94
251.931	173.94
252.164	204.94
252.397	194.94
252.63	201.94
252.863	209.94
253.096	224.94
253.329	230.94
253.562	230.94
253.795	230.94
254.028	229.94
254.261	221.94
254.494	224.94
254.727	266.94
254.96	292.94
255.193	285.94
255.426	249.94
255.659	234.94
255.892	221.94
256.124	218.94
256.357	220.94
256.59	213.94
256.823	213.94
257.056	202.94
257.289	204.94
257.521	204.94
257.754	186.94
257.987	210.94
258.22	205.94
258.452	190.94
258.685	206.94
258.918	199.94
259.151	206.94
259.383	209.94
259.616	212.94
259.849	216.94
260.081	218.94
260.314	250.94
260.547	243.94
260.779	240.94
261.012	229.94
261.244	209.94
261.477	215.94
261.71	218.94
261.942	227.94
262.175	233.94
262.407	202.94
262.64	204.94
262.872	188.94
263.105	204.94
263.337	205.94
263.57	196.94
263.802	176.94
264.035	202.94
264.267	196.94
264.499	180.94
264.732	201.94
264.964	201.94
265.197	200.94
265.429	206.94
265.661	201.94
265.894	198.94
266.126	204.94
266.358	190.94
266.591	189.94
266.823	198.94
267.055	199.94
267.287	208.94
267.52	213.94
267.752	216.94
267.984	208.94
268.216	223.94
268.448	220.94
268.681	206.94
268.913	240.94
269.145	229.94
269.377	276.94
269.609	266.94
269.841	267.94
270.073	265.94
270.306	283.94
270.538	304.94
270.77	326.94
271.002	304.94
271.234	291.94
271.466	293.94
271.698	307.94
271.93	300.94
272.162	319.94
272.394	315.94
272.626	299.94
272.858	282.94
273.09	272.94
273.322	248.94
273.553	243.94
273.785	245.94
274.017	252.94
274.249	245.94
274.481	228.94
274.713	236.94
274.945	264.94
275.176	253.94
275.408	237.94
275.64	232.94
275.872	230.94
276.104	228.94
276.335	231.94
276.567	258.94
276.799	275.94
277.031	293.94
277.262	323.94
277.494	318.94
277.726	297.94
277.957	276.94
278.189	268.94
278.421	255.94
278.652	236.94
278.884	247.94
279.115	232.94
279.347	233.94
279.579	223.94
279.81	244.94
280.042	214.94
280.273	232.94
280.505	219.94
280.736	240.94
280.968	237.94
281.199	243.94
281.431	231.94
281.662	227.94
281.894	220.94
282.125	241.94
282.356	264.94
282.588	294.94
282.819	294.94
283.051	246.94
283.282	225.94
283.513	247.94
283.745	257.94
283.976	240.94
284.207	244.94
284.439	243.94
284.67	240.94
284.901	226.94
285.132	216.94
285.364	228.94
285.595	241.94
285.826	237.94
286.057	221.94
286.288	238.94
286.52	233.94
286.751	231.94
286.982	225.94
287.213	233.94
287.444	247.94
287.675	222.94
287.906	252.94
288.138	272.94
288.369	284.94
288.6	258.94
288.831	246.94
289.062	271.94
289.293	240.94
289.524	247.94
289.755	255.94
289.986	244.94
290.217	238.94
290.448	225.94
290.679	240.94
290.91	254.94
291.141	245.94
291.371	252.94
291.602	232.94
291.833	246.94
292.064	238.94
292.295	244.94
292.526	249.94
292.757	254.94
292.987	234.94
293.218	237.94
293.449	232.94
293.68	227.94
293.91	229.94
294.141	251.94
294.372	226.94
294.603	233.94
294.833	250.94
295.064	244.94
295.295	245.94
295.525	261.94
295.756	249.94
295.987	261.94
296.217	283.94
296.448	315.94
296.679	266.94
296.909	239.94
297.14	250.94
297.37	274.94
297.601	241.94
297.831	225.94
298.062	244.94
298.292	246.94
298.523	246.94
298.753	247.94
298.984	261.94
299.214	266.94
299.445	241.94
299.675	244.94
299.905	276.94
300.136	276.94
300.366	262.94
300.597	271.94
300.827	262.94
301.057	288.94
301.288	279.94
301.518	276.94
301.748	265.94
301.979	276.94
302.209	256.94
302.439	274.94
302.669	276.94
302.9	268.94
303.13	266.94
303.36	278.94
303.59	265.94
303.82	286.94
304.051	290.94
304.281	270.94
304.511	283.94
304.741	266.94
304.971	256.94
305.201	281.94
305.431	259.94
305.661	277.94
305.891	267.94
306.121	287.94
306.352	304.94
306.582	292.94
306.812	286.94
307.042	278.94
307.272	280.94
307.502	267.94
307.731	294.94
307.961	282.94
308.191	290.94
308.421	285.94
308.651	284.94
308.881	278.94
309.111	311.94
309.341	304.94
309.571	317.94
309.8	330.94
310.03	332.94
310.26	331.94
310.49	348.94
310.72	361.94
310.949	386.94
311.179	394.94
311.409	354.94
311.639	344.94
311.868	352.94
312.098	355.94
312.328	354.94
312.557	395.94
312.787	418.94
313.017	420.94
313.246	378.94
313.476	349.94
313.706	358.94
313.935	355.94
314.165	359.94
314.394	373.94
314.624	397.94
314.853	388.94
315.083	350.94
315.312	348.94
315.542	340.94
315.771	325.94
316.001	342.94
316.23	330.94
316.46	347.94
316.689	325.94
316.919	357.94
317.148	353.94
317.377	356.94
317.607	348.94
317.836	329.94
318.065	339.94
318.295	336.94
318.524	338.94
318.753	317.94
318.983	346.94
319.212	338.94
319.441	360.94
319.67	350.94
319.9	363.94
320.129	346.94
320.358	350.94
320.587	351.94
320.816	358.94
321.046	361.94
321.275	388.94
321.504	390.94
321.733	382.94
321.962	384.94
322.191	406.94
322.42	447.94
322.649	457.94
322.878	469.94
323.108	487.94
323.337	514.94
323.566	556.94
323.795	633.94
324.024	676.94
324.253	890.94
324.482	1306.94
324.71	2012.94
324.939	2818.94
325.168	2514.94
325.397	1325.94
325.626	865.94
325.855	667.94
326.084	584.94
326.313	560.94
326.542	557.94
326.77	638.94
326.999	756.94
327.228	1128.94
327.457	1740.94
327.686	2134.94
327.914	1464.94
328.143	950.94
328.372	773.94
328.6	688.94
328.829	682.94
329.058	694.94
329.287	690.94
329.515	629.94
329.744	546.94
329.972	526.94
330.201	540.94
330.43	589.94
330.658	624.94
330.887	725.94
331.115	694.94
331.344	572.94
331.572	516.94
331.801	493.94
332.03	503.94
332.258	459.94
332.486	417.94
332.715	414.94
332.943	399.94
333.172	417.94
333.4	388.94
333.629	409.94
333.857	438.94
334.085	433.94
334.314	426.94
334.542	408.94
334.771	420.94
334.999	413.94
335.227	410.94
335.455	386.94
335.684	404.94
335.912	382.94
336.14	367.94
336.369	384.94
336.597	400.94
336.825	396.94
337.053	392.94
337.281	378.94
337.51	385.94
337.738	392.94
337.966	384.94
338.194	385.94
338.422	386.94
338.65	382.94
338.878	376.94
339.106	361.94
339.334	372.94
339.562	389.94
339.79	375.94
340.018	373.94
340.246	378.94
340.474	401.94
340.702	398.94
340.93	378.94
341.158	365.94
341.386	372.94
341.614	386.94
341.842	388.94
342.07	368.94
342.298	382.94
342.526	370.94
342.754	361.94
342.981	365.94
343.209	357.94
343.437	360.94
343.665	345.94
343.893	373.94
344.12	362.94
344.348	357.94
344.576	360.94
344.804	403.94
345.031	404.94
345.259	408.94
345.487	404.94
345.714	388.94
345.942	379.94
346.17	378.94
346.397	373.94
346.625	386.94
346.853	389.94
347.08	380.94
347.308	388.94
347.535	391.94
347.763	403.94
347.99	411.94
348.218	401.94
348.445	418.94
348.673	428.94
348.9	385.94
349.128	385.94
349.355	370.94
349.583	355.94
349.81	380.94
350.037	344.94
350.265	370.94
350.492	356.94
350.72	349.94
350.947	367.94
351.174	368.94
351.402	412.94
351.629	396.94
351.856	411.94
352.083	420.94
352.311	435.94
352.538	425.94
352.765	438.94
352.992	417.94
353.22	400.94
353.447	398.94
353.674	381.94
353.901	372.94
354.128	352.94
354.355	330.94
354.583	341.94
354.81	332.94
355.037	345.94
355.264	349.94
355.491	321.94
355.718	336.94
355.945	326.94
356.172	324.94
356.399	344.94
356.626	344.94
356.853	337.94
357.08	325.94
357.307	342.94
357.534	334.94
357.761	329.94
357.988	344.94
358.215	330.94
358.441	346.94
358.668	344.94
358.895	347.94
359.122	352.94
359.349	370.94
359.576	408.94
359.802	440.94
360.029	471.94
360.256	520.94
360.483	458.94
360.709	422.94
360.936	397.94
361.163	402.94
361.39	410.94
361.616	394.94
361.843	391.94
362.07	381.94
362.296	395.94
362.523	392.94
362.749	394.94
362.976	377.94
363.203	361.94
363.429	356.94
363.656	373.94
363.882	360.94
364.109	359.94
364.335	358.94
364.562	352.94
364.788	355.94
365.015	346.94
365.241	364.94
365.468	360.94
365.694	369.94
365.92	392.94
366.147	369.94
366.373	352.94
366.599	352.94
366.826	358.94
367.052	355.94
367.278	353.94
367.505	355.94
367.731	358.94
367.957	359.94
368.184	360.94
368.41	348.94
368.636	365.94
368.862	357.94
369.089	342.94
369.315	347.94
369.541	334.94
369.767	329.94
369.993	346.94
370.219	349.94
370.445	340.94
370.672	331.94
370.898	345.94
371.124	355.94
371.35	334.94
371.576	349.94
371.802	326.94
372.028	319.94
372.254	320.94
372.48	339.94
372.706	350.94
372.932	340.94
373.158	322.94
373.384	329.94
373.61	352.94
373.835	344.94
374.061	348.94
374.287	345.94
374.513	349.94
374.739	351.94
374.965	322.94
375.191	334.94
375.416	325.94
375.642	331.94
375.868	333.94
376.094	337.94
376.319	345.94
376.545	324.94
376.771	322.94
376.997	345.94
377.222	327.94
377.448	338.94
377.674	330.94
377.899	342.94
378.125	332.94
378.35	311.94
378.576	320.94
378.802	307.94
379.027	331.94
379.253	322.94
379.478	328.94
379.704	335.94
379.929	333.94
380.155	332.94
380.38	339.94
380.606	338.94
380.831	336.94
381.057	353.94
381.282	331.94
381.507	323.94
381.733	347.94
381.958	329.94
382.184	338.94
382.409	340.94
382.634	338.94
382.86	347.94
383.085	333.94
383.31	323.94
383.535	331.94
383.761	336.94
383.986	357.94
384.211	346.94
384.436	323.94
384.662	342.94
384.887	321.94
385.112	343.94
385.337	347.94
385.562	341.94
385.787	337.94
386.013	377.94
386.238	375.94
386.463	374.94
386.688	361.94
386.913	376.94
387.138	335.94
387.363	336.94
387.588	343.94
387.813	346.94
388.038	346.94
388.263	350.94
388.488	349.94
388.713	334.94
388.938	359.94
389.163	371.94
389.387	365.94
389.612	354.94
389.837	342.94
390.062	356.94
390.287	352.94
390.512	337.94
390.736	360.94
390.961	350.94
391.186	351.94
391.411	346.94
391.636	350.94
391.86	360.94
392.085	359.94
392.31	340.94
392.534	356.94
392.759	369.94
392.984	353.94
393.208	340.94
393.433	360.94
393.658	344.94
393.882	345.94
394.107	360.94
394.331	357.94
394.556	344.94
394.78	331.94
395.005	346.94
395.229	357.94
395.454	360.94
395.678	374.94
395.903	373.94
396.127	384.94
396.352	405.94
396.576	354.94
396.801	366.94
397.025	372.94
397.249	357.94
397.474	359.94
397.698	384.94
397.922	409.94
398.147	387.94
398.371	376.94
398.595	410.94
398.82	376.94
399.044	392.94
399.268	422.94
399.492	393.94
399.717	427.94
399.941	458.94
400.165	479.94
400.389	504.94
400.613	464.94
400.837	428.94
401.062	417.94
401.286	416.94
401.51	411.94
401.734	412.94
401.958	412.94
402.182	406.94
402.406	424.94
402.63	417.94
402.854	412.94
403.078	411.94
403.302	418.94
403.526	415.94
403.75	442.94
403.974	430.94
404.198	414.94
404.422	438.94
404.645	435.94
404.869	433.94
405.093	439.94
405.317	492.94
405.541	510.94
405.765	479.94
405.988	438.94
406.212	472.94
406.436	506.94
406.66	522.94
406.883	502.94
407.107	520.94
407.331	532.94
407.555	610.94
407.778	581.94
408.002	549.94
408.226	513.94
408.449	471.94
408.673	488.94
408.896	526.94
409.12	527.94
409.344	520.94
409.567	477.94
409.791	455.94
410.014	443.94
410.238	435.94
410.461	417.94
410.685	422.94
410.908	446.94
411.132	493.94
411.355	539.94
411.578	488.94
411.802	461.94
412.025	411.94
412.249	438.94
412.472	452.94
412.695	438.94
412.919	431.94
413.142	420.94
413.365	392.94
413.589	417.94
413.812	406.94
414.035	410.94
414.258	398.94
414.482	417.94
414.705	398.94
414.928	402.94
415.151	387.94
415.374	396.94
415.597	408.94
415.821	385.94
416.044	398.94
416.267	390.94
416.49	419.94
416.713	412.94
416.936	392.94
417.159	402.94
417.382	428.94
417.605	425.94
417.828	425.94
418.051	439.94
418.274	438.94
418.497	408.94
418.72	410.94
418.943	406.94
419.166	427.94
419.389	436.94
419.611	442.94
419.834	443.94
420.057	442.94
420.28	429.94
420.503	436.94
420.726	448.94
420.948	459.94
421.171	492.94
421.394	546.94
421.617	467.94
421.839	436.94
422.062	445.94
422.285	485.94
422.507	518.94
422.73	602.94
422.953	581.94
423.175	496.94
423.398	469.94
423.621	488.94
423.843	506.94
424.066	498.94
424.288	502.94
424.511	521.94
424.733	576.94
424.956	680.94
425.178	635.94
425.401	634.94
425.623	626.94
425.846	559.94
426.068	526.94
426.291	505.94
426.513	502.94
426.735	512.94
426.958	554.94
427.18	663.94
427.402	772.94
427.625	874.94
427.847	816.94
428.069	698.94
428.292	593.94
428.514	551.94
428.736	507.94
428.958	490.94
429.181	488.94
429.403	469.94
429.625	498.94
429.847	537.94
430.069	594.94
430.292	602.94
430.514	507.94
430.736	467.94
430.958	472.94
431.18	467.94
431.402	442.94
431.624	419.94
431.846	444.94
432.068	442.94
432.29	437.94
432.512	453.94
432.734	442.94
432.956	446.94
433.178	450.94
433.4	435.94
433.622	445.94
433.844	449.94
434.066	429.94
434.287	427.94
434.509	438.94
434.731	438.94
434.953	433.94
435.175	483.94
435.397	506.94
435.618	516.94
435.84	546.94
436.062	660.94
436.284	732.94
436.505	625.94
436.727	579.94
436.949	508.94
437.17	476.94
437.392	457.94
437.614	494.94
437.835	580.94
438.057	685.94
438.278	790.94
438.5	730.94
438.721	778.94
438.943	770.94
439.165	628.94
439.386	573.94
439.608	570.94
439.829	575.94
440.05	581.94
440.272	597.94
440.493	591.94
440.715	535.94
440.936	508.94
441.158	489.94
441.379	493.94
441.6	500.94
441.822	550.94
442.043	607.94
442.264	660.94
442.486	688.94
442.707	618.94
442.928	562.94
443.149	562.94
443.371	577.94
443.592	617.94
443.813	708.94
444.034	746.94
444.255	634.94
444.476	555.94
444.698	492.94
444.919	504.94
445.14	608.94
445.361	566.94
445.582	598.94
445.803	633.94
446.024	733.94
446.245	736.94
446.466	712.94
446.687	588.94
446.908	554.94
447.129	505.94
447.35	501.94
447.571	490.94
447.792	478.94
448.013	506.94
448.234	532.94
448.455	592.94
448.675	701.94
448.896	749.94
449.117	662.94
449.338	667.94
449.559	752.94
449.779	814.94
450	682.94
450.221	544.94
450.442	509.94
450.662	500.94
450.883	551.94
451.104	562.94
451.324	542.94
451.545	501.94
451.766	480.94
451.986	459.94
452.207	440.94
452.428	436.94
452.648	442.94
452.869	438.94
453.089	471.94
453.31	466.94
453.53	460.94
453.751	454.94
453.971	459.94
454.192	500.94
454.412	493.94
454.633	485.94
454.853	452.94
455.073	453.94
455.294	478.94
455.514	552.94
455.734	542.94
455.955	446.94
456.175	439.94
456.395	414.94
456.616	408.94
456.836	390.94
457.056	405.94
457.276	386.94
457.497	389.94
457.717	422.94
457.937	398.94
458.157	414.94
458.377	433.94
458.598	438.94
458.818	542.94
459.038	661.94
459.258	666.94
459.478	530.94
459.698	460.94
459.918	455.94
460.138	426.94
460.358	431.94
460.578	421.94
460.798	418.94
461.018	442.94
461.238	421.94
461.458	418.94
461.678	410.94
461.898	419.94
462.118	427.94
462.338	434.94
462.558	421.94
462.777	432.94
462.997	438.94
463.217	422.94
463.437	440.94
463.657	417.94
463.876	428.94
464.096	427.94
464.316	445.94
464.536	465.94
464.755	470.94
464.975	495.94
465.195	572.94
465.414	738.94
465.634	633.94
465.854	514.94
466.073	488.94
466.293	454.94
466.512	437.94
466.732	416.94
466.951	446.94
467.171	422.94
467.391	437.94
467.61	448.94
467.829	484.94
468.049	456.94
468.268	443.94
468.488	428.94
468.707	416.94
468.927	413.94
469.146	429.94
469.365	414.94
469.585	424.94
469.804	443.94
470.023	450.94
470.243	456.94
470.462	476.94
470.681	490.94
470.901	478.94
471.12	470.94
471.339	435.94
471.558	441.94
471.777	449.94
471.997	435.94
472.216	437.94
472.435	417.94
472.654	437.94
472.873	430.94
473.092	416.94
473.311	422.94
473.53	444.94
473.749	455.94
473.968	497.94
474.187	604.94
474.406	646.94
474.625	534.94
474.844	477.94
475.063	444.94
475.282	410.94
475.501	428.94
475.72	446.94
475.939	452.94
476.158	448.94
476.377	452.94
476.596	436.94
476.814	453.94
477.033	473.94
477.252	477.94
477.471	435.94
477.69	468.94
477.908	466.94
478.127	482.94
478.346	466.94
478.564	497.94
478.783	486.94
479.002	492.94
479.22	502.94
479.439	500.94
479.658	548.94
479.876	566.94
480.095	544.94
480.313	588.94
480.532	544.94
480.751	520.94
480.969	542.94
481.188	572.94
481.406	562.94
481.624	526.94
481.843	515.94
482.061	504.94
482.28	518.94
482.498	498.94
482.717	522.94
482.935	497.94
483.153	526.94
483.372	524.94
483.59	499.94
483.808	521.94
484.027	514.94
484.245	524.94
484.463	516.94
484.681	535.94
484.9	542.94
485.118	534.94
485.336	544.94
485.554	521.94
485.772	526.94
485.99	551.94
486.209	538.94
486.427	552.94
486.645	563.94
486.863	586.94
487.081	607.94
487.299	601.94
487.517	578.94
487.735	560.94
487.953	546.94
488.171	569.94
488.389	590.94
488.607	557.94
488.825	555.94
489.043	587.94
489.261	580.94
489.479	569.94
489.696	553.94
489.914	582.94
490.132	589.94
490.35	614.94
490.568	624.94
490.786	609.94
491.003	609.94
491.221	635.94
491.439	633.94
491.657	638.94
491.874	639.94
492.092	649.94
492.31	657.94
492.527	662.94
492.745	667.94
492.963	683.94
493.18	661.94
493.398	647.94
493.615	687.94
493.833	672.94
494.05	676.94
494.268	677.94
494.485	641.94
494.703	692.94
494.92	666.94
495.138	688.94
495.355	664.94
495.573	704.94
495.79	708.94
496.008	689.94
496.225	714.94
496.442	662.94
496.66	685.94
496.877	688.94
497.094	690.94
497.312	686.94
497.529	724.94
497.746	698.94
497.963	715.94
498.181	735.94
498.398	718.94
498.615	738.94
498.832	715.94
499.049	722.94
499.267	726.94
499.484	752.94
499.701	761.94
499.918	788.94
500.135	769.94
500.352	801.94
500.569	780.94
500.786	801.94
501.003	797.94
501.22	804.94
501.437	794.94
501.654	825.94
501.871	827.94
