Data from 1987.PennyLincolnUp.Lamp.En5.5.200Scan.071819.P2_HRD10591_17-15-22-971.txt Node
Date: Thu Jul 18 17:15:22 EDT 2019
User: cochatt
Spectrometer: HR+D1059
Trigger mode: 1
Integration Time (sec): 1.000000E-1
Scans to average: 1
Electric dark correction enabled: true
Nonlinearity correction enabled: false
Boxcar width: 0
XAxis mode: Wavelengths
Number of Pixels in Spectrum: 2048
>>>>>Begin Spectral Data<<<<<
223.165	-1.06
223.4	-1.06
223.635	-1.06
223.869	-27.06
224.104	-23.06
224.338	-13.06
224.573	-9.06
224.808	-11.06
225.042	-7.06
225.277	-13.06
225.511	-2.06
225.746	17.94
225.98	0.94
226.215	12.94
226.449	6.94
226.683	10.94
226.918	28.94
227.152	27.94
227.387	39.94
227.621	31.94
227.856	46.94
228.09	37.94
228.324	30.94
228.559	64.94
228.793	67.94
229.027	119.94
229.262	108.94
229.496	132.94
229.73	133.94
229.964	174.94
230.199	145.94
230.433	120.94
230.667	128.94
230.901	134.94
231.136	101.94
231.37	116.94
231.604	122.94
231.838	113.94
232.072	126.94
232.306	126.94
232.541	121.94
232.775	93.94
233.009	107.94
233.243	105.94
233.477	128.94
233.711	118.94
233.945	127.94
234.179	106.94
234.413	117.94
234.647	128.94
234.881	119.94
235.115	123.94
235.349	118.94
235.583	118.94
235.817	116.94
236.051	131.94
236.285	128.94
236.519	128.94
236.753	135.94
236.987	142.94
237.221	194.94
237.455	265.94
237.689	200.94
237.922	140.94
238.156	141.94
238.39	133.94
238.624	117.94
238.858	132.94
239.091	127.94
239.325	110.94
239.559	124.94
239.793	146.94
240.027	134.94
240.26	164.94
240.494	153.94
240.728	159.94
240.961	157.94
241.195	139.94
241.429	164.94
241.662	129.94
241.896	145.94
242.13	140.94
242.363	125.94
242.597	116.94
242.83	127.94
243.064	126.94
243.298	134.94
243.531	142.94
243.765	126.94
243.998	130.94
244.232	138.94
244.465	127.94
244.699	130.94
244.932	132.94
245.166	143.94
245.399	143.94
245.633	127.94
245.866	142.94
246.099	140.94
246.333	151.94
246.566	138.94
246.8	161.94
247.033	154.94
247.266	162.94
247.5	160.94
247.733	159.94
247.966	167.94
248.2	162.94
248.433	152.94
248.666	166.94
248.899	182.94
249.133	199.94
249.366	227.94
249.599	209.94
249.832	172.94
250.066	186.94
250.299	157.94
250.532	184.94
250.765	198.94
250.998	227.94
251.231	226.94
251.465	217.94
251.698	199.94
251.931	203.94
252.164	200.94
252.397	190.94
252.63	187.94
252.863	207.94
253.096	217.94
253.329	223.94
253.562	227.94
253.795	224.94
254.028	206.94
254.261	210.94
254.494	229.94
254.727	245.94
254.96	286.94
255.193	271.94
255.426	266.94
255.659	229.94
255.892	217.94
256.124	203.94
256.357	202.94
256.59	202.94
256.823	199.94
257.056	201.94
257.289	198.94
257.521	189.94
257.754	200.94
257.987	187.94
258.22	195.94
258.452	200.94
258.685	173.94
258.918	193.94
259.151	185.94
259.383	204.94
259.616	198.94
259.849	208.94
260.081	218.94
260.314	258.94
260.547	236.94
260.779	244.94
261.012	237.94
261.244	219.94
261.477	213.94
261.71	222.94
261.942	223.94
262.175	257.94
262.407	234.94
262.64	196.94
262.872	206.94
263.105	223.94
263.337	204.94
263.57	204.94
263.802	191.94
264.035	207.94
264.267	174.94
264.499	200.94
264.732	198.94
264.964	188.94
265.197	185.94
265.429	190.94
265.661	201.94
265.894	200.94
266.126	197.94
266.358	184.94
266.591	192.94
266.823	199.94
267.055	194.94
267.287	206.94
267.52	203.94
267.752	205.94
267.984	200.94
268.216	196.94
268.448	199.94
268.681	216.94
268.913	214.94
269.145	246.94
269.377	272.94
269.609	266.94
269.841	258.94
270.073	253.94
270.306	270.94
270.538	314.94
270.77	313.94
271.002	297.94
271.234	270.94
271.466	269.94
271.698	307.94
271.93	299.94
272.162	303.94
272.394	306.94
272.626	290.94
272.858	278.94
273.09	273.94
273.322	253.94
273.553	256.94
273.785	260.94
274.017	251.94
274.249	242.94
274.481	259.94
274.713	226.94
274.945	236.94
275.176	231.94
275.408	225.94
275.64	249.94
275.872	208.94
276.104	250.94
276.335	238.94
276.567	254.94
276.799	271.94
277.031	296.94
277.262	282.94
277.494	288.94
277.726	282.94
277.957	276.94
278.189	245.94
278.421	233.94
278.652	234.94
278.884	236.94
279.115	242.94
279.347	226.94
279.579	239.94
279.81	235.94
280.042	217.94
280.273	234.94
280.505	222.94
280.736	227.94
280.968	236.94
281.199	209.94
281.431	206.94
281.662	232.94
281.894	227.94
282.125	246.94
282.356	262.94
282.588	283.94
282.819	294.94
283.051	265.94
283.282	214.94
283.513	243.94
283.745	231.94
283.976	212.94
284.207	216.94
284.439	229.94
284.67	243.94
284.901	250.94
285.132	235.94
285.364	228.94
285.595	224.94
285.826	222.94
286.057	255.94
286.288	238.94
286.52	218.94
286.751	226.94
286.982	242.94
287.213	210.94
287.444	227.94
287.675	248.94
287.906	233.94
288.138	253.94
288.369	251.94
288.6	264.94
288.831	271.94
289.062	256.94
289.293	238.94
289.524	242.94
289.755	240.94
289.986	238.94
290.217	229.94
290.448	233.94
290.679	227.94
290.91	232.94
291.141	225.94
291.371	223.94
291.602	222.94
291.833	224.94
292.064	239.94
292.295	230.94
292.526	222.94
292.757	243.94
292.987	235.94
293.218	224.94
293.449	246.94
293.68	229.94
293.91	236.94
294.141	228.94
294.372	243.94
294.603	250.94
294.833	240.94
295.064	240.94
295.295	220.94
295.525	234.94
295.756	227.94
295.987	264.94
296.217	287.94
296.448	314.94
296.679	290.94
296.909	265.94
297.14	247.94
297.37	231.94
297.601	228.94
297.831	230.94
298.062	253.94
298.292	234.94
298.523	248.94
298.753	241.94
298.984	242.94
299.214	255.94
299.445	270.94
299.675	262.94
299.905	248.94
300.136	268.94
300.366	261.94
300.597	265.94
300.827	248.94
301.057	269.94
301.288	280.94
301.518	263.94
301.748	274.94
301.979	274.94
302.209	268.94
302.439	271.94
302.669	272.94
302.9	262.94
303.13	279.94
303.36	272.94
303.59	273.94
303.82	281.94
304.051	286.94
304.281	265.94
304.511	272.94
304.741	276.94
304.971	252.94
305.201	276.94
305.431	269.94
305.661	290.94
305.891	262.94
306.121	268.94
306.352	290.94
306.582	270.94
306.812	273.94
307.042	260.94
307.272	276.94
307.502	271.94
307.731	271.94
307.961	282.94
308.191	272.94
308.421	269.94
308.651	285.94
308.881	285.94
309.111	306.94
309.341	290.94
309.571	313.94
309.8	319.94
310.03	338.94
310.26	344.94
310.49	328.94
310.72	334.94
310.949	373.94
311.179	380.94
311.409	349.94
311.639	340.94
311.868	351.94
312.098	354.94
312.328	346.94
312.557	363.94
312.787	387.94
313.017	387.94
313.246	368.94
313.476	331.94
313.706	335.94
313.935	332.94
314.165	362.94
314.394	367.94
314.624	358.94
314.853	360.94
315.083	338.94
315.312	332.94
315.542	325.94
315.771	319.94
316.001	320.94
316.23	321.94
316.46	320.94
316.689	334.94
316.919	339.94
317.148	359.94
317.377	364.94
317.607	328.94
317.836	342.94
318.065	335.94
318.295	328.94
318.524	322.94
318.753	342.94
318.983	333.94
319.212	320.94
319.441	327.94
319.67	351.94
319.9	339.94
320.129	332.94
320.358	335.94
320.587	348.94
320.816	381.94
321.046	351.94
321.275	354.94
321.504	346.94
321.733	363.94
321.962	356.94
322.191	399.94
322.42	400.94
322.649	438.94
322.878	470.94
323.108	473.94
323.337	515.94
323.566	540.94
323.795	574.94
324.024	667.94
324.253	830.94
324.482	1221.94
324.71	1878.94
324.939	2604.94
325.168	2276.94
325.397	1270.94
325.626	826.94
325.855	649.94
326.084	552.94
326.313	544.94
326.542	556.94
326.77	602.94
326.999	749.94
327.228	1048.94
327.457	1596.94
327.686	1944.94
327.914	1366.94
328.143	885.94
328.372	720.94
328.6	649.94
328.829	615.94
329.058	636.94
329.287	630.94
329.515	593.94
329.744	525.94
329.972	512.94
330.201	491.94
330.43	547.94
330.658	578.94
330.887	667.94
331.115	644.94
331.344	524.94
331.572	500.94
331.801	460.94
332.03	472.94
332.258	449.94
332.486	402.94
332.715	378.94
332.943	387.94
333.172	396.94
333.4	382.94
333.629	395.94
333.857	414.94
334.085	377.94
334.314	392.94
334.542	406.94
334.771	386.94
334.999	381.94
335.227	394.94
335.455	380.94
335.684	375.94
335.912	355.94
336.14	358.94
336.369	367.94
336.597	375.94
336.825	388.94
337.053	373.94
337.281	383.94
337.51	390.94
337.738	366.94
337.966	366.94
338.194	378.94
338.422	380.94
338.65	360.94
338.878	345.94
339.106	359.94
339.334	370.94
339.562	354.94
339.79	363.94
340.018	359.94
340.246	362.94
340.474	394.94
340.702	386.94
340.93	368.94
341.158	339.94
341.386	370.94
341.614	378.94
341.842	390.94
342.07	362.94
342.298	349.94
342.526	344.94
342.754	333.94
342.981	349.94
343.209	327.94
343.437	329.94
343.665	341.94
343.893	350.94
344.12	365.94
344.348	368.94
344.576	374.94
344.804	392.94
345.031	379.94
345.259	409.94
345.487	393.94
345.714	394.94
345.942	366.94
346.17	378.94
346.397	351.94
346.625	348.94
346.853	363.94
347.08	346.94
347.308	360.94
347.535	373.94
347.763	374.94
347.99	403.94
348.218	392.94
348.445	380.94
348.673	389.94
348.9	372.94
349.128	372.94
349.355	366.94
349.583	359.94
349.81	350.94
350.037	360.94
350.265	344.94
350.492	362.94
350.72	345.94
350.947	376.94
351.174	373.94
351.402	394.94
351.629	392.94
351.856	392.94
352.083	379.94
352.311	387.94
352.538	406.94
352.765	419.94
352.992	396.94
353.22	392.94
353.447	375.94
353.674	361.94
353.901	351.94
354.128	314.94
354.355	337.94
354.583	322.94
354.81	342.94
355.037	325.94
355.264	326.94
355.491	317.94
355.718	333.94
355.945	327.94
356.172	314.94
356.399	330.94
356.626	327.94
356.853	315.94
357.08	318.94
357.307	329.94
357.534	315.94
357.761	316.94
357.988	330.94
358.215	323.94
358.441	302.94
358.668	316.94
358.895	331.94
359.122	344.94
359.349	364.94
359.576	364.94
359.802	418.94
360.029	456.94
360.256	465.94
360.483	442.94
360.709	386.94
360.936	368.94
361.163	376.94
361.39	382.94
361.616	389.94
361.843	377.94
362.07	362.94
362.296	383.94
362.523	378.94
362.749	384.94
362.976	355.94
363.203	352.94
363.429	349.94
363.656	350.94
363.882	345.94
364.109	327.94
364.335	341.94
364.562	344.94
364.788	357.94
365.015	341.94
365.241	354.94
365.468	348.94
365.694	370.94
365.92	365.94
366.147	350.94
366.373	338.94
366.599	358.94
366.826	340.94
367.052	333.94
367.278	333.94
367.505	327.94
367.731	347.94
367.957	332.94
368.184	322.94
368.41	358.94
368.636	353.94
368.862	358.94
369.089	351.94
369.315	331.94
369.541	333.94
369.767	331.94
369.993	350.94
370.219	336.94
370.445	324.94
370.672	331.94
370.898	325.94
371.124	350.94
371.35	323.94
371.576	337.94
371.802	318.94
372.028	331.94
372.254	333.94
372.48	329.94
372.706	326.94
372.932	337.94
373.158	318.94
373.384	319.94
373.61	332.94
373.835	325.94
374.061	328.94
374.287	347.94
374.513	343.94
374.739	332.94
374.965	331.94
375.191	335.94
375.416	321.94
375.642	309.94
375.868	331.94
376.094	326.94
376.319	338.94
376.545	327.94
376.771	344.94
376.997	337.94
377.222	327.94
377.448	314.94
377.674	321.94
377.899	312.94
378.125	331.94
378.35	314.94
378.576	311.94
378.802	315.94
379.027	308.94
379.253	340.94
379.478	325.94
379.704	338.94
379.929	336.94
380.155	321.94
380.38	329.94
380.606	335.94
380.831	326.94
381.057	339.94
381.282	321.94
381.507	340.94
381.733	327.94
381.958	331.94
382.184	345.94
382.409	343.94
382.634	341.94
382.86	342.94
383.085	334.94
383.31	339.94
383.535	321.94
383.761	324.94
383.986	346.94
384.211	331.94
384.436	324.94
384.662	332.94
384.887	356.94
385.112	317.94
385.337	346.94
385.562	354.94
385.787	326.94
386.013	380.94
386.238	360.94
386.463	358.94
386.688	341.94
386.913	347.94
387.138	324.94
387.363	330.94
387.588	319.94
387.813	332.94
388.038	331.94
388.263	350.94
388.488	343.94
388.713	350.94
388.938	362.94
389.163	346.94
389.387	349.94
389.612	336.94
389.837	340.94
390.062	351.94
390.287	352.94
390.512	317.94
390.736	355.94
390.961	351.94
391.186	330.94
391.411	346.94
391.636	330.94
391.86	348.94
392.085	340.94
392.31	338.94
392.534	342.94
392.759	360.94
392.984	349.94
393.208	347.94
393.433	343.94
393.658	359.94
393.882	349.94
394.107	331.94
394.331	343.94
394.556	349.94
394.78	329.94
395.005	339.94
395.229	354.94
395.454	346.94
395.678	356.94
395.903	360.94
396.127	380.94
396.352	389.94
396.576	363.94
396.801	359.94
397.025	353.94
397.249	371.94
397.474	375.94
397.698	335.94
397.922	373.94
398.147	395.94
398.371	419.94
398.595	367.94
398.82	367.94
399.044	377.94
399.268	375.94
399.492	398.94
399.717	411.94
399.941	438.94
400.165	457.94
400.389	475.94
400.613	464.94
400.837	404.94
401.062	418.94
401.286	400.94
401.51	401.94
401.734	400.94
401.958	382.94
402.182	383.94
402.406	420.94
402.63	422.94
402.854	392.94
403.078	396.94
403.302	413.94
403.526	420.94
403.75	425.94
403.974	427.94
404.198	401.94
404.422	404.94
404.645	441.94
404.869	438.94
405.093	445.94
405.317	451.94
405.541	492.94
405.765	457.94
405.988	448.94
406.212	464.94
406.436	503.94
406.66	512.94
406.883	487.94
407.107	503.94
407.331	503.94
407.555	592.94
407.778	573.94
408.002	543.94
408.226	491.94
408.449	483.94
408.673	492.94
408.896	502.94
409.12	545.94
409.344	512.94
409.567	461.94
409.791	446.94
410.014	446.94
410.238	400.94
410.461	435.94
410.685	434.94
410.908	461.94
411.132	485.94
411.355	507.94
411.578	478.94
411.802	448.94
412.025	421.94
412.249	434.94
412.472	404.94
412.695	448.94
412.919	442.94
413.142	414.94
413.365	407.94
413.589	394.94
413.812	394.94
414.035	393.94
414.258	378.94
414.482	359.94
414.705	394.94
414.928	394.94
415.151	399.94
415.374	385.94
415.597	378.94
415.821	382.94
416.044	400.94
416.267	390.94
416.49	396.94
416.713	384.94
416.936	397.94
417.159	395.94
417.382	396.94
417.605	412.94
417.828	421.94
418.051	431.94
418.274	441.94
418.497	404.94
418.72	390.94
418.943	392.94
419.166	406.94
419.389	414.94
419.611	414.94
419.834	434.94
420.057	428.94
420.28	423.94
420.503	413.94
420.726	430.94
420.948	434.94
421.171	475.94
421.394	527.94
421.617	469.94
421.839	448.94
422.062	439.94
422.285	467.94
422.507	509.94
422.73	588.94
422.953	567.94
423.175	485.94
423.398	475.94
423.621	474.94
423.843	488.94
424.066	496.94
424.288	482.94
424.511	487.94
424.733	573.94
424.956	630.94
425.178	627.94
425.401	611.94
425.623	626.94
425.846	542.94
426.068	517.94
426.291	510.94
426.513	501.94
426.735	517.94
426.958	571.94
427.18	634.94
427.402	742.94
427.625	818.94
427.847	762.94
428.069	656.94
428.292	578.94
428.514	528.94
428.736	514.94
428.958	486.94
429.181	463.94
429.403	466.94
429.625	480.94
429.847	512.94
430.069	579.94
430.292	576.94
430.514	489.94
430.736	452.94
430.958	463.94
431.18	454.94
431.402	431.94
431.624	412.94
431.846	432.94
432.068	416.94
432.29	415.94
432.512	431.94
432.734	426.94
432.956	445.94
433.178	447.94
433.4	440.94
433.622	437.94
433.844	432.94
434.066	437.94
434.287	416.94
434.509	430.94
434.731	423.94
434.953	442.94
435.175	454.94
435.397	498.94
435.618	520.94
435.84	545.94
436.062	618.94
436.284	688.94
436.505	596.94
436.727	538.94
436.949	488.94
437.17	487.94
437.392	487.94
437.614	491.94
437.835	544.94
438.057	634.94
438.278	755.94
438.5	740.94
438.721	744.94
438.943	738.94
439.165	613.94
439.386	544.94
439.608	543.94
439.829	546.94
440.05	557.94
440.272	615.94
440.493	589.94
440.715	525.94
440.936	492.94
441.158	500.94
441.379	488.94
441.6	490.94
441.822	495.94
442.043	562.94
442.264	648.94
442.486	668.94
442.707	592.94
442.928	542.94
443.149	545.94
443.371	562.94
443.592	607.94
443.813	666.94
444.034	735.94
444.255	630.94
444.476	520.94
444.698	503.94
444.919	490.94
445.14	579.94
445.361	564.94
445.582	572.94
445.803	628.94
446.024	688.94
446.245	764.94
446.466	667.94
446.687	578.94
446.908	517.94
447.129	512.94
447.35	472.94
447.571	490.94
447.792	483.94
448.013	474.94
448.234	511.94
448.455	564.94
448.675	677.94
448.896	746.94
449.117	678.94
449.338	630.94
449.559	698.94
449.779	768.94
450	663.94
450.221	551.94
450.442	508.94
450.662	478.94
450.883	512.94
451.104	534.94
451.324	492.94
451.545	493.94
451.766	463.94
451.986	439.94
452.207	435.94
452.428	423.94
452.648	426.94
452.869	416.94
453.089	439.94
453.31	463.94
453.53	434.94
453.751	436.94
453.971	447.94
454.192	488.94
454.412	476.94
454.633	447.94
454.853	447.94
455.073	427.94
455.294	457.94
455.514	549.94
455.734	523.94
455.955	445.94
456.175	410.94
456.395	411.94
456.616	386.94
456.836	398.94
457.056	382.94
457.276	380.94
457.497	374.94
457.717	392.94
457.937	416.94
458.157	392.94
458.377	402.94
458.598	446.94
458.818	535.94
459.038	627.94
459.258	616.94
459.478	532.94
459.698	468.94
459.918	439.94
460.138	435.94
460.358	423.94
460.578	419.94
460.798	415.94
461.018	424.94
461.238	408.94
461.458	404.94
461.678	393.94
461.898	431.94
462.118	394.94
462.338	438.94
462.558	400.94
462.777	401.94
462.997	412.94
463.217	420.94
463.437	421.94
463.657	434.94
463.876	448.94
464.096	416.94
464.316	450.94
464.536	453.94
464.755	424.94
464.975	470.94
465.195	549.94
465.414	681.94
465.634	594.94
465.854	515.94
466.073	450.94
466.293	447.94
466.512	420.94
466.732	420.94
466.951	429.94
467.171	408.94
467.391	429.94
467.61	438.94
467.829	455.94
468.049	436.94
468.268	435.94
468.488	398.94
468.707	418.94
468.927	403.94
469.146	399.94
469.365	385.94
469.585	403.94
469.804	419.94
470.023	450.94
470.243	444.94
470.462	436.94
470.681	481.94
470.901	450.94
471.12	435.94
471.339	438.94
471.558	421.94
471.777	430.94
471.997	422.94
472.216	424.94
472.435	420.94
472.654	430.94
472.873	416.94
473.092	429.94
473.311	416.94
473.53	427.94
473.749	431.94
473.968	484.94
474.187	566.94
474.406	616.94
474.625	507.94
474.844	462.94
475.063	424.94
475.282	429.94
475.501	432.94
475.72	447.94
475.939	433.94
476.158	457.94
476.377	419.94
476.596	448.94
476.814	452.94
477.033	472.94
477.252	464.94
477.471	464.94
477.69	454.94
477.908	456.94
478.127	448.94
478.346	454.94
478.564	450.94
478.783	475.94
479.002	470.94
479.22	475.94
479.439	504.94
479.658	550.94
479.876	521.94
480.095	546.94
480.313	576.94
480.532	507.94
480.751	512.94
480.969	517.94
481.188	550.94
481.406	531.94
481.624	509.94
481.843	506.94
482.061	492.94
482.28	509.94
482.498	491.94
482.717	505.94
482.935	482.94
483.153	499.94
483.372	507.94
483.59	499.94
483.808	513.94
484.027	497.94
484.245	494.94
484.463	509.94
484.681	504.94
484.9	504.94
485.118	506.94
485.336	511.94
485.554	504.94
485.772	523.94
485.99	518.94
486.209	520.94
486.427	538.94
486.645	538.94
486.863	579.94
487.081	591.94
487.299	566.94
487.517	553.94
487.735	555.94
487.953	532.94
488.171	536.94
488.389	542.94
488.607	551.94
488.825	555.94
489.043	555.94
489.261	557.94
489.479	586.94
489.696	586.94
489.914	562.94
490.132	568.94
490.35	558.94
490.568	572.94
490.786	567.94
491.003	618.94
491.221	615.94
491.439	617.94
491.657	627.94
491.874	620.94
492.092	632.94
492.31	629.94
492.527	633.94
492.745	638.94
492.963	638.94
493.18	676.94
493.398	671.94
493.615	644.94
493.833	648.94
494.05	648.94
494.268	647.94
494.485	655.94
494.703	671.94
494.92	681.94
495.138	669.94
495.355	671.94
495.573	693.94
495.79	664.94
496.008	642.94
496.225	679.94
496.442	661.94
496.66	695.94
496.877	662.94
497.094	666.94
497.312	664.94
497.529	667.94
497.746	691.94
497.963	702.94
498.181	707.94
498.398	714.94
498.615	728.94
498.832	732.94
499.049	688.94
499.267	713.94
499.484	706.94
499.701	733.94
499.918	762.94
500.135	746.94
500.352	761.94
500.569	795.94
500.786	787.94
501.003	758.94
501.22	771.94
501.437	768.94
501.654	808.94
501.871	809.94
