Data from 1987.PennyLincolnUp.Lamp.En5.5.200Scan.071819.P2_HRD10591_17-15-01-971.txt Node
Date: Thu Jul 18 17:15:01 EDT 2019
User: cochatt
Spectrometer: HR+D1059
Trigger mode: 1
Integration Time (sec): 1.000000E-1
Scans to average: 1
Electric dark correction enabled: true
Nonlinearity correction enabled: false
Boxcar width: 0
XAxis mode: Wavelengths
Number of Pixels in Spectrum: 2048
>>>>>Begin Spectral Data<<<<<
223.165	-6.38
223.4	-6.38
223.635	-6.38
223.869	-12.38
224.104	-10.38
224.338	-19.38
224.573	-30.38
224.808	-14.38
225.042	-18.38
225.277	-20.38
225.511	-6.38
225.746	-11.38
225.98	12.62
226.215	31.62
226.449	26.62
226.683	9.62
226.918	32.62
227.152	36.62
227.387	27.62
227.621	24.62
227.856	48.62
228.09	45.62
228.324	46.62
228.559	48.62
228.793	76.62
229.027	103.62
229.262	104.62
229.496	125.62
229.73	150.62
229.964	172.62
230.199	163.62
230.433	104.62
230.667	117.62
230.901	122.62
231.136	117.62
231.37	116.62
231.604	104.62
231.838	114.62
232.072	114.62
232.306	130.62
232.541	118.62
232.775	109.62
233.009	112.62
233.243	101.62
233.477	116.62
233.711	118.62
233.945	97.62
234.179	124.62
234.413	125.62
234.647	115.62
234.881	108.62
235.115	129.62
235.349	124.62
235.583	128.62
235.817	98.62
236.051	126.62
236.285	126.62
236.519	125.62
236.753	120.62
236.987	153.62
237.221	192.62
237.455	258.62
237.689	193.62
237.922	143.62
238.156	152.62
238.39	120.62
238.624	135.62
238.858	107.62
239.091	134.62
239.325	128.62
239.559	131.62
239.793	127.62
240.027	134.62
240.26	146.62
240.494	162.62
240.728	148.62
240.961	167.62
241.195	136.62
241.429	143.62
241.662	133.62
241.896	143.62
242.13	121.62
242.363	133.62
242.597	137.62
242.83	125.62
243.064	123.62
243.298	132.62
243.531	124.62
243.765	132.62
243.998	138.62
244.232	141.62
244.465	147.62
244.699	142.62
244.932	132.62
245.166	155.62
245.399	135.62
245.633	140.62
245.866	137.62
246.099	145.62
246.333	157.62
246.566	148.62
246.8	140.62
247.033	140.62
247.266	145.62
247.5	162.62
247.733	179.62
247.966	166.62
248.2	149.62
248.433	158.62
248.666	174.62
248.899	196.62
249.133	204.62
249.366	214.62
249.599	212.62
249.832	176.62
250.066	157.62
250.299	159.62
250.532	183.62
250.765	178.62
250.998	222.62
251.231	214.62
251.465	234.62
251.698	192.62
251.931	197.62
252.164	186.62
252.397	183.62
252.63	202.62
252.863	204.62
253.096	210.62
253.329	217.62
253.562	226.62
253.795	229.62
254.028	204.62
254.261	207.62
254.494	224.62
254.727	253.62
254.96	283.62
255.193	265.62
255.426	259.62
255.659	217.62
255.892	224.62
256.124	211.62
256.357	219.62
256.59	207.62
256.823	188.62
257.056	186.62
257.289	192.62
257.521	177.62
257.754	186.62
257.987	199.62
258.22	192.62
258.452	193.62
258.685	197.62
258.918	190.62
259.151	209.62
259.383	206.62
259.616	205.62
259.849	213.62
260.081	226.62
260.314	234.62
260.547	245.62
260.779	241.62
261.012	236.62
261.244	233.62
261.477	213.62
261.71	217.62
261.942	225.62
262.175	238.62
262.407	252.62
262.64	215.62
262.872	210.62
263.105	183.62
263.337	209.62
263.57	202.62
263.802	179.62
264.035	200.62
264.267	206.62
264.499	204.62
264.732	203.62
264.964	189.62
265.197	194.62
265.429	193.62
265.661	189.62
265.894	176.62
266.126	179.62
266.358	181.62
266.591	206.62
266.823	219.62
267.055	191.62
267.287	206.62
267.52	201.62
267.752	203.62
267.984	211.62
268.216	204.62
268.448	206.62
268.681	220.62
268.913	227.62
269.145	239.62
269.377	256.62
269.609	241.62
269.841	238.62
270.073	256.62
270.306	269.62
270.538	287.62
270.77	298.62
271.002	296.62
271.234	275.62
271.466	290.62
271.698	298.62
271.93	286.62
272.162	310.62
272.394	318.62
272.626	299.62
272.858	287.62
273.09	252.62
273.322	249.62
273.553	247.62
273.785	250.62
274.017	233.62
274.249	249.62
274.481	237.62
274.713	223.62
274.945	256.62
275.176	240.62
275.408	240.62
275.64	238.62
275.872	242.62
276.104	243.62
276.335	249.62
276.567	231.62
276.799	258.62
277.031	286.62
277.262	301.62
277.494	293.62
277.726	262.62
277.957	249.62
278.189	240.62
278.421	244.62
278.652	246.62
278.884	219.62
279.115	232.62
279.347	217.62
279.579	232.62
279.81	226.62
280.042	238.62
280.273	224.62
280.505	213.62
280.736	228.62
280.968	224.62
281.199	209.62
281.431	223.62
281.662	221.62
281.894	220.62
282.125	240.62
282.356	248.62
282.588	301.62
282.819	283.62
283.051	244.62
283.282	231.62
283.513	225.62
283.745	229.62
283.976	230.62
284.207	245.62
284.439	235.62
284.67	227.62
284.901	240.62
285.132	226.62
285.364	213.62
285.595	232.62
285.826	225.62
286.057	213.62
286.288	238.62
286.52	226.62
286.751	232.62
286.982	237.62
287.213	234.62
287.444	225.62
287.675	242.62
287.906	230.62
288.138	234.62
288.369	247.62
288.6	264.62
288.831	242.62
289.062	259.62
289.293	235.62
289.524	235.62
289.755	250.62
289.986	250.62
290.217	227.62
290.448	251.62
290.679	242.62
290.91	228.62
291.141	217.62
291.371	220.62
291.602	244.62
291.833	228.62
292.064	234.62
292.295	259.62
292.526	252.62
292.757	238.62
292.987	228.62
293.218	214.62
293.449	237.62
293.68	248.62
293.91	228.62
294.141	232.62
294.372	235.62
294.603	229.62
294.833	232.62
295.064	238.62
295.295	219.62
295.525	230.62
295.756	254.62
295.987	256.62
296.217	286.62
296.448	315.62
296.679	260.62
296.909	252.62
297.14	229.62
297.37	233.62
297.601	253.62
297.831	231.62
298.062	236.62
298.292	260.62
298.523	258.62
298.753	269.62
298.984	254.62
299.214	243.62
299.445	258.62
299.675	270.62
299.905	261.62
300.136	262.62
300.366	245.62
300.597	241.62
300.827	262.62
301.057	260.62
301.288	268.62
301.518	283.62
301.748	262.62
301.979	248.62
302.209	268.62
302.439	253.62
302.669	263.62
302.9	276.62
303.13	267.62
303.36	283.62
303.59	279.62
303.82	292.62
304.051	289.62
304.281	270.62
304.511	267.62
304.741	260.62
304.971	267.62
305.201	279.62
305.431	260.62
305.661	269.62
305.891	271.62
306.121	266.62
306.352	276.62
306.582	278.62
306.812	269.62
307.042	266.62
307.272	259.62
307.502	277.62
307.731	270.62
307.961	261.62
308.191	266.62
308.421	264.62
308.651	273.62
308.881	293.62
309.111	306.62
309.341	287.62
309.571	310.62
309.8	313.62
310.03	351.62
310.26	349.62
310.49	342.62
310.72	360.62
310.949	389.62
311.179	393.62
311.409	346.62
311.639	358.62
311.868	334.62
312.098	361.62
312.328	347.62
312.557	361.62
312.787	382.62
313.017	382.62
313.246	344.62
313.476	324.62
313.706	337.62
313.935	337.62
314.165	350.62
314.394	373.62
314.624	376.62
314.853	344.62
315.083	339.62
315.312	353.62
315.542	333.62
315.771	304.62
316.001	329.62
316.23	325.62
316.46	316.62
316.689	310.62
316.919	337.62
317.148	344.62
317.377	354.62
317.607	355.62
317.836	340.62
318.065	316.62
318.295	319.62
318.524	309.62
318.753	307.62
318.983	338.62
319.212	334.62
319.441	331.62
319.67	339.62
319.9	349.62
320.129	332.62
320.358	318.62
320.587	341.62
320.816	354.62
321.046	367.62
321.275	373.62
321.504	358.62
321.733	377.62
321.962	380.62
322.191	408.62
322.42	425.62
322.649	437.62
322.878	469.62
323.108	473.62
323.337	498.62
323.566	549.62
323.795	579.62
324.024	654.62
324.253	836.62
324.482	1201.62
324.71	1865.62
324.939	2611.62
325.168	2230.62
325.397	1248.62
325.626	789.62
325.855	621.62
326.084	541.62
326.313	523.62
326.542	538.62
326.77	610.62
326.999	732.62
327.228	1023.62
327.457	1586.62
327.686	1938.62
327.914	1329.62
328.143	865.62
328.372	717.62
328.6	656.62
328.829	618.62
329.058	642.62
329.287	653.62
329.515	583.62
329.744	518.62
329.972	491.62
330.201	510.62
330.43	547.62
330.658	594.62
330.887	652.62
331.115	665.62
331.344	540.62
331.572	497.62
331.801	490.62
332.03	466.62
332.258	424.62
332.486	392.62
332.715	393.62
332.943	403.62
333.172	395.62
333.4	364.62
333.629	378.62
333.857	420.62
334.085	386.62
334.314	386.62
334.542	381.62
334.771	379.62
334.999	399.62
335.227	388.62
335.455	374.62
335.684	368.62
335.912	373.62
336.14	364.62
336.369	368.62
336.597	401.62
336.825	368.62
337.053	376.62
337.281	365.62
337.51	376.62
337.738	366.62
337.966	380.62
338.194	396.62
338.422	383.62
338.65	364.62
338.878	365.62
339.106	338.62
339.334	361.62
339.562	368.62
339.79	374.62
340.018	378.62
340.246	403.62
340.474	384.62
340.702	380.62
340.93	362.62
341.158	352.62
341.386	372.62
341.614	374.62
341.842	385.62
342.07	354.62
342.298	359.62
342.526	350.62
342.754	352.62
342.981	333.62
343.209	338.62
343.437	330.62
343.665	353.62
343.893	369.62
344.12	365.62
344.348	368.62
344.576	380.62
344.804	382.62
345.031	393.62
345.259	399.62
345.487	398.62
345.714	367.62
345.942	370.62
346.17	368.62
346.397	360.62
346.625	362.62
346.853	368.62
347.08	368.62
347.308	376.62
347.535	358.62
347.763	369.62
347.99	386.62
348.218	381.62
348.445	392.62
348.673	378.62
348.9	374.62
349.128	362.62
349.355	348.62
349.583	349.62
349.81	341.62
350.037	344.62
350.265	348.62
350.492	349.62
350.72	341.62
350.947	360.62
351.174	395.62
351.402	374.62
351.629	370.62
351.856	390.62
352.083	402.62
352.311	403.62
352.538	407.62
352.765	438.62
352.992	389.62
353.22	382.62
353.447	378.62
353.674	372.62
353.901	343.62
354.128	344.62
354.355	345.62
354.583	344.62
354.81	329.62
355.037	328.62
355.264	324.62
355.491	334.62
355.718	312.62
355.945	300.62
356.172	324.62
356.399	334.62
356.626	311.62
356.853	341.62
357.08	313.62
357.307	332.62
357.534	327.62
357.761	324.62
357.988	321.62
358.215	327.62
358.441	327.62
358.668	320.62
358.895	355.62
359.122	354.62
359.349	365.62
359.576	386.62
359.802	426.62
360.029	474.62
360.256	474.62
360.483	435.62
360.709	420.62
360.936	377.62
361.163	380.62
361.39	371.62
361.616	376.62
361.843	383.62
362.07	384.62
362.296	381.62
362.523	400.62
362.749	371.62
362.976	379.62
363.203	346.62
363.429	357.62
363.656	348.62
363.882	330.62
364.109	338.62
364.335	335.62
364.562	343.62
364.788	349.62
365.015	352.62
365.241	354.62
365.468	345.62
365.694	377.62
365.92	360.62
366.147	342.62
366.373	340.62
366.599	346.62
366.826	352.62
367.052	335.62
367.278	334.62
367.505	345.62
367.731	353.62
367.957	352.62
368.184	346.62
368.41	356.62
368.636	368.62
368.862	376.62
369.089	345.62
369.315	345.62
369.541	361.62
369.767	360.62
369.993	346.62
370.219	338.62
370.445	358.62
370.672	338.62
370.898	340.62
371.124	322.62
371.35	333.62
371.576	323.62
371.802	346.62
372.028	339.62
372.254	330.62
372.48	320.62
372.706	317.62
372.932	330.62
373.158	312.62
373.384	329.62
373.61	321.62
373.835	325.62
374.061	342.62
374.287	328.62
374.513	338.62
374.739	334.62
374.965	317.62
375.191	330.62
375.416	333.62
375.642	308.62
375.868	322.62
376.094	328.62
376.319	326.62
376.545	329.62
376.771	322.62
376.997	318.62
377.222	319.62
377.448	332.62
377.674	310.62
377.899	322.62
378.125	329.62
378.35	324.62
378.576	324.62
378.802	327.62
379.027	317.62
379.253	315.62
379.478	305.62
379.704	310.62
379.929	316.62
380.155	328.62
380.38	338.62
380.606	341.62
380.831	337.62
381.057	344.62
381.282	330.62
381.507	330.62
381.733	340.62
381.958	330.62
382.184	325.62
382.409	336.62
382.634	332.62
382.86	349.62
383.085	338.62
383.31	314.62
383.535	343.62
383.761	331.62
383.986	350.62
384.211	334.62
384.436	329.62
384.662	343.62
384.887	339.62
385.112	337.62
385.337	345.62
385.562	345.62
385.787	343.62
386.013	348.62
386.238	368.62
386.463	352.62
386.688	346.62
386.913	350.62
387.138	360.62
387.363	350.62
387.588	339.62
387.813	360.62
388.038	349.62
388.263	338.62
388.488	352.62
388.713	333.62
388.938	359.62
389.163	360.62
389.387	332.62
389.612	336.62
389.837	352.62
390.062	337.62
390.287	348.62
390.512	349.62
390.736	329.62
390.961	335.62
391.186	333.62
391.411	337.62
391.636	357.62
391.86	348.62
392.085	348.62
392.31	345.62
392.534	359.62
392.759	362.62
392.984	358.62
393.208	354.62
393.433	357.62
393.658	358.62
393.882	331.62
394.107	352.62
394.331	354.62
394.556	341.62
394.78	349.62
395.005	346.62
395.229	343.62
395.454	371.62
395.678	378.62
395.903	372.62
396.127	403.62
396.352	403.62
396.576	371.62
396.801	379.62
397.025	384.62
397.249	364.62
397.474	373.62
397.698	354.62
397.922	385.62
398.147	408.62
398.371	411.62
398.595	365.62
398.82	387.62
399.044	406.62
399.268	386.62
399.492	417.62
399.717	416.62
399.941	446.62
400.165	456.62
400.389	482.62
400.613	448.62
400.837	434.62
401.062	437.62
401.286	411.62
401.51	419.62
401.734	387.62
401.958	407.62
402.182	400.62
402.406	424.62
402.63	418.62
402.854	434.62
403.078	399.62
403.302	413.62
403.526	440.62
403.75	423.62
403.974	413.62
404.198	410.62
404.422	422.62
404.645	440.62
404.869	411.62
405.093	445.62
405.317	467.62
405.541	503.62
405.765	461.62
405.988	432.62
406.212	460.62
406.436	486.62
406.66	498.62
406.883	486.62
407.107	518.62
407.331	532.62
407.555	588.62
407.778	605.62
408.002	541.62
408.226	493.62
408.449	479.62
408.673	470.62
408.896	482.62
409.12	539.62
409.344	527.62
409.567	456.62
409.791	434.62
410.014	436.62
410.238	426.62
410.461	408.62
410.685	429.62
410.908	433.62
411.132	453.62
411.355	500.62
411.578	497.62
411.802	453.62
412.025	414.62
412.249	416.62
412.472	440.62
412.695	441.62
412.919	434.62
413.142	419.62
413.365	408.62
413.589	412.62
413.812	392.62
414.035	394.62
414.258	412.62
414.482	374.62
414.705	383.62
414.928	386.62
415.151	401.62
415.374	389.62
415.597	402.62
415.821	378.62
416.044	402.62
416.267	402.62
416.49	403.62
416.713	391.62
416.936	409.62
417.159	405.62
417.382	406.62
417.605	379.62
417.828	422.62
418.051	427.62
418.274	445.62
418.497	418.62
418.72	393.62
418.943	401.62
419.166	410.62
419.389	422.62
419.611	413.62
419.834	420.62
420.057	425.62
420.28	422.62
420.503	430.62
420.726	410.62
420.948	440.62
421.171	495.62
421.394	513.62
421.617	458.62
421.839	442.62
422.062	445.62
422.285	454.62
422.507	507.62
422.73	582.62
422.953	568.62
423.175	506.62
423.398	495.62
423.621	465.62
423.843	493.62
424.066	478.62
424.288	497.62
424.511	518.62
424.733	568.62
424.956	635.62
425.178	621.62
425.401	602.62
425.623	636.62
425.846	553.62
426.068	494.62
426.291	521.62
426.513	484.62
426.735	536.62
426.958	541.62
427.18	617.62
427.402	746.62
427.625	870.62
427.847	816.62
428.069	649.62
428.292	575.62
428.514	518.62
428.736	505.62
428.958	469.62
429.181	468.62
429.403	448.62
429.625	512.62
429.847	538.62
430.069	597.62
430.292	569.62
430.514	494.62
430.736	463.62
430.958	459.62
431.18	426.62
431.402	436.62
431.624	424.62
431.846	435.62
432.068	421.62
432.29	432.62
432.512	440.62
432.734	438.62
432.956	434.62
433.178	450.62
433.4	446.62
433.622	449.62
433.844	435.62
434.066	419.62
434.287	407.62
434.509	438.62
434.731	436.62
434.953	439.62
435.175	441.62
435.397	491.62
435.618	522.62
435.84	547.62
436.062	620.62
436.284	702.62
436.505	605.62
436.727	538.62
436.949	487.62
437.17	481.62
437.392	461.62
437.614	532.62
437.835	548.62
438.057	667.62
438.278	748.62
438.5	731.62
438.721	785.62
438.943	744.62
439.165	604.62
439.386	561.62
439.608	532.62
439.829	538.62
440.05	571.62
440.272	613.62
440.493	575.62
440.715	544.62
440.936	496.62
441.158	478.62
441.379	492.62
441.6	512.62
441.822	506.62
442.043	564.62
442.264	655.62
442.486	699.62
442.707	567.62
442.928	529.62
443.149	536.62
443.371	572.62
443.592	584.62
443.813	691.62
444.034	713.62
444.255	594.62
444.476	530.62
444.698	524.62
444.919	504.62
445.14	592.62
445.361	573.62
445.582	570.62
445.803	631.62
446.024	732.62
446.245	730.62
446.466	678.62
446.687	590.62
446.908	514.62
447.129	489.62
447.35	496.62
447.571	477.62
447.792	472.62
448.013	483.62
448.234	514.62
448.455	580.62
448.675	683.62
448.896	774.62
449.117	670.62
449.338	635.62
449.559	708.62
449.779	783.62
450	642.62
450.221	552.62
450.442	504.62
450.662	507.62
450.883	486.62
451.104	528.62
451.324	517.62
451.545	477.62
451.766	461.62
451.986	422.62
452.207	437.62
452.428	435.62
452.648	439.62
452.869	441.62
453.089	457.62
453.31	457.62
453.53	453.62
453.751	436.62
453.971	439.62
454.192	488.62
454.412	465.62
454.633	422.62
454.853	452.62
455.073	433.62
455.294	463.62
455.514	530.62
455.734	500.62
455.955	432.62
456.175	406.62
456.395	384.62
456.616	393.62
456.836	404.62
457.056	386.62
457.276	398.62
457.497	416.62
457.717	397.62
457.937	386.62
458.157	388.62
458.377	409.62
458.598	471.62
458.818	520.62
459.038	650.62
459.258	629.62
459.478	525.62
459.698	461.62
459.918	448.62
460.138	432.62
460.358	438.62
460.578	417.62
460.798	446.62
461.018	428.62
461.238	407.62
461.458	404.62
461.678	395.62
461.898	432.62
462.118	416.62
462.338	408.62
462.558	426.62
462.777	421.62
462.997	415.62
463.217	425.62
463.437	451.62
463.657	429.62
463.876	425.62
464.096	436.62
464.316	444.62
464.536	451.62
464.755	451.62
464.975	497.62
465.195	544.62
465.414	649.62
465.634	589.62
465.854	491.62
466.073	471.62
466.293	461.62
466.512	429.62
466.732	436.62
466.951	437.62
467.171	418.62
467.391	424.62
467.61	436.62
467.829	449.62
468.049	448.62
468.268	434.62
468.488	422.62
468.707	418.62
468.927	413.62
469.146	406.62
469.365	433.62
469.585	382.62
469.804	432.62
470.023	441.62
470.243	445.62
470.462	440.62
470.681	448.62
470.901	461.62
471.12	437.62
471.339	438.62
471.558	441.62
471.777	445.62
471.997	422.62
472.216	424.62
472.435	407.62
472.654	419.62
472.873	429.62
473.092	420.62
473.311	438.62
473.53	441.62
473.749	458.62
473.968	484.62
474.187	606.62
474.406	623.62
474.625	516.62
474.844	475.62
475.063	432.62
475.282	449.62
475.501	440.62
475.72	420.62
475.939	460.62
476.158	469.62
476.377	457.62
476.596	453.62
476.814	470.62
477.033	468.62
477.252	464.62
477.471	450.62
477.69	445.62
477.908	447.62
478.127	462.62
478.346	453.62
478.564	448.62
478.783	463.62
479.002	475.62
479.22	458.62
479.439	517.62
479.658	517.62
479.876	531.62
480.095	530.62
480.313	552.62
480.532	525.62
480.751	515.62
480.969	513.62
481.188	552.62
481.406	533.62
481.624	512.62
481.843	504.62
482.061	517.62
482.28	488.62
482.498	489.62
482.717	507.62
482.935	488.62
483.153	523.62
483.372	515.62
483.59	504.62
483.808	509.62
484.027	513.62
484.245	504.62
484.463	517.62
484.681	516.62
484.9	484.62
485.118	523.62
485.336	506.62
485.554	518.62
485.772	519.62
485.99	522.62
486.209	524.62
486.427	546.62
486.645	534.62
486.863	594.62
487.081	566.62
487.299	574.62
487.517	546.62
487.735	548.62
487.953	552.62
488.171	576.62
488.389	550.62
488.607	571.62
488.825	563.62
489.043	557.62
489.261	570.62
489.479	565.62
489.696	566.62
489.914	574.62
490.132	581.62
490.35	582.62
490.568	581.62
490.786	594.62
491.003	598.62
491.221	594.62
491.439	633.62
491.657	626.62
491.874	645.62
492.092	638.62
492.31	612.62
492.527	646.62
492.745	615.62
492.963	638.62
493.18	645.62
493.398	655.62
493.615	653.62
493.833	636.62
494.05	662.62
494.268	668.62
494.485	654.62
494.703	655.62
494.92	660.62
495.138	648.62
495.355	675.62
495.573	689.62
495.79	665.62
496.008	666.62
496.225	684.62
496.442	680.62
496.66	671.62
496.877	658.62
497.094	679.62
497.312	677.62
497.529	679.62
497.746	702.62
497.963	708.62
498.181	699.62
498.398	698.62
498.615	726.62
498.832	698.62
499.049	701.62
499.267	716.62
499.484	737.62
499.701	735.62
499.918	762.62
500.135	768.62
500.352	801.62
500.569	786.62
500.786	808.62
501.003	781.62
501.22	779.62
501.437	762.62
501.654	790.62
501.871	790.62
