Data from 1987.PennyLincolnUp.Lamp.En5.5.200Scan.071819.P2_HRD10591_17-17-01-971.txt Node
Date: Thu Jul 18 17:17:01 EDT 2019
User: cochatt
Spectrometer: HR+D1059
Trigger mode: 1
Integration Time (sec): 1.000000E-1
Scans to average: 1
Electric dark correction enabled: true
Nonlinearity correction enabled: false
Boxcar width: 0
XAxis mode: Wavelengths
Number of Pixels in Spectrum: 2048
>>>>>Begin Spectral Data<<<<<
223.165	-16.44
223.4	-16.44
223.635	-16.44
223.869	-9.44
224.104	-17.44
224.338	-6.44
224.573	-13.44
224.808	-21.44
225.042	-6.44
225.277	8.56
225.511	4.56
225.746	-1.44
225.98	2.56
226.215	5.56
226.449	17.56
226.683	11.56
226.918	22.56
227.152	19.56
227.387	48.56
227.621	24.56
227.856	56.56
228.09	49.56
228.324	44.56
228.559	48.56
228.793	79.56
229.027	112.56
229.262	126.56
229.496	121.56
229.73	155.56
229.964	171.56
230.199	146.56
230.433	132.56
230.667	129.56
230.901	120.56
231.136	126.56
231.37	120.56
231.604	124.56
231.838	116.56
232.072	126.56
232.306	112.56
232.541	106.56
232.775	113.56
233.009	123.56
233.243	118.56
233.477	120.56
233.711	126.56
233.945	122.56
234.179	107.56
234.413	124.56
234.647	124.56
234.881	126.56
235.115	127.56
235.349	130.56
235.583	130.56
235.817	127.56
236.051	141.56
236.285	145.56
236.519	128.56
236.753	154.56
236.987	156.56
237.221	211.56
237.455	265.56
237.689	209.56
237.922	152.56
238.156	160.56
238.39	141.56
238.624	134.56
238.858	137.56
239.091	132.56
239.325	128.56
239.559	131.56
239.793	138.56
240.027	125.56
240.26	161.56
240.494	182.56
240.728	173.56
240.961	147.56
241.195	153.56
241.429	156.56
241.662	130.56
241.896	130.56
242.13	132.56
242.363	125.56
242.597	127.56
242.83	141.56
243.064	137.56
243.298	132.56
243.531	140.56
243.765	125.56
243.998	136.56
244.232	161.56
244.465	156.56
244.699	150.56
244.932	147.56
245.166	162.56
245.399	150.56
245.633	142.56
245.866	138.56
246.099	148.56
246.333	166.56
246.566	145.56
246.8	156.56
247.033	167.56
247.266	152.56
247.5	180.56
247.733	172.56
247.966	169.56
248.2	171.56
248.433	160.56
248.666	172.56
248.899	202.56
249.133	192.56
249.366	224.56
249.599	213.56
249.832	184.56
250.066	185.56
250.299	194.56
250.532	205.56
250.765	199.56
250.998	225.56
251.231	225.56
251.465	221.56
251.698	216.56
251.931	194.56
252.164	201.56
252.397	215.56
252.63	189.56
252.863	205.56
253.096	208.56
253.329	210.56
253.562	231.56
253.795	232.56
254.028	220.56
254.261	222.56
254.494	227.56
254.727	256.56
254.96	293.56
255.193	288.56
255.426	271.56
255.659	240.56
255.892	230.56
256.124	224.56
256.357	226.56
256.59	202.56
256.823	223.56
257.056	205.56
257.289	220.56
257.521	208.56
257.754	210.56
257.987	188.56
258.22	209.56
258.452	202.56
258.685	200.56
258.918	184.56
259.151	208.56
259.383	201.56
259.616	220.56
259.849	210.56
260.081	239.56
260.314	256.56
260.547	274.56
260.779	232.56
261.012	256.56
261.244	220.56
261.477	233.56
261.71	224.56
261.942	237.56
262.175	247.56
262.407	238.56
262.64	210.56
262.872	230.56
263.105	230.56
263.337	220.56
263.57	200.56
263.802	204.56
264.035	212.56
264.267	210.56
264.499	182.56
264.732	200.56
264.964	210.56
265.197	189.56
265.429	212.56
265.661	211.56
265.894	198.56
266.126	206.56
266.358	192.56
266.591	224.56
266.823	212.56
267.055	207.56
267.287	218.56
267.52	218.56
267.752	214.56
267.984	230.56
268.216	218.56
268.448	213.56
268.681	231.56
268.913	230.56
269.145	268.56
269.377	270.56
269.609	258.56
269.841	266.56
270.073	277.56
270.306	282.56
270.538	321.56
270.77	338.56
271.002	321.56
271.234	305.56
271.466	305.56
271.698	306.56
271.93	313.56
272.162	335.56
272.394	344.56
272.626	305.56
272.858	283.56
273.09	262.56
273.322	264.56
273.553	255.56
273.785	258.56
274.017	246.56
274.249	275.56
274.481	235.56
274.713	244.56
274.945	255.56
275.176	258.56
275.408	265.56
275.64	252.56
275.872	230.56
276.104	226.56
276.335	252.56
276.567	253.56
276.799	296.56
277.031	302.56
277.262	293.56
277.494	312.56
277.726	288.56
277.957	272.56
278.189	273.56
278.421	243.56
278.652	250.56
278.884	261.56
279.115	260.56
279.347	239.56
279.579	241.56
279.81	239.56
280.042	245.56
280.273	244.56
280.505	222.56
280.736	225.56
280.968	244.56
281.199	248.56
281.431	244.56
281.662	238.56
281.894	237.56
282.125	255.56
282.356	278.56
282.588	273.56
282.819	312.56
283.051	252.56
283.282	244.56
283.513	237.56
283.745	239.56
283.976	243.56
284.207	240.56
284.439	236.56
284.67	253.56
284.901	246.56
285.132	232.56
285.364	226.56
285.595	236.56
285.826	233.56
286.057	231.56
286.288	241.56
286.52	212.56
286.751	226.56
286.982	253.56
287.213	233.56
287.444	243.56
287.675	250.56
287.906	247.56
288.138	257.56
288.369	269.56
288.6	266.56
288.831	241.56
289.062	249.56
289.293	264.56
289.524	234.56
289.755	257.56
289.986	237.56
290.217	240.56
290.448	247.56
290.679	249.56
290.91	247.56
291.141	253.56
291.371	261.56
291.602	237.56
291.833	256.56
292.064	246.56
292.295	251.56
292.526	249.56
292.757	257.56
292.987	245.56
293.218	238.56
293.449	243.56
293.68	249.56
293.91	236.56
294.141	252.56
294.372	236.56
294.603	234.56
294.833	240.56
295.064	234.56
295.295	256.56
295.525	258.56
295.756	265.56
295.987	282.56
296.217	300.56
296.448	322.56
296.679	272.56
296.909	248.56
297.14	246.56
297.37	237.56
297.601	226.56
297.831	268.56
298.062	267.56
298.292	255.56
298.523	256.56
298.753	261.56
298.984	248.56
299.214	266.56
299.445	256.56
299.675	245.56
299.905	275.56
300.136	255.56
300.366	271.56
300.597	267.56
300.827	275.56
301.057	281.56
301.288	297.56
301.518	280.56
301.748	285.56
301.979	264.56
302.209	273.56
302.439	273.56
302.669	297.56
302.9	289.56
303.13	287.56
303.36	269.56
303.59	294.56
303.82	293.56
304.051	281.56
304.281	268.56
304.511	272.56
304.741	284.56
304.971	273.56
305.201	288.56
305.431	275.56
305.661	281.56
305.891	281.56
306.121	297.56
306.352	288.56
306.582	294.56
306.812	300.56
307.042	283.56
307.272	292.56
307.502	289.56
307.731	291.56
307.961	274.56
308.191	296.56
308.421	295.56
308.651	282.56
308.881	280.56
309.111	302.56
309.341	315.56
309.571	323.56
309.8	336.56
310.03	347.56
310.26	357.56
310.49	372.56
310.72	367.56
310.949	420.56
311.179	398.56
311.409	362.56
311.639	348.56
311.868	374.56
312.098	387.56
312.328	363.56
312.557	396.56
312.787	431.56
313.017	416.56
313.246	393.56
313.476	363.56
313.706	346.56
313.935	357.56
314.165	358.56
314.394	381.56
314.624	376.56
314.853	374.56
315.083	356.56
315.312	325.56
315.542	335.56
315.771	335.56
316.001	327.56
316.23	334.56
316.46	332.56
316.689	335.56
316.919	345.56
317.148	365.56
317.377	366.56
317.607	363.56
317.836	365.56
318.065	353.56
318.295	344.56
318.524	328.56
318.753	328.56
318.983	335.56
319.212	361.56
319.441	348.56
319.67	350.56
319.9	348.56
320.129	344.56
320.358	348.56
320.587	356.56
320.816	373.56
321.046	366.56
321.275	382.56
321.504	368.56
321.733	400.56
321.962	408.56
322.191	400.56
322.42	462.56
322.649	468.56
322.878	490.56
323.108	487.56
323.337	537.56
323.566	574.56
323.795	613.56
324.024	705.56
324.253	906.56
324.482	1325.56
324.71	2050.56
324.939	2826.56
325.168	2497.56
325.397	1350.56
325.626	873.56
325.855	676.56
326.084	590.56
326.313	558.56
326.542	582.56
326.77	666.56
326.999	801.56
327.228	1150.56
327.457	1780.56
327.686	2164.56
327.914	1499.56
328.143	932.56
328.372	780.56
328.6	721.56
328.829	656.56
329.058	670.56
329.287	713.56
329.515	624.56
329.744	586.56
329.972	531.56
330.201	546.56
330.43	562.56
330.658	652.56
330.887	720.56
331.115	708.56
331.344	552.56
331.572	494.56
331.801	519.56
332.03	537.56
332.258	456.56
332.486	440.56
332.715	413.56
332.943	394.56
333.172	413.56
333.4	404.56
333.629	421.56
333.857	426.56
334.085	420.56
334.314	404.56
334.542	394.56
334.771	414.56
334.999	399.56
335.227	396.56
335.455	390.56
335.684	409.56
335.912	408.56
336.14	389.56
336.369	407.56
336.597	400.56
336.825	411.56
337.053	388.56
337.281	372.56
337.51	398.56
337.738	390.56
337.966	382.56
338.194	391.56
338.422	388.56
338.65	408.56
338.878	400.56
339.106	378.56
339.334	390.56
339.562	389.56
339.79	369.56
340.018	389.56
340.246	381.56
340.474	412.56
340.702	382.56
340.93	386.56
341.158	384.56
341.386	407.56
341.614	364.56
341.842	370.56
342.07	398.56
342.298	368.56
342.526	385.56
342.754	364.56
342.981	356.56
343.209	348.56
343.437	351.56
343.665	366.56
343.893	361.56
344.12	393.56
344.348	363.56
344.576	356.56
344.804	385.56
345.031	397.56
345.259	431.56
345.487	401.56
345.714	390.56
345.942	402.56
346.17	386.56
346.397	374.56
346.625	399.56
346.853	372.56
347.08	382.56
347.308	380.56
347.535	420.56
347.763	414.56
347.99	416.56
348.218	409.56
348.445	424.56
348.673	401.56
348.9	395.56
349.128	376.56
349.355	355.56
349.583	367.56
349.81	368.56
350.037	370.56
350.265	377.56
350.492	371.56
350.72	386.56
350.947	373.56
351.174	393.56
351.402	391.56
351.629	415.56
351.856	417.56
352.083	417.56
352.311	420.56
352.538	436.56
352.765	417.56
352.992	401.56
353.22	399.56
353.447	401.56
353.674	388.56
353.901	361.56
354.128	358.56
354.355	345.56
354.583	354.56
354.81	333.56
355.037	350.56
355.264	323.56
355.491	332.56
355.718	304.56
355.945	335.56
356.172	338.56
356.399	338.56
356.626	342.56
356.853	338.56
357.08	332.56
357.307	337.56
357.534	347.56
357.761	358.56
357.988	341.56
358.215	352.56
358.441	361.56
358.668	348.56
358.895	345.56
359.122	345.56
359.349	393.56
359.576	400.56
359.802	450.56
360.029	487.56
360.256	493.56
360.483	473.56
360.709	404.56
360.936	382.56
361.163	388.56
361.39	409.56
361.616	421.56
361.843	381.56
362.07	385.56
362.296	391.56
362.523	416.56
362.749	388.56
362.976	416.56
363.203	383.56
363.429	379.56
363.656	365.56
363.882	347.56
364.109	352.56
364.335	358.56
364.562	368.56
364.788	360.56
365.015	351.56
365.241	376.56
365.468	376.56
365.694	374.56
365.92	381.56
366.147	363.56
366.373	357.56
366.599	346.56
366.826	355.56
367.052	348.56
367.278	336.56
367.505	358.56
367.731	357.56
367.957	352.56
368.184	342.56
368.41	356.56
368.636	376.56
368.862	382.56
369.089	362.56
369.315	348.56
369.541	331.56
369.767	345.56
369.993	335.56
370.219	352.56
370.445	356.56
370.672	338.56
370.898	338.56
371.124	332.56
371.35	346.56
371.576	356.56
371.802	358.56
372.028	328.56
372.254	337.56
372.48	337.56
372.706	340.56
372.932	329.56
373.158	338.56
373.384	325.56
373.61	331.56
373.835	342.56
374.061	344.56
374.287	350.56
374.513	361.56
374.739	341.56
374.965	332.56
375.191	316.56
375.416	331.56
375.642	328.56
375.868	334.56
376.094	336.56
376.319	330.56
376.545	325.56
376.771	336.56
376.997	350.56
377.222	342.56
377.448	321.56
377.674	320.56
377.899	320.56
378.125	337.56
378.35	326.56
378.576	334.56
378.802	324.56
379.027	331.56
379.253	330.56
379.478	318.56
379.704	344.56
379.929	333.56
380.155	336.56
380.38	358.56
380.606	333.56
380.831	337.56
381.057	331.56
381.282	333.56
381.507	353.56
381.733	325.56
381.958	353.56
382.184	322.56
382.409	332.56
382.634	340.56
382.86	341.56
383.085	336.56
383.31	347.56
383.535	352.56
383.761	356.56
383.986	340.56
384.211	346.56
384.436	336.56
384.662	348.56
384.887	325.56
385.112	351.56
385.337	349.56
385.562	375.56
385.787	352.56
386.013	356.56
386.238	345.56
386.463	369.56
386.688	353.56
386.913	352.56
387.138	360.56
387.363	340.56
387.588	354.56
387.813	362.56
388.038	344.56
388.263	353.56
388.488	360.56
388.713	341.56
388.938	358.56
389.163	362.56
389.387	344.56
389.612	339.56
389.837	363.56
390.062	344.56
390.287	361.56
390.512	340.56
390.736	342.56
390.961	358.56
391.186	331.56
391.411	350.56
391.636	366.56
391.86	360.56
392.085	358.56
392.31	350.56
392.534	356.56
392.759	357.56
392.984	359.56
393.208	346.56
393.433	343.56
393.658	343.56
393.882	362.56
394.107	349.56
394.331	349.56
394.556	346.56
394.78	357.56
395.005	356.56
395.229	369.56
395.454	351.56
395.678	365.56
395.903	369.56
396.127	382.56
396.352	388.56
396.576	377.56
396.801	374.56
397.025	354.56
397.249	366.56
397.474	366.56
397.698	370.56
397.922	388.56
398.147	428.56
398.371	418.56
398.595	393.56
398.82	378.56
399.044	401.56
399.268	402.56
399.492	418.56
399.717	434.56
399.941	448.56
400.165	467.56
400.389	471.56
400.613	473.56
400.837	434.56
401.062	431.56
401.286	400.56
401.51	390.56
401.734	408.56
401.958	412.56
402.182	407.56
402.406	440.56
402.63	435.56
402.854	425.56
403.078	429.56
403.302	445.56
403.526	434.56
403.75	421.56
403.974	422.56
404.198	428.56
404.422	417.56
404.645	436.56
404.869	436.56
405.093	449.56
405.317	490.56
405.541	503.56
405.765	484.56
405.988	442.56
406.212	478.56
406.436	493.56
406.66	497.56
406.883	500.56
407.107	521.56
407.331	537.56
407.555	617.56
407.778	592.56
408.002	552.56
408.226	521.56
408.449	474.56
408.673	483.56
408.896	505.56
409.12	526.56
409.344	498.56
409.567	472.56
409.791	442.56
410.014	446.56
410.238	442.56
410.461	450.56
410.685	446.56
410.908	449.56
411.132	504.56
411.355	535.56
411.578	486.56
411.802	446.56
412.025	421.56
412.249	438.56
412.472	441.56
412.695	470.56
412.919	445.56
413.142	406.56
413.365	439.56
413.589	409.56
413.812	400.56
414.035	404.56
414.258	406.56
414.482	385.56
414.705	383.56
414.928	391.56
415.151	390.56
415.374	400.56
415.597	386.56
415.821	385.56
416.044	391.56
416.267	402.56
416.49	423.56
416.713	409.56
416.936	388.56
417.159	403.56
417.382	417.56
417.605	432.56
417.828	428.56
418.051	439.56
418.274	454.56
418.497	425.56
418.72	440.56
418.943	424.56
419.166	425.56
419.389	429.56
419.611	425.56
419.834	432.56
420.057	431.56
420.28	432.56
420.503	433.56
420.726	414.56
420.948	454.56
421.171	525.56
421.394	552.56
421.617	483.56
421.839	438.56
422.062	446.56
422.285	477.56
422.507	529.56
422.73	592.56
422.953	589.56
423.175	500.56
423.398	479.56
423.621	489.56
423.843	487.56
424.066	507.56
424.288	498.56
424.511	527.56
424.733	563.56
424.956	654.56
425.178	634.56
425.401	642.56
425.623	634.56
425.846	553.56
426.068	559.56
426.291	538.56
426.513	524.56
426.735	547.56
426.958	594.56
427.18	663.56
427.402	768.56
427.625	885.56
427.847	814.56
428.069	685.56
428.292	604.56
428.514	545.56
428.736	536.56
428.958	518.56
429.181	486.56
429.403	484.56
429.625	512.56
429.847	535.56
430.069	593.56
430.292	596.56
430.514	508.56
430.736	480.56
430.958	474.56
431.18	453.56
431.402	447.56
431.624	436.56
431.846	419.56
432.068	431.56
432.29	428.56
432.512	430.56
432.734	436.56
432.956	457.56
433.178	465.56
433.4	467.56
433.622	446.56
433.844	471.56
434.066	413.56
434.287	444.56
434.509	459.56
434.731	460.56
434.953	458.56
435.175	467.56
435.397	509.56
435.618	508.56
435.84	575.56
436.062	670.56
436.284	728.56
436.505	630.56
436.727	568.56
436.949	526.56
437.17	510.56
437.392	497.56
437.614	513.56
437.835	570.56
438.057	667.56
438.278	767.56
438.5	739.56
438.721	798.56
438.943	751.56
439.165	614.56
439.386	578.56
439.608	579.56
439.829	564.56
440.05	613.56
440.272	639.56
440.493	610.56
440.715	537.56
440.936	503.56
441.158	484.56
441.379	492.56
441.6	508.56
441.822	535.56
442.043	558.56
442.264	671.56
442.486	679.56
442.707	612.56
442.928	572.56
443.149	570.56
443.371	572.56
443.592	632.56
443.813	708.56
444.034	775.56
444.255	620.56
444.476	540.56
444.698	525.56
444.919	505.56
445.14	577.56
445.361	599.56
445.582	594.56
445.803	636.56
446.024	741.56
446.245	764.56
446.466	704.56
446.687	634.56
446.908	533.56
447.129	518.56
447.35	509.56
447.571	477.56
447.792	486.56
448.013	492.56
448.234	528.56
448.455	575.56
448.675	717.56
448.896	778.56
449.117	696.56
449.338	650.56
449.559	748.56
449.779	800.56
450	660.56
450.221	552.56
450.442	518.56
450.662	507.56
450.883	520.56
451.104	573.56
451.324	522.56
451.545	504.56
451.766	475.56
451.986	463.56
452.207	463.56
452.428	454.56
452.648	449.56
452.869	457.56
453.089	474.56
453.31	470.56
453.53	462.56
453.751	442.56
453.971	461.56
454.192	472.56
454.412	479.56
454.633	465.56
454.853	450.56
455.073	447.56
455.294	476.56
455.514	554.56
455.734	534.56
455.955	445.56
456.175	430.56
456.395	409.56
456.616	412.56
456.836	391.56
457.056	396.56
457.276	383.56
457.497	398.56
457.717	390.56
457.937	406.56
458.157	418.56
458.377	412.56
458.598	449.56
458.818	529.56
459.038	654.56
459.258	679.56
459.478	531.56
459.698	496.56
459.918	429.56
460.138	433.56
460.358	447.56
460.578	432.56
460.798	428.56
461.018	431.56
461.238	429.56
461.458	403.56
461.678	424.56
461.898	427.56
462.118	401.56
462.338	426.56
462.558	405.56
462.777	425.56
462.997	451.56
463.217	430.56
463.437	416.56
463.657	439.56
463.876	415.56
464.096	443.56
464.316	436.56
464.536	464.56
464.755	467.56
464.975	484.56
465.195	573.56
465.414	711.56
465.634	606.56
465.854	520.56
466.073	484.56
466.293	489.56
466.512	447.56
466.732	424.56
466.951	429.56
467.171	440.56
467.391	433.56
467.61	455.56
467.829	453.56
468.049	442.56
468.268	425.56
468.488	428.56
468.707	419.56
468.927	405.56
469.146	431.56
469.365	410.56
469.585	417.56
469.804	408.56
470.023	449.56
470.243	451.56
470.462	455.56
470.681	472.56
470.901	484.56
471.12	455.56
471.339	431.56
471.558	431.56
471.777	451.56
471.997	421.56
472.216	428.56
472.435	433.56
472.654	443.56
472.873	420.56
473.092	450.56
473.311	436.56
473.53	441.56
473.749	466.56
473.968	501.56
474.187	637.56
474.406	655.56
474.625	533.56
474.844	478.56
475.063	447.56
475.282	444.56
475.501	444.56
475.72	463.56
475.939	452.56
476.158	447.56
476.377	455.56
476.596	423.56
476.814	457.56
477.033	466.56
477.252	471.56
477.471	456.56
477.69	470.56
477.908	455.56
478.127	483.56
478.346	479.56
478.564	500.56
478.783	469.56
479.002	481.56
479.22	486.56
479.439	500.56
479.658	526.56
479.876	545.56
480.095	534.56
480.313	556.56
480.532	540.56
480.751	533.56
480.969	551.56
481.188	549.56
481.406	555.56
481.624	556.56
481.843	519.56
482.061	513.56
482.28	510.56
482.498	506.56
482.717	500.56
482.935	507.56
483.153	522.56
483.372	505.56
483.59	498.56
483.808	525.56
484.027	522.56
484.245	491.56
484.463	527.56
484.681	537.56
484.9	544.56
485.118	522.56
485.336	523.56
485.554	541.56
485.772	525.56
485.99	543.56
486.209	555.56
486.427	556.56
486.645	564.56
486.863	606.56
487.081	597.56
487.299	562.56
487.517	570.56
487.735	592.56
487.953	550.56
488.171	551.56
488.389	580.56
488.607	582.56
488.825	580.56
489.043	593.56
489.261	583.56
489.479	575.56
489.696	575.56
489.914	594.56
490.132	582.56
490.35	596.56
490.568	595.56
490.786	621.56
491.003	628.56
491.221	637.56
491.439	632.56
491.657	627.56
491.874	656.56
492.092	674.56
492.31	672.56
492.527	651.56
492.745	676.56
492.963	663.56
493.18	687.56
493.398	649.56
493.615	665.56
493.833	665.56
494.05	677.56
494.268	687.56
494.485	695.56
494.703	667.56
494.92	682.56
495.138	714.56
495.355	684.56
495.573	680.56
495.79	665.56
496.008	708.56
496.225	670.56
496.442	682.56
496.66	671.56
496.877	670.56
497.094	680.56
497.312	690.56
497.529	682.56
497.746	693.56
497.963	699.56
498.181	732.56
498.398	712.56
498.615	723.56
498.832	736.56
499.049	736.56
499.267	743.56
499.484	736.56
499.701	763.56
499.918	756.56
500.135	794.56
500.352	794.56
500.569	787.56
500.786	801.56
501.003	795.56
501.22	799.56
501.437	806.56
501.654	797.56
501.871	822.56
