Data from 1987.PennyLincolnUp.Lamp.En5.5.200Scan.071819.P2_HRD10591_17-14-40-972.txt Node
Date: Thu Jul 18 17:14:40 EDT 2019
User: cochatt
Spectrometer: HR+D1059
Trigger mode: 1
Integration Time (sec): 1.000000E-1
Scans to average: 1
Electric dark correction enabled: true
Nonlinearity correction enabled: false
Boxcar width: 0
XAxis mode: Wavelengths
Number of Pixels in Spectrum: 2048
>>>>>Begin Spectral Data<<<<<
223.165	-15.19
223.4	-15.19
223.635	-15.19
223.869	-12.19
224.104	-19.19
224.338	-15.19
224.573	-16.19
224.808	-7.19
225.042	-14.19
225.277	-2.19
225.511	3.81
225.746	3.81
225.98	1.81
226.215	12.81
226.449	15.81
226.683	12.81
226.918	17.81
227.152	32.81
227.387	44.81
227.621	61.81
227.856	37.81
228.09	56.81
228.324	57.81
228.559	61.81
228.793	67.81
229.027	117.81
229.262	122.81
229.496	136.81
229.73	137.81
229.964	168.81
230.199	145.81
230.433	135.81
230.667	131.81
230.901	122.81
231.136	107.81
231.37	119.81
231.604	112.81
231.838	135.81
232.072	110.81
232.306	115.81
232.541	109.81
232.775	108.81
233.009	116.81
233.243	121.81
233.477	115.81
233.711	124.81
233.945	127.81
234.179	108.81
234.413	119.81
234.647	110.81
234.881	113.81
235.115	109.81
235.349	125.81
235.583	104.81
235.817	125.81
236.051	125.81
236.285	140.81
236.519	130.81
236.753	137.81
236.987	161.81
237.221	196.81
237.455	248.81
237.689	191.81
237.922	149.81
238.156	131.81
238.39	121.81
238.624	129.81
238.858	126.81
239.091	127.81
239.325	129.81
239.559	133.81
239.793	128.81
240.027	141.81
240.26	152.81
240.494	163.81
240.728	149.81
240.961	152.81
241.195	135.81
241.429	145.81
241.662	144.81
241.896	144.81
242.13	130.81
242.363	137.81
242.597	136.81
242.83	133.81
243.064	123.81
243.298	131.81
243.531	145.81
243.765	118.81
243.998	137.81
244.232	123.81
244.465	127.81
244.699	143.81
244.932	131.81
245.166	137.81
245.399	141.81
245.633	151.81
245.866	141.81
246.099	155.81
246.333	139.81
246.566	144.81
246.8	151.81
247.033	141.81
247.266	158.81
247.5	151.81
247.733	163.81
247.966	148.81
248.2	151.81
248.433	166.81
248.666	172.81
248.899	166.81
249.133	174.81
249.366	193.81
249.599	196.81
249.832	177.81
250.066	196.81
250.299	187.81
250.532	185.81
250.765	191.81
250.998	215.81
251.231	216.81
251.465	217.81
251.698	199.81
251.931	187.81
252.164	186.81
252.397	188.81
252.63	181.81
252.863	212.81
253.096	221.81
253.329	217.81
253.562	207.81
253.795	217.81
254.028	206.81
254.261	205.81
254.494	223.81
254.727	263.81
254.96	265.81
255.193	265.81
255.426	248.81
255.659	258.81
255.892	213.81
256.124	207.81
256.357	230.81
256.59	198.81
256.823	194.81
257.056	207.81
257.289	201.81
257.521	210.81
257.754	201.81
257.987	181.81
258.22	215.81
258.452	183.81
258.685	197.81
258.918	184.81
259.151	204.81
259.383	195.81
259.616	195.81
259.849	204.81
260.081	225.81
260.314	227.81
260.547	232.81
260.779	247.81
261.012	220.81
261.244	225.81
261.477	213.81
261.71	194.81
261.942	233.81
262.175	234.81
262.407	219.81
262.64	191.81
262.872	204.81
263.105	192.81
263.337	191.81
263.57	190.81
263.802	191.81
264.035	197.81
264.267	199.81
264.499	193.81
264.732	191.81
264.964	208.81
265.197	190.81
265.429	213.81
265.661	197.81
265.894	215.81
266.126	181.81
266.358	198.81
266.591	180.81
266.823	194.81
267.055	213.81
267.287	202.81
267.52	208.81
267.752	195.81
267.984	197.81
268.216	207.81
268.448	197.81
268.681	214.81
268.913	230.81
269.145	236.81
269.377	252.81
269.609	250.81
269.841	251.81
270.073	250.81
270.306	270.81
270.538	295.81
270.77	302.81
271.002	295.81
271.234	286.81
271.466	300.81
271.698	293.81
271.93	291.81
272.162	297.81
272.394	294.81
272.626	271.81
272.858	261.81
273.09	265.81
273.322	263.81
273.553	257.81
273.785	244.81
274.017	224.81
274.249	243.81
274.481	242.81
274.713	240.81
274.945	267.81
275.176	244.81
275.408	229.81
275.64	233.81
275.872	230.81
276.104	237.81
276.335	246.81
276.567	221.81
276.799	249.81
277.031	277.81
277.262	274.81
277.494	272.81
277.726	264.81
277.957	236.81
278.189	250.81
278.421	240.81
278.652	245.81
278.884	237.81
279.115	223.81
279.347	235.81
279.579	232.81
279.81	224.81
280.042	224.81
280.273	224.81
280.505	204.81
280.736	208.81
280.968	201.81
281.199	217.81
281.431	230.81
281.662	224.81
281.894	233.81
282.125	229.81
282.356	224.81
282.588	271.81
282.819	280.81
283.051	231.81
283.282	219.81
283.513	234.81
283.745	232.81
283.976	222.81
284.207	257.81
284.439	243.81
284.67	241.81
284.901	248.81
285.132	222.81
285.364	232.81
285.595	232.81
285.826	224.81
286.057	230.81
286.288	244.81
286.52	228.81
286.751	223.81
286.982	235.81
287.213	220.81
287.444	236.81
287.675	251.81
287.906	222.81
288.138	250.81
288.369	245.81
288.6	243.81
288.831	241.81
289.062	244.81
289.293	247.81
289.524	224.81
289.755	229.81
289.986	219.81
290.217	239.81
290.448	244.81
290.679	228.81
290.91	236.81
291.141	240.81
291.371	230.81
291.602	224.81
291.833	231.81
292.064	249.81
292.295	240.81
292.526	221.81
292.757	229.81
292.987	221.81
293.218	230.81
293.449	242.81
293.68	237.81
293.91	244.81
294.141	225.81
294.372	220.81
294.603	244.81
294.833	236.81
295.064	233.81
295.295	241.81
295.525	254.81
295.756	236.81
295.987	256.81
296.217	284.81
296.448	299.81
296.679	244.81
296.909	242.81
297.14	233.81
297.37	238.81
297.601	243.81
297.831	245.81
298.062	226.81
298.292	261.81
298.523	248.81
298.753	253.81
298.984	237.81
299.214	244.81
299.445	239.81
299.675	249.81
299.905	232.81
300.136	269.81
300.366	248.81
300.597	251.81
300.827	254.81
301.057	266.81
301.288	255.81
301.518	263.81
301.748	246.81
301.979	266.81
302.209	263.81
302.439	263.81
302.669	272.81
302.9	248.81
303.13	283.81
303.36	269.81
303.59	263.81
303.82	302.81
304.051	286.81
304.281	265.81
304.511	250.81
304.741	240.81
304.971	262.81
305.201	263.81
305.431	255.81
305.661	262.81
305.891	265.81
306.121	249.81
306.352	273.81
306.582	301.81
306.812	285.81
307.042	258.81
307.272	275.81
307.502	273.81
307.731	269.81
307.961	266.81
308.191	273.81
308.421	280.81
308.651	259.81
308.881	283.81
309.111	288.81
309.341	286.81
309.571	309.81
309.8	308.81
310.03	329.81
310.26	335.81
310.49	315.81
310.72	339.81
310.949	365.81
311.179	356.81
311.409	364.81
311.639	342.81
311.868	335.81
312.098	336.81
312.328	335.81
312.557	350.81
312.787	388.81
313.017	363.81
313.246	338.81
313.476	333.81
313.706	330.81
313.935	341.81
314.165	346.81
314.394	356.81
314.624	350.81
314.853	346.81
315.083	313.81
315.312	323.81
315.542	311.81
315.771	304.81
316.001	317.81
316.23	328.81
316.46	317.81
316.689	309.81
316.919	316.81
317.148	328.81
317.377	332.81
317.607	331.81
317.836	332.81
318.065	320.81
318.295	324.81
318.524	335.81
318.753	313.81
318.983	331.81
319.212	332.81
319.441	344.81
319.67	352.81
319.9	321.81
320.129	349.81
320.358	331.81
320.587	346.81
320.816	335.81
321.046	333.81
321.275	348.81
321.504	354.81
321.733	354.81
321.962	374.81
322.191	391.81
322.42	390.81
322.649	420.81
322.878	418.81
323.108	461.81
323.337	482.81
323.566	532.81
323.795	561.81
324.024	625.81
324.253	773.81
324.482	1142.81
324.71	1729.81
324.939	2477.81
325.168	2151.81
325.397	1173.81
325.626	749.81
325.855	589.81
326.084	543.81
326.313	505.81
326.542	551.81
326.77	588.81
326.999	680.81
327.228	987.81
327.457	1502.81
327.686	1820.81
327.914	1237.81
328.143	823.81
328.372	673.81
328.6	618.81
328.829	595.81
329.058	593.81
329.287	600.81
329.515	539.81
329.744	499.81
329.972	466.81
330.201	485.81
330.43	484.81
330.658	567.81
330.887	637.81
331.115	615.81
331.344	504.81
331.572	470.81
331.801	460.81
332.03	437.81
332.258	432.81
332.486	428.81
332.715	394.81
332.943	363.81
333.172	393.81
333.4	389.81
333.629	381.81
333.857	405.81
334.085	384.81
334.314	366.81
334.542	358.81
334.771	398.81
334.999	399.81
335.227	386.81
335.455	364.81
335.684	363.81
335.912	370.81
336.14	331.81
336.369	364.81
336.597	371.81
336.825	373.81
337.053	376.81
337.281	377.81
337.51	360.81
337.738	380.81
337.966	377.81
338.194	380.81
338.422	376.81
338.65	364.81
338.878	354.81
339.106	347.81
339.334	365.81
339.562	349.81
339.79	331.81
340.018	345.81
340.246	355.81
340.474	375.81
340.702	379.81
340.93	383.81
341.158	365.81
341.386	350.81
341.614	349.81
341.842	376.81
342.07	351.81
342.298	363.81
342.526	360.81
342.754	343.81
342.981	338.81
343.209	313.81
343.437	325.81
343.665	357.81
343.893	344.81
344.12	349.81
344.348	355.81
344.576	372.81
344.804	369.81
345.031	391.81
345.259	399.81
345.487	397.81
345.714	377.81
345.942	377.81
346.17	372.81
346.397	383.81
346.625	348.81
346.853	341.81
347.08	362.81
347.308	382.81
347.535	383.81
347.763	363.81
347.99	386.81
348.218	377.81
348.445	389.81
348.673	381.81
348.9	355.81
349.128	343.81
349.355	340.81
349.583	339.81
349.81	339.81
350.037	342.81
350.265	361.81
350.492	342.81
350.72	325.81
350.947	359.81
351.174	357.81
351.402	383.81
351.629	368.81
351.856	364.81
352.083	381.81
352.311	391.81
352.538	381.81
352.765	403.81
352.992	395.81
353.22	364.81
353.447	398.81
353.674	351.81
353.901	337.81
354.128	338.81
354.355	329.81
354.583	323.81
354.81	336.81
355.037	342.81
355.264	335.81
355.491	315.81
355.718	309.81
355.945	331.81
356.172	308.81
356.399	328.81
356.626	336.81
356.853	300.81
357.08	316.81
357.307	333.81
357.534	307.81
357.761	308.81
357.988	340.81
358.215	330.81
358.441	326.81
358.668	326.81
358.895	320.81
359.122	333.81
359.349	364.81
359.576	385.81
359.802	387.81
360.029	426.81
360.256	455.81
360.483	427.81
360.709	375.81
360.936	361.81
361.163	368.81
361.39	398.81
361.616	389.81
361.843	356.81
362.07	387.81
362.296	385.81
362.523	357.81
362.749	352.81
362.976	356.81
363.203	360.81
363.429	330.81
363.656	342.81
363.882	365.81
364.109	342.81
364.335	334.81
364.562	347.81
364.788	362.81
365.015	341.81
365.241	356.81
365.468	344.81
365.694	353.81
365.92	347.81
366.147	338.81
366.373	329.81
366.599	334.81
366.826	336.81
367.052	347.81
367.278	349.81
367.505	322.81
367.731	341.81
367.957	332.81
368.184	330.81
368.41	344.81
368.636	341.81
368.862	364.81
369.089	332.81
369.315	352.81
369.541	342.81
369.767	342.81
369.993	341.81
370.219	338.81
370.445	337.81
370.672	323.81
370.898	334.81
371.124	326.81
371.35	316.81
371.576	321.81
371.802	336.81
372.028	319.81
372.254	325.81
372.48	327.81
372.706	322.81
372.932	323.81
373.158	323.81
373.384	325.81
373.61	336.81
373.835	340.81
374.061	330.81
374.287	328.81
374.513	333.81
374.739	328.81
374.965	318.81
375.191	307.81
375.416	323.81
375.642	334.81
375.868	345.81
376.094	323.81
376.319	322.81
376.545	320.81
376.771	318.81
376.997	324.81
377.222	315.81
377.448	322.81
377.674	335.81
377.899	319.81
378.125	348.81
378.35	329.81
378.576	328.81
378.802	323.81
379.027	328.81
379.253	341.81
379.478	330.81
379.704	334.81
379.929	324.81
380.155	332.81
380.38	325.81
380.606	324.81
380.831	343.81
381.057	337.81
381.282	321.81
381.507	343.81
381.733	330.81
381.958	325.81
382.184	343.81
382.409	351.81
382.634	329.81
382.86	328.81
383.085	340.81
383.31	321.81
383.535	329.81
383.761	329.81
383.986	344.81
384.211	350.81
384.436	331.81
384.662	328.81
384.887	354.81
385.112	332.81
385.337	341.81
385.562	341.81
385.787	347.81
386.013	352.81
386.238	352.81
386.463	375.81
386.688	338.81
386.913	321.81
387.138	339.81
387.363	349.81
387.588	349.81
387.813	337.81
388.038	332.81
388.263	343.81
388.488	355.81
388.713	349.81
388.938	346.81
389.163	361.81
389.387	327.81
389.612	344.81
389.837	334.81
390.062	352.81
390.287	315.81
390.512	336.81
390.736	340.81
390.961	345.81
391.186	353.81
391.411	352.81
391.636	352.81
391.86	340.81
392.085	350.81
392.31	349.81
392.534	348.81
392.759	345.81
392.984	376.81
393.208	353.81
393.433	358.81
393.658	360.81
393.882	357.81
394.107	356.81
394.331	344.81
394.556	352.81
394.78	347.81
395.005	338.81
395.229	354.81
395.454	372.81
395.678	358.81
395.903	367.81
396.127	365.81
396.352	403.81
396.576	381.81
396.801	352.81
397.025	384.81
397.249	377.81
397.474	377.81
397.698	393.81
397.922	378.81
398.147	421.81
398.371	405.81
398.595	383.81
398.82	392.81
399.044	372.81
399.268	399.81
399.492	416.81
399.717	424.81
399.941	439.81
400.165	489.81
400.389	497.81
400.613	449.81
400.837	429.81
401.062	404.81
401.286	420.81
401.51	394.81
401.734	384.81
401.958	397.81
402.182	400.81
402.406	433.81
402.63	427.81
402.854	401.81
403.078	429.81
403.302	422.81
403.526	427.81
403.75	423.81
403.974	412.81
404.198	402.81
404.422	419.81
404.645	429.81
404.869	419.81
405.093	454.81
405.317	453.81
405.541	468.81
405.765	453.81
405.988	435.81
406.212	466.81
406.436	489.81
406.66	499.81
406.883	481.81
407.107	478.81
407.331	507.81
407.555	569.81
407.778	591.81
408.002	551.81
408.226	492.81
408.449	481.81
408.673	472.81
408.896	491.81
409.12	555.81
409.344	511.81
409.567	456.81
409.791	449.81
410.014	416.81
410.238	412.81
410.461	429.81
410.685	430.81
410.908	458.81
411.132	462.81
411.355	505.81
411.578	495.81
411.802	469.81
412.025	421.81
412.249	420.81
412.472	423.81
412.695	461.81
412.919	428.81
413.142	426.81
413.365	401.81
413.589	399.81
413.812	397.81
414.035	375.81
414.258	406.81
414.482	390.81
414.705	376.81
414.928	392.81
415.151	372.81
415.374	400.81
415.597	414.81
415.821	372.81
416.044	378.81
416.267	406.81
416.49	409.81
416.713	411.81
416.936	383.81
417.159	391.81
417.382	415.81
417.605	428.81
417.828	419.81
418.051	413.81
418.274	409.81
418.497	405.81
418.72	428.81
418.943	428.81
419.166	422.81
419.389	422.81
419.611	424.81
419.834	437.81
420.057	430.81
420.28	447.81
420.503	415.81
420.726	418.81
420.948	440.81
421.171	504.81
421.394	510.81
421.617	453.81
421.839	422.81
422.062	445.81
422.285	471.81
422.507	519.81
422.73	605.81
422.953	549.81
423.175	499.81
423.398	455.81
423.621	454.81
423.843	472.81
424.066	492.81
424.288	448.81
424.511	518.81
424.733	551.81
424.956	619.81
425.178	592.81
425.401	608.81
425.623	628.81
425.846	563.81
426.068	527.81
426.291	516.81
426.513	509.81
426.735	513.81
426.958	553.81
427.18	648.81
427.402	755.81
427.625	821.81
427.847	750.81
428.069	635.81
428.292	561.81
428.514	533.81
428.736	494.81
428.958	499.81
429.181	479.81
429.403	456.81
429.625	476.81
429.847	514.81
430.069	579.81
430.292	561.81
430.514	495.81
430.736	469.81
430.958	448.81
431.18	420.81
431.402	411.81
431.624	419.81
431.846	425.81
432.068	420.81
432.29	431.81
432.512	447.81
432.734	437.81
432.956	422.81
433.178	455.81
433.4	454.81
433.622	432.81
433.844	421.81
434.066	426.81
434.287	433.81
434.509	417.81
434.731	439.81
434.953	455.81
435.175	471.81
435.397	471.81
435.618	506.81
435.84	538.81
436.062	622.81
436.284	684.81
436.505	596.81
436.727	541.81
436.949	485.81
437.17	466.81
437.392	471.81
437.614	472.81
437.835	527.81
438.057	622.81
438.278	735.81
438.5	716.81
438.721	755.81
438.943	744.81
439.165	607.81
439.386	557.81
439.608	562.81
439.829	523.81
440.05	567.81
440.272	586.81
440.493	552.81
440.715	502.81
440.936	478.81
441.158	490.81
441.379	473.81
441.6	479.81
441.822	495.81
442.043	524.81
442.264	625.81
442.486	663.81
442.707	582.81
442.928	519.81
443.149	556.81
443.371	554.81
443.592	594.81
443.813	659.81
444.034	740.81
444.255	606.81
444.476	524.81
444.698	503.81
444.919	495.81
445.14	576.81
445.361	563.81
445.582	563.81
445.803	652.81
446.024	705.81
446.245	707.81
446.466	667.81
446.687	592.81
446.908	536.81
447.129	499.81
447.35	486.81
447.571	476.81
447.792	470.81
448.013	475.81
448.234	510.81
448.455	541.81
448.675	665.81
448.896	742.81
449.117	655.81
449.338	628.81
449.559	727.81
449.779	773.81
450	647.81
450.221	540.81
450.442	518.81
450.662	472.81
450.883	483.81
451.104	514.81
451.324	488.81
451.545	462.81
451.766	463.81
451.986	425.81
452.207	418.81
452.428	412.81
452.648	415.81
452.869	417.81
453.089	448.81
453.31	444.81
453.53	424.81
453.751	406.81
453.971	420.81
454.192	470.81
454.412	443.81
454.633	444.81
454.853	432.81
455.073	428.81
455.294	472.81
455.514	527.81
455.734	511.81
455.955	421.81
456.175	402.81
456.395	373.81
456.616	407.81
456.836	409.81
457.056	382.81
457.276	380.81
457.497	409.81
457.717	381.81
457.937	400.81
458.157	399.81
458.377	424.81
458.598	417.81
458.818	515.81
459.038	628.81
459.258	624.81
459.478	518.81
459.698	451.81
459.918	440.81
460.138	427.81
460.358	420.81
460.578	393.81
460.798	416.81
461.018	420.81
461.238	429.81
461.458	421.81
461.678	430.81
461.898	419.81
462.118	426.81
462.338	399.81
462.558	413.81
462.777	425.81
462.997	425.81
463.217	407.81
463.437	421.81
463.657	416.81
463.876	440.81
464.096	429.81
464.316	438.81
464.536	440.81
464.755	430.81
464.975	456.81
465.195	534.81
465.414	655.81
465.634	573.81
465.854	491.81
466.073	471.81
466.293	459.81
466.512	428.81
466.732	427.81
466.951	421.81
467.171	431.81
467.391	415.81
467.61	464.81
467.829	464.81
468.049	417.81
468.268	409.81
468.488	424.81
468.707	424.81
468.927	402.81
469.146	412.81
469.365	394.81
469.585	416.81
469.804	419.81
470.023	442.81
470.243	436.81
470.462	441.81
470.681	462.81
470.901	459.81
471.12	436.81
471.339	414.81
471.558	435.81
471.777	432.81
471.997	405.81
472.216	407.81
472.435	425.81
472.654	413.81
472.873	419.81
473.092	410.81
473.311	409.81
473.53	439.81
473.749	449.81
473.968	496.81
474.187	606.81
474.406	633.81
474.625	487.81
474.844	455.81
475.063	432.81
475.282	423.81
475.501	413.81
475.72	432.81
475.939	453.81
476.158	429.81
476.377	431.81
476.596	435.81
476.814	449.81
477.033	450.81
477.252	470.81
477.471	456.81
477.69	458.81
477.908	447.81
478.127	463.81
478.346	462.81
478.564	452.81
478.783	465.81
479.002	467.81
479.22	461.81
479.439	517.81
479.658	519.81
479.876	525.81
480.095	527.81
480.313	518.81
480.532	539.81
480.751	518.81
480.969	523.81
481.188	525.81
481.406	534.81
481.624	517.81
481.843	513.81
482.061	520.81
482.28	491.81
482.498	488.81
482.717	512.81
482.935	505.81
483.153	495.81
483.372	503.81
483.59	501.81
483.808	517.81
484.027	484.81
484.245	496.81
484.463	508.81
484.681	507.81
484.9	503.81
485.118	502.81
485.336	517.81
485.554	519.81
485.772	507.81
485.99	513.81
486.209	514.81
486.427	543.81
486.645	540.81
486.863	567.81
487.081	544.81
487.299	568.81
487.517	569.81
487.735	536.81
487.953	580.81
488.171	566.81
488.389	561.81
488.607	545.81
488.825	568.81
489.043	547.81
489.261	569.81
489.479	550.81
489.696	571.81
489.914	565.81
490.132	567.81
490.35	568.81
490.568	584.81
490.786	593.81
491.003	598.81
491.221	612.81
491.439	593.81
491.657	613.81
491.874	620.81
492.092	642.81
492.31	635.81
492.527	644.81
492.745	638.81
492.963	613.81
493.18	638.81
493.398	650.81
493.615	649.81
493.833	672.81
494.05	640.81
494.268	649.81
494.485	642.81
494.703	668.81
494.92	645.81
495.138	679.81
495.355	670.81
495.573	665.81
495.79	675.81
496.008	669.81
496.225	646.81
496.442	652.81
496.66	664.81
496.877	635.81
497.094	653.81
497.312	660.81
497.529	670.81
497.746	672.81
497.963	705.81
498.181	681.81
498.398	693.81
498.615	726.81
498.832	689.81
499.049	709.81
499.267	731.81
499.484	729.81
499.701	729.81
499.918	747.81
500.135	771.81
500.352	792.81
500.569	786.81
500.786	784.81
501.003	790.81
501.22	782.81
501.437	761.81
501.654	772.81
501.871	820.81
