Data from 1987.PennyLincolnUp.Lamp.En5.5.200Scan.071819.P2_HRD10591_17-13-59-971.txt Node
Date: Thu Jul 18 17:13:59 EDT 2019
User: cochatt
Spectrometer: HR+D1059
Trigger mode: 1
Integration Time (sec): 1.000000E-1
Scans to average: 1
Electric dark correction enabled: true
Nonlinearity correction enabled: false
Boxcar width: 0
XAxis mode: Wavelengths
Number of Pixels in Spectrum: 2048
>>>>>Begin Spectral Data<<<<<
223.165	-2.94
223.4	-2.94
223.635	-2.94
223.869	-13.94
224.104	-20.94
224.338	-18.94
224.573	-16.94
224.808	0.06
225.042	-11.94
225.277	-13.94
225.511	-8.94
225.746	-4.94
225.98	12.06
226.215	20.06
226.449	22.06
226.683	28.06
226.918	16.06
227.152	15.06
227.387	16.06
227.621	35.06
227.856	28.06
228.09	45.06
228.324	50.06
228.559	58.06
228.793	58.06
229.027	78.06
229.262	107.06
229.496	123.06
229.73	122.06
229.964	136.06
230.199	128.06
230.433	105.06
230.667	110.06
230.901	100.06
231.136	96.06
231.37	103.06
231.604	94.06
231.838	111.06
232.072	103.06
232.306	111.06
232.541	117.06
232.775	104.06
233.009	106.06
233.243	90.06
233.477	104.06
233.711	94.06
233.945	103.06
234.179	111.06
234.413	111.06
234.647	118.06
234.881	112.06
235.115	101.06
235.349	109.06
235.583	125.06
235.817	104.06
236.051	111.06
236.285	120.06
236.519	116.06
236.753	93.06
236.987	134.06
237.221	174.06
237.455	206.06
237.689	181.06
237.922	139.06
238.156	122.06
238.39	110.06
238.624	123.06
238.858	107.06
239.091	118.06
239.325	108.06
239.559	115.06
239.793	112.06
240.027	125.06
240.26	124.06
240.494	146.06
240.728	132.06
240.961	135.06
241.195	128.06
241.429	140.06
241.662	135.06
241.896	126.06
242.13	126.06
242.363	131.06
242.597	106.06
242.83	125.06
243.064	130.06
243.298	118.06
243.531	128.06
243.765	123.06
243.998	114.06
244.232	116.06
244.465	120.06
244.699	131.06
244.932	137.06
245.166	132.06
245.399	128.06
245.633	130.06
245.866	130.06
246.099	128.06
246.333	148.06
246.566	138.06
246.8	144.06
247.033	127.06
247.266	139.06
247.5	140.06
247.733	151.06
247.966	137.06
248.2	149.06
248.433	160.06
248.666	151.06
248.899	160.06
249.133	176.06
249.366	187.06
249.599	178.06
249.832	154.06
250.066	143.06
250.299	158.06
250.532	151.06
250.765	164.06
250.998	198.06
251.231	198.06
251.465	195.06
251.698	185.06
251.931	179.06
252.164	168.06
252.397	188.06
252.63	168.06
252.863	176.06
253.096	181.06
253.329	202.06
253.562	190.06
253.795	199.06
254.028	204.06
254.261	200.06
254.494	200.06
254.727	201.06
254.96	237.06
255.193	222.06
255.426	195.06
255.659	187.06
255.892	191.06
256.124	193.06
256.357	172.06
256.59	191.06
256.823	188.06
257.056	191.06
257.289	177.06
257.521	188.06
257.754	168.06
257.987	170.06
258.22	164.06
258.452	169.06
258.685	206.06
258.918	167.06
259.151	170.06
259.383	189.06
259.616	183.06
259.849	189.06
260.081	189.06
260.314	194.06
260.547	201.06
260.779	211.06
261.012	195.06
261.244	182.06
261.477	183.06
261.71	172.06
261.942	163.06
262.175	196.06
262.407	192.06
262.64	182.06
262.872	171.06
263.105	186.06
263.337	183.06
263.57	166.06
263.802	171.06
264.035	168.06
264.267	180.06
264.499	179.06
264.732	151.06
264.964	149.06
265.197	157.06
265.429	165.06
265.661	172.06
265.894	154.06
266.126	156.06
266.358	155.06
266.591	156.06
266.823	179.06
267.055	168.06
267.287	186.06
267.52	180.06
267.752	176.06
267.984	175.06
268.216	178.06
268.448	182.06
268.681	186.06
268.913	182.06
269.145	201.06
269.377	199.06
269.609	207.06
269.841	207.06
270.073	227.06
270.306	227.06
270.538	247.06
270.77	238.06
271.002	235.06
271.234	232.06
271.466	221.06
271.698	232.06
271.93	234.06
272.162	254.06
272.394	243.06
272.626	260.06
272.858	232.06
273.09	244.06
273.322	200.06
273.553	205.06
273.785	206.06
274.017	204.06
274.249	200.06
274.481	183.06
274.713	198.06
274.945	211.06
275.176	194.06
275.408	197.06
275.64	198.06
275.872	184.06
276.104	206.06
276.335	200.06
276.567	208.06
276.799	211.06
277.031	222.06
277.262	220.06
277.494	242.06
277.726	237.06
277.957	229.06
278.189	213.06
278.421	213.06
278.652	206.06
278.884	191.06
279.115	194.06
279.347	211.06
279.579	211.06
279.81	206.06
280.042	201.06
280.273	182.06
280.505	192.06
280.736	203.06
280.968	199.06
281.199	198.06
281.431	186.06
281.662	207.06
281.894	202.06
282.125	195.06
282.356	226.06
282.588	230.06
282.819	231.06
283.051	189.06
283.282	206.06
283.513	197.06
283.745	196.06
283.976	187.06
284.207	195.06
284.439	212.06
284.67	190.06
284.901	197.06
285.132	189.06
285.364	198.06
285.595	194.06
285.826	195.06
286.057	207.06
286.288	197.06
286.52	195.06
286.751	199.06
286.982	200.06
287.213	215.06
287.444	209.06
287.675	218.06
287.906	202.06
288.138	205.06
288.369	207.06
288.6	219.06
288.831	210.06
289.062	210.06
289.293	214.06
289.524	202.06
289.755	219.06
289.986	190.06
290.217	204.06
290.448	205.06
290.679	218.06
290.91	208.06
291.141	218.06
291.371	187.06
291.602	199.06
291.833	201.06
292.064	194.06
292.295	195.06
292.526	187.06
292.757	198.06
292.987	212.06
293.218	196.06
293.449	202.06
293.68	200.06
293.91	202.06
294.141	219.06
294.372	213.06
294.603	202.06
294.833	203.06
295.064	214.06
295.295	196.06
295.525	197.06
295.756	225.06
295.987	230.06
296.217	238.06
296.448	237.06
296.679	213.06
296.909	209.06
297.14	216.06
297.37	206.06
297.601	204.06
297.831	198.06
298.062	204.06
298.292	212.06
298.523	206.06
298.753	227.06
298.984	227.06
299.214	202.06
299.445	207.06
299.675	211.06
299.905	200.06
300.136	218.06
300.366	223.06
300.597	211.06
300.827	218.06
301.057	223.06
301.288	230.06
301.518	222.06
301.748	230.06
301.979	237.06
302.209	222.06
302.439	228.06
302.669	228.06
302.9	211.06
303.13	227.06
303.36	232.06
303.59	221.06
303.82	235.06
304.051	244.06
304.281	231.06
304.511	224.06
304.741	213.06
304.971	224.06
305.201	227.06
305.431	208.06
305.661	226.06
305.891	214.06
306.121	233.06
306.352	242.06
306.582	217.06
306.812	223.06
307.042	219.06
307.272	222.06
307.502	221.06
307.731	223.06
307.961	224.06
308.191	237.06
308.421	243.06
308.651	217.06
308.881	233.06
309.111	255.06
309.341	240.06
309.571	232.06
309.8	248.06
310.03	271.06
310.26	263.06
310.49	272.06
310.72	256.06
310.949	280.06
311.179	298.06
311.409	284.06
311.639	283.06
311.868	286.06
312.098	260.06
312.328	276.06
312.557	280.06
312.787	308.06
313.017	298.06
313.246	287.06
313.476	278.06
313.706	255.06
313.935	292.06
314.165	290.06
314.394	290.06
314.624	294.06
314.853	275.06
315.083	267.06
315.312	277.06
315.542	271.06
315.771	260.06
316.001	277.06
316.23	262.06
316.46	268.06
316.689	259.06
316.919	263.06
317.148	271.06
317.377	291.06
317.607	269.06
317.836	268.06
318.065	274.06
318.295	271.06
318.524	260.06
318.753	266.06
318.983	258.06
319.212	259.06
319.441	263.06
319.67	277.06
319.9	294.06
320.129	263.06
320.358	286.06
320.587	283.06
320.816	273.06
321.046	299.06
321.275	302.06
321.504	294.06
321.733	299.06
321.962	286.06
322.191	309.06
322.42	296.06
322.649	318.06
322.878	331.06
323.108	337.06
323.337	386.06
323.566	358.06
323.795	403.06
324.024	446.06
324.253	564.06
324.482	780.06
324.71	1182.06
324.939	1626.06
325.168	1472.06
325.397	821.06
325.626	542.06
325.855	466.06
326.084	389.06
326.313	393.06
326.542	375.06
326.77	422.06
326.999	494.06
327.228	677.06
327.457	1006.06
327.686	1230.06
327.914	884.06
328.143	577.06
328.372	504.06
328.6	435.06
328.829	430.06
329.058	454.06
329.287	452.06
329.515	420.06
329.744	389.06
329.972	372.06
330.201	370.06
330.43	422.06
330.658	416.06
330.887	466.06
331.115	474.06
331.344	390.06
331.572	373.06
331.801	350.06
332.03	355.06
332.258	318.06
332.486	326.06
332.715	302.06
332.943	319.06
333.172	313.06
333.4	325.06
333.629	316.06
333.857	306.06
334.085	312.06
334.314	317.06
334.542	331.06
334.771	320.06
334.999	318.06
335.227	324.06
335.455	311.06
335.684	303.06
335.912	292.06
336.14	308.06
336.369	315.06
336.597	293.06
336.825	309.06
337.053	328.06
337.281	292.06
337.51	306.06
337.738	303.06
337.966	316.06
338.194	314.06
338.422	322.06
338.65	306.06
338.878	304.06
339.106	272.06
339.334	303.06
339.562	291.06
339.79	307.06
340.018	311.06
340.246	317.06
340.474	299.06
340.702	312.06
340.93	292.06
341.158	280.06
341.386	289.06
341.614	310.06
341.842	302.06
342.07	316.06
342.298	307.06
342.526	303.06
342.754	306.06
342.981	298.06
343.209	280.06
343.437	295.06
343.665	311.06
343.893	294.06
344.12	284.06
344.348	303.06
344.576	307.06
344.804	324.06
345.031	307.06
345.259	328.06
345.487	322.06
345.714	311.06
345.942	311.06
346.17	294.06
346.397	294.06
346.625	302.06
346.853	295.06
347.08	295.06
347.308	295.06
347.535	324.06
347.763	333.06
347.99	301.06
348.218	314.06
348.445	312.06
348.673	322.06
348.9	299.06
349.128	302.06
349.355	293.06
349.583	302.06
349.81	287.06
350.037	280.06
350.265	298.06
350.492	291.06
350.72	293.06
350.947	315.06
351.174	318.06
351.402	311.06
351.629	318.06
351.856	308.06
352.083	306.06
352.311	312.06
352.538	321.06
352.765	322.06
352.992	292.06
353.22	310.06
353.447	290.06
353.674	294.06
353.901	290.06
354.128	285.06
354.355	300.06
354.583	288.06
354.81	273.06
355.037	286.06
355.264	271.06
355.491	280.06
355.718	264.06
355.945	274.06
356.172	294.06
356.399	285.06
356.626	272.06
356.853	287.06
357.08	259.06
357.307	279.06
357.534	285.06
357.761	275.06
357.988	277.06
358.215	279.06
358.441	279.06
358.668	294.06
358.895	280.06
359.122	295.06
359.349	308.06
359.576	284.06
359.802	316.06
360.029	359.06
360.256	350.06
360.483	340.06
360.709	308.06
360.936	305.06
361.163	320.06
361.39	312.06
361.616	319.06
361.843	306.06
362.07	287.06
362.296	323.06
362.523	316.06
362.749	302.06
362.976	290.06
363.203	302.06
363.429	299.06
363.656	302.06
363.882	277.06
364.109	280.06
364.335	286.06
364.562	294.06
364.788	307.06
365.015	316.06
365.241	292.06
365.468	302.06
365.694	307.06
365.92	291.06
366.147	286.06
366.373	284.06
366.599	285.06
366.826	293.06
367.052	289.06
367.278	295.06
367.505	284.06
367.731	306.06
367.957	296.06
368.184	295.06
368.41	301.06
368.636	283.06
368.862	302.06
369.089	300.06
369.315	298.06
369.541	312.06
369.767	293.06
369.993	294.06
370.219	275.06
370.445	273.06
370.672	278.06
370.898	296.06
371.124	296.06
371.35	283.06
371.576	294.06
371.802	275.06
372.028	306.06
372.254	279.06
372.48	304.06
372.706	294.06
372.932	280.06
373.158	287.06
373.384	294.06
373.61	292.06
373.835	303.06
374.061	298.06
374.287	310.06
374.513	294.06
374.739	287.06
374.965	310.06
375.191	303.06
375.416	300.06
375.642	318.06
375.868	286.06
376.094	297.06
376.319	299.06
376.545	277.06
376.771	308.06
376.997	300.06
377.222	291.06
377.448	296.06
377.674	302.06
377.899	293.06
378.125	286.06
378.35	283.06
378.576	276.06
378.802	296.06
379.027	298.06
379.253	294.06
379.478	293.06
379.704	270.06
379.929	290.06
380.155	307.06
380.38	316.06
380.606	289.06
380.831	302.06
381.057	299.06
381.282	318.06
381.507	312.06
381.733	291.06
381.958	287.06
382.184	301.06
382.409	285.06
382.634	320.06
382.86	302.06
383.085	293.06
383.31	299.06
383.535	298.06
383.761	311.06
383.986	303.06
384.211	311.06
384.436	310.06
384.662	327.06
384.887	309.06
385.112	309.06
385.337	299.06
385.562	312.06
385.787	310.06
386.013	331.06
386.238	328.06
386.463	322.06
386.688	296.06
386.913	299.06
387.138	313.06
387.363	296.06
387.588	310.06
387.813	314.06
388.038	306.06
388.263	302.06
388.488	322.06
388.713	301.06
388.938	295.06
389.163	325.06
389.387	318.06
389.612	311.06
389.837	333.06
390.062	326.06
390.287	329.06
390.512	317.06
390.736	319.06
390.961	319.06
391.186	312.06
391.411	308.06
391.636	302.06
391.86	325.06
392.085	320.06
392.31	308.06
392.534	307.06
392.759	308.06
392.984	340.06
393.208	336.06
393.433	336.06
393.658	352.06
393.882	330.06
394.107	319.06
394.331	298.06
394.556	318.06
394.78	322.06
395.005	322.06
395.229	301.06
395.454	326.06
395.678	338.06
395.903	325.06
396.127	343.06
396.352	351.06
396.576	340.06
396.801	341.06
397.025	355.06
397.249	335.06
397.474	333.06
397.698	325.06
397.922	362.06
398.147	343.06
398.371	358.06
398.595	354.06
398.82	327.06
399.044	342.06
399.268	363.06
399.492	355.06
399.717	378.06
399.941	405.06
400.165	415.06
400.389	443.06
400.613	403.06
400.837	376.06
401.062	361.06
401.286	356.06
401.51	364.06
401.734	357.06
401.958	356.06
402.182	367.06
402.406	380.06
402.63	382.06
402.854	368.06
403.078	361.06
403.302	353.06
403.526	382.06
403.75	374.06
403.974	354.06
404.198	340.06
404.422	371.06
404.645	362.06
404.869	386.06
405.093	388.06
405.317	403.06
405.541	414.06
405.765	382.06
405.988	377.06
406.212	384.06
406.436	417.06
406.66	435.06
406.883	402.06
407.107	403.06
407.331	435.06
407.555	495.06
407.778	483.06
408.002	456.06
408.226	434.06
408.449	408.06
408.673	424.06
408.896	443.06
409.12	466.06
409.344	435.06
409.567	387.06
409.791	383.06
410.014	379.06
410.238	364.06
410.461	373.06
410.685	376.06
410.908	388.06
411.132	417.06
411.355	444.06
411.578	432.06
411.802	392.06
412.025	379.06
412.249	368.06
412.472	377.06
412.695	400.06
412.919	378.06
413.142	372.06
413.365	350.06
413.589	357.06
413.812	351.06
414.035	359.06
414.258	353.06
414.482	355.06
414.705	365.06
414.928	358.06
415.151	359.06
415.374	350.06
415.597	346.06
415.821	344.06
416.044	370.06
416.267	373.06
416.49	355.06
416.713	350.06
416.936	352.06
417.159	366.06
417.382	355.06
417.605	364.06
417.828	362.06
418.051	370.06
418.274	379.06
418.497	384.06
418.72	367.06
418.943	352.06
419.166	367.06
419.389	366.06
419.611	366.06
419.834	364.06
420.057	392.06
420.28	389.06
420.503	369.06
420.726	386.06
420.948	401.06
421.171	441.06
421.394	449.06
421.617	405.06
421.839	381.06
422.062	381.06
422.285	405.06
422.507	446.06
422.73	500.06
422.953	489.06
423.175	432.06
423.398	418.06
423.621	391.06
423.843	423.06
424.066	420.06
424.288	437.06
424.511	439.06
424.733	466.06
424.956	554.06
425.178	516.06
425.401	508.06
425.623	525.06
425.846	490.06
426.068	423.06
426.291	416.06
426.513	429.06
426.735	432.06
426.958	490.06
427.18	528.06
427.402	621.06
427.625	672.06
427.847	602.06
428.069	534.06
428.292	468.06
428.514	443.06
428.736	418.06
428.958	410.06
429.181	390.06
429.403	398.06
429.625	402.06
429.847	449.06
430.069	501.06
430.292	477.06
430.514	409.06
430.736	395.06
430.958	401.06
431.18	370.06
431.402	373.06
431.624	378.06
431.846	377.06
432.068	371.06
432.29	378.06
432.512	366.06
432.734	377.06
432.956	386.06
433.178	395.06
433.4	379.06
433.622	385.06
433.844	376.06
434.066	378.06
434.287	368.06
434.509	382.06
434.731	388.06
434.953	370.06
435.175	398.06
435.397	400.06
435.618	411.06
435.84	466.06
436.062	533.06
436.284	599.06
436.505	500.06
436.727	466.06
436.949	423.06
437.17	411.06
437.392	404.06
437.614	412.06
437.835	467.06
438.057	527.06
438.278	589.06
438.5	576.06
438.721	656.06
438.943	624.06
439.165	532.06
439.386	480.06
439.608	461.06
439.829	452.06
440.05	458.06
440.272	490.06
440.493	469.06
440.715	452.06
440.936	426.06
441.158	407.06
441.379	411.06
441.6	427.06
441.822	416.06
442.043	469.06
442.264	543.06
442.486	564.06
442.707	472.06
442.928	464.06
443.149	450.06
443.371	458.06
443.592	499.06
443.813	558.06
444.034	607.06
444.255	527.06
444.476	467.06
444.698	438.06
444.919	429.06
445.14	533.06
445.361	488.06
445.582	453.06
445.803	500.06
446.024	591.06
446.245	597.06
446.466	548.06
446.687	498.06
446.908	447.06
447.129	442.06
447.35	414.06
447.571	420.06
447.792	414.06
448.013	425.06
448.234	435.06
448.455	474.06
448.675	547.06
448.896	630.06
449.117	574.06
449.338	536.06
449.559	608.06
449.779	647.06
450	534.06
450.221	458.06
450.442	429.06
450.662	448.06
450.883	420.06
451.104	440.06
451.324	420.06
451.545	412.06
451.766	398.06
451.986	365.06
452.207	372.06
452.428	363.06
452.648	357.06
452.869	375.06
453.089	350.06
453.31	394.06
453.53	377.06
453.751	357.06
453.971	367.06
454.192	396.06
454.412	382.06
454.633	375.06
454.853	355.06
455.073	370.06
455.294	378.06
455.514	461.06
455.734	446.06
455.955	380.06
456.175	347.06
456.395	355.06
456.616	331.06
456.836	329.06
457.056	353.06
457.276	349.06
457.497	347.06
457.717	345.06
457.937	354.06
458.157	356.06
458.377	376.06
458.598	374.06
458.818	433.06
459.038	474.06
459.258	510.06
459.478	396.06
459.698	388.06
459.918	395.06
460.138	395.06
460.358	364.06
460.578	370.06
460.798	363.06
461.018	351.06
461.238	375.06
461.458	367.06
461.678	365.06
461.898	393.06
462.118	354.06
462.338	380.06
462.558	377.06
462.777	376.06
462.997	385.06
463.217	369.06
463.437	384.06
463.657	386.06
463.876	379.06
464.096	404.06
464.316	378.06
464.536	379.06
464.755	391.06
464.975	403.06
465.195	436.06
465.414	491.06
465.634	454.06
465.854	418.06
466.073	408.06
466.293	381.06
466.512	383.06
466.732	375.06
466.951	363.06
467.171	362.06
467.391	358.06
467.61	373.06
467.829	385.06
468.049	373.06
468.268	358.06
468.488	348.06
468.707	355.06
468.927	345.06
469.146	343.06
469.365	360.06
469.585	352.06
469.804	373.06
470.023	376.06
470.243	379.06
470.462	374.06
470.681	399.06
470.901	380.06
471.12	388.06
471.339	371.06
471.558	361.06
471.777	374.06
471.997	364.06
472.216	370.06
472.435	356.06
472.654	372.06
472.873	365.06
473.092	361.06
473.311	359.06
473.53	361.06
473.749	401.06
473.968	418.06
474.187	493.06
474.406	516.06
474.625	440.06
474.844	405.06
475.063	397.06
475.282	367.06
475.501	361.06
475.72	389.06
475.939	366.06
476.158	382.06
476.377	402.06
476.596	402.06
476.814	396.06
477.033	390.06
477.252	415.06
477.471	390.06
477.69	402.06
477.908	397.06
478.127	408.06
478.346	405.06
478.564	391.06
478.783	423.06
479.002	412.06
479.22	399.06
479.439	424.06
479.658	452.06
479.876	467.06
480.095	460.06
480.313	483.06
480.532	437.06
480.751	442.06
480.969	448.06
481.188	461.06
481.406	473.06
481.624	452.06
481.843	441.06
482.061	446.06
482.28	447.06
482.498	431.06
482.717	442.06
482.935	438.06
483.153	434.06
483.372	447.06
483.59	436.06
483.808	446.06
484.027	450.06
484.245	432.06
484.463	452.06
484.681	457.06
484.9	462.06
485.118	463.06
485.336	465.06
485.554	452.06
485.772	449.06
485.99	454.06
486.209	459.06
486.427	460.06
486.645	453.06
486.863	488.06
487.081	491.06
487.299	479.06
487.517	468.06
487.735	450.06
487.953	481.06
488.171	491.06
488.389	489.06
488.607	484.06
488.825	488.06
489.043	482.06
489.261	470.06
489.479	491.06
489.696	502.06
489.914	499.06
490.132	502.06
490.35	507.06
490.568	500.06
490.786	498.06
491.003	491.06
491.221	518.06
491.439	540.06
491.657	546.06
491.874	558.06
492.092	525.06
492.31	546.06
492.527	558.06
492.745	537.06
492.963	554.06
493.18	551.06
493.398	572.06
493.615	546.06
493.833	555.06
494.05	542.06
494.268	570.06
494.485	564.06
494.703	577.06
494.92	559.06
495.138	572.06
495.355	582.06
495.573	566.06
495.79	579.06
496.008	581.06
496.225	536.06
496.442	591.06
496.66	567.06
496.877	579.06
497.094	585.06
497.312	581.06
497.529	614.06
497.746	597.06
497.963	597.06
498.181	626.06
498.398	608.06
498.615	609.06
498.832	633.06
499.049	596.06
499.267	641.06
499.484	657.06
499.701	668.06
499.918	652.06
500.135	672.06
500.352	696.06
500.569	700.06
500.786	702.06
501.003	709.06
501.22	713.06
501.437	670.06
501.654	670.06
501.871	701.06
502.088	680.06
