Data from 1987.PennyLincolnUp.Lamp.En5.5.200Scan.071819.P2_HRD10591_17-15-38-971.txt Node
Date: Thu Jul 18 17:15:38 EDT 2019
User: cochatt
Spectrometer: HR+D1059
Trigger mode: 1
Integration Time (sec): 1.000000E-1
Scans to average: 1
Electric dark correction enabled: true
Nonlinearity correction enabled: false
Boxcar width: 0
XAxis mode: Wavelengths
Number of Pixels in Spectrum: 2048
>>>>>Begin Spectral Data<<<<<
223.165	-16.06
223.4	-16.06
223.635	-16.06
223.869	-14.06
224.104	-18.06
224.338	-13.06
224.573	-14.06
224.808	-18.06
225.042	-2.06
225.277	-5.06
225.511	3.94
225.746	9.94
225.98	5.94
226.215	-0.06
226.449	15.94
226.683	21.94
226.918	18.94
227.152	23.94
227.387	31.94
227.621	28.94
227.856	32.94
228.09	52.94
228.324	65.94
228.559	61.94
228.793	75.94
229.027	108.94
229.262	121.94
229.496	114.94
229.73	143.94
229.964	175.94
230.199	122.94
230.433	118.94
230.667	130.94
230.901	118.94
231.136	119.94
231.37	125.94
231.604	110.94
231.838	116.94
232.072	124.94
232.306	113.94
232.541	117.94
232.775	111.94
233.009	112.94
233.243	125.94
233.477	133.94
233.711	118.94
233.945	119.94
234.179	111.94
234.413	110.94
234.647	117.94
234.881	128.94
235.115	104.94
235.349	111.94
235.583	130.94
235.817	128.94
236.051	126.94
236.285	118.94
236.519	135.94
236.753	133.94
236.987	162.94
237.221	191.94
237.455	261.94
237.689	205.94
237.922	145.94
238.156	155.94
238.39	152.94
238.624	138.94
238.858	135.94
239.091	118.94
239.325	123.94
239.559	120.94
239.793	137.94
240.027	155.94
240.26	138.94
240.494	174.94
240.728	158.94
240.961	150.94
241.195	134.94
241.429	125.94
241.662	135.94
241.896	132.94
242.13	122.94
242.363	137.94
242.597	143.94
242.83	126.94
243.064	145.94
243.298	137.94
243.531	129.94
243.765	121.94
243.998	135.94
244.232	131.94
244.465	141.94
244.699	141.94
244.932	130.94
245.166	132.94
245.399	128.94
245.633	155.94
245.866	137.94
246.099	137.94
246.333	145.94
246.566	136.94
246.8	147.94
247.033	146.94
247.266	146.94
247.5	165.94
247.733	154.94
247.966	173.94
248.2	171.94
248.433	172.94
248.666	186.94
248.899	171.94
249.133	189.94
249.366	204.94
249.599	198.94
249.832	196.94
250.066	168.94
250.299	179.94
250.532	182.94
250.765	193.94
250.998	223.94
251.231	217.94
251.465	203.94
251.698	202.94
251.931	185.94
252.164	186.94
252.397	188.94
252.63	217.94
252.863	202.94
253.096	215.94
253.329	239.94
253.562	217.94
253.795	209.94
254.028	200.94
254.261	209.94
254.494	234.94
254.727	246.94
254.96	300.94
255.193	286.94
255.426	275.94
255.659	233.94
255.892	223.94
256.124	238.94
256.357	223.94
256.59	204.94
256.823	203.94
257.056	194.94
257.289	205.94
257.521	202.94
257.754	207.94
257.987	199.94
258.22	188.94
258.452	188.94
258.685	200.94
258.918	192.94
259.151	192.94
259.383	208.94
259.616	201.94
259.849	213.94
260.081	217.94
260.314	232.94
260.547	261.94
260.779	235.94
261.012	228.94
261.244	224.94
261.477	216.94
261.71	222.94
261.942	216.94
262.175	237.94
262.407	252.94
262.64	212.94
262.872	230.94
263.105	204.94
263.337	213.94
263.57	205.94
263.802	197.94
264.035	201.94
264.267	201.94
264.499	194.94
264.732	206.94
264.964	182.94
265.197	189.94
265.429	191.94
265.661	199.94
265.894	182.94
266.126	183.94
266.358	182.94
266.591	199.94
266.823	196.94
267.055	190.94
267.287	219.94
267.52	197.94
267.752	194.94
267.984	207.94
268.216	206.94
268.448	196.94
268.681	206.94
268.913	225.94
269.145	237.94
269.377	252.94
269.609	246.94
269.841	247.94
270.073	270.94
270.306	264.94
270.538	307.94
270.77	312.94
271.002	313.94
271.234	291.94
271.466	283.94
271.698	299.94
271.93	303.94
272.162	311.94
272.394	309.94
272.626	305.94
272.858	296.94
273.09	249.94
273.322	272.94
273.553	246.94
273.785	245.94
274.017	226.94
274.249	243.94
274.481	234.94
274.713	251.94
274.945	257.94
275.176	249.94
275.408	224.94
275.64	236.94
275.872	257.94
276.104	223.94
276.335	235.94
276.567	263.94
276.799	258.94
277.031	307.94
277.262	293.94
277.494	309.94
277.726	269.94
277.957	264.94
278.189	231.94
278.421	245.94
278.652	253.94
278.884	243.94
279.115	220.94
279.347	227.94
279.579	241.94
279.81	214.94
280.042	231.94
280.273	224.94
280.505	217.94
280.736	226.94
280.968	233.94
281.199	208.94
281.431	226.94
281.662	228.94
281.894	227.94
282.125	240.94
282.356	254.94
282.588	288.94
282.819	293.94
283.051	238.94
283.282	230.94
283.513	227.94
283.745	231.94
283.976	224.94
284.207	226.94
284.439	220.94
284.67	224.94
284.901	230.94
285.132	238.94
285.364	222.94
285.595	227.94
285.826	241.94
286.057	216.94
286.288	229.94
286.52	233.94
286.751	257.94
286.982	235.94
287.213	231.94
287.444	234.94
287.675	255.94
287.906	248.94
288.138	238.94
288.369	250.94
288.6	275.94
288.831	272.94
289.062	245.94
289.293	261.94
289.524	238.94
289.755	235.94
289.986	228.94
290.217	225.94
290.448	238.94
290.679	242.94
290.91	230.94
291.141	227.94
291.371	238.94
291.602	224.94
291.833	229.94
292.064	241.94
292.295	233.94
292.526	241.94
292.757	243.94
292.987	231.94
293.218	242.94
293.449	241.94
293.68	228.94
293.91	243.94
294.141	240.94
294.372	215.94
294.603	236.94
294.833	248.94
295.064	243.94
295.295	211.94
295.525	247.94
295.756	250.94
295.987	268.94
296.217	292.94
296.448	309.94
296.679	253.94
296.909	250.94
297.14	239.94
297.37	251.94
297.601	241.94
297.831	235.94
298.062	249.94
298.292	251.94
298.523	240.94
298.753	235.94
298.984	249.94
299.214	238.94
299.445	261.94
299.675	265.94
299.905	276.94
300.136	267.94
300.366	272.94
300.597	247.94
300.827	277.94
301.057	270.94
301.288	278.94
301.518	280.94
301.748	283.94
301.979	278.94
302.209	255.94
302.439	269.94
302.669	277.94
302.9	261.94
303.13	261.94
303.36	275.94
303.59	280.94
303.82	278.94
304.051	288.94
304.281	264.94
304.511	265.94
304.741	276.94
304.971	271.94
305.201	263.94
305.431	271.94
305.661	271.94
305.891	274.94
306.121	264.94
306.352	277.94
306.582	286.94
306.812	276.94
307.042	276.94
307.272	274.94
307.502	261.94
307.731	267.94
307.961	285.94
308.191	261.94
308.421	285.94
308.651	275.94
308.881	279.94
309.111	294.94
309.341	302.94
309.571	310.94
309.8	329.94
310.03	330.94
310.26	346.94
310.49	340.94
310.72	355.94
310.949	392.94
311.179	382.94
311.409	343.94
311.639	327.94
311.868	339.94
312.098	360.94
312.328	357.94
312.557	373.94
312.787	389.94
313.017	405.94
313.246	345.94
313.476	336.94
313.706	338.94
313.935	335.94
314.165	363.94
314.394	395.94
314.624	361.94
314.853	352.94
315.083	343.94
315.312	337.94
315.542	329.94
315.771	312.94
316.001	317.94
316.23	327.94
316.46	310.94
316.689	322.94
316.919	330.94
317.148	360.94
317.377	350.94
317.607	353.94
317.836	345.94
318.065	344.94
318.295	320.94
318.524	322.94
318.753	331.94
318.983	320.94
319.212	334.94
319.441	338.94
319.67	341.94
319.9	345.94
320.129	340.94
320.358	335.94
320.587	342.94
320.816	342.94
321.046	340.94
321.275	368.94
321.504	356.94
321.733	394.94
321.962	377.94
322.191	386.94
322.42	419.94
322.649	418.94
322.878	431.94
323.108	441.94
323.337	501.94
323.566	523.94
323.795	577.94
324.024	654.94
324.253	839.94
324.482	1200.94
324.71	1845.94
324.939	2573.94
325.168	2268.94
325.397	1228.94
325.626	785.94
325.855	615.94
326.084	557.94
326.313	537.94
326.542	547.94
326.77	624.94
326.999	737.94
327.228	1032.94
327.457	1583.94
327.686	1915.94
327.914	1365.94
328.143	887.94
328.372	734.94
328.6	650.94
328.829	649.94
329.058	644.94
329.287	652.94
329.515	593.94
329.744	509.94
329.972	497.94
330.201	503.94
330.43	545.94
330.658	605.94
330.887	688.94
331.115	654.94
331.344	549.94
331.572	492.94
331.801	490.94
332.03	480.94
332.258	446.94
332.486	410.94
332.715	387.94
332.943	384.94
333.172	393.94
333.4	394.94
333.629	382.94
333.857	396.94
334.085	393.94
334.314	384.94
334.542	393.94
334.771	383.94
334.999	399.94
335.227	404.94
335.455	368.94
335.684	377.94
335.912	368.94
336.14	377.94
336.369	373.94
336.597	382.94
336.825	393.94
337.053	348.94
337.281	365.94
337.51	359.94
337.738	367.94
337.966	367.94
338.194	382.94
338.422	399.94
338.65	371.94
338.878	362.94
339.106	343.94
339.334	381.94
339.562	359.94
339.79	373.94
340.018	373.94
340.246	367.94
340.474	368.94
340.702	365.94
340.93	374.94
341.158	348.94
341.386	368.94
341.614	376.94
341.842	382.94
342.07	370.94
342.298	369.94
342.526	338.94
342.754	350.94
342.981	335.94
343.209	373.94
343.437	358.94
343.665	347.94
343.893	357.94
344.12	352.94
344.348	357.94
344.576	366.94
344.804	381.94
345.031	383.94
345.259	401.94
345.487	394.94
345.714	388.94
345.942	367.94
346.17	354.94
346.397	356.94
346.625	373.94
346.853	370.94
347.08	349.94
347.308	385.94
347.535	399.94
347.763	404.94
347.99	390.94
348.218	384.94
348.445	394.94
348.673	396.94
348.9	359.94
349.128	369.94
349.355	351.94
349.583	351.94
349.81	374.94
350.037	349.94
350.265	343.94
350.492	358.94
350.72	349.94
350.947	355.94
351.174	395.94
351.402	385.94
351.629	402.94
351.856	397.94
352.083	402.94
352.311	414.94
352.538	401.94
352.765	403.94
352.992	384.94
353.22	382.94
353.447	368.94
353.674	372.94
353.901	341.94
354.128	329.94
354.355	339.94
354.583	333.94
354.81	358.94
355.037	324.94
355.264	315.94
355.491	321.94
355.718	322.94
355.945	327.94
356.172	323.94
356.399	318.94
356.626	321.94
356.853	327.94
357.08	302.94
357.307	321.94
357.534	315.94
357.761	302.94
357.988	325.94
358.215	307.94
358.441	323.94
358.668	327.94
358.895	355.94
359.122	337.94
359.349	351.94
359.576	401.94
359.802	409.94
360.029	450.94
360.256	463.94
360.483	453.94
360.709	411.94
360.936	385.94
361.163	381.94
361.39	386.94
361.616	389.94
361.843	355.94
362.07	375.94
362.296	375.94
362.523	377.94
362.749	381.94
362.976	358.94
363.203	366.94
363.429	339.94
363.656	375.94
363.882	349.94
364.109	356.94
364.335	358.94
364.562	348.94
364.788	329.94
365.015	356.94
365.241	341.94
365.468	355.94
365.694	372.94
365.92	353.94
366.147	333.94
366.373	337.94
366.599	350.94
366.826	335.94
367.052	332.94
367.278	332.94
367.505	324.94
367.731	334.94
367.957	336.94
368.184	338.94
368.41	358.94
368.636	358.94
368.862	363.94
369.089	349.94
369.315	346.94
369.541	338.94
369.767	335.94
369.993	347.94
370.219	336.94
370.445	327.94
370.672	341.94
370.898	332.94
371.124	334.94
371.35	328.94
371.576	324.94
371.802	342.94
372.028	308.94
372.254	317.94
372.48	320.94
372.706	313.94
372.932	327.94
373.158	326.94
373.384	324.94
373.61	321.94
373.835	323.94
374.061	333.94
374.287	350.94
374.513	330.94
374.739	319.94
374.965	337.94
375.191	319.94
375.416	324.94
375.642	325.94
375.868	310.94
376.094	330.94
376.319	329.94
376.545	323.94
376.771	329.94
376.997	327.94
377.222	326.94
377.448	320.94
377.674	335.94
377.899	327.94
378.125	339.94
378.35	341.94
378.576	311.94
378.802	320.94
379.027	322.94
379.253	318.94
379.478	312.94
379.704	323.94
379.929	333.94
380.155	325.94
380.38	345.94
380.606	326.94
380.831	327.94
381.057	335.94
381.282	305.94
381.507	345.94
381.733	341.94
381.958	331.94
382.184	335.94
382.409	335.94
382.634	350.94
382.86	336.94
383.085	341.94
383.31	342.94
383.535	333.94
383.761	336.94
383.986	339.94
384.211	334.94
384.436	336.94
384.662	342.94
384.887	334.94
385.112	330.94
385.337	324.94
385.562	337.94
385.787	351.94
386.013	364.94
386.238	377.94
386.463	349.94
386.688	335.94
386.913	352.94
387.138	350.94
387.363	344.94
387.588	335.94
387.813	334.94
388.038	354.94
388.263	348.94
388.488	343.94
388.713	343.94
388.938	339.94
389.163	354.94
389.387	368.94
389.612	354.94
389.837	329.94
390.062	345.94
390.287	333.94
390.512	335.94
390.736	343.94
390.961	333.94
391.186	325.94
391.411	350.94
391.636	334.94
391.86	336.94
392.085	329.94
392.31	350.94
392.534	357.94
392.759	352.94
392.984	344.94
393.208	343.94
393.433	349.94
393.658	341.94
393.882	345.94
394.107	340.94
394.331	349.94
394.556	337.94
394.78	352.94
395.005	347.94
395.229	337.94
395.454	342.94
395.678	349.94
395.903	373.94
396.127	378.94
396.352	370.94
396.576	374.94
396.801	375.94
397.025	374.94
397.249	379.94
397.474	360.94
397.698	352.94
397.922	378.94
398.147	390.94
398.371	393.94
398.595	382.94
398.82	377.94
399.044	368.94
399.268	389.94
399.492	395.94
399.717	398.94
399.941	408.94
400.165	451.94
400.389	499.94
400.613	456.94
400.837	415.94
401.062	424.94
401.286	388.94
401.51	391.94
401.734	399.94
401.958	411.94
402.182	407.94
402.406	400.94
402.63	413.94
402.854	405.94
403.078	402.94
403.302	401.94
403.526	409.94
403.75	443.94
403.974	415.94
404.198	402.94
404.422	403.94
404.645	412.94
404.869	415.94
405.093	443.94
405.317	455.94
405.541	486.94
405.765	453.94
405.988	430.94
406.212	461.94
406.436	479.94
406.66	498.94
406.883	465.94
407.107	496.94
407.331	517.94
407.555	585.94
407.778	588.94
408.002	527.94
408.226	484.94
408.449	447.94
408.673	468.94
408.896	512.94
409.12	539.94
409.344	510.94
409.567	445.94
409.791	437.94
410.014	426.94
410.238	429.94
410.461	418.94
410.685	433.94
410.908	465.94
411.132	476.94
411.355	527.94
411.578	493.94
411.802	452.94
412.025	424.94
412.249	424.94
412.472	440.94
412.695	421.94
412.919	426.94
413.142	429.94
413.365	410.94
413.589	395.94
413.812	407.94
414.035	387.94
414.258	390.94
414.482	388.94
414.705	379.94
414.928	383.94
415.151	384.94
415.374	370.94
415.597	389.94
415.821	385.94
416.044	380.94
416.267	394.94
416.49	397.94
416.713	396.94
416.936	407.94
417.159	399.94
417.382	416.94
417.605	427.94
417.828	413.94
418.051	425.94
418.274	427.94
418.497	414.94
418.72	408.94
418.943	406.94
419.166	388.94
419.389	437.94
419.611	424.94
419.834	415.94
420.057	427.94
420.28	433.94
420.503	421.94
420.726	441.94
420.948	438.94
421.171	490.94
421.394	518.94
421.617	471.94
421.839	432.94
422.062	429.94
422.285	455.94
422.507	519.94
422.73	589.94
422.953	562.94
423.175	488.94
423.398	461.94
423.621	470.94
423.843	466.94
424.066	494.94
424.288	482.94
424.511	503.94
424.733	565.94
424.956	640.94
425.178	618.94
425.401	605.94
425.623	623.94
425.846	569.94
426.068	523.94
426.291	507.94
426.513	495.94
426.735	516.94
426.958	558.94
427.18	640.94
427.402	762.94
427.625	834.94
427.847	781.94
428.069	649.94
428.292	573.94
428.514	505.94
428.736	501.94
428.958	485.94
429.181	473.94
429.403	461.94
429.625	479.94
429.847	503.94
430.069	569.94
430.292	558.94
430.514	485.94
430.736	441.94
430.958	454.94
431.18	442.94
431.402	437.94
431.624	414.94
431.846	422.94
432.068	415.94
432.29	422.94
432.512	443.94
432.734	435.94
432.956	429.94
433.178	437.94
433.4	433.94
433.622	452.94
433.844	429.94
434.066	416.94
434.287	401.94
434.509	412.94
434.731	429.94
434.953	463.94
435.175	464.94
435.397	482.94
435.618	512.94
435.84	558.94
436.062	629.94
436.284	685.94
436.505	579.94
436.727	527.94
436.949	504.94
437.17	470.94
437.392	467.94
437.614	499.94
437.835	537.94
438.057	645.94
438.278	717.94
438.5	742.94
438.721	754.94
438.943	749.94
439.165	603.94
439.386	545.94
439.608	536.94
439.829	530.94
440.05	571.94
440.272	584.94
440.493	580.94
440.715	528.94
440.936	473.94
441.158	467.94
441.379	475.94
441.6	504.94
441.822	510.94
442.043	553.94
442.264	620.94
442.486	657.94
442.707	565.94
442.928	535.94
443.149	534.94
443.371	551.94
443.592	596.94
443.813	662.94
444.034	699.94
444.255	614.94
444.476	539.94
444.698	501.94
444.919	477.94
445.14	633.94
445.361	586.94
445.582	571.94
445.803	627.94
446.024	696.94
446.245	737.94
446.466	659.94
446.687	590.94
446.908	513.94
447.129	470.94
447.35	503.94
447.571	473.94
447.792	465.94
448.013	490.94
448.234	509.94
448.455	557.94
448.675	646.94
448.896	732.94
449.117	670.94
449.338	646.94
449.559	722.94
449.779	789.94
450	677.94
450.221	554.94
450.442	471.94
450.662	483.94
450.883	501.94
451.104	555.94
451.324	502.94
451.545	474.94
451.766	470.94
451.986	431.94
452.207	444.94
452.428	423.94
452.648	445.94
452.869	423.94
453.089	441.94
453.31	476.94
453.53	445.94
453.751	431.94
453.971	425.94
454.192	469.94
454.412	453.94
454.633	451.94
454.853	444.94
455.073	436.94
455.294	457.94
455.514	533.94
455.734	501.94
455.955	444.94
456.175	410.94
456.395	383.94
456.616	377.94
456.836	401.94
457.056	384.94
457.276	385.94
457.497	381.94
457.717	382.94
457.937	401.94
458.157	413.94
458.377	412.94
458.598	445.94
458.818	537.94
459.038	637.94
459.258	630.94
459.478	532.94
459.698	478.94
459.918	422.94
460.138	415.94
460.358	442.94
460.578	429.94
460.798	426.94
461.018	425.94
461.238	411.94
461.458	409.94
461.678	389.94
461.898	414.94
462.118	413.94
462.338	419.94
462.558	416.94
462.777	421.94
462.997	410.94
463.217	411.94
463.437	434.94
463.657	428.94
463.876	428.94
464.096	427.94
464.316	432.94
464.536	434.94
464.755	434.94
464.975	483.94
465.195	539.94
465.414	674.94
465.634	573.94
465.854	527.94
466.073	460.94
466.293	458.94
466.512	422.94
466.732	417.94
466.951	416.94
467.171	419.94
467.391	427.94
467.61	423.94
467.829	442.94
468.049	436.94
468.268	429.94
468.488	419.94
468.707	418.94
468.927	404.94
469.146	394.94
469.365	422.94
469.585	429.94
469.804	417.94
470.023	456.94
470.243	409.94
470.462	440.94
470.681	469.94
470.901	476.94
471.12	429.94
471.339	434.94
471.558	414.94
471.777	426.94
471.997	394.94
472.216	425.94
472.435	397.94
472.654	422.94
472.873	407.94
473.092	417.94
473.311	439.94
473.53	407.94
473.749	423.94
473.968	475.94
474.187	591.94
474.406	649.94
474.625	505.94
474.844	452.94
475.063	414.94
475.282	424.94
475.501	439.94
475.72	442.94
475.939	439.94
476.158	441.94
476.377	423.94
476.596	420.94
476.814	448.94
477.033	461.94
477.252	453.94
477.471	435.94
477.69	434.94
477.908	456.94
478.127	463.94
478.346	448.94
478.564	464.94
478.783	438.94
479.002	461.94
479.22	461.94
479.439	486.94
479.658	539.94
479.876	519.94
480.095	522.94
480.313	564.94
480.532	517.94
480.751	519.94
480.969	501.94
481.188	526.94
481.406	525.94
481.624	509.94
481.843	500.94
482.061	505.94
482.28	520.94
482.498	507.94
482.717	490.94
482.935	503.94
483.153	494.94
483.372	493.94
483.59	504.94
483.808	490.94
484.027	493.94
484.245	514.94
484.463	500.94
484.681	508.94
484.9	497.94
485.118	529.94
485.336	529.94
485.554	499.94
485.772	537.94
485.99	519.94
486.209	517.94
486.427	532.94
486.645	534.94
486.863	588.94
487.081	565.94
487.299	557.94
487.517	557.94
487.735	546.94
487.953	524.94
488.171	553.94
488.389	530.94
488.607	563.94
488.825	554.94
489.043	549.94
489.261	575.94
489.479	554.94
489.696	581.94
489.914	569.94
490.132	584.94
490.35	554.94
490.568	561.94
490.786	575.94
491.003	590.94
491.221	605.94
491.439	610.94
491.657	630.94
491.874	618.94
492.092	624.94
492.31	638.94
492.527	651.94
492.745	614.94
492.963	637.94
493.18	648.94
493.398	665.94
493.615	636.94
493.833	655.94
494.05	652.94
494.268	649.94
494.485	655.94
494.703	643.94
494.92	659.94
495.138	677.94
495.355	665.94
495.573	672.94
495.79	667.94
496.008	649.94
496.225	650.94
496.442	651.94
496.66	650.94
496.877	637.94
497.094	645.94
497.312	672.94
497.529	679.94
497.746	668.94
497.963	670.94
498.181	689.94
498.398	701.94
498.615	707.94
498.832	689.94
499.049	725.94
499.267	714.94
499.484	694.94
499.701	746.94
499.918	723.94
500.135	762.94
500.352	803.94
500.569	747.94
500.786	759.94
501.003	790.94
501.22	785.94
501.437	768.94
501.654	746.94
501.871	776.94
