Data from 1987.PennyLincolnUp.Lamp.En5.5.200Scan.071819.P2_HRD10591_17-16-08-976.txt Node
Date: Thu Jul 18 17:16:08 EDT 2019
User: cochatt
Spectrometer: HR+D1059
Trigger mode: 1
Integration Time (sec): 1.000000E-1
Scans to average: 1
Electric dark correction enabled: true
Nonlinearity correction enabled: false
Boxcar width: 0
XAxis mode: Wavelengths
Number of Pixels in Spectrum: 2048
>>>>>Begin Spectral Data<<<<<
223.165	-17.38
223.4	-17.38
223.635	-17.38
223.869	0.62
224.104	-17.38
224.338	-15.38
224.573	-21.38
224.808	-9.38
225.042	-8.38
225.277	-3.38
225.511	4.62
225.746	1.62
225.98	0.62
226.215	11.62
226.449	7.62
226.683	21.62
226.918	15.62
227.152	28.62
227.387	37.62
227.621	26.62
227.856	37.62
228.09	38.62
228.324	60.62
228.559	45.62
228.793	74.62
229.027	109.62
229.262	108.62
229.496	130.62
229.73	162.62
229.964	172.62
230.199	132.62
230.433	147.62
230.667	116.62
230.901	117.62
231.136	96.62
231.37	127.62
231.604	118.62
231.838	126.62
232.072	116.62
232.306	112.62
232.541	114.62
232.775	115.62
233.009	112.62
233.243	103.62
233.477	98.62
233.711	116.62
233.945	115.62
234.179	115.62
234.413	109.62
234.647	118.62
234.881	108.62
235.115	121.62
235.349	114.62
235.583	120.62
235.817	117.62
236.051	120.62
236.285	129.62
236.519	126.62
236.753	142.62
236.987	154.62
237.221	198.62
237.455	256.62
237.689	216.62
237.922	146.62
238.156	138.62
238.39	134.62
238.624	116.62
238.858	124.62
239.091	122.62
239.325	128.62
239.559	110.62
239.793	124.62
240.027	123.62
240.26	140.62
240.494	164.62
240.728	156.62
240.961	157.62
241.195	157.62
241.429	135.62
241.662	147.62
241.896	142.62
242.13	116.62
242.363	124.62
242.597	138.62
242.83	139.62
243.064	144.62
243.298	134.62
243.531	141.62
243.765	133.62
243.998	129.62
244.232	133.62
244.465	132.62
244.699	153.62
244.932	144.62
245.166	136.62
245.399	136.62
245.633	138.62
245.866	138.62
246.099	139.62
246.333	127.62
246.566	141.62
246.8	128.62
247.033	132.62
247.266	148.62
247.5	159.62
247.733	168.62
247.966	167.62
248.2	178.62
248.433	180.62
248.666	178.62
248.899	172.62
249.133	191.62
249.366	215.62
249.599	188.62
249.832	188.62
250.066	177.62
250.299	180.62
250.532	186.62
250.765	187.62
250.998	214.62
251.231	231.62
251.465	221.62
251.698	200.62
251.931	190.62
252.164	192.62
252.397	197.62
252.63	190.62
252.863	192.62
253.096	210.62
253.329	224.62
253.562	241.62
253.795	214.62
254.028	219.62
254.261	217.62
254.494	247.62
254.727	272.62
254.96	286.62
255.193	292.62
255.426	243.62
255.659	228.62
255.892	222.62
256.124	221.62
256.357	206.62
256.59	217.62
256.823	193.62
257.056	189.62
257.289	198.62
257.521	188.62
257.754	197.62
257.987	198.62
258.22	188.62
258.452	200.62
258.685	202.62
258.918	201.62
259.151	208.62
259.383	217.62
259.616	207.62
259.849	214.62
260.081	220.62
260.314	253.62
260.547	239.62
260.779	237.62
261.012	239.62
261.244	220.62
261.477	215.62
261.71	202.62
261.942	238.62
262.175	237.62
262.407	234.62
262.64	212.62
262.872	187.62
263.105	216.62
263.337	197.62
263.57	194.62
263.802	195.62
264.035	195.62
264.267	200.62
264.499	199.62
264.732	187.62
264.964	203.62
265.197	197.62
265.429	196.62
265.661	186.62
265.894	196.62
266.126	195.62
266.358	197.62
266.591	205.62
266.823	210.62
267.055	224.62
267.287	214.62
267.52	231.62
267.752	206.62
267.984	201.62
268.216	211.62
268.448	216.62
268.681	210.62
268.913	205.62
269.145	258.62
269.377	245.62
269.609	254.62
269.841	249.62
270.073	257.62
270.306	284.62
270.538	293.62
270.77	314.62
271.002	310.62
271.234	299.62
271.466	285.62
271.698	311.62
271.93	306.62
272.162	330.62
272.394	312.62
272.626	311.62
272.858	286.62
273.09	277.62
273.322	267.62
273.553	254.62
273.785	256.62
274.017	244.62
274.249	236.62
274.481	257.62
274.713	248.62
274.945	246.62
275.176	225.62
275.408	235.62
275.64	256.62
275.872	249.62
276.104	235.62
276.335	219.62
276.567	260.62
276.799	264.62
277.031	279.62
277.262	290.62
277.494	295.62
277.726	284.62
277.957	285.62
278.189	257.62
278.421	254.62
278.652	231.62
278.884	237.62
279.115	239.62
279.347	227.62
279.579	235.62
279.81	232.62
280.042	235.62
280.273	247.62
280.505	224.62
280.736	220.62
280.968	212.62
281.199	233.62
281.431	213.62
281.662	231.62
281.894	242.62
282.125	228.62
282.356	253.62
282.588	278.62
282.819	321.62
283.051	245.62
283.282	226.62
283.513	229.62
283.745	221.62
283.976	234.62
284.207	233.62
284.439	229.62
284.67	233.62
284.901	237.62
285.132	241.62
285.364	244.62
285.595	232.62
285.826	246.62
286.057	232.62
286.288	214.62
286.52	234.62
286.751	224.62
286.982	237.62
287.213	233.62
287.444	233.62
287.675	244.62
287.906	262.62
288.138	245.62
288.369	249.62
288.6	260.62
288.831	256.62
289.062	247.62
289.293	242.62
289.524	241.62
289.755	235.62
289.986	252.62
290.217	224.62
290.448	233.62
290.679	244.62
290.91	229.62
291.141	225.62
291.371	239.62
291.602	233.62
291.833	223.62
292.064	214.62
292.295	234.62
292.526	234.62
292.757	242.62
292.987	232.62
293.218	236.62
293.449	240.62
293.68	233.62
293.91	240.62
294.141	236.62
294.372	214.62
294.603	236.62
294.833	218.62
295.064	223.62
295.295	226.62
295.525	251.62
295.756	237.62
295.987	260.62
296.217	287.62
296.448	283.62
296.679	264.62
296.909	248.62
297.14	240.62
297.37	241.62
297.601	233.62
297.831	234.62
298.062	253.62
298.292	242.62
298.523	247.62
298.753	242.62
298.984	261.62
299.214	249.62
299.445	252.62
299.675	270.62
299.905	236.62
300.136	256.62
300.366	267.62
300.597	273.62
300.827	252.62
301.057	281.62
301.288	275.62
301.518	263.62
301.748	269.62
301.979	256.62
302.209	265.62
302.439	264.62
302.669	273.62
302.9	276.62
303.13	264.62
303.36	255.62
303.59	267.62
303.82	296.62
304.051	261.62
304.281	286.62
304.511	257.62
304.741	264.62
304.971	275.62
305.201	264.62
305.431	261.62
305.661	276.62
305.891	268.62
306.121	266.62
306.352	288.62
306.582	276.62
306.812	268.62
307.042	270.62
307.272	285.62
307.502	259.62
307.731	284.62
307.961	275.62
308.191	294.62
308.421	275.62
308.651	283.62
308.881	293.62
309.111	304.62
309.341	307.62
309.571	302.62
309.8	316.62
310.03	342.62
310.26	356.62
310.49	343.62
310.72	340.62
310.949	375.62
311.179	379.62
311.409	365.62
311.639	354.62
311.868	341.62
312.098	340.62
312.328	350.62
312.557	377.62
312.787	398.62
313.017	388.62
313.246	372.62
313.476	333.62
313.706	348.62
313.935	346.62
314.165	364.62
314.394	396.62
314.624	368.62
314.853	361.62
315.083	341.62
315.312	348.62
315.542	343.62
315.771	317.62
316.001	312.62
316.23	316.62
316.46	328.62
316.689	335.62
316.919	347.62
317.148	353.62
317.377	357.62
317.607	345.62
317.836	341.62
318.065	338.62
318.295	334.62
318.524	324.62
318.753	324.62
318.983	325.62
319.212	313.62
319.441	344.62
319.67	347.62
319.9	350.62
320.129	340.62
320.358	336.62
320.587	344.62
320.816	369.62
321.046	376.62
321.275	376.62
321.504	369.62
321.733	382.62
321.962	408.62
322.191	392.62
322.42	426.62
322.649	442.62
322.878	451.62
323.108	480.62
323.337	496.62
323.566	559.62
323.795	598.62
324.024	640.62
324.253	834.62
324.482	1244.62
324.71	1926.62
324.939	2677.62
325.168	2344.62
325.397	1295.62
325.626	796.62
325.855	627.62
326.084	562.62
326.313	544.62
326.542	548.62
326.77	609.62
326.999	768.62
327.228	1076.62
327.457	1663.62
327.686	2050.62
327.914	1429.62
328.143	910.62
328.372	739.62
328.6	668.62
328.829	644.62
329.058	649.62
329.287	698.62
329.515	618.62
329.744	543.62
329.972	502.62
330.201	528.62
330.43	563.62
330.658	626.62
330.887	682.62
331.115	658.62
331.344	541.62
331.572	486.62
331.801	483.62
332.03	468.62
332.258	449.62
332.486	412.62
332.715	396.62
332.943	393.62
333.172	418.62
333.4	390.62
333.629	397.62
333.857	406.62
334.085	405.62
334.314	397.62
334.542	402.62
334.771	408.62
334.999	404.62
335.227	389.62
335.455	384.62
335.684	393.62
335.912	392.62
336.14	371.62
336.369	378.62
336.597	376.62
336.825	387.62
337.053	372.62
337.281	370.62
337.51	358.62
337.738	388.62
337.966	374.62
338.194	376.62
338.422	380.62
338.65	370.62
338.878	381.62
339.106	368.62
339.334	360.62
339.562	357.62
339.79	356.62
340.018	376.62
340.246	379.62
340.474	385.62
340.702	370.62
340.93	380.62
341.158	377.62
341.386	364.62
341.614	370.62
341.842	368.62
342.07	379.62
342.298	369.62
342.526	338.62
342.754	360.62
342.981	339.62
343.209	372.62
343.437	340.62
343.665	362.62
343.893	347.62
344.12	368.62
344.348	362.62
344.576	364.62
344.804	382.62
345.031	395.62
345.259	422.62
345.487	401.62
345.714	386.62
345.942	371.62
346.17	388.62
346.397	361.62
346.625	377.62
346.853	363.62
347.08	363.62
347.308	384.62
347.535	388.62
347.763	381.62
347.99	372.62
348.218	400.62
348.445	402.62
348.673	395.62
348.9	392.62
349.128	368.62
349.355	350.62
349.583	374.62
349.81	365.62
350.037	348.62
350.265	355.62
350.492	354.62
350.72	345.62
350.947	379.62
351.174	388.62
351.402	399.62
351.629	352.62
351.856	385.62
352.083	400.62
352.311	418.62
352.538	408.62
352.765	407.62
352.992	399.62
353.22	399.62
353.447	383.62
353.674	381.62
353.901	345.62
354.128	342.62
354.355	336.62
354.583	349.62
354.81	343.62
355.037	324.62
355.264	310.62
355.491	320.62
355.718	301.62
355.945	308.62
356.172	322.62
356.399	328.62
356.626	325.62
356.853	320.62
357.08	326.62
357.307	329.62
357.534	319.62
357.761	322.62
357.988	349.62
358.215	341.62
358.441	329.62
358.668	345.62
358.895	350.62
359.122	353.62
359.349	370.62
359.576	399.62
359.802	423.62
360.029	448.62
360.256	483.62
360.483	450.62
360.709	406.62
360.936	384.62
361.163	380.62
361.39	378.62
361.616	398.62
361.843	388.62
362.07	393.62
362.296	383.62
362.523	378.62
362.749	368.62
362.976	358.62
363.203	359.62
363.429	359.62
363.656	354.62
363.882	345.62
364.109	363.62
364.335	345.62
364.562	359.62
364.788	355.62
365.015	354.62
365.241	356.62
365.468	357.62
365.694	361.62
365.92	365.62
366.147	360.62
366.373	341.62
366.599	345.62
366.826	331.62
367.052	360.62
367.278	340.62
367.505	350.62
367.731	353.62
367.957	340.62
368.184	346.62
368.41	344.62
368.636	374.62
368.862	374.62
369.089	367.62
369.315	355.62
369.541	334.62
369.767	354.62
369.993	333.62
370.219	355.62
370.445	346.62
370.672	335.62
370.898	333.62
371.124	334.62
371.35	340.62
371.576	344.62
371.802	323.62
372.028	328.62
372.254	339.62
372.48	345.62
372.706	337.62
372.932	326.62
373.158	316.62
373.384	340.62
373.61	325.62
373.835	342.62
374.061	331.62
374.287	353.62
374.513	327.62
374.739	329.62
374.965	332.62
375.191	341.62
375.416	342.62
375.642	325.62
375.868	331.62
376.094	326.62
376.319	327.62
376.545	325.62
376.771	331.62
376.997	333.62
377.222	330.62
377.448	330.62
377.674	327.62
377.899	336.62
378.125	339.62
378.35	339.62
378.576	325.62
378.802	314.62
379.027	340.62
379.253	331.62
379.478	334.62
379.704	353.62
379.929	318.62
380.155	337.62
380.38	348.62
380.606	342.62
380.831	347.62
381.057	332.62
381.282	324.62
381.507	338.62
381.733	326.62
381.958	334.62
382.184	332.62
382.409	326.62
382.634	331.62
382.86	333.62
383.085	340.62
383.31	338.62
383.535	355.62
383.761	316.62
383.986	320.62
384.211	338.62
384.436	336.62
384.662	353.62
384.887	356.62
385.112	334.62
385.337	363.62
385.562	339.62
385.787	351.62
386.013	357.62
386.238	365.62
386.463	372.62
386.688	343.62
386.913	352.62
387.138	329.62
387.363	344.62
387.588	348.62
387.813	348.62
388.038	359.62
388.263	376.62
388.488	361.62
388.713	350.62
388.938	346.62
389.163	372.62
389.387	357.62
389.612	340.62
389.837	332.62
390.062	344.62
390.287	347.62
390.512	347.62
390.736	336.62
390.961	344.62
391.186	344.62
391.411	337.62
391.636	360.62
391.86	360.62
392.085	353.62
392.31	334.62
392.534	357.62
392.759	344.62
392.984	336.62
393.208	347.62
393.433	344.62
393.658	335.62
393.882	346.62
394.107	336.62
394.331	352.62
394.556	329.62
394.78	339.62
395.005	342.62
395.229	342.62
395.454	357.62
395.678	349.62
395.903	368.62
396.127	385.62
396.352	398.62
396.576	370.62
396.801	366.62
397.025	360.62
397.249	363.62
397.474	373.62
397.698	353.62
397.922	395.62
398.147	403.62
398.371	400.62
398.595	380.62
398.82	387.62
399.044	386.62
399.268	412.62
399.492	428.62
399.717	429.62
399.941	446.62
400.165	468.62
400.389	496.62
400.613	457.62
400.837	446.62
401.062	415.62
401.286	410.62
401.51	397.62
401.734	391.62
401.958	393.62
402.182	419.62
402.406	437.62
402.63	432.62
402.854	419.62
403.078	399.62
403.302	409.62
403.526	439.62
403.75	423.62
403.974	419.62
404.198	422.62
404.422	427.62
404.645	406.62
404.869	437.62
405.093	437.62
405.317	473.62
405.541	506.62
405.765	460.62
405.988	445.62
406.212	455.62
406.436	507.62
406.66	507.62
406.883	494.62
407.107	465.62
407.331	532.62
407.555	566.62
407.778	580.62
408.002	552.62
408.226	466.62
408.449	480.62
408.673	474.62
408.896	508.62
409.12	564.62
409.344	513.62
409.567	462.62
409.791	435.62
410.014	448.62
410.238	418.62
410.461	449.62
410.685	438.62
410.908	460.62
411.132	485.62
411.355	530.62
411.578	508.62
411.802	450.62
412.025	421.62
412.249	413.62
412.472	427.62
412.695	442.62
412.919	438.62
413.142	429.62
413.365	422.62
413.589	409.62
413.812	394.62
414.035	412.62
414.258	381.62
414.482	391.62
414.705	401.62
414.928	394.62
415.151	396.62
415.374	391.62
415.597	416.62
415.821	398.62
416.044	407.62
416.267	421.62
416.49	413.62
416.713	371.62
416.936	411.62
417.159	402.62
417.382	409.62
417.605	429.62
417.828	414.62
418.051	450.62
418.274	434.62
418.497	406.62
418.72	409.62
418.943	402.62
419.166	421.62
419.389	436.62
419.611	435.62
419.834	451.62
420.057	440.62
420.28	441.62
420.503	428.62
420.726	428.62
420.948	455.62
421.171	500.62
421.394	536.62
421.617	475.62
421.839	439.62
422.062	458.62
422.285	474.62
422.507	535.62
422.73	590.62
422.953	561.62
423.175	510.62
423.398	472.62
423.621	488.62
423.843	473.62
424.066	519.62
424.288	484.62
424.511	503.62
424.733	580.62
424.956	624.62
425.178	629.62
425.401	627.62
425.623	653.62
425.846	551.62
426.068	554.62
426.291	509.62
426.513	520.62
426.735	530.62
426.958	565.62
427.18	654.62
427.402	785.62
427.625	869.62
427.847	783.62
428.069	678.62
428.292	601.62
428.514	530.62
428.736	491.62
428.958	505.62
429.181	488.62
429.403	462.62
429.625	490.62
429.847	523.62
430.069	586.62
430.292	595.62
430.514	507.62
430.736	466.62
430.958	445.62
431.18	454.62
431.402	447.62
431.624	431.62
431.846	426.62
432.068	436.62
432.29	427.62
432.512	423.62
432.734	451.62
432.956	436.62
433.178	446.62
433.4	441.62
433.622	446.62
433.844	415.62
434.066	432.62
434.287	424.62
434.509	430.62
434.731	443.62
434.953	457.62
435.175	472.62
435.397	490.62
435.618	524.62
435.84	568.62
436.062	653.62
436.284	713.62
436.505	601.62
436.727	542.62
436.949	498.62
437.17	474.62
437.392	488.62
437.614	486.62
437.835	542.62
438.057	654.62
438.278	728.62
438.5	745.62
438.721	799.62
438.943	752.62
439.165	619.62
439.386	585.62
439.608	537.62
439.829	541.62
440.05	569.62
440.272	628.62
440.493	596.62
440.715	528.62
440.936	483.62
441.158	486.62
441.379	522.62
441.6	485.62
441.822	533.62
442.043	562.62
442.264	649.62
442.486	679.62
442.707	568.62
442.928	567.62
443.149	544.62
443.371	574.62
443.592	638.62
443.813	696.62
444.034	717.62
444.255	620.62
444.476	571.62
444.698	521.62
444.919	523.62
445.14	601.62
445.361	555.62
445.582	577.62
445.803	638.62
446.024	755.62
446.245	731.62
446.466	681.62
446.687	596.62
446.908	546.62
447.129	499.62
447.35	486.62
447.571	491.62
447.792	485.62
448.013	490.62
448.234	543.62
448.455	568.62
448.675	660.62
448.896	755.62
449.117	658.62
449.338	645.62
449.559	715.62
449.779	794.62
450	680.62
450.221	554.62
450.442	494.62
450.662	482.62
450.883	521.62
451.104	536.62
451.324	526.62
451.545	478.62
451.766	464.62
451.986	452.62
452.207	439.62
452.428	418.62
452.648	434.62
452.869	434.62
453.089	462.62
453.31	468.62
453.53	445.62
453.751	448.62
453.971	454.62
454.192	477.62
454.412	474.62
454.633	448.62
454.853	451.62
455.073	454.62
455.294	491.62
455.514	530.62
455.734	549.62
455.955	444.62
456.175	418.62
456.395	406.62
456.616	397.62
456.836	393.62
457.056	388.62
457.276	380.62
457.497	364.62
457.717	404.62
457.937	392.62
458.157	419.62
458.377	403.62
458.598	461.62
458.818	535.62
459.038	658.62
459.258	648.62
459.478	544.62
459.698	466.62
459.918	413.62
460.138	440.62
460.358	427.62
460.578	418.62
460.798	446.62
461.018	425.62
461.238	420.62
461.458	415.62
461.678	433.62
461.898	407.62
462.118	408.62
462.338	411.62
462.558	419.62
462.777	414.62
462.997	438.62
463.217	444.62
463.437	425.62
463.657	432.62
463.876	420.62
464.096	422.62
464.316	431.62
464.536	466.62
464.755	469.62
464.975	473.62
465.195	548.62
465.414	688.62
465.634	589.62
465.854	507.62
466.073	483.62
466.293	466.62
466.512	424.62
466.732	426.62
466.951	433.62
467.171	417.62
467.391	426.62
467.61	435.62
467.829	457.62
468.049	453.62
468.268	432.62
468.488	432.62
468.707	409.62
468.927	406.62
469.146	416.62
469.365	398.62
469.585	415.62
469.804	416.62
470.023	441.62
470.243	443.62
470.462	426.62
470.681	481.62
470.901	494.62
471.12	454.62
471.339	428.62
471.558	419.62
471.777	421.62
471.997	424.62
472.216	412.62
472.435	405.62
472.654	416.62
472.873	416.62
473.092	409.62
473.311	420.62
473.53	424.62
473.749	457.62
473.968	500.62
474.187	590.62
474.406	640.62
474.625	530.62
474.844	460.62
475.063	447.62
475.282	443.62
475.501	434.62
475.72	456.62
475.939	452.62
476.158	443.62
476.377	444.62
476.596	457.62
476.814	451.62
477.033	460.62
477.252	471.62
477.471	466.62
477.69	443.62
477.908	461.62
478.127	469.62
478.346	460.62
478.564	482.62
478.783	478.62
479.002	474.62
479.22	494.62
479.439	515.62
479.658	537.62
479.876	535.62
480.095	535.62
480.313	566.62
480.532	557.62
480.751	516.62
480.969	525.62
481.188	514.62
481.406	544.62
481.624	534.62
481.843	500.62
482.061	489.62
482.28	524.62
482.498	503.62
482.717	520.62
482.935	510.62
483.153	509.62
483.372	512.62
483.59	508.62
483.808	530.62
484.027	513.62
484.245	514.62
484.463	501.62
484.681	522.62
484.9	534.62
485.118	540.62
485.336	523.62
485.554	548.62
485.772	506.62
485.99	541.62
486.209	536.62
486.427	526.62
486.645	540.62
486.863	568.62
487.081	603.62
487.299	560.62
487.517	584.62
487.735	552.62
487.953	544.62
488.171	554.62
488.389	554.62
488.607	539.62
488.825	581.62
489.043	564.62
489.261	580.62
489.479	583.62
489.696	590.62
489.914	572.62
490.132	582.62
490.35	572.62
490.568	603.62
490.786	610.62
491.003	626.62
491.221	602.62
491.439	620.62
491.657	616.62
491.874	632.62
492.092	646.62
492.31	650.62
492.527	644.62
492.745	658.62
492.963	650.62
493.18	618.62
493.398	678.62
493.615	679.62
493.833	637.62
494.05	682.62
494.268	651.62
494.485	685.62
494.703	662.62
494.92	655.62
495.138	672.62
495.355	677.62
495.573	698.62
495.79	687.62
496.008	677.62
496.225	672.62
496.442	684.62
496.66	672.62
496.877	675.62
497.094	697.62
497.312	681.62
497.529	693.62
497.746	706.62
497.963	698.62
498.181	713.62
498.398	721.62
498.615	731.62
498.832	728.62
499.049	721.62
499.267	745.62
499.484	731.62
499.701	756.62
499.918	749.62
500.135	778.62
500.352	806.62
500.569	805.62
500.786	801.62
501.003	795.62
501.22	801.62
501.437	772.62
501.654	783.62
501.871	816.62
