Data from 1987.PennyLincolnUp.Lamp.En5.5.200Scan.071819.P2_HRD10591_17-15-13-971.txt Node
Date: Thu Jul 18 17:15:13 EDT 2019
User: cochatt
Spectrometer: HR+D1059
Trigger mode: 1
Integration Time (sec): 1.000000E-1
Scans to average: 1
Electric dark correction enabled: true
Nonlinearity correction enabled: false
Boxcar width: 0
XAxis mode: Wavelengths
Number of Pixels in Spectrum: 2048
>>>>>Begin Spectral Data<<<<<
223.165	-11.5
223.4	-11.5
223.635	-11.5
223.869	-5.5
224.104	-22.5
224.338	-7.5
224.573	-8.5
224.808	-21.5
225.042	-3.5
225.277	-8.5
225.511	-11.5
225.746	-8.5
225.98	7.5
226.215	20.5
226.449	9.5
226.683	22.5
226.918	12.5
227.152	36.5
227.387	21.5
227.621	32.5
227.856	39.5
228.09	44.5
228.324	60.5
228.559	60.5
228.793	71.5
229.027	110.5
229.262	110.5
229.496	151.5
229.73	152.5
229.964	175.5
230.199	144.5
230.433	126.5
230.667	120.5
230.901	125.5
231.136	112.5
231.37	111.5
231.604	111.5
231.838	133.5
232.072	107.5
232.306	124.5
232.541	118.5
232.775	110.5
233.009	124.5
233.243	110.5
233.477	128.5
233.711	111.5
233.945	117.5
234.179	114.5
234.413	120.5
234.647	112.5
234.881	128.5
235.115	146.5
235.349	119.5
235.583	115.5
235.817	125.5
236.051	145.5
236.285	137.5
236.519	125.5
236.753	138.5
236.987	156.5
237.221	193.5
237.455	265.5
237.689	195.5
237.922	159.5
238.156	142.5
238.39	127.5
238.624	126.5
238.858	132.5
239.091	127.5
239.325	132.5
239.559	119.5
239.793	138.5
240.027	139.5
240.26	151.5
240.494	174.5
240.728	160.5
240.961	158.5
241.195	134.5
241.429	146.5
241.662	126.5
241.896	118.5
242.13	133.5
242.363	134.5
242.597	139.5
242.83	142.5
243.064	138.5
243.298	128.5
243.531	128.5
243.765	132.5
243.998	130.5
244.232	136.5
244.465	136.5
244.699	126.5
244.932	142.5
245.166	150.5
245.399	134.5
245.633	151.5
245.866	150.5
246.099	162.5
246.333	138.5
246.566	146.5
246.8	134.5
247.033	149.5
247.266	151.5
247.5	155.5
247.733	166.5
247.966	165.5
248.2	177.5
248.433	167.5
248.666	171.5
248.899	188.5
249.133	197.5
249.366	208.5
249.599	200.5
249.832	191.5
250.066	180.5
250.299	180.5
250.532	171.5
250.765	197.5
250.998	206.5
251.231	224.5
251.465	197.5
251.698	201.5
251.931	202.5
252.164	206.5
252.397	194.5
252.63	202.5
252.863	202.5
253.096	217.5
253.329	236.5
253.562	238.5
253.795	208.5
254.028	222.5
254.261	222.5
254.494	219.5
254.727	252.5
254.96	285.5
255.193	286.5
255.426	242.5
255.659	240.5
255.892	222.5
256.124	214.5
256.357	214.5
256.59	216.5
256.823	204.5
257.056	204.5
257.289	207.5
257.521	200.5
257.754	210.5
257.987	215.5
258.22	199.5
258.452	187.5
258.685	211.5
258.918	201.5
259.151	207.5
259.383	190.5
259.616	196.5
259.849	226.5
260.081	227.5
260.314	236.5
260.547	227.5
260.779	251.5
261.012	235.5
261.244	211.5
261.477	205.5
261.71	210.5
261.942	239.5
262.175	228.5
262.407	224.5
262.64	218.5
262.872	198.5
263.105	194.5
263.337	208.5
263.57	202.5
263.802	196.5
264.035	202.5
264.267	191.5
264.499	199.5
264.732	202.5
264.964	173.5
265.197	197.5
265.429	203.5
265.661	202.5
265.894	202.5
266.126	209.5
266.358	184.5
266.591	204.5
266.823	198.5
267.055	215.5
267.287	211.5
267.52	196.5
267.752	214.5
267.984	207.5
268.216	222.5
268.448	194.5
268.681	204.5
268.913	216.5
269.145	225.5
269.377	251.5
269.609	244.5
269.841	253.5
270.073	259.5
270.306	269.5
270.538	309.5
270.77	283.5
271.002	299.5
271.234	267.5
271.466	287.5
271.698	306.5
271.93	310.5
272.162	307.5
272.394	313.5
272.626	314.5
272.858	285.5
273.09	265.5
273.322	251.5
273.553	250.5
273.785	255.5
274.017	238.5
274.249	242.5
274.481	230.5
274.713	245.5
274.945	258.5
275.176	245.5
275.408	258.5
275.64	248.5
275.872	240.5
276.104	246.5
276.335	231.5
276.567	253.5
276.799	260.5
277.031	299.5
277.262	297.5
277.494	296.5
277.726	287.5
277.957	270.5
278.189	251.5
278.421	243.5
278.652	244.5
278.884	238.5
279.115	233.5
279.347	237.5
279.579	214.5
279.81	231.5
280.042	229.5
280.273	219.5
280.505	219.5
280.736	227.5
280.968	198.5
281.199	227.5
281.431	232.5
281.662	218.5
281.894	222.5
282.125	243.5
282.356	251.5
282.588	287.5
282.819	298.5
283.051	245.5
283.282	216.5
283.513	224.5
283.745	239.5
283.976	244.5
284.207	239.5
284.439	228.5
284.67	243.5
284.901	242.5
285.132	248.5
285.364	234.5
285.595	226.5
285.826	220.5
286.057	226.5
286.288	236.5
286.52	230.5
286.751	243.5
286.982	236.5
287.213	230.5
287.444	234.5
287.675	240.5
287.906	237.5
288.138	258.5
288.369	267.5
288.6	262.5
288.831	258.5
289.062	255.5
289.293	244.5
289.524	239.5
289.755	232.5
289.986	235.5
290.217	216.5
290.448	239.5
290.679	224.5
290.91	232.5
291.141	241.5
291.371	230.5
291.602	243.5
291.833	239.5
292.064	237.5
292.295	242.5
292.526	232.5
292.757	233.5
292.987	243.5
293.218	246.5
293.449	248.5
293.68	245.5
293.91	262.5
294.141	236.5
294.372	235.5
294.603	236.5
294.833	230.5
295.064	233.5
295.295	245.5
295.525	237.5
295.756	264.5
295.987	266.5
296.217	283.5
296.448	315.5
296.679	273.5
296.909	226.5
297.14	235.5
297.37	237.5
297.601	266.5
297.831	244.5
298.062	254.5
298.292	246.5
298.523	260.5
298.753	262.5
298.984	256.5
299.214	261.5
299.445	244.5
299.675	253.5
299.905	244.5
300.136	269.5
300.366	259.5
300.597	258.5
300.827	259.5
301.057	274.5
301.288	280.5
301.518	266.5
301.748	247.5
301.979	277.5
302.209	278.5
302.439	286.5
302.669	285.5
302.9	272.5
303.13	272.5
303.36	271.5
303.59	267.5
303.82	295.5
304.051	275.5
304.281	262.5
304.511	266.5
304.741	252.5
304.971	258.5
305.201	251.5
305.431	278.5
305.661	266.5
305.891	256.5
306.121	262.5
306.352	282.5
306.582	278.5
306.812	268.5
307.042	278.5
307.272	273.5
307.502	271.5
307.731	272.5
307.961	278.5
308.191	278.5
308.421	264.5
308.651	301.5
308.881	292.5
309.111	308.5
309.341	287.5
309.571	316.5
309.8	320.5
310.03	327.5
310.26	344.5
310.49	363.5
310.72	355.5
310.949	385.5
311.179	372.5
311.409	371.5
311.639	345.5
311.868	355.5
312.098	359.5
312.328	362.5
312.557	388.5
312.787	407.5
313.017	359.5
313.246	345.5
313.476	328.5
313.706	346.5
313.935	336.5
314.165	365.5
314.394	370.5
314.624	374.5
314.853	349.5
315.083	337.5
315.312	335.5
315.542	329.5
315.771	328.5
316.001	312.5
316.23	312.5
316.46	300.5
316.689	334.5
316.919	336.5
317.148	338.5
317.377	346.5
317.607	330.5
317.836	339.5
318.065	342.5
318.295	325.5
318.524	327.5
318.753	335.5
318.983	320.5
319.212	334.5
319.441	319.5
319.67	339.5
319.9	325.5
320.129	336.5
320.358	338.5
320.587	344.5
320.816	359.5
321.046	351.5
321.275	362.5
321.504	355.5
321.733	371.5
321.962	359.5
322.191	397.5
322.42	416.5
322.649	418.5
322.878	437.5
323.108	462.5
323.337	502.5
323.566	544.5
323.795	570.5
324.024	660.5
324.253	827.5
324.482	1193.5
324.71	1892.5
324.939	2614.5
325.168	2299.5
325.397	1288.5
325.626	840.5
325.855	630.5
326.084	582.5
326.313	529.5
326.542	537.5
326.77	592.5
326.999	729.5
327.228	1074.5
327.457	1628.5
327.686	2008.5
327.914	1329.5
328.143	867.5
328.372	741.5
328.6	662.5
328.829	638.5
329.058	660.5
329.287	650.5
329.515	608.5
329.744	514.5
329.972	492.5
330.201	482.5
330.43	546.5
330.658	602.5
330.887	657.5
331.115	647.5
331.344	517.5
331.572	487.5
331.801	485.5
332.03	483.5
332.258	438.5
332.486	408.5
332.715	400.5
332.943	385.5
333.172	382.5
333.4	394.5
333.629	389.5
333.857	416.5
334.085	412.5
334.314	384.5
334.542	377.5
334.771	401.5
334.999	381.5
335.227	384.5
335.455	398.5
335.684	367.5
335.912	367.5
336.14	393.5
336.369	373.5
336.597	378.5
336.825	380.5
337.053	383.5
337.281	359.5
337.51	359.5
337.738	368.5
337.966	362.5
338.194	381.5
338.422	366.5
338.65	392.5
338.878	397.5
339.106	373.5
339.334	338.5
339.562	357.5
339.79	363.5
340.018	368.5
340.246	380.5
340.474	365.5
340.702	390.5
340.93	386.5
341.158	388.5
341.386	366.5
341.614	377.5
341.842	372.5
342.07	382.5
342.298	376.5
342.526	359.5
342.754	355.5
342.981	332.5
343.209	356.5
343.437	342.5
343.665	358.5
343.893	367.5
344.12	365.5
344.348	362.5
344.576	348.5
344.804	368.5
345.031	399.5
345.259	393.5
345.487	385.5
345.714	379.5
345.942	388.5
346.17	354.5
346.397	372.5
346.625	370.5
346.853	370.5
347.08	363.5
347.308	382.5
347.535	398.5
347.763	387.5
347.99	400.5
348.218	392.5
348.445	400.5
348.673	416.5
348.9	375.5
349.128	349.5
349.355	343.5
349.583	340.5
349.81	356.5
350.037	361.5
350.265	359.5
350.492	344.5
350.72	340.5
350.947	375.5
351.174	397.5
351.402	379.5
351.629	393.5
351.856	387.5
352.083	380.5
352.311	399.5
352.538	405.5
352.765	407.5
352.992	405.5
353.22	391.5
353.447	386.5
353.674	360.5
353.901	360.5
354.128	348.5
354.355	349.5
354.583	335.5
354.81	342.5
355.037	328.5
355.264	337.5
355.491	329.5
355.718	320.5
355.945	306.5
356.172	319.5
356.399	324.5
356.626	319.5
356.853	330.5
357.08	321.5
357.307	313.5
357.534	310.5
357.761	336.5
357.988	323.5
358.215	336.5
358.441	336.5
358.668	347.5
358.895	330.5
359.122	335.5
359.349	377.5
359.576	377.5
359.802	405.5
360.029	483.5
360.256	464.5
360.483	453.5
360.709	406.5
360.936	380.5
361.163	372.5
361.39	378.5
361.616	375.5
361.843	400.5
362.07	379.5
362.296	390.5
362.523	369.5
362.749	380.5
362.976	374.5
363.203	363.5
363.429	344.5
363.656	359.5
363.882	339.5
364.109	349.5
364.335	337.5
364.562	334.5
364.788	364.5
365.015	333.5
365.241	351.5
365.468	337.5
365.694	370.5
365.92	348.5
366.147	352.5
366.373	339.5
366.599	337.5
366.826	358.5
367.052	327.5
367.278	345.5
367.505	348.5
367.731	340.5
367.957	348.5
368.184	336.5
368.41	350.5
368.636	356.5
368.862	363.5
369.089	355.5
369.315	332.5
369.541	342.5
369.767	341.5
369.993	344.5
370.219	328.5
370.445	333.5
370.672	324.5
370.898	322.5
371.124	338.5
371.35	332.5
371.576	335.5
371.802	326.5
372.028	332.5
372.254	310.5
372.48	324.5
372.706	328.5
372.932	318.5
373.158	339.5
373.384	330.5
373.61	340.5
373.835	342.5
374.061	324.5
374.287	336.5
374.513	350.5
374.739	316.5
374.965	304.5
375.191	333.5
375.416	323.5
375.642	329.5
375.868	327.5
376.094	316.5
376.319	311.5
376.545	320.5
376.771	328.5
376.997	339.5
377.222	331.5
377.448	333.5
377.674	327.5
377.899	334.5
378.125	314.5
378.35	310.5
378.576	317.5
378.802	312.5
379.027	338.5
379.253	321.5
379.478	331.5
379.704	323.5
379.929	327.5
380.155	332.5
380.38	324.5
380.606	334.5
380.831	334.5
381.057	334.5
381.282	336.5
381.507	330.5
381.733	352.5
381.958	319.5
382.184	334.5
382.409	343.5
382.634	314.5
382.86	350.5
383.085	336.5
383.31	345.5
383.535	334.5
383.761	347.5
383.986	326.5
384.211	348.5
384.436	331.5
384.662	320.5
384.887	346.5
385.112	334.5
385.337	348.5
385.562	361.5
385.787	363.5
386.013	338.5
386.238	358.5
386.463	371.5
386.688	339.5
386.913	319.5
387.138	352.5
387.363	336.5
387.588	335.5
387.813	354.5
388.038	339.5
388.263	350.5
388.488	350.5
388.713	358.5
388.938	349.5
389.163	377.5
389.387	359.5
389.612	350.5
389.837	358.5
390.062	360.5
390.287	358.5
390.512	332.5
390.736	349.5
390.961	324.5
391.186	341.5
391.411	351.5
391.636	336.5
391.86	353.5
392.085	361.5
392.31	376.5
392.534	357.5
392.759	363.5
392.984	355.5
393.208	360.5
393.433	350.5
393.658	357.5
393.882	351.5
394.107	354.5
394.331	350.5
394.556	335.5
394.78	347.5
395.005	321.5
395.229	343.5
395.454	361.5
395.678	351.5
395.903	383.5
396.127	392.5
396.352	396.5
396.576	372.5
396.801	367.5
397.025	365.5
397.249	363.5
397.474	369.5
397.698	381.5
397.922	403.5
398.147	399.5
398.371	411.5
398.595	392.5
398.82	396.5
399.044	412.5
399.268	413.5
399.492	406.5
399.717	415.5
399.941	449.5
400.165	466.5
400.389	502.5
400.613	464.5
400.837	452.5
401.062	427.5
401.286	412.5
401.51	396.5
401.734	404.5
401.958	402.5
402.182	414.5
402.406	431.5
402.63	425.5
402.854	403.5
403.078	419.5
403.302	426.5
403.526	435.5
403.75	418.5
403.974	397.5
404.198	424.5
404.422	426.5
404.645	415.5
404.869	397.5
405.093	446.5
405.317	468.5
405.541	495.5
405.765	473.5
405.988	446.5
406.212	481.5
406.436	503.5
406.66	496.5
406.883	483.5
407.107	532.5
407.331	538.5
407.555	582.5
407.778	585.5
408.002	542.5
408.226	480.5
408.449	486.5
408.673	466.5
408.896	496.5
409.12	539.5
409.344	509.5
409.567	463.5
409.791	437.5
410.014	416.5
410.238	428.5
410.461	415.5
410.685	452.5
410.908	454.5
411.132	474.5
411.355	534.5
411.578	482.5
411.802	461.5
412.025	421.5
412.249	420.5
412.472	428.5
412.695	441.5
412.919	427.5
413.142	419.5
413.365	395.5
413.589	396.5
413.812	416.5
414.035	409.5
414.258	399.5
414.482	379.5
414.705	391.5
414.928	379.5
415.151	402.5
415.374	390.5
415.597	402.5
415.821	381.5
416.044	410.5
416.267	407.5
416.49	412.5
416.713	372.5
416.936	402.5
417.159	395.5
417.382	405.5
417.605	426.5
417.828	412.5
418.051	436.5
418.274	447.5
418.497	412.5
418.72	392.5
418.943	401.5
419.166	424.5
419.389	440.5
419.611	409.5
419.834	428.5
420.057	427.5
420.28	428.5
420.503	412.5
420.726	428.5
420.948	464.5
421.171	491.5
421.394	518.5
421.617	481.5
421.839	432.5
422.062	442.5
422.285	454.5
422.507	517.5
422.73	570.5
422.953	562.5
423.175	498.5
423.398	465.5
423.621	478.5
423.843	501.5
424.066	486.5
424.288	491.5
424.511	514.5
424.733	563.5
424.956	654.5
425.178	618.5
425.401	616.5
425.623	653.5
425.846	555.5
426.068	534.5
426.291	502.5
426.513	485.5
426.735	512.5
426.958	556.5
427.18	633.5
427.402	758.5
427.625	859.5
427.847	778.5
428.069	664.5
428.292	591.5
428.514	550.5
428.736	501.5
428.958	510.5
429.181	486.5
429.403	453.5
429.625	470.5
429.847	533.5
430.069	593.5
430.292	586.5
430.514	488.5
430.736	466.5
430.958	439.5
431.18	444.5
431.402	436.5
431.624	432.5
431.846	416.5
432.068	427.5
432.29	421.5
432.512	425.5
432.734	442.5
432.956	443.5
433.178	452.5
433.4	430.5
433.622	454.5
433.844	427.5
434.066	423.5
434.287	443.5
434.509	435.5
434.731	431.5
434.953	449.5
435.175	456.5
435.397	488.5
435.618	515.5
435.84	563.5
436.062	662.5
436.284	687.5
436.505	602.5
436.727	540.5
436.949	520.5
437.17	479.5
437.392	499.5
437.614	507.5
437.835	531.5
438.057	667.5
438.278	762.5
438.5	729.5
438.721	777.5
438.943	743.5
439.165	626.5
439.386	562.5
439.608	558.5
439.829	536.5
440.05	582.5
440.272	626.5
440.493	574.5
440.715	554.5
440.936	518.5
441.158	501.5
441.379	483.5
441.6	511.5
441.822	528.5
442.043	571.5
442.264	631.5
442.486	674.5
442.707	577.5
442.928	568.5
443.149	546.5
443.371	570.5
443.592	599.5
443.813	694.5
444.034	722.5
444.255	602.5
444.476	540.5
444.698	504.5
444.919	512.5
445.14	586.5
445.361	566.5
445.582	559.5
445.803	630.5
446.024	716.5
446.245	740.5
446.466	694.5
446.687	573.5
446.908	525.5
447.129	505.5
447.35	508.5
447.571	504.5
447.792	487.5
448.013	495.5
448.234	518.5
448.455	568.5
448.675	671.5
448.896	763.5
449.117	696.5
449.338	633.5
449.559	726.5
449.779	802.5
450	672.5
450.221	578.5
450.442	520.5
450.662	481.5
450.883	520.5
451.104	532.5
451.324	540.5
451.545	467.5
451.766	459.5
451.986	442.5
452.207	453.5
452.428	446.5
452.648	438.5
452.869	436.5
453.089	434.5
453.31	474.5
453.53	461.5
453.751	446.5
453.971	453.5
454.192	491.5
454.412	458.5
454.633	453.5
454.853	426.5
455.073	437.5
455.294	471.5
455.514	529.5
455.734	537.5
455.955	461.5
456.175	418.5
456.395	382.5
456.616	407.5
456.836	404.5
457.056	382.5
457.276	386.5
457.497	380.5
457.717	390.5
457.937	401.5
458.157	398.5
458.377	422.5
458.598	435.5
458.818	504.5
459.038	650.5
459.258	638.5
459.478	511.5
459.698	459.5
459.918	455.5
460.138	434.5
460.358	429.5
460.578	425.5
460.798	451.5
461.018	426.5
461.238	415.5
461.458	422.5
461.678	394.5
461.898	406.5
462.118	422.5
462.338	425.5
462.558	450.5
462.777	419.5
462.997	433.5
463.217	423.5
463.437	422.5
463.657	421.5
463.876	426.5
464.096	455.5
464.316	445.5
464.536	469.5
464.755	457.5
464.975	477.5
465.195	570.5
465.414	688.5
465.634	596.5
465.854	518.5
466.073	507.5
466.293	460.5
466.512	455.5
466.732	434.5
466.951	431.5
467.171	438.5
467.391	444.5
467.61	435.5
467.829	476.5
468.049	446.5
468.268	439.5
468.488	438.5
468.707	407.5
468.927	396.5
469.146	414.5
469.365	403.5
469.585	426.5
469.804	419.5
470.023	447.5
470.243	459.5
470.462	446.5
470.681	478.5
470.901	493.5
471.12	458.5
471.339	436.5
471.558	421.5
471.777	446.5
471.997	420.5
472.216	418.5
472.435	445.5
472.654	432.5
472.873	424.5
473.092	434.5
473.311	418.5
473.53	431.5
473.749	454.5
473.968	498.5
474.187	587.5
474.406	629.5
474.625	510.5
474.844	443.5
475.063	420.5
475.282	425.5
475.501	435.5
475.72	431.5
475.939	427.5
476.158	454.5
476.377	438.5
476.596	426.5
476.814	460.5
477.033	460.5
477.252	462.5
477.471	481.5
477.69	468.5
477.908	460.5
478.127	454.5
478.346	453.5
478.564	477.5
478.783	451.5
479.002	468.5
479.22	483.5
479.439	512.5
479.658	524.5
479.876	538.5
480.095	551.5
480.313	564.5
480.532	527.5
480.751	514.5
480.969	511.5
481.188	524.5
481.406	532.5
481.624	526.5
481.843	512.5
482.061	493.5
482.28	502.5
482.498	512.5
482.717	500.5
482.935	502.5
483.153	492.5
483.372	516.5
483.59	491.5
483.808	535.5
484.027	540.5
484.245	520.5
484.463	518.5
484.681	518.5
484.9	509.5
485.118	518.5
485.336	524.5
485.554	523.5
485.772	521.5
485.99	520.5
486.209	550.5
486.427	524.5
486.645	551.5
486.863	586.5
487.081	568.5
487.299	578.5
487.517	569.5
487.735	543.5
487.953	556.5
488.171	568.5
488.389	555.5
488.607	557.5
488.825	582.5
489.043	564.5
489.261	578.5
489.479	549.5
489.696	563.5
489.914	569.5
490.132	565.5
490.35	591.5
490.568	586.5
490.786	613.5
491.003	612.5
491.221	623.5
491.439	614.5
491.657	615.5
491.874	652.5
492.092	623.5
492.31	662.5
492.527	660.5
492.745	667.5
492.963	674.5
493.18	673.5
493.398	664.5
493.615	634.5
493.833	682.5
494.05	670.5
494.268	650.5
494.485	647.5
494.703	680.5
494.92	663.5
495.138	665.5
495.355	669.5
495.573	671.5
495.79	704.5
496.008	674.5
496.225	662.5
496.442	678.5
496.66	675.5
496.877	662.5
497.094	680.5
497.312	691.5
497.529	681.5
497.746	694.5
497.963	679.5
498.181	707.5
498.398	696.5
498.615	700.5
498.832	718.5
499.049	713.5
499.267	731.5
499.484	738.5
499.701	728.5
499.918	771.5
500.135	772.5
500.352	774.5
500.569	774.5
500.786	800.5
501.003	795.5
501.22	787.5
501.437	788.5
501.654	780.5
501.871	836.5
502.088	813.5
502.305	784.5
502.522	749.5
502.739	718.5
502.956	715.5
503.172	711.5
503.389	697.5
503.606	708.5
503.823	706.5
504.04	669.5
504.256	690.5
504.473	695.5
504.69	700.5
504.907	674.5
505.123	673.5
505.34	662.5
505.557	681.5
505.773	650.5
505.99	636.5
506.207	675.5
506.423	664.5
506.64	662.5
506.856	648.5
507.073	668.5
507.289	658.5
507.506	657.5
507.722	685.5
507.939	704.5
508.155	700.5
508.372	669.5
508.588	658.5
508.805	654.5
509.021	650.5
509.238	675.5
509.454	661.5
509.67	675.5
509.887	669.5
510.103	648.5
510.319	682.5
510.536	839.5
510.752	1558.5
510.968	1256.5
511.184	732.5
511.401	676.5
511.617	664.5
511.833	644.5
512.049	638.5
512.265	638.5
512.481	647.5
512.698	624.5
512.914	620.5
513.13	640.5
513.346	631.5
513.562	647.5
513.778	679.5
513.994	653.5
514.21	699.5
514.426	743.5
514.642	791.5
514.858	848.5
515.074	906.5
515.29	1158.5
515.506	1819.5
515.721	1458.5
515.937	894.5
516.153	778.5
516.369	733.5
516.585	704.5
516.801	671.5
517.016	649.5
517.232	626.5
517.448	642.5
517.664	642.5
517.879	645.5
518.095	647.5
518.311	635.5
518.527	605.5
518.742	630.5
518.958	634.5
519.173	644.5
519.389	646.5
519.605	650.5
519.82	661.5
