Data from 1987.PennyLincolnUp.Lamp.En5.5.200Scan.071819.P2_HRD10591_17-16-54-972.txt Node
Date: Thu Jul 18 17:16:54 EDT 2019
User: cochatt
Spectrometer: HR+D1059
Trigger mode: 1
Integration Time (sec): 1.000000E-1
Scans to average: 1
Electric dark correction enabled: true
Nonlinearity correction enabled: false
Boxcar width: 0
XAxis mode: Wavelengths
Number of Pixels in Spectrum: 2048
>>>>>Begin Spectral Data<<<<<
223.165	-18.81
223.4	-18.81
223.635	-18.81
223.869	-24.81
224.104	-18.81
224.338	-17.81
224.573	-26.81
224.808	-7.81
225.042	-6.81
225.277	-1.81
225.511	13.19
225.746	12.19
225.98	0.19
226.215	7.19
226.449	16.19
226.683	18.19
226.918	28.19
227.152	28.19
227.387	21.19
227.621	40.19
227.856	49.19
228.09	38.19
228.324	48.19
228.559	60.19
228.793	74.19
229.027	101.19
229.262	117.19
229.496	131.19
229.73	147.19
229.964	174.19
230.199	147.19
230.433	125.19
230.667	130.19
230.901	121.19
231.136	120.19
231.37	115.19
231.604	117.19
231.838	123.19
232.072	105.19
232.306	98.19
232.541	115.19
232.775	121.19
233.009	109.19
233.243	117.19
233.477	110.19
233.711	114.19
233.945	125.19
234.179	120.19
234.413	109.19
234.647	125.19
234.881	114.19
235.115	125.19
235.349	131.19
235.583	115.19
235.817	118.19
236.051	125.19
236.285	120.19
236.519	122.19
236.753	120.19
236.987	141.19
237.221	196.19
237.455	252.19
237.689	211.19
237.922	158.19
238.156	135.19
238.39	143.19
238.624	125.19
238.858	119.19
239.091	136.19
239.325	122.19
239.559	121.19
239.793	122.19
240.027	130.19
240.26	135.19
240.494	157.19
240.728	149.19
240.961	178.19
241.195	148.19
241.429	137.19
241.662	153.19
241.896	148.19
242.13	141.19
242.363	142.19
242.597	134.19
242.83	150.19
243.064	147.19
243.298	155.19
243.531	137.19
243.765	146.19
243.998	138.19
244.232	142.19
244.465	133.19
244.699	136.19
244.932	137.19
245.166	149.19
245.399	139.19
245.633	140.19
245.866	151.19
246.099	117.19
246.333	146.19
246.566	135.19
246.8	146.19
247.033	165.19
247.266	141.19
247.5	154.19
247.733	167.19
247.966	179.19
248.2	164.19
248.433	170.19
248.666	162.19
248.899	205.19
249.133	213.19
249.366	238.19
249.599	195.19
249.832	188.19
250.066	165.19
250.299	171.19
250.532	183.19
250.765	185.19
250.998	213.19
251.231	236.19
251.465	219.19
251.698	203.19
251.931	191.19
252.164	189.19
252.397	204.19
252.63	202.19
252.863	212.19
253.096	219.19
253.329	224.19
253.562	236.19
253.795	224.19
254.028	238.19
254.261	219.19
254.494	235.19
254.727	241.19
254.96	283.19
255.193	281.19
255.426	245.19
255.659	234.19
255.892	228.19
256.124	234.19
256.357	207.19
256.59	212.19
256.823	214.19
257.056	217.19
257.289	193.19
257.521	204.19
257.754	170.19
257.987	188.19
258.22	210.19
258.452	214.19
258.685	195.19
258.918	191.19
259.151	195.19
259.383	212.19
259.616	212.19
259.849	196.19
260.081	206.19
260.314	241.19
260.547	271.19
260.779	243.19
261.012	228.19
261.244	222.19
261.477	225.19
261.71	228.19
261.942	255.19
262.175	246.19
262.407	234.19
262.64	225.19
262.872	192.19
263.105	207.19
263.337	207.19
263.57	203.19
263.802	196.19
264.035	193.19
264.267	182.19
264.499	194.19
264.732	197.19
264.964	213.19
265.197	209.19
265.429	199.19
265.661	188.19
265.894	191.19
266.126	189.19
266.358	200.19
266.591	193.19
266.823	202.19
267.055	197.19
267.287	203.19
267.52	195.19
267.752	218.19
267.984	196.19
268.216	191.19
268.448	217.19
268.681	199.19
268.913	230.19
269.145	243.19
269.377	265.19
269.609	253.19
269.841	271.19
270.073	261.19
270.306	295.19
270.538	287.19
270.77	327.19
271.002	307.19
271.234	285.19
271.466	301.19
271.698	300.19
271.93	324.19
272.162	313.19
272.394	291.19
272.626	306.19
272.858	293.19
273.09	271.19
273.322	272.19
273.553	245.19
273.785	262.19
274.017	231.19
274.249	247.19
274.481	262.19
274.713	249.19
274.945	257.19
275.176	229.19
275.408	236.19
275.64	262.19
275.872	242.19
276.104	235.19
276.335	233.19
276.567	250.19
276.799	297.19
277.031	308.19
277.262	290.19
277.494	312.19
277.726	275.19
277.957	262.19
278.189	257.19
278.421	258.19
278.652	255.19
278.884	241.19
279.115	221.19
279.347	241.19
279.579	244.19
279.81	243.19
280.042	216.19
280.273	239.19
280.505	241.19
280.736	227.19
280.968	227.19
281.199	220.19
281.431	226.19
281.662	234.19
281.894	225.19
282.125	228.19
282.356	269.19
282.588	306.19
282.819	283.19
283.051	237.19
283.282	230.19
283.513	234.19
283.745	241.19
283.976	222.19
284.207	250.19
284.439	232.19
284.67	241.19
284.901	236.19
285.132	231.19
285.364	230.19
285.595	218.19
285.826	229.19
286.057	226.19
286.288	232.19
286.52	237.19
286.751	239.19
286.982	234.19
287.213	227.19
287.444	238.19
287.675	253.19
287.906	257.19
288.138	243.19
288.369	253.19
288.6	269.19
288.831	274.19
289.062	260.19
289.293	243.19
289.524	241.19
289.755	249.19
289.986	237.19
290.217	252.19
290.448	233.19
290.679	250.19
290.91	222.19
291.141	243.19
291.371	228.19
291.602	233.19
291.833	241.19
292.064	253.19
292.295	234.19
292.526	249.19
292.757	241.19
292.987	249.19
293.218	218.19
293.449	230.19
293.68	235.19
293.91	224.19
294.141	223.19
294.372	242.19
294.603	233.19
294.833	232.19
295.064	249.19
295.295	246.19
295.525	227.19
295.756	237.19
295.987	265.19
296.217	289.19
296.448	299.19
296.679	261.19
296.909	231.19
297.14	233.19
297.37	246.19
297.601	242.19
297.831	241.19
298.062	247.19
298.292	245.19
298.523	227.19
298.753	257.19
298.984	260.19
299.214	246.19
299.445	257.19
299.675	252.19
299.905	262.19
300.136	260.19
300.366	261.19
300.597	261.19
300.827	245.19
301.057	265.19
301.288	279.19
301.518	262.19
301.748	262.19
301.979	285.19
302.209	254.19
302.439	271.19
302.669	278.19
302.9	272.19
303.13	279.19
303.36	281.19
303.59	270.19
303.82	299.19
304.051	266.19
304.281	270.19
304.511	267.19
304.741	259.19
304.971	269.19
305.201	257.19
305.431	263.19
305.661	272.19
305.891	271.19
306.121	265.19
306.352	275.19
306.582	287.19
306.812	271.19
307.042	266.19
307.272	271.19
307.502	274.19
307.731	279.19
307.961	287.19
308.191	279.19
308.421	280.19
308.651	283.19
308.881	277.19
309.111	285.19
309.341	306.19
309.571	313.19
309.8	310.19
310.03	339.19
310.26	344.19
310.49	347.19
310.72	357.19
310.949	379.19
311.179	366.19
311.409	357.19
311.639	325.19
311.868	348.19
312.098	335.19
312.328	350.19
312.557	381.19
312.787	425.19
313.017	409.19
313.246	365.19
313.476	336.19
313.706	334.19
313.935	342.19
314.165	361.19
314.394	385.19
314.624	370.19
314.853	346.19
315.083	353.19
315.312	322.19
315.542	328.19
315.771	331.19
316.001	311.19
316.23	318.19
316.46	317.19
316.689	312.19
316.919	346.19
317.148	354.19
317.377	353.19
317.607	349.19
317.836	341.19
318.065	343.19
318.295	342.19
318.524	321.19
318.753	325.19
318.983	329.19
319.212	340.19
319.441	335.19
319.67	341.19
319.9	341.19
320.129	335.19
320.358	318.19
320.587	328.19
320.816	349.19
321.046	363.19
321.275	357.19
321.504	349.19
321.733	382.19
321.962	376.19
322.191	407.19
322.42	414.19
322.649	458.19
322.878	477.19
323.108	476.19
323.337	514.19
323.566	561.19
323.795	609.19
324.024	693.19
324.253	865.19
324.482	1239.19
324.71	1945.19
324.939	2747.19
325.168	2386.19
325.397	1301.19
325.626	855.19
325.855	682.19
326.084	585.19
326.313	552.19
326.542	571.19
326.77	623.19
326.999	781.19
327.228	1098.19
327.457	1715.19
327.686	2056.19
327.914	1399.19
328.143	890.19
328.372	736.19
328.6	693.19
328.829	656.19
329.058	662.19
329.287	683.19
329.515	616.19
329.744	539.19
329.972	503.19
330.201	502.19
330.43	566.19
330.658	621.19
330.887	706.19
331.115	693.19
331.344	602.19
331.572	484.19
331.801	489.19
332.03	484.19
332.258	448.19
332.486	402.19
332.715	408.19
332.943	411.19
333.172	398.19
333.4	377.19
333.629	370.19
333.857	405.19
334.085	404.19
334.314	376.19
334.542	418.19
334.771	410.19
334.999	392.19
335.227	401.19
335.455	389.19
335.684	359.19
335.912	369.19
336.14	381.19
336.369	387.19
336.597	389.19
336.825	385.19
337.053	367.19
337.281	373.19
337.51	354.19
337.738	358.19
337.966	389.19
338.194	371.19
338.422	382.19
338.65	375.19
338.878	351.19
339.106	364.19
339.334	359.19
339.562	345.19
339.79	379.19
340.018	370.19
340.246	391.19
340.474	370.19
340.702	371.19
340.93	374.19
341.158	350.19
341.386	379.19
341.614	395.19
341.842	377.19
342.07	373.19
342.298	350.19
342.526	359.19
342.754	348.19
342.981	332.19
343.209	356.19
343.437	362.19
343.665	343.19
343.893	348.19
344.12	359.19
344.348	362.19
344.576	365.19
344.804	383.19
345.031	392.19
345.259	427.19
345.487	391.19
345.714	390.19
345.942	355.19
346.17	350.19
346.397	352.19
346.625	381.19
346.853	361.19
347.08	365.19
347.308	377.19
347.535	394.19
347.763	404.19
347.99	391.19
348.218	394.19
348.445	393.19
348.673	419.19
348.9	398.19
349.128	373.19
349.355	356.19
349.583	352.19
349.81	342.19
350.037	344.19
350.265	342.19
350.492	346.19
350.72	360.19
350.947	375.19
351.174	377.19
351.402	383.19
351.629	399.19
351.856	412.19
352.083	401.19
352.311	406.19
352.538	401.19
352.765	424.19
352.992	396.19
353.22	395.19
353.447	367.19
353.674	371.19
353.901	332.19
354.128	333.19
354.355	343.19
354.583	329.19
354.81	334.19
355.037	335.19
355.264	321.19
355.491	330.19
355.718	308.19
355.945	317.19
356.172	333.19
356.399	333.19
356.626	320.19
356.853	327.19
357.08	316.19
357.307	321.19
357.534	340.19
357.761	301.19
357.988	325.19
358.215	316.19
358.441	341.19
358.668	334.19
358.895	364.19
359.122	353.19
359.349	365.19
359.576	359.19
359.802	422.19
360.029	478.19
360.256	464.19
360.483	419.19
360.709	395.19
360.936	380.19
361.163	375.19
361.39	390.19
361.616	380.19
361.843	363.19
362.07	378.19
362.296	387.19
362.523	394.19
362.749	369.19
362.976	339.19
363.203	363.19
363.429	349.19
363.656	370.19
363.882	358.19
364.109	332.19
364.335	347.19
364.562	345.19
364.788	355.19
365.015	351.19
365.241	349.19
365.468	349.19
365.694	350.19
365.92	377.19
366.147	351.19
366.373	347.19
366.599	342.19
366.826	341.19
367.052	316.19
367.278	332.19
367.505	329.19
367.731	334.19
367.957	345.19
368.184	351.19
368.41	339.19
368.636	372.19
368.862	365.19
369.089	354.19
369.315	335.19
369.541	322.19
369.767	342.19
369.993	321.19
370.219	326.19
370.445	317.19
370.672	308.19
370.898	316.19
371.124	316.19
371.35	320.19
371.576	329.19
371.802	321.19
372.028	313.19
372.254	311.19
372.48	340.19
372.706	323.19
372.932	327.19
373.158	326.19
373.384	320.19
373.61	335.19
373.835	327.19
374.061	334.19
374.287	342.19
374.513	314.19
374.739	345.19
374.965	337.19
375.191	333.19
375.416	321.19
375.642	327.19
375.868	326.19
376.094	306.19
376.319	335.19
376.545	332.19
376.771	311.19
376.997	321.19
377.222	320.19
377.448	311.19
377.674	296.19
377.899	301.19
378.125	300.19
378.35	302.19
378.576	319.19
378.802	309.19
379.027	303.19
379.253	316.19
379.478	319.19
379.704	312.19
379.929	316.19
380.155	330.19
380.38	330.19
380.606	325.19
380.831	316.19
381.057	306.19
381.282	322.19
381.507	322.19
381.733	332.19
381.958	329.19
382.184	324.19
382.409	327.19
382.634	361.19
382.86	324.19
383.085	325.19
383.31	342.19
383.535	322.19
383.761	310.19
383.986	331.19
384.211	296.19
384.436	313.19
384.662	351.19
384.887	331.19
385.112	325.19
385.337	318.19
385.562	327.19
385.787	334.19
386.013	346.19
386.238	354.19
386.463	349.19
386.688	318.19
386.913	322.19
387.138	334.19
387.363	335.19
387.588	345.19
387.813	324.19
388.038	331.19
388.263	339.19
388.488	328.19
388.713	345.19
388.938	332.19
389.163	339.19
389.387	350.19
389.612	342.19
389.837	343.19
390.062	341.19
390.287	328.19
390.512	320.19
390.736	335.19
390.961	330.19
391.186	336.19
391.411	337.19
391.636	333.19
391.86	347.19
392.085	346.19
392.31	348.19
392.534	346.19
392.759	347.19
392.984	329.19
393.208	332.19
393.433	343.19
393.658	329.19
393.882	333.19
394.107	318.19
394.331	334.19
394.556	330.19
394.78	347.19
395.005	347.19
395.229	318.19
395.454	322.19
395.678	346.19
395.903	348.19
396.127	376.19
396.352	380.19
396.576	360.19
396.801	353.19
397.025	353.19
397.249	359.19
397.474	327.19
397.698	363.19
397.922	366.19
398.147	372.19
398.371	387.19
398.595	375.19
398.82	364.19
399.044	344.19
399.268	372.19
399.492	387.19
399.717	423.19
399.941	425.19
400.165	463.19
400.389	487.19
400.613	429.19
400.837	421.19
401.062	411.19
401.286	385.19
401.51	398.19
401.734	379.19
401.958	363.19
402.182	407.19
402.406	415.19
402.63	405.19
402.854	394.19
403.078	411.19
403.302	398.19
403.526	419.19
403.75	413.19
403.974	410.19
404.198	393.19
404.422	418.19
404.645	411.19
404.869	414.19
405.093	415.19
405.317	458.19
405.541	494.19
405.765	471.19
405.988	437.19
406.212	459.19
406.436	499.19
406.66	514.19
406.883	457.19
407.107	479.19
407.331	516.19
407.555	557.19
407.778	589.19
408.002	512.19
408.226	474.19
408.449	464.19
408.673	455.19
408.896	494.19
409.12	542.19
409.344	504.19
409.567	444.19
409.791	425.19
410.014	405.19
410.238	404.19
410.461	413.19
410.685	413.19
410.908	416.19
411.132	497.19
411.355	504.19
411.578	466.19
411.802	427.19
412.025	403.19
412.249	392.19
412.472	409.19
412.695	422.19
412.919	419.19
413.142	405.19
413.365	404.19
413.589	397.19
413.812	379.19
414.035	385.19
414.258	385.19
414.482	398.19
414.705	387.19
414.928	349.19
415.151	375.19
415.374	375.19
415.597	378.19
415.821	383.19
416.044	391.19
416.267	397.19
416.49	387.19
416.713	385.19
416.936	381.19
417.159	379.19
417.382	415.19
417.605	429.19
417.828	415.19
418.051	427.19
418.274	420.19
418.497	407.19
418.72	378.19
418.943	385.19
419.166	405.19
419.389	422.19
419.611	425.19
419.834	400.19
420.057	417.19
420.28	410.19
420.503	419.19
420.726	404.19
420.948	452.19
421.171	476.19
421.394	493.19
421.617	459.19
421.839	426.19
422.062	430.19
422.285	449.19
422.507	509.19
422.73	570.19
422.953	550.19
423.175	494.19
423.398	456.19
423.621	446.19
423.843	491.19
424.066	471.19
424.288	485.19
424.511	494.19
424.733	539.19
424.956	631.19
425.178	619.19
425.401	615.19
425.623	634.19
425.846	536.19
426.068	517.19
426.291	509.19
426.513	484.19
426.735	521.19
426.958	556.19
427.18	638.19
427.402	746.19
427.625	851.19
427.847	821.19
428.069	660.19
428.292	558.19
428.514	520.19
428.736	487.19
428.958	477.19
429.181	471.19
429.403	462.19
429.625	483.19
429.847	501.19
430.069	571.19
430.292	545.19
430.514	463.19
430.736	443.19
430.958	455.19
431.18	402.19
431.402	420.19
431.624	407.19
431.846	426.19
432.068	418.19
432.29	428.19
432.512	406.19
432.734	431.19
432.956	429.19
433.178	449.19
433.4	470.19
433.622	432.19
433.844	405.19
434.066	418.19
434.287	414.19
434.509	426.19
434.731	431.19
434.953	422.19
435.175	444.19
435.397	485.19
435.618	490.19
435.84	536.19
436.062	622.19
436.284	685.19
436.505	604.19
436.727	523.19
436.949	476.19
437.17	462.19
437.392	476.19
437.614	508.19
437.835	534.19
438.057	666.19
438.278	738.19
438.5	717.19
438.721	744.19
438.943	724.19
439.165	609.19
439.386	554.19
439.608	538.19
439.829	534.19
440.05	548.19
440.272	602.19
440.493	571.19
440.715	527.19
440.936	478.19
441.158	462.19
441.379	488.19
441.6	514.19
441.822	528.19
442.043	555.19
442.264	637.19
442.486	670.19
442.707	577.19
442.928	519.19
443.149	533.19
443.371	566.19
443.592	610.19
443.813	680.19
444.034	722.19
444.255	603.19
444.476	527.19
444.698	488.19
444.919	513.19
445.14	577.19
445.361	536.19
445.582	561.19
445.803	603.19
446.024	705.19
446.245	730.19
446.466	666.19
446.687	574.19
446.908	529.19
447.129	493.19
447.35	481.19
447.571	463.19
447.792	453.19
448.013	488.19
448.234	521.19
448.455	563.19
448.675	675.19
448.896	737.19
449.117	666.19
449.338	638.19
449.559	724.19
449.779	769.19
450	638.19
450.221	534.19
450.442	515.19
450.662	501.19
450.883	517.19
451.104	538.19
451.324	503.19
451.545	469.19
451.766	439.19
451.986	427.19
452.207	422.19
452.428	424.19
452.648	431.19
452.869	453.19
453.089	435.19
453.31	469.19
453.53	423.19
453.751	445.19
453.971	435.19
454.192	463.19
454.412	457.19
454.633	444.19
454.853	428.19
455.073	417.19
455.294	453.19
455.514	520.19
455.734	521.19
455.955	442.19
456.175	426.19
456.395	403.19
456.616	370.19
456.836	382.19
457.056	376.19
457.276	373.19
457.497	380.19
457.717	378.19
457.937	390.19
458.157	389.19
458.377	397.19
458.598	444.19
458.818	530.19
459.038	629.19
459.258	636.19
459.478	517.19
459.698	472.19
459.918	439.19
460.138	406.19
460.358	420.19
460.578	399.19
460.798	411.19
461.018	423.19
461.238	406.19
461.458	386.19
461.678	413.19
461.898	419.19
462.118	394.19
462.338	396.19
462.558	414.19
462.777	407.19
462.997	404.19
463.217	399.19
463.437	415.19
463.657	426.19
463.876	407.19
464.096	415.19
464.316	408.19
464.536	431.19
464.755	440.19
464.975	451.19
465.195	565.19
465.414	681.19
465.634	587.19
465.854	515.19
466.073	461.19
466.293	441.19
466.512	445.19
466.732	419.19
466.951	417.19
467.171	409.19
467.391	389.19
467.61	421.19
467.829	469.19
468.049	448.19
468.268	414.19
468.488	411.19
468.707	407.19
468.927	405.19
469.146	406.19
469.365	394.19
469.585	396.19
469.804	408.19
470.023	450.19
470.243	429.19
470.462	425.19
470.681	497.19
470.901	454.19
471.12	435.19
471.339	418.19
471.558	434.19
471.777	436.19
471.997	393.19
472.216	393.19
472.435	416.19
472.654	402.19
472.873	419.19
473.092	418.19
473.311	424.19
473.53	404.19
473.749	424.19
473.968	482.19
474.187	602.19
474.406	619.19
474.625	506.19
474.844	468.19
475.063	446.19
475.282	422.19
475.501	405.19
475.72	424.19
475.939	430.19
476.158	436.19
476.377	429.19
476.596	427.19
476.814	445.19
477.033	457.19
477.252	474.19
477.471	430.19
477.69	462.19
477.908	457.19
478.127	456.19
478.346	454.19
478.564	441.19
478.783	478.19
479.002	481.19
479.22	462.19
479.439	464.19
479.658	526.19
479.876	531.19
480.095	539.19
480.313	575.19
480.532	537.19
480.751	503.19
480.969	487.19
481.188	513.19
481.406	543.19
481.624	505.19
481.843	508.19
482.061	489.19
482.28	487.19
482.498	481.19
482.717	502.19
482.935	496.19
483.153	488.19
483.372	478.19
483.59	494.19
483.808	491.19
484.027	509.19
484.245	484.19
484.463	485.19
484.681	489.19
484.9	502.19
485.118	480.19
485.336	484.19
485.554	495.19
485.772	502.19
485.99	517.19
486.209	518.19
486.427	524.19
486.645	553.19
486.863	593.19
487.081	542.19
487.299	561.19
487.517	555.19
487.735	530.19
487.953	531.19
488.171	560.19
488.389	548.19
488.607	551.19
488.825	542.19
489.043	565.19
489.261	567.19
489.479	567.19
489.696	566.19
489.914	558.19
490.132	565.19
490.35	574.19
490.568	577.19
490.786	583.19
491.003	598.19
491.221	619.19
491.439	603.19
491.657	621.19
491.874	621.19
492.092	613.19
492.31	650.19
492.527	661.19
492.745	648.19
492.963	637.19
493.18	625.19
493.398	659.19
493.615	669.19
493.833	671.19
494.05	674.19
494.268	651.19
494.485	653.19
494.703	657.19
494.92	661.19
495.138	658.19
495.355	639.19
495.573	656.19
495.79	649.19
496.008	687.19
496.225	655.19
496.442	661.19
496.66	673.19
496.877	643.19
497.094	655.19
497.312	669.19
497.529	691.19
497.746	686.19
497.963	675.19
498.181	700.19
498.398	731.19
498.615	705.19
498.832	710.19
499.049	707.19
499.267	689.19
499.484	693.19
499.701	736.19
499.918	749.19
500.135	745.19
500.352	748.19
500.569	764.19
500.786	755.19
501.003	769.19
501.22	771.19
501.437	771.19
501.654	774.19
501.871	756.19
