Data from 1987.PennyLincolnUp.Lamp.En5.5.200Scan.071819.P2_HRD10591_17-14-39-973.txt Node
Date: Thu Jul 18 17:14:39 EDT 2019
User: cochatt
Spectrometer: HR+D1059
Trigger mode: 1
Integration Time (sec): 1.000000E-1
Scans to average: 1
Electric dark correction enabled: true
Nonlinearity correction enabled: false
Boxcar width: 0
XAxis mode: Wavelengths
Number of Pixels in Spectrum: 2048
>>>>>Begin Spectral Data<<<<<
223.165	-14.12
223.4	-14.12
223.635	-14.12
223.869	-18.12
224.104	-28.12
224.338	-14.12
224.573	-25.12
224.808	-19.12
225.042	-15.12
225.277	3.88
225.511	-6.12
225.746	2.88
225.98	-4.12
226.215	25.88
226.449	25.88
226.683	12.88
226.918	40.88
227.152	31.88
227.387	28.88
227.621	39.88
227.856	43.88
228.09	43.88
228.324	37.88
228.559	44.88
228.793	51.88
229.027	91.88
229.262	106.88
229.496	110.88
229.73	142.88
229.964	168.88
230.199	131.88
230.433	125.88
230.667	128.88
230.901	121.88
231.136	109.88
231.37	123.88
231.604	86.88
231.838	102.88
232.072	105.88
232.306	120.88
232.541	107.88
232.775	116.88
233.009	100.88
233.243	106.88
233.477	101.88
233.711	115.88
233.945	114.88
234.179	102.88
234.413	124.88
234.647	122.88
234.881	117.88
235.115	125.88
235.349	115.88
235.583	126.88
235.817	119.88
236.051	121.88
236.285	124.88
236.519	114.88
236.753	128.88
236.987	151.88
237.221	174.88
237.455	221.88
237.689	199.88
237.922	150.88
238.156	129.88
238.39	135.88
238.624	126.88
238.858	128.88
239.091	109.88
239.325	110.88
239.559	122.88
239.793	134.88
240.027	130.88
240.26	140.88
240.494	152.88
240.728	145.88
240.961	136.88
241.195	155.88
241.429	125.88
241.662	126.88
241.896	136.88
242.13	132.88
242.363	123.88
242.597	116.88
242.83	123.88
243.064	125.88
243.298	147.88
243.531	126.88
243.765	136.88
243.998	149.88
244.232	134.88
244.465	140.88
244.699	130.88
244.932	129.88
245.166	124.88
245.399	143.88
245.633	137.88
245.866	140.88
246.099	124.88
246.333	138.88
246.566	137.88
246.8	137.88
247.033	148.88
247.266	135.88
247.5	141.88
247.733	149.88
247.966	178.88
248.2	170.88
248.433	174.88
248.666	177.88
248.899	182.88
249.133	186.88
249.366	196.88
249.599	192.88
249.832	172.88
250.066	194.88
250.299	178.88
250.532	190.88
250.765	180.88
250.998	200.88
251.231	209.88
251.465	199.88
251.698	187.88
251.931	188.88
252.164	195.88
252.397	180.88
252.63	198.88
252.863	200.88
253.096	202.88
253.329	215.88
253.562	203.88
253.795	208.88
254.028	206.88
254.261	194.88
254.494	212.88
254.727	243.88
254.96	270.88
255.193	254.88
255.426	250.88
255.659	216.88
255.892	212.88
256.124	193.88
256.357	194.88
256.59	209.88
256.823	195.88
257.056	197.88
257.289	188.88
257.521	202.88
257.754	197.88
257.987	191.88
258.22	194.88
258.452	193.88
258.685	186.88
258.918	176.88
259.151	192.88
259.383	209.88
259.616	194.88
259.849	203.88
260.081	222.88
260.314	247.88
260.547	243.88
260.779	223.88
261.012	218.88
261.244	217.88
261.477	195.88
261.71	205.88
261.942	197.88
262.175	225.88
262.407	221.88
262.64	184.88
262.872	212.88
263.105	181.88
263.337	192.88
263.57	197.88
263.802	199.88
264.035	207.88
264.267	190.88
264.499	180.88
264.732	186.88
264.964	203.88
265.197	200.88
265.429	179.88
265.661	189.88
265.894	181.88
266.126	188.88
266.358	187.88
266.591	190.88
266.823	196.88
267.055	186.88
267.287	193.88
267.52	189.88
267.752	195.88
267.984	198.88
268.216	192.88
268.448	214.88
268.681	203.88
268.913	216.88
269.145	229.88
269.377	236.88
269.609	246.88
269.841	249.88
270.073	241.88
270.306	258.88
270.538	282.88
270.77	283.88
271.002	266.88
271.234	268.88
271.466	264.88
271.698	298.88
271.93	287.88
272.162	285.88
272.394	310.88
272.626	266.88
272.858	277.88
273.09	252.88
273.322	245.88
273.553	259.88
273.785	244.88
274.017	237.88
274.249	240.88
274.481	241.88
274.713	234.88
274.945	260.88
275.176	235.88
275.408	229.88
275.64	226.88
275.872	217.88
276.104	237.88
276.335	224.88
276.567	212.88
276.799	253.88
277.031	263.88
277.262	277.88
277.494	294.88
277.726	255.88
277.957	268.88
278.189	248.88
278.421	236.88
278.652	221.88
278.884	230.88
279.115	214.88
279.347	220.88
279.579	217.88
279.81	235.88
280.042	215.88
280.273	230.88
280.505	215.88
280.736	213.88
280.968	222.88
281.199	208.88
281.431	208.88
281.662	219.88
281.894	230.88
282.125	220.88
282.356	234.88
282.588	255.88
282.819	276.88
283.051	242.88
283.282	225.88
283.513	233.88
283.745	217.88
283.976	229.88
284.207	237.88
284.439	238.88
284.67	222.88
284.901	211.88
285.132	215.88
285.364	225.88
285.595	226.88
285.826	240.88
286.057	228.88
286.288	222.88
286.52	210.88
286.751	221.88
286.982	218.88
287.213	211.88
287.444	228.88
287.675	224.88
287.906	237.88
288.138	233.88
288.369	242.88
288.6	229.88
288.831	234.88
289.062	220.88
289.293	231.88
289.524	222.88
289.755	229.88
289.986	228.88
290.217	225.88
290.448	229.88
290.679	228.88
290.91	233.88
291.141	210.88
291.371	228.88
291.602	230.88
291.833	222.88
292.064	227.88
292.295	222.88
292.526	214.88
292.757	218.88
292.987	225.88
293.218	214.88
293.449	229.88
293.68	213.88
293.91	226.88
294.141	230.88
294.372	221.88
294.603	235.88
294.833	222.88
295.064	217.88
295.295	228.88
295.525	219.88
295.756	235.88
295.987	239.88
296.217	277.88
296.448	286.88
296.679	251.88
296.909	236.88
297.14	229.88
297.37	217.88
297.601	237.88
297.831	217.88
298.062	228.88
298.292	232.88
298.523	241.88
298.753	242.88
298.984	226.88
299.214	234.88
299.445	235.88
299.675	250.88
299.905	232.88
300.136	222.88
300.366	248.88
300.597	235.88
300.827	246.88
301.057	252.88
301.288	253.88
301.518	248.88
301.748	249.88
301.979	262.88
302.209	277.88
302.439	262.88
302.669	260.88
302.9	252.88
303.13	242.88
303.36	257.88
303.59	259.88
303.82	255.88
304.051	284.88
304.281	262.88
304.511	250.88
304.741	248.88
304.971	262.88
305.201	242.88
305.431	245.88
305.661	242.88
305.891	256.88
306.121	256.88
306.352	269.88
306.582	284.88
306.812	280.88
307.042	272.88
307.272	270.88
307.502	242.88
307.731	268.88
307.961	269.88
308.191	252.88
308.421	278.88
308.651	272.88
308.881	278.88
309.111	280.88
309.341	275.88
309.571	306.88
309.8	315.88
310.03	324.88
310.26	323.88
310.49	319.88
310.72	325.88
310.949	356.88
311.179	355.88
311.409	319.88
311.639	314.88
311.868	306.88
312.098	326.88
312.328	329.88
312.557	340.88
312.787	371.88
313.017	364.88
313.246	335.88
313.476	332.88
313.706	310.88
313.935	322.88
314.165	365.88
314.394	341.88
314.624	348.88
314.853	333.88
315.083	336.88
315.312	313.88
315.542	304.88
315.771	290.88
316.001	297.88
316.23	301.88
316.46	304.88
316.689	299.88
316.919	306.88
317.148	312.88
317.377	325.88
317.607	326.88
317.836	327.88
318.065	327.88
318.295	312.88
318.524	301.88
318.753	290.88
318.983	319.88
319.212	322.88
319.441	313.88
319.67	328.88
319.9	316.88
320.129	311.88
320.358	320.88
320.587	321.88
320.816	321.88
321.046	349.88
321.275	340.88
321.504	334.88
321.733	340.88
321.962	357.88
322.191	370.88
322.42	387.88
322.649	410.88
322.878	397.88
323.108	429.88
323.337	454.88
323.566	507.88
323.795	514.88
324.024	579.88
324.253	763.88
324.482	1090.88
324.71	1657.88
324.939	2336.88
325.168	2057.88
325.397	1150.88
325.626	732.88
325.855	598.88
326.084	534.88
326.313	500.88
326.542	518.88
326.77	561.88
326.999	688.88
327.228	902.88
327.457	1442.88
327.686	1754.88
327.914	1230.88
328.143	781.88
328.372	662.88
328.6	594.88
328.829	562.88
329.058	594.88
329.287	615.88
329.515	538.88
329.744	496.88
329.972	485.88
330.201	484.88
330.43	496.88
330.658	549.88
330.887	605.88
331.115	612.88
331.344	516.88
331.572	454.88
331.801	465.88
332.03	429.88
332.258	426.88
332.486	379.88
332.715	385.88
332.943	384.88
333.172	373.88
333.4	386.88
333.629	362.88
333.857	373.88
334.085	367.88
334.314	357.88
334.542	353.88
334.771	384.88
334.999	372.88
335.227	360.88
335.455	350.88
335.684	374.88
335.912	359.88
336.14	365.88
336.369	367.88
336.597	366.88
336.825	378.88
337.053	360.88
337.281	361.88
337.51	350.88
337.738	360.88
337.966	352.88
338.194	364.88
338.422	362.88
338.65	345.88
338.878	364.88
339.106	335.88
339.334	346.88
339.562	322.88
339.79	340.88
340.018	358.88
340.246	349.88
340.474	354.88
340.702	358.88
340.93	336.88
341.158	338.88
341.386	356.88
341.614	350.88
341.842	346.88
342.07	341.88
342.298	317.88
342.526	342.88
342.754	321.88
342.981	312.88
343.209	310.88
343.437	348.88
343.665	320.88
343.893	343.88
344.12	349.88
344.348	328.88
344.576	358.88
344.804	357.88
345.031	393.88
345.259	383.88
345.487	380.88
345.714	357.88
345.942	338.88
346.17	338.88
346.397	362.88
346.625	334.88
346.853	328.88
347.08	350.88
347.308	354.88
347.535	364.88
347.763	392.88
347.99	372.88
348.218	353.88
348.445	388.88
348.673	375.88
348.9	376.88
349.128	356.88
349.355	331.88
349.583	339.88
349.81	313.88
350.037	340.88
350.265	335.88
350.492	357.88
350.72	346.88
350.947	348.88
351.174	363.88
351.402	387.88
351.629	364.88
351.856	375.88
352.083	370.88
352.311	380.88
352.538	388.88
352.765	373.88
352.992	387.88
353.22	389.88
353.447	377.88
353.674	372.88
353.901	342.88
354.128	320.88
354.355	330.88
354.583	316.88
354.81	304.88
355.037	306.88
355.264	320.88
355.491	304.88
355.718	304.88
355.945	290.88
356.172	308.88
356.399	307.88
356.626	293.88
356.853	309.88
357.08	320.88
357.307	326.88
357.534	305.88
357.761	328.88
357.988	324.88
358.215	319.88
358.441	330.88
358.668	312.88
358.895	321.88
359.122	332.88
359.349	341.88
359.576	356.88
359.802	378.88
360.029	420.88
360.256	438.88
360.483	429.88
360.709	364.88
360.936	374.88
361.163	352.88
361.39	347.88
361.616	348.88
361.843	343.88
362.07	355.88
362.296	369.88
362.523	356.88
362.749	375.88
362.976	363.88
363.203	336.88
363.429	330.88
363.656	320.88
363.882	319.88
364.109	331.88
364.335	341.88
364.562	329.88
364.788	317.88
365.015	313.88
365.241	343.88
365.468	341.88
365.694	350.88
365.92	356.88
366.147	337.88
366.373	322.88
366.599	340.88
366.826	333.88
367.052	320.88
367.278	314.88
367.505	339.88
367.731	321.88
367.957	316.88
368.184	312.88
368.41	336.88
368.636	342.88
368.862	354.88
369.089	340.88
369.315	339.88
369.541	326.88
369.767	340.88
369.993	332.88
370.219	318.88
370.445	334.88
370.672	317.88
370.898	313.88
371.124	317.88
371.35	323.88
371.576	310.88
371.802	332.88
372.028	308.88
372.254	337.88
372.48	323.88
372.706	319.88
372.932	304.88
373.158	319.88
373.384	319.88
373.61	304.88
373.835	314.88
374.061	324.88
374.287	322.88
374.513	287.88
374.739	321.88
374.965	333.88
375.191	321.88
375.416	324.88
375.642	300.88
375.868	320.88
376.094	324.88
376.319	299.88
376.545	301.88
376.771	313.88
376.997	322.88
377.222	306.88
377.448	316.88
377.674	333.88
377.899	338.88
378.125	289.88
378.35	328.88
378.576	315.88
378.802	320.88
379.027	316.88
379.253	324.88
379.478	324.88
379.704	307.88
379.929	318.88
380.155	330.88
380.38	314.88
380.606	321.88
380.831	298.88
381.057	318.88
381.282	328.88
381.507	330.88
381.733	308.88
381.958	324.88
382.184	333.88
382.409	338.88
382.634	332.88
382.86	330.88
383.085	330.88
383.31	316.88
383.535	329.88
383.761	337.88
383.986	325.88
384.211	330.88
384.436	333.88
384.662	317.88
384.887	325.88
385.112	333.88
385.337	329.88
385.562	328.88
385.787	345.88
386.013	353.88
386.238	340.88
386.463	348.88
386.688	345.88
386.913	332.88
387.138	329.88
387.363	334.88
387.588	331.88
387.813	323.88
388.038	315.88
388.263	347.88
388.488	328.88
388.713	335.88
388.938	352.88
389.163	343.88
389.387	346.88
389.612	323.88
389.837	336.88
390.062	330.88
390.287	322.88
390.512	312.88
390.736	334.88
390.961	325.88
391.186	338.88
391.411	337.88
391.636	349.88
391.86	335.88
392.085	330.88
392.31	350.88
392.534	344.88
392.759	333.88
392.984	337.88
393.208	330.88
393.433	356.88
393.658	342.88
393.882	338.88
394.107	333.88
394.331	335.88
394.556	334.88
394.78	316.88
395.005	340.88
395.229	338.88
395.454	322.88
395.678	350.88
395.903	356.88
396.127	384.88
396.352	356.88
396.576	333.88
396.801	346.88
397.025	353.88
397.249	346.88
397.474	346.88
397.698	360.88
397.922	390.88
398.147	370.88
398.371	391.88
398.595	390.88
398.82	357.88
399.044	368.88
399.268	368.88
399.492	388.88
399.717	410.88
399.941	419.88
400.165	450.88
400.389	487.88
400.613	444.88
400.837	406.88
401.062	394.88
401.286	394.88
401.51	392.88
401.734	413.88
401.958	388.88
402.182	388.88
402.406	413.88
402.63	406.88
402.854	395.88
403.078	397.88
403.302	406.88
403.526	429.88
403.75	408.88
403.974	386.88
404.198	392.88
404.422	415.88
404.645	424.88
404.869	417.88
405.093	407.88
405.317	436.88
405.541	477.88
405.765	441.88
405.988	429.88
406.212	438.88
406.436	482.88
406.66	469.88
406.883	431.88
407.107	468.88
407.331	491.88
407.555	562.88
407.778	554.88
408.002	487.88
408.226	471.88
408.449	453.88
408.673	464.88
408.896	498.88
409.12	521.88
409.344	493.88
409.567	440.88
409.791	438.88
410.014	409.88
410.238	402.88
410.461	375.88
410.685	420.88
410.908	437.88
411.132	465.88
411.355	506.88
411.578	457.88
411.802	426.88
412.025	408.88
412.249	404.88
412.472	405.88
412.695	429.88
412.919	418.88
413.142	396.88
413.365	395.88
413.589	401.88
413.812	388.88
414.035	382.88
414.258	366.88
414.482	384.88
414.705	373.88
414.928	366.88
415.151	372.88
415.374	376.88
415.597	392.88
415.821	383.88
416.044	396.88
416.267	395.88
416.49	370.88
416.713	398.88
416.936	377.88
417.159	387.88
417.382	376.88
417.605	403.88
417.828	388.88
418.051	412.88
418.274	429.88
418.497	377.88
418.72	369.88
418.943	384.88
419.166	410.88
419.389	419.88
419.611	416.88
419.834	396.88
420.057	384.88
420.28	424.88
420.503	412.88
420.726	405.88
420.948	455.88
421.171	487.88
421.394	501.88
421.617	449.88
421.839	435.88
422.062	425.88
422.285	449.88
422.507	489.88
422.73	582.88
422.953	586.88
423.175	473.88
423.398	457.88
423.621	452.88
423.843	437.88
424.066	465.88
424.288	461.88
424.511	488.88
424.733	543.88
424.956	617.88
425.178	626.88
425.401	593.88
425.623	596.88
425.846	512.88
426.068	501.88
426.291	502.88
426.513	481.88
426.735	496.88
426.958	530.88
427.18	631.88
427.402	706.88
427.625	819.88
427.847	757.88
428.069	634.88
428.292	549.88
428.514	530.88
428.736	492.88
428.958	454.88
429.181	468.88
429.403	442.88
429.625	444.88
429.847	499.88
430.069	561.88
430.292	553.88
430.514	503.88
430.736	468.88
430.958	432.88
431.18	447.88
431.402	416.88
431.624	403.88
431.846	415.88
432.068	399.88
432.29	439.88
432.512	390.88
432.734	420.88
432.956	425.88
433.178	440.88
433.4	461.88
433.622	445.88
433.844	404.88
434.066	416.88
434.287	399.88
434.509	408.88
434.731	435.88
434.953	418.88
435.175	437.88
435.397	474.88
435.618	472.88
435.84	537.88
436.062	614.88
436.284	650.88
436.505	566.88
436.727	518.88
436.949	485.88
437.17	444.88
437.392	478.88
437.614	491.88
437.835	527.88
438.057	650.88
438.278	713.88
438.5	698.88
438.721	714.88
438.943	714.88
439.165	586.88
439.386	526.88
439.608	543.88
439.829	514.88
440.05	562.88
440.272	569.88
440.493	546.88
440.715	516.88
440.936	467.88
441.158	462.88
441.379	450.88
441.6	482.88
441.822	499.88
442.043	526.88
442.264	617.88
442.486	646.88
442.707	565.88
442.928	510.88
443.149	540.88
443.371	554.88
443.592	570.88
443.813	680.88
444.034	683.88
444.255	585.88
444.476	520.88
444.698	493.88
444.919	506.88
445.14	564.88
445.361	540.88
445.582	562.88
445.803	600.88
446.024	697.88
446.245	684.88
446.466	636.88
446.687	557.88
446.908	518.88
447.129	479.88
447.35	448.88
447.571	459.88
447.792	454.88
448.013	472.88
448.234	493.88
448.455	541.88
448.675	627.88
448.896	706.88
449.117	658.88
449.338	608.88
449.559	709.88
449.779	754.88
450	610.88
450.221	540.88
450.442	489.88
450.662	482.88
450.883	486.88
451.104	503.88
451.324	467.88
451.545	454.88
451.766	450.88
451.986	397.88
452.207	427.88
452.428	408.88
452.648	432.88
452.869	401.88
453.089	430.88
453.31	437.88
453.53	444.88
453.751	400.88
453.971	424.88
454.192	461.88
454.412	444.88
454.633	412.88
454.853	404.88
455.073	410.88
455.294	447.88
455.514	490.88
455.734	476.88
455.955	407.88
456.175	398.88
456.395	399.88
456.616	384.88
456.836	365.88
457.056	366.88
457.276	400.88
457.497	376.88
457.717	363.88
457.937	371.88
458.157	388.88
458.377	393.88
458.598	427.88
458.818	504.88
459.038	575.88
459.258	589.88
459.478	498.88
459.698	436.88
459.918	421.88
460.138	405.88
460.358	405.88
460.578	410.88
460.798	410.88
461.018	429.88
461.238	402.88
461.458	388.88
461.678	417.88
461.898	404.88
462.118	369.88
462.338	400.88
462.558	398.88
462.777	406.88
462.997	401.88
463.217	411.88
463.437	399.88
463.657	398.88
463.876	418.88
464.096	425.88
464.316	425.88
464.536	437.88
464.755	452.88
464.975	463.88
465.195	512.88
465.414	638.88
465.634	535.88
465.854	467.88
466.073	434.88
466.293	432.88
466.512	404.88
466.732	404.88
466.951	412.88
467.171	415.88
467.391	409.88
467.61	439.88
467.829	439.88
468.049	444.88
468.268	405.88
468.488	390.88
468.707	391.88
468.927	378.88
469.146	387.88
469.365	390.88
469.585	383.88
469.804	396.88
470.023	407.88
470.243	418.88
470.462	413.88
470.681	443.88
470.901	434.88
471.12	416.88
471.339	423.88
471.558	407.88
471.777	411.88
471.997	413.88
472.216	391.88
472.435	412.88
472.654	387.88
472.873	406.88
473.092	404.88
473.311	421.88
473.53	418.88
473.749	448.88
473.968	477.88
474.187	568.88
474.406	602.88
474.625	490.88
474.844	436.88
475.063	417.88
475.282	417.88
475.501	426.88
475.72	430.88
475.939	417.88
476.158	443.88
476.377	443.88
476.596	424.88
476.814	422.88
477.033	444.88
477.252	446.88
477.471	438.88
477.69	435.88
477.908	425.88
478.127	411.88
478.346	452.88
478.564	436.88
478.783	445.88
479.002	448.88
479.22	461.88
479.439	480.88
479.658	482.88
479.876	495.88
480.095	493.88
480.313	520.88
480.532	508.88
480.751	497.88
480.969	514.88
481.188	511.88
481.406	513.88
481.624	517.88
481.843	489.88
482.061	492.88
482.28	489.88
482.498	482.88
482.717	496.88
482.935	478.88
483.153	503.88
483.372	473.88
483.59	502.88
483.808	482.88
484.027	480.88
484.245	492.88
484.463	488.88
484.681	488.88
484.9	492.88
485.118	532.88
485.336	487.88
485.554	497.88
485.772	508.88
485.99	505.88
486.209	511.88
486.427	491.88
486.645	523.88
486.863	538.88
487.081	566.88
487.299	533.88
487.517	547.88
487.735	521.88
487.953	532.88
488.171	534.88
488.389	528.88
488.607	541.88
488.825	537.88
489.043	580.88
489.261	554.88
489.479	555.88
489.696	561.88
489.914	552.88
490.132	554.88
490.35	561.88
490.568	572.88
490.786	564.88
491.003	583.88
491.221	592.88
491.439	586.88
491.657	608.88
491.874	614.88
492.092	614.88
492.31	612.88
492.527	595.88
492.745	617.88
492.963	615.88
493.18	611.88
493.398	655.88
493.615	631.88
493.833	626.88
494.05	637.88
494.268	633.88
494.485	631.88
494.703	639.88
494.92	652.88
495.138	666.88
495.355	644.88
495.573	649.88
495.79	637.88
496.008	636.88
496.225	661.88
496.442	637.88
496.66	646.88
496.877	642.88
497.094	660.88
497.312	642.88
497.529	637.88
497.746	646.88
497.963	659.88
498.181	702.88
498.398	700.88
498.615	679.88
498.832	692.88
499.049	712.88
499.267	696.88
499.484	689.88
499.701	735.88
499.918	707.88
500.135	749.88
500.352	751.88
500.569	773.88
500.786	756.88
501.003	756.88
501.22	760.88
501.437	756.88
501.654	739.88
501.871	772.88
