Data from 1987.PennyLincolnUp.Lamp.En5.5.200Scan.071819.P2_HRD10591_17-15-57-971.txt Node
Date: Thu Jul 18 17:15:57 EDT 2019
User: cochatt
Spectrometer: HR+D1059
Trigger mode: 1
Integration Time (sec): 1.000000E-1
Scans to average: 1
Electric dark correction enabled: true
Nonlinearity correction enabled: false
Boxcar width: 0
XAxis mode: Wavelengths
Number of Pixels in Spectrum: 2048
>>>>>Begin Spectral Data<<<<<
223.165	-6.5
223.4	-6.5
223.635	-6.5
223.869	0.5
224.104	-20.5
224.338	-20.5
224.573	-1.5
224.808	-13.5
225.042	-6.5
225.277	-13.5
225.511	-3.5
225.746	1.5
225.98	6.5
226.215	-8.5
226.449	9.5
226.683	18.5
226.918	23.5
227.152	34.5
227.387	25.5
227.621	38.5
227.856	40.5
228.09	56.5
228.324	58.5
228.559	49.5
228.793	66.5
229.027	96.5
229.262	116.5
229.496	129.5
229.73	153.5
229.964	192.5
230.199	162.5
230.433	118.5
230.667	122.5
230.901	124.5
231.136	108.5
231.37	128.5
231.604	123.5
231.838	118.5
232.072	119.5
232.306	118.5
232.541	109.5
232.775	119.5
233.009	124.5
233.243	110.5
233.477	123.5
233.711	114.5
233.945	123.5
234.179	130.5
234.413	108.5
234.647	114.5
234.881	125.5
235.115	114.5
235.349	117.5
235.583	125.5
235.817	129.5
236.051	128.5
236.285	132.5
236.519	135.5
236.753	133.5
236.987	152.5
237.221	199.5
237.455	263.5
237.689	212.5
237.922	139.5
238.156	134.5
238.39	143.5
238.624	141.5
238.858	130.5
239.091	125.5
239.325	130.5
239.559	139.5
239.793	136.5
240.027	136.5
240.26	153.5
240.494	170.5
240.728	154.5
240.961	155.5
241.195	154.5
241.429	162.5
241.662	138.5
241.896	132.5
242.13	140.5
242.363	134.5
242.597	135.5
242.83	137.5
243.064	144.5
243.298	129.5
243.531	147.5
243.765	152.5
243.998	129.5
244.232	143.5
244.465	142.5
244.699	138.5
244.932	149.5
245.166	129.5
245.399	145.5
245.633	154.5
245.866	140.5
246.099	134.5
246.333	159.5
246.566	145.5
246.8	146.5
247.033	149.5
247.266	136.5
247.5	157.5
247.733	167.5
247.966	158.5
248.2	156.5
248.433	184.5
248.666	167.5
248.899	204.5
249.133	199.5
249.366	223.5
249.599	219.5
249.832	178.5
250.066	173.5
250.299	180.5
250.532	179.5
250.765	200.5
250.998	210.5
251.231	224.5
251.465	222.5
251.698	221.5
251.931	207.5
252.164	213.5
252.397	204.5
252.63	211.5
252.863	211.5
253.096	213.5
253.329	211.5
253.562	227.5
253.795	220.5
254.028	214.5
254.261	225.5
254.494	230.5
254.727	262.5
254.96	293.5
255.193	298.5
255.426	257.5
255.659	219.5
255.892	241.5
256.124	206.5
256.357	219.5
256.59	207.5
256.823	197.5
257.056	201.5
257.289	210.5
257.521	217.5
257.754	220.5
257.987	213.5
258.22	208.5
258.452	203.5
258.685	177.5
258.918	205.5
259.151	216.5
259.383	215.5
259.616	225.5
259.849	222.5
260.081	250.5
260.314	250.5
260.547	254.5
260.779	272.5
261.012	220.5
261.244	226.5
261.477	232.5
261.71	234.5
261.942	231.5
262.175	232.5
262.407	252.5
262.64	221.5
262.872	219.5
263.105	207.5
263.337	204.5
263.57	194.5
263.802	205.5
264.035	195.5
264.267	185.5
264.499	201.5
264.732	187.5
264.964	193.5
265.197	192.5
265.429	192.5
265.661	187.5
265.894	174.5
266.126	197.5
266.358	207.5
266.591	196.5
266.823	183.5
267.055	214.5
267.287	215.5
267.52	204.5
267.752	206.5
267.984	203.5
268.216	219.5
268.448	221.5
268.681	215.5
268.913	233.5
269.145	254.5
269.377	267.5
269.609	256.5
269.841	250.5
270.073	251.5
270.306	269.5
270.538	302.5
270.77	294.5
271.002	321.5
271.234	277.5
271.466	305.5
271.698	314.5
271.93	313.5
272.162	323.5
272.394	314.5
272.626	298.5
272.858	269.5
273.09	271.5
273.322	265.5
273.553	263.5
273.785	264.5
274.017	252.5
274.249	235.5
274.481	250.5
274.713	241.5
274.945	238.5
275.176	262.5
275.408	229.5
275.64	244.5
275.872	243.5
276.104	238.5
276.335	237.5
276.567	247.5
276.799	279.5
277.031	301.5
277.262	297.5
277.494	296.5
277.726	284.5
277.957	271.5
278.189	239.5
278.421	267.5
278.652	261.5
278.884	239.5
279.115	242.5
279.347	238.5
279.579	237.5
279.81	237.5
280.042	248.5
280.273	237.5
280.505	245.5
280.736	227.5
280.968	226.5
281.199	227.5
281.431	218.5
281.662	239.5
281.894	226.5
282.125	251.5
282.356	275.5
282.588	297.5
282.819	311.5
283.051	261.5
283.282	243.5
283.513	230.5
283.745	251.5
283.976	238.5
284.207	245.5
284.439	234.5
284.67	235.5
284.901	244.5
285.132	242.5
285.364	237.5
285.595	236.5
285.826	217.5
286.057	224.5
286.288	236.5
286.52	229.5
286.751	232.5
286.982	227.5
287.213	242.5
287.444	241.5
287.675	255.5
287.906	254.5
288.138	254.5
288.369	263.5
288.6	259.5
288.831	244.5
289.062	254.5
289.293	248.5
289.524	244.5
289.755	244.5
289.986	249.5
290.217	227.5
290.448	241.5
290.679	253.5
290.91	258.5
291.141	253.5
291.371	225.5
291.602	249.5
291.833	245.5
292.064	257.5
292.295	257.5
292.526	227.5
292.757	271.5
292.987	263.5
293.218	260.5
293.449	253.5
293.68	249.5
293.91	236.5
294.141	268.5
294.372	215.5
294.603	233.5
294.833	245.5
295.064	245.5
295.295	235.5
295.525	231.5
295.756	252.5
295.987	258.5
296.217	286.5
296.448	298.5
296.679	273.5
296.909	241.5
297.14	257.5
297.37	262.5
297.601	247.5
297.831	262.5
298.062	240.5
298.292	270.5
298.523	266.5
298.753	251.5
298.984	258.5
299.214	265.5
299.445	245.5
299.675	252.5
299.905	269.5
300.136	272.5
300.366	262.5
300.597	264.5
300.827	276.5
301.057	270.5
301.288	298.5
301.518	292.5
301.748	287.5
301.979	256.5
302.209	292.5
302.439	285.5
302.669	268.5
302.9	278.5
303.13	269.5
303.36	282.5
303.59	275.5
303.82	294.5
304.051	281.5
304.281	263.5
304.511	277.5
304.741	273.5
304.971	262.5
305.201	279.5
305.431	270.5
305.661	269.5
305.891	267.5
306.121	263.5
306.352	291.5
306.582	299.5
306.812	287.5
307.042	281.5
307.272	271.5
307.502	294.5
307.731	284.5
307.961	300.5
308.191	296.5
308.421	270.5
308.651	301.5
308.881	297.5
309.111	299.5
309.341	312.5
309.571	334.5
309.8	332.5
310.03	342.5
310.26	363.5
310.49	332.5
310.72	343.5
310.949	375.5
311.179	385.5
311.409	350.5
311.639	339.5
311.868	360.5
312.098	359.5
312.328	359.5
312.557	388.5
312.787	406.5
313.017	417.5
313.246	390.5
313.476	367.5
313.706	341.5
313.935	374.5
314.165	363.5
314.394	401.5
314.624	385.5
314.853	365.5
315.083	342.5
315.312	352.5
315.542	324.5
315.771	328.5
316.001	322.5
316.23	329.5
316.46	333.5
316.689	354.5
316.919	359.5
317.148	360.5
317.377	373.5
317.607	369.5
317.836	350.5
318.065	346.5
318.295	335.5
318.524	334.5
318.753	329.5
318.983	330.5
319.212	330.5
319.441	351.5
319.67	348.5
319.9	338.5
320.129	352.5
320.358	335.5
320.587	363.5
320.816	379.5
321.046	363.5
321.275	381.5
321.504	397.5
321.733	399.5
321.962	403.5
322.191	414.5
322.42	433.5
322.649	460.5
322.878	460.5
323.108	499.5
323.337	547.5
323.566	547.5
323.795	602.5
324.024	687.5
324.253	877.5
324.482	1276.5
324.71	2021.5
324.939	2777.5
325.168	2431.5
325.397	1329.5
325.626	857.5
325.855	677.5
326.084	601.5
326.313	568.5
326.542	560.5
326.77	632.5
326.999	757.5
327.228	1093.5
327.457	1733.5
327.686	2085.5
327.914	1459.5
328.143	907.5
328.372	755.5
328.6	702.5
328.829	641.5
329.058	673.5
329.287	696.5
329.515	614.5
329.744	556.5
329.972	530.5
330.201	519.5
330.43	573.5
330.658	651.5
330.887	702.5
331.115	697.5
331.344	549.5
331.572	479.5
331.801	498.5
332.03	490.5
332.258	454.5
332.486	407.5
332.715	407.5
332.943	408.5
333.172	409.5
333.4	389.5
333.629	399.5
333.857	402.5
334.085	426.5
334.314	390.5
334.542	399.5
334.771	389.5
334.999	417.5
335.227	421.5
335.455	404.5
335.684	375.5
335.912	386.5
336.14	379.5
336.369	394.5
336.597	416.5
336.825	376.5
337.053	396.5
337.281	400.5
337.51	386.5
337.738	361.5
337.966	405.5
338.194	403.5
338.422	404.5
338.65	393.5
338.878	363.5
339.106	362.5
339.334	379.5
339.562	357.5
339.79	385.5
340.018	382.5
340.246	383.5
340.474	403.5
340.702	391.5
340.93	370.5
341.158	405.5
341.386	391.5
341.614	405.5
341.842	387.5
342.07	373.5
342.298	371.5
342.526	353.5
342.754	335.5
342.981	365.5
343.209	357.5
343.437	356.5
343.665	352.5
343.893	372.5
344.12	377.5
344.348	374.5
344.576	376.5
344.804	386.5
345.031	406.5
345.259	433.5
345.487	406.5
345.714	390.5
345.942	402.5
346.17	366.5
346.397	390.5
346.625	363.5
346.853	365.5
347.08	370.5
347.308	382.5
347.535	413.5
347.763	421.5
347.99	411.5
348.218	428.5
348.445	419.5
348.673	415.5
348.9	387.5
349.128	378.5
349.355	359.5
349.583	360.5
349.81	371.5
350.037	365.5
350.265	350.5
350.492	346.5
350.72	358.5
350.947	382.5
351.174	399.5
351.402	397.5
351.629	415.5
351.856	406.5
352.083	408.5
352.311	435.5
352.538	421.5
352.765	425.5
352.992	425.5
353.22	390.5
353.447	390.5
353.674	379.5
353.901	377.5
354.128	356.5
354.355	366.5
354.583	339.5
354.81	330.5
355.037	351.5
355.264	335.5
355.491	343.5
355.718	333.5
355.945	337.5
356.172	325.5
356.399	347.5
356.626	338.5
356.853	341.5
357.08	321.5
357.307	328.5
357.534	310.5
357.761	333.5
357.988	339.5
358.215	350.5
358.441	353.5
358.668	349.5
358.895	350.5
359.122	358.5
359.349	371.5
359.576	375.5
359.802	436.5
360.029	462.5
360.256	501.5
360.483	458.5
360.709	441.5
360.936	389.5
361.163	379.5
361.39	394.5
361.616	401.5
361.843	381.5
362.07	397.5
362.296	411.5
362.523	382.5
362.749	380.5
362.976	378.5
363.203	362.5
363.429	369.5
363.656	353.5
363.882	361.5
364.109	373.5
364.335	353.5
364.562	364.5
364.788	355.5
365.015	353.5
365.241	352.5
365.468	377.5
365.694	381.5
365.92	370.5
366.147	367.5
366.373	362.5
366.599	363.5
366.826	357.5
367.052	339.5
367.278	338.5
367.505	350.5
367.731	359.5
367.957	339.5
368.184	356.5
368.41	362.5
368.636	356.5
368.862	370.5
369.089	365.5
369.315	363.5
369.541	343.5
369.767	354.5
369.993	363.5
370.219	349.5
370.445	327.5
370.672	365.5
370.898	347.5
371.124	340.5
371.35	342.5
371.576	338.5
371.802	330.5
372.028	348.5
372.254	340.5
372.48	353.5
372.706	330.5
372.932	343.5
373.158	319.5
373.384	351.5
373.61	350.5
373.835	341.5
374.061	338.5
374.287	356.5
374.513	343.5
374.739	367.5
374.965	352.5
375.191	341.5
375.416	350.5
375.642	321.5
375.868	337.5
376.094	345.5
376.319	348.5
376.545	334.5
376.771	329.5
376.997	330.5
377.222	350.5
377.448	355.5
377.674	344.5
377.899	335.5
378.125	328.5
378.35	327.5
378.576	322.5
378.802	335.5
379.027	339.5
379.253	349.5
379.478	337.5
379.704	350.5
379.929	346.5
380.155	361.5
380.38	341.5
380.606	336.5
380.831	361.5
381.057	358.5
381.282	333.5
381.507	329.5
381.733	349.5
381.958	340.5
382.184	345.5
382.409	340.5
382.634	350.5
382.86	355.5
383.085	352.5
383.31	359.5
383.535	346.5
383.761	341.5
383.986	359.5
384.211	342.5
384.436	353.5
384.662	331.5
384.887	356.5
385.112	340.5
385.337	344.5
385.562	343.5
385.787	354.5
386.013	362.5
386.238	365.5
386.463	366.5
386.688	367.5
386.913	357.5
387.138	352.5
387.363	373.5
387.588	351.5
387.813	369.5
388.038	356.5
388.263	362.5
388.488	360.5
388.713	358.5
388.938	361.5
389.163	352.5
389.387	378.5
389.612	326.5
389.837	339.5
390.062	354.5
390.287	354.5
390.512	354.5
390.736	365.5
390.961	345.5
391.186	368.5
391.411	345.5
391.636	347.5
391.86	365.5
392.085	361.5
392.31	360.5
392.534	373.5
392.759	370.5
392.984	355.5
393.208	381.5
393.433	361.5
393.658	354.5
393.882	345.5
394.107	360.5
394.331	361.5
394.556	352.5
394.78	349.5
395.005	359.5
395.229	353.5
395.454	368.5
395.678	387.5
395.903	406.5
396.127	399.5
396.352	407.5
396.576	381.5
396.801	366.5
397.025	345.5
397.249	361.5
397.474	379.5
397.698	379.5
397.922	415.5
398.147	406.5
398.371	398.5
398.595	389.5
398.82	384.5
399.044	404.5
399.268	403.5
399.492	419.5
399.717	443.5
399.941	446.5
400.165	487.5
400.389	500.5
400.613	490.5
400.837	437.5
401.062	414.5
401.286	442.5
401.51	407.5
401.734	414.5
401.958	417.5
402.182	424.5
402.406	430.5
402.63	445.5
402.854	450.5
403.078	420.5
403.302	423.5
403.526	433.5
403.75	419.5
403.974	418.5
404.198	424.5
404.422	429.5
404.645	433.5
404.869	437.5
405.093	442.5
405.317	492.5
405.541	509.5
405.765	469.5
405.988	467.5
406.212	474.5
406.436	493.5
406.66	542.5
406.883	507.5
407.107	505.5
407.331	555.5
407.555	579.5
407.778	617.5
408.002	554.5
408.226	510.5
408.449	479.5
408.673	507.5
408.896	517.5
409.12	577.5
409.344	520.5
409.567	488.5
409.791	462.5
410.014	451.5
410.238	432.5
410.461	427.5
410.685	457.5
410.908	445.5
411.132	503.5
411.355	542.5
411.578	508.5
411.802	466.5
412.025	425.5
412.249	439.5
412.472	439.5
412.695	437.5
412.919	426.5
413.142	433.5
413.365	407.5
413.589	412.5
413.812	440.5
414.035	393.5
414.258	391.5
414.482	410.5
414.705	421.5
414.928	403.5
415.151	389.5
415.374	366.5
415.597	397.5
415.821	398.5
416.044	409.5
416.267	413.5
416.49	407.5
416.713	405.5
416.936	415.5
417.159	407.5
417.382	418.5
417.605	423.5
417.828	438.5
418.051	461.5
418.274	449.5
418.497	411.5
418.72	411.5
418.943	434.5
419.166	423.5
419.389	439.5
419.611	419.5
419.834	422.5
420.057	468.5
420.28	442.5
420.503	442.5
420.726	435.5
420.948	451.5
421.171	511.5
421.394	552.5
421.617	474.5
421.839	445.5
422.062	458.5
422.285	488.5
422.507	549.5
422.73	605.5
422.953	596.5
423.175	519.5
423.398	496.5
423.621	464.5
423.843	482.5
424.066	487.5
424.288	504.5
424.511	529.5
424.733	617.5
424.956	674.5
425.178	662.5
425.401	656.5
425.623	656.5
425.846	595.5
426.068	541.5
426.291	547.5
426.513	520.5
426.735	522.5
426.958	571.5
427.18	645.5
427.402	773.5
427.625	869.5
427.847	845.5
428.069	702.5
428.292	608.5
428.514	546.5
428.736	522.5
428.958	531.5
429.181	489.5
429.403	484.5
429.625	479.5
429.847	543.5
430.069	603.5
430.292	590.5
430.514	493.5
430.736	474.5
430.958	470.5
431.18	452.5
431.402	454.5
431.624	440.5
431.846	437.5
432.068	427.5
432.29	457.5
432.512	438.5
432.734	456.5
432.956	454.5
433.178	471.5
433.4	462.5
433.622	446.5
433.844	427.5
434.066	463.5
434.287	441.5
434.509	441.5
434.731	462.5
434.953	451.5
435.175	483.5
435.397	503.5
435.618	527.5
435.84	578.5
436.062	667.5
436.284	723.5
436.505	620.5
436.727	534.5
436.949	513.5
437.17	509.5
437.392	491.5
437.614	500.5
437.835	571.5
438.057	684.5
438.278	789.5
438.5	784.5
438.721	803.5
438.943	782.5
439.165	621.5
439.386	590.5
439.608	566.5
439.829	558.5
440.05	606.5
440.272	626.5
440.493	603.5
440.715	528.5
440.936	519.5
441.158	503.5
441.379	514.5
441.6	504.5
441.822	526.5
442.043	570.5
442.264	655.5
442.486	705.5
442.707	617.5
442.928	555.5
443.149	558.5
443.371	586.5
443.592	647.5
443.813	706.5
444.034	770.5
444.255	595.5
444.476	553.5
444.698	506.5
444.919	511.5
445.14	607.5
445.361	570.5
445.582	561.5
445.803	656.5
446.024	755.5
446.245	754.5
446.466	703.5
446.687	589.5
446.908	558.5
447.129	497.5
447.35	501.5
447.571	487.5
447.792	506.5
448.013	522.5
448.234	543.5
448.455	586.5
448.675	686.5
448.896	785.5
449.117	673.5
449.338	677.5
449.559	738.5
449.779	834.5
450	703.5
450.221	595.5
450.442	525.5
450.662	508.5
450.883	519.5
451.104	561.5
451.324	531.5
451.545	502.5
451.766	474.5
451.986	469.5
452.207	433.5
452.428	453.5
452.648	452.5
452.869	448.5
453.089	466.5
453.31	456.5
453.53	457.5
453.751	453.5
453.971	472.5
454.192	519.5
454.412	506.5
454.633	452.5
454.853	451.5
455.073	445.5
455.294	478.5
455.514	560.5
455.734	543.5
455.955	455.5
456.175	444.5
456.395	429.5
456.616	403.5
456.836	399.5
457.056	413.5
457.276	392.5
457.497	411.5
457.717	374.5
457.937	402.5
458.157	418.5
458.377	428.5
458.598	465.5
458.818	566.5
459.038	668.5
459.258	686.5
459.478	536.5
459.698	494.5
459.918	453.5
460.138	432.5
460.358	448.5
460.578	422.5
460.798	427.5
461.018	433.5
461.238	423.5
461.458	431.5
461.678	417.5
461.898	417.5
462.118	419.5
462.338	430.5
462.558	444.5
462.777	431.5
462.997	434.5
463.217	453.5
463.437	415.5
463.657	442.5
463.876	447.5
464.096	459.5
464.316	455.5
464.536	457.5
464.755	467.5
464.975	494.5
465.195	574.5
465.414	730.5
465.634	612.5
465.854	519.5
466.073	486.5
466.293	456.5
466.512	458.5
466.732	447.5
466.951	454.5
467.171	421.5
467.391	434.5
467.61	473.5
467.829	479.5
468.049	456.5
468.268	428.5
468.488	410.5
468.707	409.5
468.927	438.5
469.146	425.5
469.365	417.5
469.585	419.5
469.804	425.5
470.023	459.5
470.243	453.5
470.462	445.5
470.681	485.5
470.901	492.5
471.12	466.5
471.339	449.5
471.558	451.5
471.777	445.5
471.997	434.5
472.216	449.5
472.435	420.5
472.654	430.5
472.873	438.5
473.092	435.5
473.311	426.5
473.53	430.5
473.749	451.5
473.968	517.5
474.187	628.5
474.406	652.5
474.625	526.5
474.844	457.5
475.063	445.5
475.282	446.5
475.501	454.5
475.72	447.5
475.939	457.5
476.158	449.5
476.377	456.5
476.596	463.5
476.814	481.5
477.033	465.5
477.252	469.5
477.471	461.5
477.69	476.5
477.908	487.5
478.127	477.5
478.346	466.5
478.564	480.5
478.783	478.5
479.002	497.5
479.22	501.5
479.439	511.5
479.658	548.5
479.876	553.5
480.095	538.5
480.313	569.5
480.532	538.5
480.751	505.5
480.969	539.5
481.188	538.5
481.406	562.5
481.624	549.5
481.843	536.5
482.061	507.5
482.28	513.5
482.498	540.5
482.717	521.5
482.935	508.5
483.153	512.5
483.372	527.5
483.59	529.5
483.808	540.5
484.027	530.5
484.245	538.5
484.463	543.5
484.681	514.5
484.9	519.5
485.118	535.5
485.336	536.5
485.554	537.5
485.772	553.5
485.99	553.5
486.209	559.5
486.427	551.5
486.645	577.5
486.863	601.5
487.081	593.5
487.299	579.5
487.517	565.5
487.735	591.5
487.953	585.5
488.171	558.5
488.389	578.5
488.607	573.5
488.825	589.5
489.043	573.5
489.261	603.5
489.479	600.5
489.696	583.5
489.914	593.5
490.132	588.5
490.35	603.5
490.568	610.5
490.786	583.5
491.003	590.5
491.221	623.5
491.439	621.5
491.657	639.5
491.874	649.5
492.092	641.5
492.31	667.5
492.527	639.5
492.745	666.5
492.963	670.5
493.18	663.5
493.398	677.5
493.615	660.5
493.833	682.5
494.05	707.5
494.268	666.5
494.485	674.5
494.703	706.5
494.92	680.5
495.138	656.5
495.355	709.5
495.573	697.5
495.79	694.5
496.008	689.5
496.225	685.5
496.442	676.5
496.66	684.5
496.877	692.5
497.094	702.5
497.312	699.5
497.529	697.5
497.746	734.5
497.963	714.5
498.181	727.5
498.398	737.5
498.615	744.5
498.832	741.5
499.049	732.5
499.267	741.5
499.484	769.5
499.701	764.5
499.918	775.5
500.135	783.5
500.352	788.5
500.569	769.5
500.786	821.5
501.003	828.5
501.22	778.5
501.437	790.5
501.654	797.5
501.871	867.5
502.088	834.5
502.305	781.5
502.522	786.5
502.739	761.5
502.956	731.5
503.172	723.5
503.389	718.5
503.606	767.5
503.823	751.5
504.04	738.5
504.256	683.5
504.473	685.5
504.69	681.5
504.907	684.5
505.123	683.5
505.34	688.5
505.557	676.5
505.773	668.5
505.99	708.5
506.207	696.5
506.423	677.5
506.64	667.5
506.856	693.5
507.073	698.5
507.289	680.5
507.506	717.5
507.722	708.5
507.939	737.5
508.155	709.5
508.372	703.5
508.588	645.5
508.805	663.5
509.021	675.5
509.238	673.5
509.454	679.5
509.67	699.5
509.887	665.5
510.103	678.5
510.319	721.5
510.536	860.5
510.752	1582.5
510.968	1317.5
511.184	777.5
511.401	695.5
511.617	671.5
511.833	672.5
512.049	669.5
512.265	649.5
512.481	664.5
512.698	649.5
512.914	625.5
513.13	637.5
513.346	661.5
513.562	660.5
513.778	648.5
513.994	693.5
514.21	712.5
514.426	756.5
514.642	835.5
514.858	888.5
515.074	932.5
515.29	1189.5
515.506	1930.5
515.721	1541.5
515.937	917.5
516.153	819.5
516.369	739.5
516.585	713.5
516.801	699.5
517.016	670.5
517.232	663.5
517.448	654.5
517.664	659.5
517.879	667.5
518.095	654.5
518.311	661.5
518.527	653.5
518.742	641.5
518.958	677.5
519.173	643.5
519.389	656.5
519.605	683.5
519.82	681.5
