Data from 1987.PennyLincolnUp.Lamp.En5.5.200Scan.071819.P2_HRD10591_17-14-49-972.txt Node
Date: Thu Jul 18 17:14:49 EDT 2019
User: cochatt
Spectrometer: HR+D1059
Trigger mode: 1
Integration Time (sec): 1.000000E-1
Scans to average: 1
Electric dark correction enabled: true
Nonlinearity correction enabled: false
Boxcar width: 0
XAxis mode: Wavelengths
Number of Pixels in Spectrum: 2048
>>>>>Begin Spectral Data<<<<<
223.165	-13.69
223.4	-13.69
223.635	-13.69
223.869	-8.69
224.104	-17.69
224.338	-13.69
224.573	-17.69
224.808	-5.69
225.042	-22.69
225.277	-4.69
225.511	1.31
225.746	7.31
225.98	-3.69
226.215	11.31
226.449	10.31
226.683	18.31
226.918	32.31
227.152	27.31
227.387	41.31
227.621	36.31
227.856	33.31
228.09	50.31
228.324	47.31
228.559	43.31
228.793	83.31
229.027	105.31
229.262	105.31
229.496	116.31
229.73	142.31
229.964	152.31
230.199	132.31
230.433	116.31
230.667	123.31
230.901	130.31
231.136	105.31
231.37	110.31
231.604	98.31
231.838	112.31
232.072	119.31
232.306	106.31
232.541	118.31
232.775	113.31
233.009	99.31
233.243	122.31
233.477	116.31
233.711	113.31
233.945	113.31
234.179	113.31
234.413	103.31
234.647	123.31
234.881	120.31
235.115	114.31
235.349	110.31
235.583	116.31
235.817	120.31
236.051	121.31
236.285	111.31
236.519	118.31
236.753	124.31
236.987	157.31
237.221	179.31
237.455	247.31
237.689	193.31
237.922	154.31
238.156	127.31
238.39	126.31
238.624	127.31
238.858	120.31
239.091	125.31
239.325	108.31
239.559	122.31
239.793	121.31
240.027	139.31
240.26	156.31
240.494	155.31
240.728	154.31
240.961	132.31
241.195	130.31
241.429	126.31
241.662	124.31
241.896	135.31
242.13	130.31
242.363	129.31
242.597	136.31
242.83	139.31
243.064	124.31
243.298	123.31
243.531	133.31
243.765	123.31
243.998	131.31
244.232	147.31
244.465	136.31
244.699	141.31
244.932	115.31
245.166	135.31
245.399	133.31
245.633	119.31
245.866	129.31
246.099	133.31
246.333	146.31
246.566	136.31
246.8	145.31
247.033	142.31
247.266	155.31
247.5	138.31
247.733	151.31
247.966	166.31
248.2	164.31
248.433	177.31
248.666	175.31
248.899	166.31
249.133	186.31
249.366	206.31
249.599	215.31
249.832	169.31
250.066	164.31
250.299	182.31
250.532	171.31
250.765	186.31
250.998	196.31
251.231	192.31
251.465	203.31
251.698	189.31
251.931	199.31
252.164	189.31
252.397	194.31
252.63	188.31
252.863	178.31
253.096	202.31
253.329	222.31
253.562	205.31
253.795	220.31
254.028	208.31
254.261	198.31
254.494	211.31
254.727	233.31
254.96	256.31
255.193	248.31
255.426	246.31
255.659	234.31
255.892	213.31
256.124	208.31
256.357	199.31
256.59	208.31
256.823	199.31
257.056	184.31
257.289	184.31
257.521	180.31
257.754	192.31
257.987	201.31
258.22	196.31
258.452	169.31
258.685	177.31
258.918	178.31
259.151	201.31
259.383	204.31
259.616	192.31
259.849	209.31
260.081	230.31
260.314	234.31
260.547	248.31
260.779	220.31
261.012	215.31
261.244	211.31
261.477	209.31
261.71	220.31
261.942	215.31
262.175	228.31
262.407	222.31
262.64	206.31
262.872	208.31
263.105	211.31
263.337	179.31
263.57	196.31
263.802	188.31
264.035	177.31
264.267	181.31
264.499	184.31
264.732	180.31
264.964	195.31
265.197	177.31
265.429	194.31
265.661	193.31
265.894	198.31
266.126	199.31
266.358	190.31
266.591	184.31
266.823	201.31
267.055	194.31
267.287	194.31
267.52	183.31
267.752	187.31
267.984	215.31
268.216	198.31
268.448	216.31
268.681	199.31
268.913	214.31
269.145	211.31
269.377	252.31
269.609	240.31
269.841	232.31
270.073	257.31
270.306	248.31
270.538	276.31
270.77	294.31
271.002	294.31
271.234	275.31
271.466	268.31
271.698	282.31
271.93	263.31
272.162	294.31
272.394	275.31
272.626	277.31
272.858	257.31
273.09	244.31
273.322	255.31
273.553	247.31
273.785	224.31
274.017	238.31
274.249	235.31
274.481	242.31
274.713	240.31
274.945	250.31
275.176	242.31
275.408	230.31
275.64	214.31
275.872	227.31
276.104	222.31
276.335	226.31
276.567	231.31
276.799	252.31
277.031	272.31
277.262	278.31
277.494	288.31
277.726	284.31
277.957	242.31
278.189	235.31
278.421	225.31
278.652	245.31
278.884	235.31
279.115	224.31
279.347	216.31
279.579	218.31
279.81	222.31
280.042	219.31
280.273	225.31
280.505	219.31
280.736	214.31
280.968	222.31
281.199	222.31
281.431	213.31
281.662	203.31
281.894	218.31
282.125	220.31
282.356	259.31
282.588	271.31
282.819	266.31
283.051	234.31
283.282	224.31
283.513	212.31
283.745	222.31
283.976	223.31
284.207	220.31
284.439	212.31
284.67	214.31
284.901	242.31
285.132	203.31
285.364	217.31
285.595	225.31
285.826	242.31
286.057	231.31
286.288	222.31
286.52	220.31
286.751	225.31
286.982	222.31
287.213	225.31
287.444	219.31
287.675	235.31
287.906	235.31
288.138	242.31
288.369	256.31
288.6	251.31
288.831	243.31
289.062	224.31
289.293	234.31
289.524	238.31
289.755	254.31
289.986	224.31
290.217	214.31
290.448	216.31
290.679	231.31
290.91	232.31
291.141	227.31
291.371	209.31
291.602	232.31
291.833	229.31
292.064	223.31
292.295	216.31
292.526	226.31
292.757	217.31
292.987	224.31
293.218	222.31
293.449	210.31
293.68	243.31
293.91	225.31
294.141	214.31
294.372	239.31
294.603	231.31
294.833	226.31
295.064	233.31
295.295	241.31
295.525	230.31
295.756	252.31
295.987	264.31
296.217	269.31
296.448	299.31
296.679	247.31
296.909	237.31
297.14	233.31
297.37	244.31
297.601	237.31
297.831	237.31
298.062	237.31
298.292	258.31
298.523	260.31
298.753	236.31
298.984	246.31
299.214	236.31
299.445	253.31
299.675	254.31
299.905	246.31
300.136	246.31
300.366	257.31
300.597	240.31
300.827	259.31
301.057	258.31
301.288	271.31
301.518	271.31
301.748	246.31
301.979	261.31
302.209	244.31
302.439	255.31
302.669	255.31
302.9	269.31
303.13	254.31
303.36	264.31
303.59	265.31
303.82	281.31
304.051	274.31
304.281	268.31
304.511	244.31
304.741	258.31
304.971	259.31
305.201	256.31
305.431	245.31
305.661	239.31
305.891	260.31
306.121	274.31
306.352	272.31
306.582	279.31
306.812	258.31
307.042	260.31
307.272	256.31
307.502	267.31
307.731	265.31
307.961	266.31
308.191	255.31
308.421	266.31
308.651	266.31
308.881	280.31
309.111	286.31
309.341	294.31
309.571	282.31
309.8	298.31
310.03	336.31
310.26	341.31
310.49	322.31
310.72	336.31
310.949	358.31
311.179	358.31
311.409	332.31
311.639	307.31
311.868	328.31
312.098	316.31
312.328	339.31
312.557	356.31
312.787	354.31
313.017	370.31
313.246	347.31
313.476	346.31
313.706	331.31
313.935	329.31
314.165	344.31
314.394	353.31
314.624	355.31
314.853	330.31
315.083	324.31
315.312	314.31
315.542	304.31
315.771	308.31
316.001	306.31
316.23	317.31
316.46	305.31
316.689	321.31
316.919	308.31
317.148	326.31
317.377	346.31
317.607	327.31
317.836	323.31
318.065	300.31
318.295	319.31
318.524	298.31
318.753	320.31
318.983	323.31
319.212	327.31
319.441	326.31
319.67	325.31
319.9	316.31
320.129	329.31
320.358	313.31
320.587	340.31
320.816	327.31
321.046	344.31
321.275	346.31
321.504	329.31
321.733	352.31
321.962	366.31
322.191	372.31
322.42	399.31
322.649	403.31
322.878	415.31
323.108	432.31
323.337	472.31
323.566	483.31
323.795	524.31
324.024	627.31
324.253	747.31
324.482	1085.31
324.71	1714.31
324.939	2368.31
325.168	2032.31
325.397	1136.31
325.626	747.31
325.855	572.31
326.084	497.31
326.313	506.31
326.542	514.31
326.77	556.31
326.999	686.31
327.228	927.31
327.457	1454.31
327.686	1809.31
327.914	1202.31
328.143	818.31
328.372	650.31
328.6	608.31
328.829	574.31
329.058	592.31
329.287	603.31
329.515	538.31
329.744	481.31
329.972	447.31
330.201	448.31
330.43	498.31
330.658	548.31
330.887	615.31
331.115	586.31
331.344	494.31
331.572	462.31
331.801	460.31
332.03	443.31
332.258	414.31
332.486	404.31
332.715	378.31
332.943	363.31
333.172	387.31
333.4	375.31
333.629	360.31
333.857	382.31
334.085	377.31
334.314	357.31
334.542	385.31
334.771	363.31
334.999	368.31
335.227	372.31
335.455	366.31
335.684	376.31
335.912	362.31
336.14	370.31
336.369	359.31
336.597	347.31
336.825	356.31
337.053	363.31
337.281	337.31
337.51	367.31
337.738	348.31
337.966	353.31
338.194	367.31
338.422	366.31
338.65	355.31
338.878	350.31
339.106	346.31
339.334	346.31
339.562	347.31
339.79	339.31
340.018	360.31
340.246	355.31
340.474	381.31
340.702	363.31
340.93	354.31
341.158	353.31
341.386	358.31
341.614	365.31
341.842	359.31
342.07	342.31
342.298	349.31
342.526	322.31
342.754	350.31
342.981	314.31
343.209	315.31
343.437	336.31
343.665	329.31
343.893	338.31
344.12	361.31
344.348	340.31
344.576	355.31
344.804	356.31
345.031	373.31
345.259	386.31
345.487	364.31
345.714	353.31
345.942	346.31
346.17	348.31
346.397	339.31
346.625	346.31
346.853	343.31
347.08	345.31
347.308	367.31
347.535	372.31
347.763	378.31
347.99	354.31
348.218	374.31
348.445	402.31
348.673	377.31
348.9	341.31
349.128	363.31
349.355	346.31
349.583	331.31
349.81	337.31
350.037	338.31
350.265	329.31
350.492	335.31
350.72	359.31
350.947	352.31
351.174	351.31
351.402	361.31
351.629	371.31
351.856	370.31
352.083	388.31
352.311	382.31
352.538	389.31
352.765	375.31
352.992	391.31
353.22	376.31
353.447	350.31
353.674	360.31
353.901	349.31
354.128	328.31
354.355	320.31
354.583	323.31
354.81	340.31
355.037	320.31
355.264	320.31
355.491	316.31
355.718	310.31
355.945	300.31
356.172	323.31
356.399	316.31
356.626	316.31
356.853	316.31
357.08	318.31
357.307	325.31
357.534	324.31
357.761	325.31
357.988	326.31
358.215	327.31
358.441	324.31
358.668	336.31
358.895	330.31
359.122	336.31
359.349	336.31
359.576	368.31
359.802	379.31
360.029	412.31
360.256	445.31
360.483	416.31
360.709	359.31
360.936	352.31
361.163	376.31
361.39	372.31
361.616	379.31
361.843	362.31
362.07	358.31
362.296	379.31
362.523	377.31
362.749	361.31
362.976	344.31
363.203	372.31
363.429	339.31
363.656	344.31
363.882	351.31
364.109	314.31
364.335	343.31
364.562	340.31
364.788	337.31
365.015	342.31
365.241	331.31
365.468	323.31
365.694	348.31
365.92	336.31
366.147	333.31
366.373	339.31
366.599	327.31
366.826	341.31
367.052	335.31
367.278	325.31
367.505	332.31
367.731	319.31
367.957	342.31
368.184	349.31
368.41	356.31
368.636	350.31
368.862	361.31
369.089	335.31
369.315	332.31
369.541	336.31
369.767	353.31
369.993	331.31
370.219	334.31
370.445	314.31
370.672	315.31
370.898	326.31
371.124	312.31
371.35	318.31
371.576	320.31
371.802	331.31
372.028	312.31
372.254	326.31
372.48	324.31
372.706	304.31
372.932	319.31
373.158	324.31
373.384	342.31
373.61	317.31
373.835	328.31
374.061	330.31
374.287	339.31
374.513	344.31
374.739	339.31
374.965	336.31
375.191	322.31
375.416	325.31
375.642	330.31
375.868	331.31
376.094	318.31
376.319	319.31
376.545	314.31
376.771	310.31
376.997	321.31
377.222	321.31
377.448	340.31
377.674	339.31
377.899	308.31
378.125	328.31
378.35	313.31
378.576	314.31
378.802	317.31
379.027	335.31
379.253	322.31
379.478	312.31
379.704	324.31
379.929	347.31
380.155	343.31
380.38	326.31
380.606	318.31
380.831	311.31
381.057	331.31
381.282	324.31
381.507	338.31
381.733	324.31
381.958	332.31
382.184	311.31
382.409	322.31
382.634	331.31
382.86	307.31
383.085	318.31
383.31	324.31
383.535	355.31
383.761	332.31
383.986	340.31
384.211	345.31
384.436	323.31
384.662	333.31
384.887	352.31
385.112	349.31
385.337	341.31
385.562	322.31
385.787	336.31
386.013	342.31
386.238	355.31
386.463	352.31
386.688	347.31
386.913	353.31
387.138	343.31
387.363	338.31
387.588	340.31
387.813	336.31
388.038	357.31
388.263	327.31
388.488	347.31
388.713	344.31
388.938	323.31
389.163	346.31
389.387	346.31
389.612	343.31
389.837	326.31
390.062	346.31
390.287	346.31
390.512	338.31
390.736	320.31
390.961	348.31
391.186	329.31
391.411	347.31
391.636	362.31
391.86	347.31
392.085	350.31
392.31	355.31
392.534	349.31
392.759	332.31
392.984	355.31
393.208	331.31
393.433	366.31
393.658	352.31
393.882	346.31
394.107	340.31
394.331	314.31
394.556	332.31
394.78	345.31
395.005	370.31
395.229	353.31
395.454	337.31
395.678	350.31
395.903	350.31
396.127	384.31
396.352	369.31
396.576	371.31
396.801	353.31
397.025	340.31
397.249	368.31
397.474	356.31
397.698	370.31
397.922	375.31
398.147	360.31
398.371	389.31
398.595	377.31
398.82	373.31
399.044	388.31
399.268	401.31
399.492	399.31
399.717	414.31
399.941	442.31
400.165	460.31
400.389	462.31
400.613	449.31
400.837	415.31
401.062	413.31
401.286	407.31
401.51	390.31
401.734	368.31
401.958	394.31
402.182	408.31
402.406	417.31
402.63	430.31
402.854	408.31
403.078	400.31
403.302	393.31
403.526	407.31
403.75	402.31
403.974	416.31
404.198	386.31
404.422	410.31
404.645	403.31
404.869	403.31
405.093	436.31
405.317	468.31
405.541	493.31
405.765	435.31
405.988	417.31
406.212	454.31
406.436	476.31
406.66	505.31
406.883	468.31
407.107	480.31
407.331	504.31
407.555	560.31
407.778	590.31
408.002	520.31
408.226	466.31
408.449	434.31
408.673	435.31
408.896	481.31
409.12	535.31
409.344	495.31
409.567	462.31
409.791	434.31
410.014	409.31
410.238	407.31
410.461	419.31
410.685	424.31
410.908	434.31
411.132	452.31
411.355	510.31
411.578	479.31
411.802	419.31
412.025	405.31
412.249	408.31
412.472	428.31
412.695	422.31
412.919	408.31
413.142	392.31
413.365	403.31
413.589	400.31
413.812	386.31
414.035	402.31
414.258	399.31
414.482	395.31
414.705	388.31
414.928	350.31
415.151	376.31
415.374	400.31
415.597	386.31
415.821	396.31
416.044	387.31
416.267	378.31
416.49	382.31
416.713	407.31
416.936	409.31
417.159	391.31
417.382	419.31
417.605	399.31
417.828	419.31
418.051	423.31
418.274	413.31
418.497	400.31
418.72	415.31
418.943	389.31
419.166	388.31
419.389	425.31
419.611	410.31
419.834	421.31
420.057	405.31
420.28	395.31
420.503	416.31
420.726	406.31
420.948	424.31
421.171	470.31
421.394	499.31
421.617	470.31
421.839	430.31
422.062	432.31
422.285	449.31
422.507	474.31
422.73	550.31
422.953	556.31
423.175	497.31
423.398	469.31
423.621	451.31
423.843	475.31
424.066	468.31
424.288	478.31
424.511	481.31
424.733	549.31
424.956	631.31
425.178	625.31
425.401	603.31
425.623	611.31
425.846	525.31
426.068	496.31
426.291	492.31
426.513	465.31
426.735	506.31
426.958	519.31
427.18	613.31
427.402	729.31
427.625	808.31
427.847	752.31
428.069	614.31
428.292	545.31
428.514	498.31
428.736	476.31
428.958	463.31
429.181	464.31
429.403	461.31
429.625	464.31
429.847	489.31
430.069	555.31
430.292	548.31
430.514	472.31
430.736	454.31
430.958	467.31
431.18	427.31
431.402	452.31
431.624	379.31
431.846	421.31
432.068	406.31
432.29	407.31
432.512	405.31
432.734	427.31
432.956	442.31
433.178	434.31
433.4	423.31
433.622	418.31
433.844	410.31
434.066	410.31
434.287	409.31
434.509	411.31
434.731	438.31
434.953	416.31
435.175	448.31
435.397	486.31
435.618	482.31
435.84	546.31
436.062	624.31
436.284	689.31
436.505	591.31
436.727	522.31
436.949	472.31
437.17	455.31
437.392	464.31
437.614	482.31
437.835	527.31
438.057	633.31
438.278	704.31
438.5	690.31
438.721	737.31
438.943	730.31
439.165	580.31
439.386	547.31
439.608	528.31
439.829	522.31
440.05	554.31
440.272	581.31
440.493	558.31
440.715	507.31
440.936	498.31
441.158	452.31
441.379	443.31
441.6	470.31
441.822	499.31
442.043	536.31
442.264	616.31
442.486	655.31
442.707	566.31
442.928	536.31
443.149	507.31
443.371	560.31
443.592	598.31
443.813	653.31
444.034	699.31
444.255	581.31
444.476	522.31
444.698	488.31
444.919	487.31
445.14	568.31
445.361	553.31
445.582	542.31
445.803	586.31
446.024	719.31
446.245	706.31
446.466	645.31
446.687	542.31
446.908	521.31
447.129	498.31
447.35	480.31
447.571	479.31
447.792	471.31
448.013	475.31
448.234	496.31
448.455	551.31
448.675	653.31
448.896	764.31
449.117	629.31
449.338	623.31
449.559	695.31
449.779	731.31
450	634.31
450.221	532.31
450.442	489.31
450.662	497.31
450.883	468.31
451.104	495.31
451.324	498.31
451.545	458.31
451.766	424.31
451.986	399.31
452.207	416.31
452.428	404.31
452.648	403.31
452.869	422.31
453.089	430.31
453.31	432.31
453.53	431.31
453.751	423.31
453.971	442.31
454.192	459.31
454.412	435.31
454.633	418.31
454.853	411.31
455.073	433.31
455.294	457.31
455.514	521.31
455.734	492.31
455.955	419.31
456.175	395.31
456.395	401.31
456.616	371.31
456.836	384.31
457.056	372.31
457.276	377.31
457.497	384.31
457.717	382.31
457.937	389.31
458.157	411.31
458.377	397.31
458.598	421.31
458.818	506.31
459.038	596.31
459.258	568.31
459.478	489.31
459.698	445.31
459.918	420.31
460.138	412.31
460.358	419.31
460.578	420.31
460.798	417.31
461.018	390.31
461.238	416.31
461.458	417.31
461.678	402.31
461.898	400.31
462.118	414.31
462.338	414.31
462.558	408.31
462.777	411.31
462.997	420.31
463.217	421.31
463.437	408.31
463.657	423.31
463.876	420.31
464.096	417.31
464.316	443.31
464.536	462.31
464.755	458.31
464.975	455.31
465.195	516.31
465.414	655.31
465.634	558.31
465.854	490.31
466.073	456.31
466.293	452.31
466.512	441.31
466.732	425.31
466.951	432.31
467.171	397.31
467.391	412.31
467.61	424.31
467.829	421.31
468.049	432.31
468.268	397.31
468.488	410.31
468.707	409.31
468.927	394.31
469.146	389.31
469.365	404.31
469.585	421.31
469.804	401.31
470.023	431.31
470.243	434.31
470.462	443.31
470.681	443.31
470.901	450.31
471.12	424.31
471.339	430.31
471.558	425.31
471.777	420.31
471.997	418.31
472.216	404.31
472.435	411.31
472.654	426.31
472.873	404.31
473.092	404.31
473.311	399.31
473.53	420.31
473.749	426.31
473.968	487.31
474.187	570.31
474.406	603.31
474.625	493.31
474.844	461.31
475.063	430.31
475.282	423.31
475.501	416.31
475.72	432.31
475.939	443.31
476.158	437.31
476.377	433.31
476.596	435.31
476.814	453.31
477.033	457.31
477.252	430.31
477.471	416.31
477.69	441.31
477.908	440.31
478.127	457.31
478.346	462.31
478.564	446.31
478.783	436.31
479.002	434.31
479.22	487.31
479.439	514.31
479.658	517.31
479.876	510.31
480.095	501.31
480.313	528.31
480.532	522.31
480.751	506.31
480.969	500.31
481.188	531.31
481.406	532.31
481.624	501.31
481.843	502.31
482.061	494.31
482.28	488.31
482.498	498.31
482.717	508.31
482.935	473.31
483.153	491.31
483.372	476.31
483.59	499.31
483.808	492.31
484.027	496.31
484.245	492.31
484.463	514.31
484.681	518.31
484.9	496.31
485.118	507.31
485.336	516.31
485.554	521.31
485.772	489.31
485.99	514.31
486.209	526.31
486.427	516.31
486.645	527.31
486.863	553.31
487.081	561.31
487.299	542.31
487.517	552.31
487.735	531.31
487.953	524.31
488.171	563.31
488.389	536.31
488.607	550.31
488.825	550.31
489.043	533.31
489.261	550.31
489.479	538.31
489.696	533.31
489.914	553.31
490.132	568.31
490.35	569.31
490.568	598.31
490.786	593.31
491.003	584.31
491.221	599.31
491.439	603.31
491.657	594.31
491.874	629.31
492.092	607.31
492.31	616.31
492.527	616.31
492.745	626.31
492.963	631.31
493.18	650.31
493.398	636.31
493.615	646.31
493.833	629.31
494.05	640.31
494.268	646.31
494.485	633.31
494.703	633.31
494.92	647.31
495.138	650.31
495.355	631.31
495.573	650.31
495.79	646.31
496.008	659.31
496.225	640.31
496.442	622.31
496.66	683.31
496.877	655.31
497.094	646.31
497.312	660.31
497.529	650.31
497.746	666.31
497.963	656.31
498.181	682.31
498.398	683.31
498.615	695.31
498.832	719.31
499.049	711.31
499.267	704.31
499.484	719.31
499.701	690.31
499.918	732.31
500.135	760.31
500.352	755.31
500.569	786.31
500.786	790.31
501.003	798.31
501.22	771.31
501.437	737.31
501.654	744.31
501.871	816.31
