Data from 1987.PennyLincolnUp.Lamp.En5.5.200Scan.071819.P2_HRD10591_17-16-01-970.txt Node
Date: Thu Jul 18 17:16:01 EDT 2019
User: cochatt
Spectrometer: HR+D1059
Trigger mode: 1
Integration Time (sec): 1.000000E-1
Scans to average: 1
Electric dark correction enabled: true
Nonlinearity correction enabled: false
Boxcar width: 0
XAxis mode: Wavelengths
Number of Pixels in Spectrum: 2048
>>>>>Begin Spectral Data<<<<<
223.165	-16.38
223.4	-16.38
223.635	-16.38
223.869	-23.38
224.104	-25.38
224.338	-19.38
224.573	-3.38
224.808	0.62
225.042	-9.38
225.277	-1.38
225.511	-11.38
225.746	11.62
225.98	10.62
226.215	12.62
226.449	19.62
226.683	8.62
226.918	20.62
227.152	25.62
227.387	31.62
227.621	26.62
227.856	37.62
228.09	32.62
228.324	52.62
228.559	59.62
228.793	61.62
229.027	99.62
229.262	116.62
229.496	125.62
229.73	134.62
229.964	181.62
230.199	145.62
230.433	120.62
230.667	110.62
230.901	112.62
231.136	105.62
231.37	114.62
231.604	108.62
231.838	116.62
232.072	106.62
232.306	106.62
232.541	112.62
232.775	106.62
233.009	103.62
233.243	108.62
233.477	101.62
233.711	107.62
233.945	105.62
234.179	114.62
234.413	125.62
234.647	118.62
234.881	118.62
235.115	115.62
235.349	118.62
235.583	133.62
235.817	123.62
236.051	118.62
236.285	141.62
236.519	131.62
236.753	144.62
236.987	153.62
237.221	186.62
237.455	245.62
237.689	203.62
237.922	152.62
238.156	125.62
238.39	138.62
238.624	114.62
238.858	126.62
239.091	118.62
239.325	135.62
239.559	120.62
239.793	136.62
240.027	136.62
240.26	133.62
240.494	161.62
240.728	158.62
240.961	170.62
241.195	145.62
241.429	128.62
241.662	126.62
241.896	129.62
242.13	129.62
242.363	127.62
242.597	137.62
242.83	117.62
243.064	140.62
243.298	127.62
243.531	136.62
243.765	134.62
243.998	132.62
244.232	120.62
244.465	140.62
244.699	135.62
244.932	135.62
245.166	117.62
245.399	124.62
245.633	136.62
245.866	120.62
246.099	142.62
246.333	146.62
246.566	143.62
246.8	127.62
247.033	145.62
247.266	157.62
247.5	156.62
247.733	161.62
247.966	168.62
248.2	170.62
248.433	171.62
248.666	169.62
248.899	179.62
249.133	203.62
249.366	214.62
249.599	206.62
249.832	176.62
250.066	173.62
250.299	164.62
250.532	169.62
250.765	192.62
250.998	219.62
251.231	215.62
251.465	210.62
251.698	202.62
251.931	204.62
252.164	207.62
252.397	203.62
252.63	199.62
252.863	192.62
253.096	193.62
253.329	240.62
253.562	212.62
253.795	230.62
254.028	216.62
254.261	205.62
254.494	229.62
254.727	262.62
254.96	269.62
255.193	277.62
255.426	254.62
255.659	237.62
255.892	217.62
256.124	203.62
256.357	218.62
256.59	228.62
256.823	197.62
257.056	207.62
257.289	205.62
257.521	196.62
257.754	211.62
257.987	187.62
258.22	201.62
258.452	185.62
258.685	198.62
258.918	199.62
259.151	192.62
259.383	207.62
259.616	212.62
259.849	218.62
260.081	214.62
260.314	236.62
260.547	251.62
260.779	249.62
261.012	217.62
261.244	209.62
261.477	195.62
261.71	206.62
261.942	222.62
262.175	236.62
262.407	221.62
262.64	201.62
262.872	222.62
263.105	196.62
263.337	192.62
263.57	190.62
263.802	190.62
264.035	205.62
264.267	195.62
264.499	196.62
264.732	187.62
264.964	200.62
265.197	203.62
265.429	201.62
265.661	197.62
265.894	187.62
266.126	183.62
266.358	203.62
266.591	191.62
266.823	174.62
267.055	210.62
267.287	201.62
267.52	201.62
267.752	201.62
267.984	196.62
268.216	204.62
268.448	218.62
268.681	223.62
268.913	231.62
269.145	237.62
269.377	247.62
269.609	256.62
269.841	248.62
270.073	259.62
270.306	288.62
270.538	279.62
270.77	291.62
271.002	291.62
271.234	268.62
271.466	268.62
271.698	304.62
271.93	310.62
272.162	308.62
272.394	313.62
272.626	291.62
272.858	280.62
273.09	255.62
273.322	263.62
273.553	259.62
273.785	249.62
274.017	235.62
274.249	242.62
274.481	242.62
274.713	246.62
274.945	248.62
275.176	234.62
275.408	244.62
275.64	233.62
275.872	218.62
276.104	237.62
276.335	242.62
276.567	249.62
276.799	271.62
277.031	288.62
277.262	299.62
277.494	285.62
277.726	267.62
277.957	259.62
278.189	247.62
278.421	249.62
278.652	237.62
278.884	230.62
279.115	240.62
279.347	219.62
279.579	218.62
279.81	223.62
280.042	205.62
280.273	214.62
280.505	220.62
280.736	214.62
280.968	229.62
281.199	221.62
281.431	221.62
281.662	225.62
281.894	212.62
282.125	237.62
282.356	244.62
282.588	267.62
282.819	279.62
283.051	259.62
283.282	229.62
283.513	221.62
283.745	229.62
283.976	216.62
284.207	239.62
284.439	227.62
284.67	232.62
284.901	229.62
285.132	225.62
285.364	243.62
285.595	240.62
285.826	238.62
286.057	242.62
286.288	231.62
286.52	227.62
286.751	234.62
286.982	246.62
287.213	235.62
287.444	240.62
287.675	246.62
287.906	237.62
288.138	248.62
288.369	246.62
288.6	253.62
288.831	248.62
289.062	242.62
289.293	238.62
289.524	254.62
289.755	227.62
289.986	237.62
290.217	244.62
290.448	250.62
290.679	237.62
290.91	233.62
291.141	233.62
291.371	222.62
291.602	227.62
291.833	240.62
292.064	224.62
292.295	234.62
292.526	229.62
292.757	229.62
292.987	233.62
293.218	215.62
293.449	238.62
293.68	226.62
293.91	213.62
294.141	226.62
294.372	244.62
294.603	229.62
294.833	235.62
295.064	234.62
295.295	223.62
295.525	257.62
295.756	264.62
295.987	240.62
296.217	283.62
296.448	296.62
296.679	265.62
296.909	233.62
297.14	233.62
297.37	230.62
297.601	240.62
297.831	243.62
298.062	247.62
298.292	238.62
298.523	253.62
298.753	242.62
298.984	267.62
299.214	248.62
299.445	245.62
299.675	257.62
299.905	253.62
300.136	271.62
300.366	246.62
300.597	247.62
300.827	265.62
301.057	270.62
301.288	285.62
301.518	278.62
301.748	263.62
301.979	274.62
302.209	280.62
302.439	271.62
302.669	277.62
302.9	258.62
303.13	261.62
303.36	273.62
303.59	276.62
303.82	288.62
304.051	276.62
304.281	258.62
304.511	248.62
304.741	260.62
304.971	266.62
305.201	268.62
305.431	245.62
305.661	274.62
305.891	254.62
306.121	252.62
306.352	281.62
306.582	267.62
306.812	255.62
307.042	271.62
307.272	276.62
307.502	270.62
307.731	264.62
307.961	262.62
308.191	269.62
308.421	276.62
308.651	285.62
308.881	294.62
309.111	284.62
309.341	280.62
309.571	300.62
309.8	313.62
310.03	352.62
310.26	339.62
310.49	349.62
310.72	361.62
310.949	398.62
311.179	386.62
311.409	346.62
311.639	347.62
311.868	353.62
312.098	340.62
312.328	347.62
312.557	372.62
312.787	401.62
313.017	408.62
313.246	379.62
313.476	355.62
313.706	338.62
313.935	354.62
314.165	354.62
314.394	357.62
314.624	352.62
314.853	337.62
315.083	333.62
315.312	352.62
315.542	317.62
315.771	328.62
316.001	350.62
316.23	317.62
316.46	324.62
316.689	326.62
316.919	341.62
317.148	360.62
317.377	355.62
317.607	342.62
317.836	337.62
318.065	342.62
318.295	312.62
318.524	310.62
318.753	312.62
318.983	307.62
319.212	340.62
319.441	339.62
319.67	340.62
319.9	352.62
320.129	359.62
320.358	338.62
320.587	339.62
320.816	350.62
321.046	354.62
321.275	378.62
321.504	364.62
321.733	345.62
321.962	363.62
322.191	379.62
322.42	417.62
322.649	454.62
322.878	437.62
323.108	456.62
323.337	512.62
323.566	549.62
323.795	591.62
324.024	652.62
324.253	837.62
324.482	1270.62
324.71	1850.62
324.939	2619.62
325.168	2326.62
325.397	1289.62
325.626	792.62
325.855	641.62
326.084	555.62
326.313	552.62
326.542	536.62
326.77	612.62
326.999	776.62
327.228	1080.62
327.457	1624.62
327.686	2035.62
327.914	1399.62
328.143	876.62
328.372	727.62
328.6	658.62
328.829	630.62
329.058	635.62
329.287	684.62
329.515	617.62
329.744	517.62
329.972	498.62
330.201	505.62
330.43	521.62
330.658	616.62
330.887	676.62
331.115	674.62
331.344	541.62
331.572	474.62
331.801	488.62
332.03	477.62
332.258	442.62
332.486	398.62
332.715	399.62
332.943	413.62
333.172	394.62
333.4	399.62
333.629	380.62
333.857	418.62
334.085	404.62
334.314	403.62
334.542	390.62
334.771	397.62
334.999	406.62
335.227	402.62
335.455	368.62
335.684	386.62
335.912	360.62
336.14	361.62
336.369	348.62
336.597	363.62
336.825	401.62
337.053	398.62
337.281	371.62
337.51	372.62
337.738	372.62
337.966	380.62
338.194	391.62
338.422	395.62
338.65	366.62
338.878	368.62
339.106	350.62
339.334	355.62
339.562	357.62
339.79	368.62
340.018	353.62
340.246	400.62
340.474	382.62
340.702	390.62
340.93	381.62
341.158	364.62
341.386	368.62
341.614	388.62
341.842	368.62
342.07	347.62
342.298	356.62
342.526	374.62
342.754	352.62
342.981	346.62
343.209	348.62
343.437	349.62
343.665	327.62
343.893	338.62
344.12	365.62
344.348	371.62
344.576	358.62
344.804	380.62
345.031	376.62
345.259	402.62
345.487	414.62
345.714	383.62
345.942	365.62
346.17	368.62
346.397	345.62
346.625	360.62
346.853	375.62
347.08	351.62
347.308	368.62
347.535	382.62
347.763	396.62
347.99	380.62
348.218	414.62
348.445	394.62
348.673	415.62
348.9	372.62
349.128	357.62
349.355	355.62
349.583	356.62
349.81	341.62
350.037	348.62
350.265	346.62
350.492	337.62
350.72	357.62
350.947	363.62
351.174	386.62
351.402	392.62
351.629	403.62
351.856	398.62
352.083	389.62
352.311	419.62
352.538	430.62
352.765	414.62
352.992	389.62
353.22	388.62
353.447	365.62
353.674	376.62
353.901	356.62
354.128	352.62
354.355	339.62
354.583	339.62
354.81	330.62
355.037	336.62
355.264	330.62
355.491	318.62
355.718	315.62
355.945	330.62
356.172	318.62
356.399	331.62
356.626	330.62
356.853	296.62
357.08	310.62
357.307	326.62
357.534	323.62
357.761	337.62
357.988	330.62
358.215	324.62
358.441	336.62
358.668	354.62
358.895	365.62
359.122	348.62
359.349	365.62
359.576	376.62
359.802	420.62
360.029	461.62
360.256	465.62
360.483	447.62
360.709	391.62
360.936	369.62
361.163	374.62
361.39	409.62
361.616	378.62
361.843	344.62
362.07	396.62
362.296	379.62
362.523	397.62
362.749	378.62
362.976	377.62
363.203	368.62
363.429	365.62
363.656	340.62
363.882	351.62
364.109	338.62
364.335	345.62
364.562	331.62
364.788	345.62
365.015	339.62
365.241	329.62
365.468	349.62
365.694	360.62
365.92	341.62
366.147	352.62
366.373	346.62
366.599	348.62
366.826	337.62
367.052	316.62
367.278	327.62
367.505	358.62
367.731	351.62
367.957	348.62
368.184	351.62
368.41	362.62
368.636	355.62
368.862	353.62
369.089	352.62
369.315	342.62
369.541	337.62
369.767	344.62
369.993	352.62
370.219	339.62
370.445	328.62
370.672	333.62
370.898	333.62
371.124	321.62
371.35	331.62
371.576	347.62
371.802	304.62
372.028	321.62
372.254	302.62
372.48	325.62
372.706	314.62
372.932	327.62
373.158	301.62
373.384	328.62
373.61	322.62
373.835	330.62
374.061	339.62
374.287	338.62
374.513	334.62
374.739	334.62
374.965	346.62
375.191	334.62
375.416	330.62
375.642	323.62
375.868	318.62
376.094	322.62
376.319	315.62
376.545	312.62
376.771	327.62
376.997	313.62
377.222	311.62
377.448	346.62
377.674	321.62
377.899	320.62
378.125	313.62
378.35	328.62
378.576	319.62
378.802	304.62
379.027	309.62
379.253	322.62
379.478	316.62
379.704	321.62
379.929	327.62
380.155	331.62
380.38	339.62
380.606	339.62
380.831	332.62
381.057	325.62
381.282	315.62
381.507	329.62
381.733	317.62
381.958	328.62
382.184	316.62
382.409	333.62
382.634	337.62
382.86	341.62
383.085	318.62
383.31	325.62
383.535	336.62
383.761	321.62
383.986	322.62
384.211	333.62
384.436	351.62
384.662	311.62
384.887	332.62
385.112	338.62
385.337	340.62
385.562	333.62
385.787	347.62
386.013	360.62
386.238	346.62
386.463	363.62
386.688	362.62
386.913	348.62
387.138	329.62
387.363	344.62
387.588	329.62
387.813	358.62
388.038	352.62
388.263	345.62
388.488	352.62
388.713	346.62
388.938	325.62
389.163	340.62
389.387	363.62
389.612	329.62
389.837	354.62
390.062	322.62
390.287	340.62
390.512	345.62
390.736	344.62
390.961	342.62
391.186	356.62
391.411	332.62
391.636	345.62
391.86	349.62
392.085	324.62
392.31	338.62
392.534	351.62
392.759	344.62
392.984	329.62
393.208	361.62
393.433	358.62
393.658	354.62
393.882	324.62
394.107	340.62
394.331	343.62
394.556	348.62
394.78	340.62
395.005	352.62
395.229	358.62
395.454	352.62
395.678	364.62
395.903	363.62
396.127	386.62
396.352	378.62
396.576	359.62
396.801	362.62
397.025	344.62
397.249	371.62
397.474	376.62
397.698	358.62
397.922	386.62
398.147	392.62
398.371	385.62
398.595	380.62
398.82	368.62
399.044	369.62
399.268	376.62
399.492	384.62
399.717	402.62
399.941	448.62
400.165	462.62
400.389	474.62
400.613	450.62
400.837	417.62
401.062	415.62
401.286	390.62
401.51	395.62
401.734	379.62
401.958	406.62
402.182	380.62
402.406	407.62
402.63	424.62
402.854	417.62
403.078	404.62
403.302	410.62
403.526	410.62
403.75	410.62
403.974	408.62
404.198	397.62
404.422	417.62
404.645	406.62
404.869	437.62
405.093	427.62
405.317	486.62
405.541	497.62
405.765	454.62
405.988	425.62
406.212	435.62
406.436	496.62
406.66	501.62
406.883	463.62
407.107	513.62
407.331	520.62
407.555	587.62
407.778	603.62
408.002	525.62
408.226	485.62
408.449	469.62
408.673	477.62
408.896	492.62
409.12	535.62
409.344	498.62
409.567	440.62
409.791	433.62
410.014	400.62
410.238	394.62
410.461	423.62
410.685	433.62
410.908	450.62
411.132	482.62
411.355	514.62
411.578	487.62
411.802	437.62
412.025	423.62
412.249	402.62
412.472	430.62
412.695	440.62
412.919	408.62
413.142	396.62
413.365	395.62
413.589	394.62
413.812	393.62
414.035	403.62
414.258	389.62
414.482	373.62
414.705	386.62
414.928	378.62
415.151	384.62
415.374	400.62
415.597	385.62
415.821	374.62
416.044	400.62
416.267	392.62
416.49	391.62
416.713	412.62
416.936	416.62
417.159	395.62
417.382	398.62
417.605	391.62
417.828	406.62
418.051	440.62
418.274	415.62
418.497	406.62
418.72	392.62
418.943	392.62
419.166	395.62
419.389	436.62
419.611	421.62
419.834	428.62
420.057	407.62
420.28	425.62
420.503	429.62
420.726	432.62
420.948	427.62
421.171	496.62
421.394	540.62
421.617	455.62
421.839	442.62
422.062	420.62
422.285	447.62
422.507	504.62
422.73	598.62
422.953	570.62
423.175	520.62
423.398	481.62
423.621	452.62
423.843	477.62
424.066	466.62
424.288	472.62
424.511	491.62
424.733	572.62
424.956	647.62
425.178	626.62
425.401	644.62
425.623	622.62
425.846	530.62
426.068	519.62
426.291	512.62
426.513	498.62
426.735	508.62
426.958	561.62
427.18	646.62
427.402	754.62
427.625	865.62
427.847	787.62
428.069	673.62
428.292	569.62
428.514	529.62
428.736	491.62
428.958	487.62
429.181	462.62
429.403	468.62
429.625	481.62
429.847	493.62
430.069	558.62
430.292	566.62
430.514	483.62
430.736	462.62
430.958	463.62
431.18	434.62
431.402	410.62
431.624	393.62
431.846	437.62
432.068	434.62
432.29	421.62
432.512	412.62
432.734	426.62
432.956	456.62
433.178	444.62
433.4	452.62
433.622	435.62
433.844	406.62
434.066	408.62
434.287	410.62
434.509	409.62
434.731	413.62
434.953	430.62
435.175	445.62
435.397	482.62
435.618	506.62
435.84	534.62
436.062	653.62
436.284	696.62
436.505	590.62
436.727	536.62
436.949	491.62
437.17	465.62
437.392	480.62
437.614	482.62
437.835	562.62
438.057	634.62
438.278	744.62
438.5	720.62
438.721	800.62
438.943	733.62
439.165	609.62
439.386	554.62
439.608	554.62
439.829	529.62
440.05	569.62
440.272	617.62
440.493	573.62
440.715	527.62
440.936	479.62
441.158	473.62
441.379	466.62
441.6	489.62
441.822	508.62
442.043	552.62
442.264	625.62
442.486	692.62
442.707	562.62
442.928	535.62
443.149	548.62
443.371	572.62
443.592	612.62
443.813	704.62
444.034	741.62
444.255	601.62
444.476	552.62
444.698	519.62
444.919	490.62
445.14	566.62
445.361	549.62
445.582	568.62
445.803	636.62
446.024	726.62
446.245	708.62
446.466	672.62
446.687	583.62
446.908	560.62
447.129	490.62
447.35	482.62
447.571	468.62
447.792	463.62
448.013	453.62
448.234	496.62
448.455	556.62
448.675	685.62
448.896	761.62
449.117	650.62
449.338	654.62
449.559	718.62
449.779	799.62
450	650.62
450.221	506.62
450.442	492.62
450.662	456.62
450.883	514.62
451.104	530.62
451.324	525.62
451.545	480.62
451.766	441.62
451.986	468.62
452.207	436.62
452.428	452.62
452.648	413.62
452.869	429.62
453.089	424.62
453.31	453.62
453.53	446.62
453.751	429.62
453.971	440.62
454.192	482.62
454.412	464.62
454.633	437.62
454.853	434.62
455.073	428.62
455.294	461.62
455.514	510.62
455.734	518.62
455.955	444.62
456.175	416.62
456.395	391.62
456.616	388.62
456.836	392.62
457.056	381.62
457.276	374.62
457.497	400.62
457.717	408.62
457.937	389.62
458.157	398.62
458.377	405.62
458.598	435.62
458.818	542.62
459.038	634.62
459.258	624.62
459.478	501.62
459.698	468.62
459.918	456.62
460.138	432.62
460.358	418.62
460.578	416.62
460.798	397.62
461.018	420.62
461.238	415.62
461.458	416.62
461.678	397.62
461.898	394.62
462.118	422.62
462.338	414.62
462.558	404.62
462.777	399.62
462.997	412.62
463.217	440.62
463.437	427.62
463.657	420.62
463.876	415.62
464.096	420.62
464.316	432.62
464.536	445.62
464.755	450.62
464.975	454.62
465.195	546.62
465.414	671.62
465.634	574.62
465.854	506.62
466.073	466.62
466.293	441.62
466.512	435.62
466.732	418.62
466.951	432.62
467.171	397.62
467.391	427.62
467.61	430.62
467.829	453.62
468.049	456.62
468.268	408.62
468.488	394.62
468.707	404.62
468.927	419.62
469.146	398.62
469.365	398.62
469.585	416.62
469.804	418.62
470.023	427.62
470.243	422.62
470.462	434.62
470.681	480.62
470.901	465.62
471.12	425.62
471.339	441.62
471.558	438.62
471.777	413.62
471.997	423.62
472.216	399.62
472.435	430.62
472.654	433.62
472.873	412.62
473.092	412.62
473.311	421.62
473.53	436.62
473.749	450.62
473.968	485.62
474.187	589.62
474.406	607.62
474.625	492.62
474.844	462.62
475.063	432.62
475.282	441.62
475.501	436.62
475.72	440.62
475.939	441.62
476.158	453.62
476.377	439.62
476.596	401.62
476.814	451.62
477.033	467.62
477.252	466.62
477.471	470.62
477.69	463.62
477.908	436.62
478.127	448.62
478.346	438.62
478.564	470.62
478.783	465.62
479.002	480.62
479.22	476.62
479.439	500.62
479.658	502.62
479.876	527.62
480.095	529.62
480.313	576.62
480.532	528.62
480.751	537.62
480.969	526.62
481.188	536.62
481.406	526.62
481.624	502.62
481.843	493.62
482.061	506.62
482.28	501.62
482.498	509.62
482.717	501.62
482.935	501.62
483.153	499.62
483.372	492.62
483.59	508.62
483.808	499.62
484.027	497.62
484.245	469.62
484.463	493.62
484.681	509.62
484.9	509.62
485.118	526.62
485.336	502.62
485.554	493.62
485.772	534.62
485.99	525.62
486.209	520.62
486.427	526.62
486.645	552.62
486.863	577.62
487.081	555.62
487.299	549.62
487.517	541.62
487.735	541.62
487.953	567.62
488.171	541.62
488.389	540.62
488.607	553.62
488.825	558.62
489.043	571.62
489.261	558.62
489.479	568.62
489.696	550.62
489.914	549.62
490.132	573.62
490.35	603.62
490.568	590.62
490.786	597.62
491.003	592.62
491.221	589.62
491.439	624.62
491.657	606.62
491.874	620.62
492.092	619.62
492.31	619.62
492.527	643.62
492.745	662.62
492.963	647.62
493.18	644.62
493.398	671.62
493.615	649.62
493.833	648.62
494.05	646.62
494.268	654.62
494.485	621.62
494.703	657.62
494.92	628.62
495.138	650.62
495.355	674.62
495.573	680.62
495.79	640.62
496.008	658.62
496.225	662.62
496.442	665.62
496.66	674.62
496.877	662.62
497.094	650.62
497.312	676.62
497.529	686.62
497.746	676.62
497.963	684.62
498.181	707.62
498.398	694.62
498.615	702.62
498.832	723.62
499.049	715.62
499.267	722.62
499.484	729.62
499.701	733.62
499.918	750.62
500.135	772.62
500.352	764.62
500.569	726.62
500.786	757.62
501.003	738.62
501.22	744.62
501.437	768.62
501.654	780.62
501.871	813.62
