Data from 1987.PennyLincolnUp.Lamp.En5.5.200Scan.071819.P2_HRD10591_17-15-36-971.txt Node
Date: Thu Jul 18 17:15:36 EDT 2019
User: cochatt
Spectrometer: HR+D1059
Trigger mode: 1
Integration Time (sec): 1.000000E-1
Scans to average: 1
Electric dark correction enabled: true
Nonlinearity correction enabled: false
Boxcar width: 0
XAxis mode: Wavelengths
Number of Pixels in Spectrum: 2048
>>>>>Begin Spectral Data<<<<<
223.165	-20.81
223.4	-20.81
223.635	-20.81
223.869	-11.81
224.104	-16.81
224.338	-6.81
224.573	-15.81
224.808	-5.81
225.042	-17.81
225.277	-19.81
225.511	-5.81
225.746	-0.81
225.98	10.19
226.215	6.19
226.449	32.19
226.683	23.19
226.918	17.19
227.152	33.19
227.387	44.19
227.621	39.19
227.856	33.19
228.09	45.19
228.324	67.19
228.559	56.19
228.793	72.19
229.027	107.19
229.262	120.19
229.496	114.19
229.73	154.19
229.964	155.19
230.199	143.19
230.433	143.19
230.667	110.19
230.901	121.19
231.136	125.19
231.37	116.19
231.604	118.19
231.838	118.19
232.072	123.19
232.306	108.19
232.541	111.19
232.775	126.19
233.009	116.19
233.243	106.19
233.477	122.19
233.711	116.19
233.945	97.19
234.179	106.19
234.413	120.19
234.647	106.19
234.881	109.19
235.115	120.19
235.349	117.19
235.583	103.19
235.817	130.19
236.051	109.19
236.285	117.19
236.519	129.19
236.753	134.19
236.987	151.19
237.221	192.19
237.455	247.19
237.689	210.19
237.922	160.19
238.156	131.19
238.39	132.19
238.624	139.19
238.858	130.19
239.091	123.19
239.325	126.19
239.559	129.19
239.793	126.19
240.027	122.19
240.26	128.19
240.494	171.19
240.728	165.19
240.961	154.19
241.195	155.19
241.429	134.19
241.662	124.19
241.896	130.19
242.13	132.19
242.363	119.19
242.597	133.19
242.83	136.19
243.064	134.19
243.298	126.19
243.531	127.19
243.765	156.19
243.998	134.19
244.232	125.19
244.465	140.19
244.699	136.19
244.932	154.19
245.166	138.19
245.399	127.19
245.633	139.19
245.866	137.19
246.099	144.19
246.333	155.19
246.566	155.19
246.8	153.19
247.033	143.19
247.266	135.19
247.5	150.19
247.733	165.19
247.966	170.19
248.2	160.19
248.433	170.19
248.666	173.19
248.899	176.19
249.133	188.19
249.366	218.19
249.599	190.19
249.832	182.19
250.066	183.19
250.299	183.19
250.532	178.19
250.765	178.19
250.998	205.19
251.231	223.19
251.465	207.19
251.698	217.19
251.931	189.19
252.164	196.19
252.397	193.19
252.63	182.19
252.863	190.19
253.096	210.19
253.329	233.19
253.562	214.19
253.795	237.19
254.028	220.19
254.261	218.19
254.494	202.19
254.727	244.19
254.96	276.19
255.193	268.19
255.426	235.19
255.659	241.19
255.892	212.19
256.124	195.19
256.357	204.19
256.59	210.19
256.823	204.19
257.056	195.19
257.289	182.19
257.521	194.19
257.754	202.19
257.987	211.19
258.22	187.19
258.452	200.19
258.685	198.19
258.918	192.19
259.151	192.19
259.383	197.19
259.616	191.19
259.849	206.19
260.081	224.19
260.314	250.19
260.547	246.19
260.779	223.19
261.012	237.19
261.244	222.19
261.477	213.19
261.71	223.19
261.942	202.19
262.175	238.19
262.407	221.19
262.64	187.19
262.872	196.19
263.105	183.19
263.337	197.19
263.57	205.19
263.802	195.19
264.035	195.19
264.267	192.19
264.499	192.19
264.732	186.19
264.964	191.19
265.197	194.19
265.429	190.19
265.661	189.19
265.894	190.19
266.126	190.19
266.358	168.19
266.591	195.19
266.823	194.19
267.055	191.19
267.287	189.19
267.52	218.19
267.752	214.19
267.984	212.19
268.216	198.19
268.448	197.19
268.681	221.19
268.913	205.19
269.145	238.19
269.377	256.19
269.609	266.19
269.841	248.19
270.073	256.19
270.306	262.19
270.538	276.19
270.77	308.19
271.002	290.19
271.234	280.19
271.466	280.19
271.698	296.19
271.93	292.19
272.162	304.19
272.394	299.19
272.626	291.19
272.858	294.19
273.09	284.19
273.322	246.19
273.553	247.19
273.785	238.19
274.017	230.19
274.249	225.19
274.481	253.19
274.713	236.19
274.945	234.19
275.176	239.19
275.408	222.19
275.64	228.19
275.872	235.19
276.104	222.19
276.335	234.19
276.567	242.19
276.799	282.19
277.031	292.19
277.262	277.19
277.494	284.19
277.726	274.19
277.957	261.19
278.189	254.19
278.421	239.19
278.652	236.19
278.884	236.19
279.115	234.19
279.347	230.19
279.579	215.19
279.81	218.19
280.042	225.19
280.273	227.19
280.505	224.19
280.736	223.19
280.968	224.19
281.199	215.19
281.431	218.19
281.662	211.19
281.894	222.19
282.125	234.19
282.356	254.19
282.588	274.19
282.819	279.19
283.051	242.19
283.282	213.19
283.513	222.19
283.745	234.19
283.976	235.19
284.207	221.19
284.439	244.19
284.67	222.19
284.901	216.19
285.132	226.19
285.364	221.19
285.595	230.19
285.826	220.19
286.057	223.19
286.288	215.19
286.52	213.19
286.751	213.19
286.982	216.19
287.213	222.19
287.444	226.19
287.675	233.19
287.906	244.19
288.138	276.19
288.369	266.19
288.6	240.19
288.831	231.19
289.062	239.19
289.293	237.19
289.524	215.19
289.755	222.19
289.986	224.19
290.217	254.19
290.448	247.19
290.679	237.19
290.91	240.19
291.141	223.19
291.371	228.19
291.602	238.19
291.833	234.19
292.064	223.19
292.295	219.19
292.526	231.19
292.757	233.19
292.987	246.19
293.218	223.19
293.449	229.19
293.68	227.19
293.91	238.19
294.141	231.19
294.372	238.19
294.603	225.19
294.833	230.19
295.064	230.19
295.295	246.19
295.525	238.19
295.756	244.19
295.987	239.19
296.217	281.19
296.448	276.19
296.679	238.19
296.909	247.19
297.14	246.19
297.37	243.19
297.601	237.19
297.831	247.19
298.062	242.19
298.292	250.19
298.523	237.19
298.753	212.19
298.984	245.19
299.214	242.19
299.445	249.19
299.675	261.19
299.905	261.19
300.136	262.19
300.366	259.19
300.597	244.19
300.827	263.19
301.057	276.19
301.288	271.19
301.518	276.19
301.748	262.19
301.979	271.19
302.209	236.19
302.439	265.19
302.669	235.19
302.9	257.19
303.13	251.19
303.36	265.19
303.59	270.19
303.82	282.19
304.051	294.19
304.281	268.19
304.511	242.19
304.741	249.19
304.971	250.19
305.201	244.19
305.431	260.19
305.661	255.19
305.891	261.19
306.121	264.19
306.352	289.19
306.582	270.19
306.812	264.19
307.042	275.19
307.272	276.19
307.502	274.19
307.731	295.19
307.961	251.19
308.191	272.19
308.421	281.19
308.651	276.19
308.881	296.19
309.111	301.19
309.341	306.19
309.571	306.19
309.8	310.19
310.03	338.19
310.26	337.19
310.49	328.19
310.72	331.19
310.949	356.19
311.179	361.19
311.409	336.19
311.639	312.19
311.868	348.19
312.098	330.19
312.328	333.19
312.557	357.19
312.787	386.19
313.017	377.19
313.246	357.19
313.476	345.19
313.706	317.19
313.935	338.19
314.165	365.19
314.394	356.19
314.624	357.19
314.853	335.19
315.083	348.19
315.312	311.19
315.542	310.19
315.771	307.19
316.001	314.19
316.23	312.19
316.46	320.19
316.689	330.19
316.919	322.19
317.148	324.19
317.377	323.19
317.607	350.19
317.836	340.19
318.065	343.19
318.295	321.19
318.524	308.19
318.753	319.19
318.983	312.19
319.212	326.19
319.441	344.19
319.67	361.19
319.9	320.19
320.129	330.19
320.358	336.19
320.587	318.19
320.816	342.19
321.046	363.19
321.275	374.19
321.504	350.19
321.733	353.19
321.962	365.19
322.191	379.19
322.42	394.19
322.649	444.19
322.878	422.19
323.108	449.19
323.337	484.19
323.566	506.19
323.795	550.19
324.024	629.19
324.253	772.19
324.482	1177.19
324.71	1773.19
324.939	2457.19
325.168	2194.19
325.397	1179.19
325.626	750.19
325.855	603.19
326.084	555.19
326.313	503.19
326.542	528.19
326.77	578.19
326.999	698.19
327.228	987.19
327.457	1497.19
327.686	1869.19
327.914	1270.19
328.143	830.19
328.372	694.19
328.6	658.19
328.829	597.19
329.058	600.19
329.287	635.19
329.515	580.19
329.744	514.19
329.972	515.19
330.201	482.19
330.43	539.19
330.658	578.19
330.887	656.19
331.115	646.19
331.344	518.19
331.572	457.19
331.801	476.19
332.03	447.19
332.258	426.19
332.486	386.19
332.715	373.19
332.943	370.19
333.172	388.19
333.4	406.19
333.629	388.19
333.857	377.19
334.085	382.19
334.314	383.19
334.542	386.19
334.771	419.19
334.999	388.19
335.227	381.19
335.455	378.19
335.684	394.19
335.912	379.19
336.14	369.19
336.369	344.19
336.597	364.19
336.825	386.19
337.053	367.19
337.281	356.19
337.51	372.19
337.738	356.19
337.966	363.19
338.194	354.19
338.422	383.19
338.65	384.19
338.878	347.19
339.106	349.19
339.334	346.19
339.562	340.19
339.79	362.19
340.018	361.19
340.246	363.19
340.474	374.19
340.702	364.19
340.93	350.19
341.158	355.19
341.386	350.19
341.614	380.19
341.842	367.19
342.07	346.19
342.298	333.19
342.526	360.19
342.754	341.19
342.981	360.19
343.209	361.19
343.437	336.19
343.665	333.19
343.893	342.19
344.12	348.19
344.348	347.19
344.576	358.19
344.804	368.19
345.031	384.19
345.259	386.19
345.487	390.19
345.714	379.19
345.942	371.19
346.17	355.19
346.397	341.19
346.625	365.19
346.853	352.19
347.08	359.19
347.308	346.19
347.535	386.19
347.763	382.19
347.99	378.19
348.218	384.19
348.445	398.19
348.673	375.19
348.9	381.19
349.128	372.19
349.355	359.19
349.583	331.19
349.81	340.19
350.037	330.19
350.265	351.19
350.492	358.19
350.72	347.19
350.947	346.19
351.174	363.19
351.402	361.19
351.629	394.19
351.856	380.19
352.083	395.19
352.311	399.19
352.538	408.19
352.765	400.19
352.992	382.19
353.22	367.19
353.447	374.19
353.674	357.19
353.901	350.19
354.128	332.19
354.355	343.19
354.583	347.19
354.81	350.19
355.037	340.19
355.264	325.19
355.491	317.19
355.718	308.19
355.945	314.19
356.172	324.19
356.399	308.19
356.626	314.19
356.853	319.19
357.08	329.19
357.307	332.19
357.534	304.19
357.761	315.19
357.988	324.19
358.215	321.19
358.441	329.19
358.668	327.19
358.895	330.19
359.122	346.19
359.349	342.19
359.576	371.19
359.802	394.19
360.029	432.19
360.256	463.19
360.483	411.19
360.709	394.19
360.936	388.19
361.163	357.19
361.39	367.19
361.616	379.19
361.843	375.19
362.07	361.19
362.296	374.19
362.523	370.19
362.749	361.19
362.976	358.19
363.203	356.19
363.429	351.19
363.656	331.19
363.882	350.19
364.109	332.19
364.335	334.19
364.562	351.19
364.788	328.19
365.015	343.19
365.241	337.19
365.468	349.19
365.694	337.19
365.92	356.19
366.147	353.19
366.373	354.19
366.599	344.19
366.826	329.19
367.052	336.19
367.278	319.19
367.505	353.19
367.731	354.19
367.957	338.19
368.184	348.19
368.41	330.19
368.636	343.19
368.862	354.19
369.089	360.19
369.315	345.19
369.541	342.19
369.767	331.19
369.993	325.19
370.219	332.19
370.445	346.19
370.672	316.19
370.898	334.19
371.124	322.19
371.35	338.19
371.576	320.19
371.802	314.19
372.028	324.19
372.254	325.19
372.48	318.19
372.706	336.19
372.932	316.19
373.158	317.19
373.384	332.19
373.61	323.19
373.835	325.19
374.061	322.19
374.287	315.19
374.513	325.19
374.739	340.19
374.965	327.19
375.191	337.19
375.416	332.19
375.642	336.19
375.868	326.19
376.094	317.19
376.319	334.19
376.545	341.19
376.771	316.19
376.997	317.19
377.222	328.19
377.448	306.19
377.674	327.19
377.899	318.19
378.125	318.19
378.35	307.19
378.576	310.19
378.802	327.19
379.027	305.19
379.253	323.19
379.478	309.19
379.704	316.19
379.929	314.19
380.155	316.19
380.38	318.19
380.606	331.19
380.831	319.19
381.057	343.19
381.282	330.19
381.507	315.19
381.733	327.19
381.958	319.19
382.184	327.19
382.409	343.19
382.634	318.19
382.86	324.19
383.085	333.19
383.31	324.19
383.535	312.19
383.761	339.19
383.986	327.19
384.211	331.19
384.436	308.19
384.662	323.19
384.887	337.19
385.112	326.19
385.337	331.19
385.562	334.19
385.787	348.19
386.013	348.19
386.238	368.19
386.463	341.19
386.688	328.19
386.913	339.19
387.138	336.19
387.363	342.19
387.588	338.19
387.813	346.19
388.038	317.19
388.263	341.19
388.488	339.19
388.713	340.19
388.938	345.19
389.163	359.19
389.387	359.19
389.612	347.19
389.837	313.19
390.062	339.19
390.287	343.19
390.512	334.19
390.736	352.19
390.961	342.19
391.186	323.19
391.411	324.19
391.636	330.19
391.86	317.19
392.085	328.19
392.31	344.19
392.534	339.19
392.759	350.19
392.984	345.19
393.208	349.19
393.433	351.19
393.658	333.19
393.882	327.19
394.107	345.19
394.331	342.19
394.556	357.19
394.78	342.19
395.005	354.19
395.229	345.19
395.454	365.19
395.678	348.19
395.903	367.19
396.127	383.19
396.352	384.19
396.576	358.19
396.801	374.19
397.025	366.19
397.249	363.19
397.474	360.19
397.698	367.19
397.922	357.19
398.147	382.19
398.371	369.19
398.595	366.19
398.82	366.19
399.044	385.19
399.268	385.19
399.492	401.19
399.717	398.19
399.941	439.19
400.165	475.19
400.389	482.19
400.613	451.19
400.837	423.19
401.062	388.19
401.286	389.19
401.51	390.19
401.734	393.19
401.958	408.19
402.182	399.19
402.406	412.19
402.63	398.19
402.854	407.19
403.078	385.19
403.302	418.19
403.526	413.19
403.75	428.19
403.974	422.19
404.198	404.19
404.422	422.19
404.645	408.19
404.869	423.19
405.093	418.19
405.317	446.19
405.541	492.19
405.765	478.19
405.988	460.19
406.212	447.19
406.436	475.19
406.66	511.19
406.883	465.19
407.107	478.19
407.331	519.19
407.555	574.19
407.778	572.19
408.002	539.19
408.226	487.19
408.449	447.19
408.673	454.19
408.896	508.19
409.12	514.19
409.344	523.19
409.567	450.19
409.791	416.19
410.014	413.19
410.238	414.19
410.461	405.19
410.685	410.19
410.908	444.19
411.132	487.19
411.355	513.19
411.578	500.19
411.802	451.19
412.025	413.19
412.249	431.19
412.472	416.19
412.695	421.19
412.919	407.19
413.142	410.19
413.365	420.19
413.589	390.19
413.812	380.19
414.035	380.19
414.258	380.19
414.482	374.19
414.705	381.19
414.928	379.19
415.151	378.19
415.374	378.19
415.597	384.19
415.821	374.19
416.044	391.19
416.267	396.19
416.49	384.19
416.713	399.19
416.936	406.19
417.159	390.19
417.382	408.19
417.605	414.19
417.828	411.19
418.051	431.19
418.274	422.19
418.497	393.19
418.72	409.19
418.943	397.19
419.166	412.19
419.389	428.19
419.611	422.19
419.834	431.19
420.057	422.19
420.28	419.19
420.503	416.19
420.726	429.19
420.948	434.19
421.171	486.19
421.394	517.19
421.617	461.19
421.839	425.19
422.062	429.19
422.285	444.19
422.507	512.19
422.73	577.19
422.953	583.19
423.175	496.19
423.398	475.19
423.621	468.19
423.843	475.19
424.066	490.19
424.288	471.19
424.511	506.19
424.733	552.19
424.956	641.19
425.178	616.19
425.401	614.19
425.623	627.19
425.846	556.19
426.068	511.19
426.291	479.19
426.513	499.19
426.735	502.19
426.958	553.19
427.18	628.19
427.402	717.19
427.625	824.19
427.847	774.19
428.069	652.19
428.292	576.19
428.514	508.19
428.736	493.19
428.958	474.19
429.181	461.19
429.403	465.19
429.625	444.19
429.847	496.19
430.069	578.19
430.292	559.19
430.514	498.19
430.736	458.19
430.958	447.19
431.18	414.19
431.402	421.19
431.624	413.19
431.846	414.19
432.068	423.19
432.29	409.19
432.512	431.19
432.734	436.19
432.956	438.19
433.178	434.19
433.4	451.19
433.622	431.19
433.844	412.19
434.066	406.19
434.287	414.19
434.509	423.19
434.731	430.19
434.953	441.19
435.175	454.19
435.397	486.19
435.618	491.19
435.84	534.19
436.062	629.19
436.284	691.19
436.505	613.19
436.727	543.19
436.949	470.19
437.17	477.19
437.392	466.19
437.614	471.19
437.835	538.19
438.057	654.19
438.278	754.19
438.5	725.19
438.721	770.19
438.943	752.19
439.165	609.19
439.386	545.19
439.608	558.19
439.829	534.19
440.05	554.19
440.272	621.19
440.493	574.19
440.715	505.19
440.936	494.19
441.158	471.19
441.379	468.19
441.6	480.19
441.822	507.19
442.043	573.19
442.264	639.19
442.486	663.19
442.707	579.19
442.928	541.19
443.149	524.19
443.371	563.19
443.592	578.19
443.813	676.19
444.034	729.19
444.255	643.19
444.476	527.19
444.698	498.19
444.919	479.19
445.14	606.19
445.361	540.19
445.582	560.19
445.803	620.19
446.024	702.19
446.245	712.19
446.466	657.19
446.687	583.19
446.908	497.19
447.129	476.19
447.35	458.19
447.571	466.19
447.792	467.19
448.013	476.19
448.234	498.19
448.455	560.19
448.675	660.19
448.896	717.19
449.117	650.19
449.338	619.19
449.559	722.19
449.779	764.19
450	655.19
450.221	531.19
450.442	490.19
450.662	489.19
450.883	482.19
451.104	511.19
451.324	512.19
451.545	469.19
451.766	464.19
451.986	423.19
452.207	415.19
452.428	424.19
452.648	428.19
452.869	419.19
453.089	447.19
453.31	468.19
453.53	436.19
453.751	430.19
453.971	444.19
454.192	458.19
454.412	470.19
454.633	459.19
454.853	440.19
455.073	415.19
455.294	442.19
455.514	547.19
455.734	513.19
455.955	448.19
456.175	406.19
456.395	370.19
456.616	380.19
456.836	389.19
457.056	387.19
457.276	384.19
457.497	386.19
457.717	387.19
457.937	398.19
458.157	394.19
458.377	411.19
458.598	438.19
458.818	522.19
459.038	587.19
459.258	627.19
459.478	508.19
459.698	464.19
459.918	450.19
460.138	423.19
460.358	400.19
460.578	408.19
460.798	423.19
461.018	409.19
461.238	410.19
461.458	409.19
461.678	423.19
461.898	400.19
462.118	413.19
462.338	410.19
462.558	415.19
462.777	411.19
462.997	410.19
463.217	414.19
463.437	415.19
463.657	426.19
463.876	412.19
464.096	435.19
464.316	442.19
464.536	439.19
464.755	440.19
464.975	452.19
465.195	547.19
465.414	663.19
465.634	564.19
465.854	491.19
466.073	454.19
466.293	446.19
466.512	435.19
466.732	405.19
466.951	430.19
467.171	421.19
467.391	423.19
467.61	427.19
467.829	439.19
468.049	440.19
468.268	415.19
468.488	405.19
468.707	392.19
468.927	401.19
469.146	384.19
469.365	391.19
469.585	401.19
469.804	410.19
470.023	432.19
470.243	433.19
470.462	424.19
470.681	461.19
470.901	460.19
471.12	425.19
471.339	425.19
471.558	437.19
471.777	427.19
471.997	423.19
472.216	407.19
472.435	422.19
472.654	427.19
472.873	436.19
473.092	424.19
473.311	438.19
473.53	404.19
473.749	459.19
473.968	493.19
474.187	594.19
474.406	613.19
474.625	508.19
474.844	434.19
475.063	437.19
475.282	445.19
475.501	428.19
475.72	437.19
475.939	437.19
476.158	440.19
476.377	426.19
476.596	430.19
476.814	437.19
477.033	457.19
477.252	432.19
477.471	437.19
477.69	438.19
477.908	456.19
478.127	447.19
478.346	448.19
478.564	459.19
478.783	470.19
479.002	473.19
479.22	466.19
479.439	469.19
479.658	522.19
479.876	551.19
480.095	506.19
480.313	569.19
480.532	532.19
480.751	511.19
480.969	512.19
481.188	531.19
481.406	534.19
481.624	525.19
481.843	490.19
482.061	511.19
482.28	493.19
482.498	484.19
482.717	489.19
482.935	489.19
483.153	512.19
483.372	512.19
483.59	480.19
483.808	507.19
484.027	494.19
484.245	498.19
484.463	495.19
484.681	508.19
484.9	489.19
485.118	503.19
485.336	516.19
485.554	514.19
485.772	501.19
485.99	516.19
486.209	520.19
486.427	539.19
486.645	538.19
486.863	575.19
487.081	555.19
487.299	570.19
487.517	540.19
487.735	529.19
487.953	545.19
488.171	542.19
488.389	532.19
488.607	541.19
488.825	532.19
489.043	558.19
489.261	530.19
489.479	546.19
489.696	551.19
489.914	559.19
490.132	591.19
490.35	568.19
490.568	584.19
490.786	587.19
491.003	595.19
491.221	589.19
491.439	598.19
491.657	612.19
491.874	619.19
492.092	616.19
492.31	644.19
492.527	636.19
492.745	623.19
492.963	644.19
493.18	632.19
493.398	641.19
493.615	634.19
493.833	662.19
494.05	640.19
494.268	643.19
494.485	652.19
494.703	640.19
494.92	644.19
495.138	651.19
495.355	649.19
495.573	659.19
495.79	668.19
496.008	662.19
496.225	669.19
496.442	660.19
496.66	650.19
496.877	671.19
497.094	670.19
497.312	653.19
497.529	676.19
497.746	695.19
497.963	670.19
498.181	699.19
498.398	712.19
498.615	719.19
498.832	697.19
499.049	688.19
499.267	715.19
499.484	721.19
499.701	719.19
499.918	719.19
500.135	752.19
500.352	781.19
500.569	766.19
500.786	731.19
501.003	761.19
501.22	754.19
501.437	769.19
501.654	757.19
501.871	778.19
