Data from 1987.PennyLincolnUp.Lamp.En5.5.200Scan.071819.P2_HRD10591_17-15-11-971.txt Node
Date: Thu Jul 18 17:15:11 EDT 2019
User: cochatt
Spectrometer: HR+D1059
Trigger mode: 1
Integration Time (sec): 1.000000E-1
Scans to average: 1
Electric dark correction enabled: true
Nonlinearity correction enabled: false
Boxcar width: 0
XAxis mode: Wavelengths
Number of Pixels in Spectrum: 2048
>>>>>Begin Spectral Data<<<<<
223.165	-0.75
223.4	-0.75
223.635	-0.75
223.869	-23.75
224.104	-21.75
224.338	-5.75
224.573	-16.75
224.808	-13.75
225.042	-5.75
225.277	-11.75
225.511	0.25
225.746	1.25
225.98	0.25
226.215	15.25
226.449	16.25
226.683	12.25
226.918	37.25
227.152	17.25
227.387	29.25
227.621	48.25
227.856	21.25
228.09	38.25
228.324	39.25
228.559	27.25
228.793	63.25
229.027	98.25
229.262	107.25
229.496	108.25
229.73	134.25
229.964	156.25
230.199	141.25
230.433	119.25
230.667	114.25
230.901	121.25
231.136	97.25
231.37	100.25
231.604	113.25
231.838	117.25
232.072	116.25
232.306	110.25
232.541	101.25
232.775	115.25
233.009	106.25
233.243	125.25
233.477	107.25
233.711	116.25
233.945	111.25
234.179	117.25
234.413	126.25
234.647	120.25
234.881	117.25
235.115	111.25
235.349	110.25
235.583	115.25
235.817	124.25
236.051	121.25
236.285	133.25
236.519	119.25
236.753	129.25
236.987	153.25
237.221	200.25
237.455	264.25
237.689	198.25
237.922	148.25
238.156	134.25
238.39	133.25
238.624	116.25
238.858	120.25
239.091	108.25
239.325	109.25
239.559	123.25
239.793	127.25
240.027	139.25
240.26	154.25
240.494	138.25
240.728	150.25
240.961	136.25
241.195	141.25
241.429	142.25
241.662	129.25
241.896	125.25
242.13	123.25
242.363	142.25
242.597	130.25
242.83	145.25
243.064	115.25
243.298	130.25
243.531	118.25
243.765	126.25
243.998	123.25
244.232	132.25
244.465	127.25
244.699	122.25
244.932	136.25
245.166	128.25
245.399	129.25
245.633	128.25
245.866	135.25
246.099	124.25
246.333	136.25
246.566	139.25
246.8	122.25
247.033	160.25
247.266	147.25
247.5	155.25
247.733	166.25
247.966	159.25
248.2	153.25
248.433	162.25
248.666	175.25
248.899	179.25
249.133	198.25
249.366	201.25
249.599	181.25
249.832	184.25
250.066	179.25
250.299	155.25
250.532	170.25
250.765	200.25
250.998	212.25
251.231	210.25
251.465	209.25
251.698	193.25
251.931	186.25
252.164	177.25
252.397	199.25
252.63	192.25
252.863	187.25
253.096	209.25
253.329	202.25
253.562	216.25
253.795	210.25
254.028	199.25
254.261	208.25
254.494	212.25
254.727	241.25
254.96	264.25
255.193	267.25
255.426	233.25
255.659	228.25
255.892	214.25
256.124	227.25
256.357	198.25
256.59	191.25
256.823	202.25
257.056	218.25
257.289	190.25
257.521	194.25
257.754	209.25
257.987	187.25
258.22	199.25
258.452	215.25
258.685	210.25
258.918	181.25
259.151	197.25
259.383	197.25
259.616	218.25
259.849	202.25
260.081	229.25
260.314	240.25
260.547	234.25
260.779	222.25
261.012	219.25
261.244	207.25
261.477	207.25
261.71	228.25
261.942	231.25
262.175	223.25
262.407	227.25
262.64	209.25
262.872	200.25
263.105	196.25
263.337	198.25
263.57	198.25
263.802	190.25
264.035	186.25
264.267	198.25
264.499	186.25
264.732	190.25
264.964	162.25
265.197	184.25
265.429	203.25
265.661	190.25
265.894	188.25
266.126	186.25
266.358	191.25
266.591	182.25
266.823	193.25
267.055	211.25
267.287	205.25
267.52	194.25
267.752	209.25
267.984	194.25
268.216	209.25
268.448	199.25
268.681	199.25
268.913	218.25
269.145	225.25
269.377	257.25
269.609	259.25
269.841	254.25
270.073	259.25
270.306	264.25
270.538	305.25
270.77	309.25
271.002	277.25
271.234	289.25
271.466	290.25
271.698	291.25
271.93	310.25
272.162	297.25
272.394	303.25
272.626	289.25
272.858	283.25
273.09	264.25
273.322	249.25
273.553	251.25
273.785	219.25
274.017	240.25
274.249	239.25
274.481	238.25
274.713	233.25
274.945	250.25
275.176	237.25
275.408	224.25
275.64	244.25
275.872	225.25
276.104	232.25
276.335	242.25
276.567	247.25
276.799	255.25
277.031	275.25
277.262	298.25
277.494	279.25
277.726	287.25
277.957	250.25
278.189	229.25
278.421	250.25
278.652	243.25
278.884	234.25
279.115	225.25
279.347	222.25
279.579	243.25
279.81	242.25
280.042	234.25
280.273	217.25
280.505	217.25
280.736	229.25
280.968	225.25
281.199	225.25
281.431	230.25
281.662	211.25
281.894	225.25
282.125	229.25
282.356	244.25
282.588	283.25
282.819	294.25
283.051	233.25
283.282	223.25
283.513	230.25
283.745	226.25
283.976	224.25
284.207	256.25
284.439	232.25
284.67	215.25
284.901	219.25
285.132	238.25
285.364	231.25
285.595	223.25
285.826	222.25
286.057	234.25
286.288	227.25
286.52	213.25
286.751	221.25
286.982	216.25
287.213	218.25
287.444	226.25
287.675	242.25
287.906	232.25
288.138	259.25
288.369	257.25
288.6	262.25
288.831	251.25
289.062	261.25
289.293	242.25
289.524	238.25
289.755	225.25
289.986	234.25
290.217	237.25
290.448	229.25
290.679	216.25
290.91	244.25
291.141	229.25
291.371	221.25
291.602	230.25
291.833	224.25
292.064	229.25
292.295	229.25
292.526	240.25
292.757	234.25
292.987	219.25
293.218	227.25
293.449	224.25
293.68	248.25
293.91	225.25
294.141	233.25
294.372	232.25
294.603	234.25
294.833	232.25
295.064	241.25
295.295	254.25
295.525	234.25
295.756	240.25
295.987	250.25
296.217	269.25
296.448	277.25
296.679	263.25
296.909	252.25
297.14	246.25
297.37	244.25
297.601	241.25
297.831	243.25
298.062	262.25
298.292	249.25
298.523	250.25
298.753	262.25
298.984	247.25
299.214	245.25
299.445	254.25
299.675	238.25
299.905	251.25
300.136	251.25
300.366	251.25
300.597	231.25
300.827	237.25
301.057	258.25
301.288	290.25
301.518	249.25
301.748	255.25
301.979	267.25
302.209	265.25
302.439	262.25
302.669	262.25
302.9	253.25
303.13	250.25
303.36	273.25
303.59	278.25
303.82	268.25
304.051	295.25
304.281	258.25
304.511	262.25
304.741	253.25
304.971	254.25
305.201	272.25
305.431	253.25
305.661	253.25
305.891	251.25
306.121	270.25
306.352	283.25
306.582	277.25
306.812	291.25
307.042	259.25
307.272	271.25
307.502	273.25
307.731	274.25
307.961	256.25
308.191	258.25
308.421	274.25
308.651	281.25
308.881	298.25
309.111	281.25
309.341	288.25
309.571	315.25
309.8	330.25
310.03	322.25
310.26	330.25
310.49	340.25
310.72	357.25
310.949	357.25
311.179	382.25
311.409	339.25
311.639	321.25
311.868	335.25
312.098	349.25
312.328	357.25
312.557	350.25
312.787	387.25
313.017	389.25
313.246	345.25
313.476	343.25
313.706	328.25
313.935	327.25
314.165	334.25
314.394	349.25
314.624	354.25
314.853	359.25
315.083	330.25
315.312	323.25
315.542	306.25
315.771	313.25
316.001	338.25
316.23	319.25
316.46	322.25
316.689	324.25
316.919	343.25
317.148	345.25
317.377	343.25
317.607	329.25
317.836	324.25
318.065	318.25
318.295	314.25
318.524	314.25
318.753	329.25
318.983	331.25
319.212	314.25
319.441	337.25
319.67	362.25
319.9	323.25
320.129	320.25
320.358	313.25
320.587	340.25
320.816	352.25
321.046	357.25
321.275	370.25
321.504	360.25
321.733	381.25
321.962	359.25
322.191	389.25
322.42	401.25
322.649	432.25
322.878	457.25
323.108	452.25
323.337	481.25
323.566	546.25
323.795	553.25
324.024	633.25
324.253	822.25
324.482	1205.25
324.71	1826.25
324.939	2609.25
325.168	2305.25
325.397	1233.25
325.626	795.25
325.855	606.25
326.084	561.25
326.313	542.25
326.542	528.25
326.77	600.25
326.999	718.25
327.228	1015.25
327.457	1571.25
327.686	1921.25
327.914	1338.25
328.143	873.25
328.372	733.25
328.6	637.25
328.829	613.25
329.058	623.25
329.287	648.25
329.515	583.25
329.744	520.25
329.972	505.25
330.201	481.25
330.43	527.25
330.658	601.25
330.887	657.25
331.115	613.25
331.344	546.25
331.572	474.25
331.801	466.25
332.03	463.25
332.258	440.25
332.486	413.25
332.715	390.25
332.943	397.25
333.172	365.25
333.4	385.25
333.629	389.25
333.857	397.25
334.085	378.25
334.314	364.25
334.542	368.25
334.771	386.25
334.999	404.25
335.227	393.25
335.455	376.25
335.684	385.25
335.912	371.25
336.14	358.25
336.369	355.25
336.597	385.25
336.825	353.25
337.053	372.25
337.281	359.25
337.51	373.25
337.738	375.25
337.966	382.25
338.194	400.25
338.422	379.25
338.65	340.25
338.878	339.25
339.106	358.25
339.334	381.25
339.562	353.25
339.79	355.25
340.018	371.25
340.246	361.25
340.474	373.25
340.702	367.25
340.93	361.25
341.158	387.25
341.386	370.25
341.614	392.25
341.842	371.25
342.07	342.25
342.298	354.25
342.526	351.25
342.754	337.25
342.981	339.25
343.209	336.25
343.437	339.25
343.665	371.25
343.893	353.25
344.12	348.25
344.348	353.25
344.576	348.25
344.804	361.25
345.031	400.25
345.259	373.25
345.487	383.25
345.714	371.25
345.942	344.25
346.17	367.25
346.397	345.25
346.625	343.25
346.853	373.25
347.08	359.25
347.308	353.25
347.535	378.25
347.763	355.25
347.99	381.25
348.218	375.25
348.445	402.25
348.673	373.25
348.9	385.25
349.128	375.25
349.355	376.25
349.583	351.25
349.81	343.25
350.037	343.25
350.265	366.25
350.492	344.25
350.72	359.25
350.947	374.25
351.174	381.25
351.402	373.25
351.629	374.25
351.856	392.25
352.083	398.25
352.311	398.25
352.538	392.25
352.765	385.25
352.992	407.25
353.22	383.25
353.447	371.25
353.674	355.25
353.901	353.25
354.128	327.25
354.355	329.25
354.583	339.25
354.81	335.25
355.037	334.25
355.264	318.25
355.491	323.25
355.718	331.25
355.945	325.25
356.172	310.25
356.399	313.25
356.626	325.25
356.853	334.25
357.08	328.25
357.307	332.25
357.534	313.25
357.761	326.25
357.988	324.25
358.215	325.25
358.441	333.25
358.668	345.25
358.895	342.25
359.122	342.25
359.349	352.25
359.576	382.25
359.802	413.25
360.029	459.25
360.256	489.25
360.483	449.25
360.709	385.25
360.936	365.25
361.163	365.25
361.39	411.25
361.616	383.25
361.843	361.25
362.07	366.25
362.296	386.25
362.523	371.25
362.749	348.25
362.976	375.25
363.203	355.25
363.429	346.25
363.656	335.25
363.882	339.25
364.109	347.25
364.335	346.25
364.562	354.25
364.788	331.25
365.015	344.25
365.241	339.25
365.468	345.25
365.694	362.25
365.92	366.25
366.147	345.25
366.373	342.25
366.599	328.25
366.826	342.25
367.052	344.25
367.278	330.25
367.505	350.25
367.731	337.25
367.957	346.25
368.184	341.25
368.41	350.25
368.636	359.25
368.862	364.25
369.089	345.25
369.315	355.25
369.541	330.25
369.767	327.25
369.993	312.25
370.219	344.25
370.445	328.25
370.672	333.25
370.898	319.25
371.124	333.25
371.35	329.25
371.576	322.25
371.802	311.25
372.028	325.25
372.254	326.25
372.48	337.25
372.706	317.25
372.932	318.25
373.158	320.25
373.384	320.25
373.61	342.25
373.835	325.25
374.061	338.25
374.287	329.25
374.513	329.25
374.739	332.25
374.965	321.25
375.191	329.25
375.416	333.25
375.642	328.25
375.868	346.25
376.094	339.25
376.319	335.25
376.545	305.25
376.771	327.25
376.997	330.25
377.222	313.25
377.448	306.25
377.674	321.25
377.899	322.25
378.125	322.25
378.35	322.25
378.576	315.25
378.802	326.25
379.027	322.25
379.253	326.25
379.478	320.25
379.704	321.25
379.929	326.25
380.155	341.25
380.38	330.25
380.606	336.25
380.831	338.25
381.057	334.25
381.282	325.25
381.507	330.25
381.733	345.25
381.958	347.25
382.184	330.25
382.409	337.25
382.634	313.25
382.86	317.25
383.085	344.25
383.31	329.25
383.535	344.25
383.761	341.25
383.986	328.25
384.211	342.25
384.436	350.25
384.662	344.25
384.887	351.25
385.112	339.25
385.337	345.25
385.562	330.25
385.787	346.25
386.013	344.25
386.238	350.25
386.463	353.25
386.688	362.25
386.913	352.25
387.138	349.25
387.363	351.25
387.588	339.25
387.813	361.25
388.038	354.25
388.263	344.25
388.488	369.25
388.713	358.25
388.938	357.25
389.163	347.25
389.387	336.25
389.612	324.25
389.837	337.25
390.062	322.25
390.287	353.25
390.512	333.25
390.736	339.25
390.961	348.25
391.186	361.25
391.411	345.25
391.636	346.25
391.86	346.25
392.085	342.25
392.31	354.25
392.534	344.25
392.759	339.25
392.984	342.25
393.208	344.25
393.433	353.25
393.658	360.25
393.882	346.25
394.107	338.25
394.331	350.25
394.556	357.25
394.78	367.25
395.005	342.25
395.229	336.25
395.454	365.25
395.678	364.25
395.903	368.25
396.127	394.25
396.352	393.25
396.576	386.25
396.801	357.25
397.025	371.25
397.249	347.25
397.474	362.25
397.698	354.25
397.922	381.25
398.147	391.25
398.371	399.25
398.595	382.25
398.82	385.25
399.044	378.25
399.268	408.25
399.492	410.25
399.717	414.25
399.941	450.25
400.165	475.25
400.389	505.25
400.613	474.25
400.837	435.25
401.062	418.25
401.286	390.25
401.51	386.25
401.734	393.25
401.958	418.25
402.182	408.25
402.406	418.25
402.63	419.25
402.854	416.25
403.078	403.25
403.302	415.25
403.526	424.25
403.75	410.25
403.974	410.25
404.198	394.25
404.422	423.25
404.645	418.25
404.869	414.25
405.093	433.25
405.317	464.25
405.541	489.25
405.765	463.25
405.988	433.25
406.212	470.25
406.436	488.25
406.66	484.25
406.883	459.25
407.107	503.25
407.331	547.25
407.555	569.25
407.778	579.25
408.002	549.25
408.226	474.25
408.449	487.25
408.673	472.25
408.896	497.25
409.12	558.25
409.344	505.25
409.567	445.25
409.791	438.25
410.014	435.25
410.238	421.25
410.461	436.25
410.685	437.25
410.908	451.25
411.132	446.25
411.355	506.25
411.578	485.25
411.802	437.25
412.025	419.25
412.249	425.25
412.472	426.25
412.695	427.25
412.919	427.25
413.142	418.25
413.365	425.25
413.589	403.25
413.812	385.25
414.035	385.25
414.258	390.25
414.482	377.25
414.705	386.25
414.928	404.25
415.151	389.25
415.374	381.25
415.597	375.25
415.821	395.25
416.044	400.25
416.267	401.25
416.49	377.25
416.713	395.25
416.936	387.25
417.159	390.25
417.382	424.25
417.605	410.25
417.828	419.25
418.051	432.25
418.274	425.25
418.497	412.25
418.72	405.25
418.943	412.25
419.166	389.25
419.389	443.25
419.611	416.25
419.834	417.25
420.057	414.25
420.28	411.25
420.503	416.25
420.726	434.25
420.948	433.25
421.171	477.25
421.394	537.25
421.617	476.25
421.839	416.25
422.062	431.25
422.285	467.25
422.507	524.25
422.73	581.25
422.953	557.25
423.175	493.25
423.398	463.25
423.621	472.25
423.843	458.25
424.066	478.25
424.288	484.25
424.511	497.25
424.733	577.25
424.956	627.25
425.178	619.25
425.401	601.25
425.623	629.25
425.846	546.25
426.068	530.25
426.291	510.25
426.513	496.25
426.735	517.25
426.958	557.25
427.18	630.25
427.402	756.25
427.625	830.25
427.847	771.25
428.069	649.25
428.292	574.25
428.514	546.25
428.736	520.25
428.958	490.25
429.181	463.25
429.403	469.25
429.625	458.25
429.847	507.25
430.069	573.25
430.292	600.25
430.514	504.25
430.736	470.25
430.958	453.25
431.18	456.25
431.402	418.25
431.624	429.25
431.846	411.25
432.068	406.25
432.29	429.25
432.512	425.25
432.734	445.25
432.956	424.25
433.178	450.25
433.4	466.25
433.622	441.25
433.844	411.25
434.066	426.25
434.287	422.25
434.509	430.25
434.731	432.25
434.953	448.25
435.175	465.25
435.397	497.25
435.618	491.25
435.84	544.25
436.062	632.25
436.284	719.25
436.505	605.25
436.727	539.25
436.949	517.25
437.17	490.25
437.392	487.25
437.614	528.25
437.835	539.25
438.057	648.25
438.278	749.25
438.5	737.25
438.721	775.25
438.943	717.25
439.165	601.25
439.386	573.25
439.608	561.25
439.829	554.25
440.05	561.25
440.272	611.25
440.493	579.25
440.715	510.25
440.936	529.25
441.158	479.25
441.379	451.25
441.6	473.25
441.822	520.25
442.043	533.25
442.264	644.25
442.486	675.25
442.707	575.25
442.928	522.25
443.149	539.25
443.371	552.25
443.592	592.25
443.813	695.25
444.034	708.25
444.255	622.25
444.476	526.25
444.698	499.25
444.919	499.25
445.14	605.25
445.361	594.25
445.582	557.25
445.803	611.25
446.024	724.25
446.245	722.25
446.466	677.25
446.687	561.25
446.908	537.25
447.129	504.25
447.35	514.25
447.571	487.25
447.792	476.25
448.013	467.25
448.234	518.25
448.455	567.25
448.675	685.25
448.896	779.25
449.117	667.25
449.338	615.25
449.559	713.25
449.779	776.25
450	636.25
450.221	565.25
450.442	499.25
450.662	490.25
450.883	510.25
451.104	506.25
451.324	510.25
451.545	469.25
451.766	447.25
451.986	426.25
452.207	431.25
452.428	418.25
452.648	438.25
452.869	427.25
453.089	441.25
453.31	442.25
453.53	439.25
453.751	433.25
453.971	424.25
454.192	457.25
454.412	465.25
454.633	445.25
454.853	419.25
455.073	427.25
455.294	454.25
455.514	535.25
455.734	507.25
455.955	430.25
456.175	407.25
456.395	385.25
456.616	393.25
456.836	395.25
457.056	364.25
457.276	375.25
457.497	383.25
457.717	374.25
457.937	389.25
458.157	399.25
458.377	406.25
458.598	439.25
458.818	523.25
459.038	610.25
459.258	629.25
459.478	543.25
459.698	472.25
459.918	433.25
460.138	427.25
460.358	438.25
460.578	403.25
460.798	433.25
461.018	425.25
461.238	441.25
461.458	395.25
461.678	409.25
461.898	403.25
462.118	395.25
462.338	400.25
462.558	391.25
462.777	395.25
462.997	409.25
463.217	431.25
463.437	436.25
463.657	438.25
463.876	427.25
464.096	426.25
464.316	428.25
464.536	458.25
464.755	440.25
464.975	462.25
465.195	546.25
465.414	664.25
465.634	570.25
465.854	499.25
466.073	455.25
466.293	431.25
466.512	426.25
466.732	422.25
466.951	421.25
467.171	415.25
467.391	424.25
467.61	432.25
467.829	434.25
468.049	451.25
468.268	414.25
468.488	429.25
468.707	415.25
468.927	415.25
469.146	403.25
469.365	409.25
469.585	410.25
469.804	416.25
470.023	429.25
470.243	440.25
470.462	441.25
470.681	490.25
470.901	447.25
471.12	438.25
471.339	449.25
471.558	424.25
471.777	431.25
471.997	435.25
472.216	416.25
472.435	405.25
472.654	433.25
472.873	413.25
473.092	431.25
473.311	422.25
473.53	435.25
473.749	443.25
473.968	474.25
474.187	603.25
474.406	618.25
474.625	510.25
474.844	461.25
475.063	438.25
475.282	433.25
475.501	433.25
475.72	454.25
475.939	442.25
476.158	451.25
476.377	456.25
476.596	435.25
476.814	450.25
477.033	464.25
477.252	459.25
477.471	443.25
477.69	459.25
477.908	453.25
478.127	459.25
478.346	476.25
478.564	461.25
478.783	484.25
479.002	500.25
479.22	479.25
479.439	487.25
479.658	524.25
479.876	519.25
480.095	523.25
480.313	551.25
480.532	534.25
480.751	525.25
480.969	547.25
481.188	535.25
481.406	530.25
481.624	518.25
481.843	511.25
482.061	489.25
482.28	505.25
482.498	489.25
482.717	491.25
482.935	508.25
483.153	523.25
483.372	513.25
483.59	495.25
483.808	527.25
484.027	479.25
484.245	507.25
484.463	499.25
484.681	523.25
484.9	521.25
485.118	526.25
485.336	512.25
485.554	523.25
485.772	523.25
485.99	527.25
486.209	534.25
486.427	525.25
486.645	547.25
486.863	573.25
487.081	575.25
487.299	575.25
487.517	553.25
487.735	563.25
487.953	556.25
488.171	527.25
488.389	553.25
488.607	552.25
488.825	524.25
489.043	548.25
489.261	557.25
489.479	567.25
489.696	575.25
489.914	562.25
490.132	552.25
490.35	562.25
490.568	587.25
490.786	594.25
491.003	600.25
491.221	596.25
491.439	610.25
491.657	631.25
491.874	633.25
492.092	640.25
492.31	655.25
492.527	655.25
492.745	646.25
492.963	664.25
493.18	639.25
493.398	635.25
493.615	648.25
493.833	652.25
494.05	623.25
494.268	655.25
494.485	658.25
494.703	656.25
494.92	655.25
495.138	649.25
495.355	667.25
495.573	661.25
495.79	664.25
496.008	677.25
496.225	642.25
496.442	670.25
496.66	670.25
496.877	656.25
497.094	663.25
497.312	669.25
497.529	689.25
497.746	682.25
497.963	703.25
498.181	714.25
498.398	703.25
498.615	717.25
498.832	701.25
499.049	711.25
499.267	762.25
499.484	756.25
499.701	762.25
499.918	766.25
500.135	810.25
500.352	802.25
500.569	773.25
500.786	794.25
501.003	791.25
501.22	804.25
501.437	784.25
501.654	779.25
501.871	799.25
