Data from 1987.PennyLincolnUp.Lamp.En5.5.200Scan.071819.P2_HRD10591_17-14-50-975.txt Node
Date: Thu Jul 18 17:14:50 EDT 2019
User: cochatt
Spectrometer: HR+D1059
Trigger mode: 1
Integration Time (sec): 1.000000E-1
Scans to average: 1
Electric dark correction enabled: true
Nonlinearity correction enabled: false
Boxcar width: 0
XAxis mode: Wavelengths
Number of Pixels in Spectrum: 2048
>>>>>Begin Spectral Data<<<<<
223.165	-19.19
223.4	-19.19
223.635	-19.19
223.869	-21.19
224.104	-14.19
224.338	-10.19
224.573	-11.19
224.808	-4.19
225.042	-16.19
225.277	0.81
225.511	-10.19
225.746	3.81
225.98	4.81
226.215	13.81
226.449	23.81
226.683	21.81
226.918	15.81
227.152	21.81
227.387	45.81
227.621	34.81
227.856	44.81
228.09	50.81
228.324	45.81
228.559	49.81
228.793	65.81
229.027	93.81
229.262	106.81
229.496	102.81
229.73	141.81
229.964	180.81
230.199	139.81
230.433	123.81
230.667	119.81
230.901	113.81
231.136	107.81
231.37	117.81
231.604	115.81
231.838	108.81
232.072	113.81
232.306	105.81
232.541	118.81
232.775	114.81
233.009	125.81
233.243	117.81
233.477	116.81
233.711	113.81
233.945	114.81
234.179	121.81
234.413	118.81
234.647	98.81
234.881	115.81
235.115	92.81
235.349	127.81
235.583	121.81
235.817	114.81
236.051	113.81
236.285	136.81
236.519	135.81
236.753	136.81
236.987	158.81
237.221	190.81
237.455	264.81
237.689	198.81
237.922	141.81
238.156	141.81
238.39	121.81
238.624	124.81
238.858	121.81
239.091	125.81
239.325	118.81
239.559	106.81
239.793	127.81
240.027	121.81
240.26	136.81
240.494	169.81
240.728	142.81
240.961	143.81
241.195	121.81
241.429	122.81
241.662	135.81
241.896	133.81
242.13	124.81
242.363	145.81
242.597	107.81
242.83	135.81
243.064	139.81
243.298	121.81
243.531	146.81
243.765	113.81
243.998	131.81
244.232	127.81
244.465	133.81
244.699	132.81
244.932	124.81
245.166	121.81
245.399	142.81
245.633	122.81
245.866	141.81
246.099	148.81
246.333	131.81
246.566	131.81
246.8	134.81
247.033	149.81
247.266	159.81
247.5	140.81
247.733	149.81
247.966	173.81
248.2	162.81
248.433	176.81
248.666	163.81
248.899	171.81
249.133	181.81
249.366	192.81
249.599	187.81
249.832	174.81
250.066	167.81
250.299	163.81
250.532	182.81
250.765	187.81
250.998	208.81
251.231	199.81
251.465	203.81
251.698	176.81
251.931	181.81
252.164	177.81
252.397	186.81
252.63	182.81
252.863	185.81
253.096	214.81
253.329	217.81
253.562	210.81
253.795	201.81
254.028	206.81
254.261	216.81
254.494	230.81
254.727	253.81
254.96	275.81
255.193	264.81
255.426	232.81
255.659	224.81
255.892	231.81
256.124	201.81
256.357	209.81
256.59	208.81
256.823	195.81
257.056	187.81
257.289	189.81
257.521	202.81
257.754	193.81
257.987	199.81
258.22	192.81
258.452	191.81
258.685	191.81
258.918	190.81
259.151	195.81
259.383	202.81
259.616	207.81
259.849	206.81
260.081	223.81
260.314	244.81
260.547	250.81
260.779	235.81
261.012	205.81
261.244	211.81
261.477	212.81
261.71	219.81
261.942	218.81
262.175	231.81
262.407	238.81
262.64	215.81
262.872	188.81
263.105	196.81
263.337	187.81
263.57	204.81
263.802	197.81
264.035	204.81
264.267	185.81
264.499	192.81
264.732	185.81
264.964	191.81
265.197	186.81
265.429	186.81
265.661	186.81
265.894	193.81
266.126	192.81
266.358	179.81
266.591	178.81
266.823	193.81
267.055	203.81
267.287	193.81
267.52	187.81
267.752	185.81
267.984	197.81
268.216	208.81
268.448	205.81
268.681	223.81
268.913	213.81
269.145	221.81
269.377	240.81
269.609	232.81
269.841	226.81
270.073	249.81
270.306	251.81
270.538	278.81
270.77	292.81
271.002	292.81
271.234	276.81
271.466	284.81
271.698	276.81
271.93	291.81
272.162	307.81
272.394	303.81
272.626	280.81
272.858	255.81
273.09	248.81
273.322	237.81
273.553	246.81
273.785	255.81
274.017	251.81
274.249	244.81
274.481	237.81
274.713	221.81
274.945	223.81
275.176	232.81
275.408	231.81
275.64	244.81
275.872	227.81
276.104	224.81
276.335	230.81
276.567	235.81
276.799	266.81
277.031	250.81
277.262	278.81
277.494	296.81
277.726	259.81
277.957	255.81
278.189	233.81
278.421	234.81
278.652	224.81
278.884	226.81
279.115	232.81
279.347	236.81
279.579	229.81
279.81	222.81
280.042	228.81
280.273	225.81
280.505	220.81
280.736	227.81
280.968	213.81
281.199	213.81
281.431	218.81
281.662	225.81
281.894	212.81
282.125	236.81
282.356	226.81
282.588	278.81
282.819	285.81
283.051	242.81
283.282	227.81
283.513	212.81
283.745	211.81
283.976	206.81
284.207	224.81
284.439	220.81
284.67	220.81
284.901	221.81
285.132	201.81
285.364	224.81
285.595	224.81
285.826	225.81
286.057	222.81
286.288	226.81
286.52	217.81
286.751	220.81
286.982	227.81
287.213	239.81
287.444	221.81
287.675	240.81
287.906	230.81
288.138	239.81
288.369	249.81
288.6	254.81
288.831	247.81
289.062	237.81
289.293	239.81
289.524	251.81
289.755	231.81
289.986	251.81
290.217	226.81
290.448	236.81
290.679	238.81
290.91	236.81
291.141	245.81
291.371	233.81
291.602	233.81
291.833	218.81
292.064	218.81
292.295	222.81
292.526	253.81
292.757	235.81
292.987	232.81
293.218	219.81
293.449	227.81
293.68	227.81
293.91	234.81
294.141	232.81
294.372	214.81
294.603	239.81
294.833	213.81
295.064	224.81
295.295	235.81
295.525	222.81
295.756	229.81
295.987	250.81
296.217	291.81
296.448	289.81
296.679	252.81
296.909	239.81
297.14	235.81
297.37	241.81
297.601	245.81
297.831	256.81
298.062	234.81
298.292	238.81
298.523	256.81
298.753	242.81
298.984	251.81
299.214	256.81
299.445	231.81
299.675	267.81
299.905	241.81
300.136	245.81
300.366	252.81
300.597	240.81
300.827	253.81
301.057	275.81
301.288	269.81
301.518	285.81
301.748	235.81
301.979	259.81
302.209	255.81
302.439	277.81
302.669	244.81
302.9	260.81
303.13	262.81
303.36	249.81
303.59	263.81
303.82	271.81
304.051	272.81
304.281	254.81
304.511	255.81
304.741	245.81
304.971	258.81
305.201	256.81
305.431	265.81
305.661	248.81
305.891	259.81
306.121	257.81
306.352	255.81
306.582	291.81
306.812	273.81
307.042	276.81
307.272	250.81
307.502	266.81
307.731	280.81
307.961	280.81
308.191	272.81
308.421	267.81
308.651	263.81
308.881	265.81
309.111	287.81
309.341	284.81
309.571	303.81
309.8	320.81
310.03	340.81
310.26	327.81
310.49	341.81
310.72	349.81
310.949	362.81
311.179	382.81
311.409	352.81
311.639	331.81
311.868	339.81
312.098	336.81
312.328	341.81
312.557	362.81
312.787	367.81
313.017	397.81
313.246	342.81
313.476	323.81
313.706	321.81
313.935	341.81
314.165	348.81
314.394	351.81
314.624	356.81
314.853	348.81
315.083	327.81
315.312	309.81
315.542	310.81
315.771	316.81
316.001	320.81
316.23	315.81
316.46	330.81
316.689	324.81
316.919	317.81
317.148	338.81
317.377	338.81
317.607	321.81
317.836	319.81
318.065	319.81
318.295	321.81
318.524	329.81
318.753	310.81
318.983	320.81
319.212	292.81
319.441	324.81
319.67	325.81
319.9	335.81
320.129	331.81
320.358	316.81
320.587	344.81
320.816	346.81
321.046	343.81
321.275	344.81
321.504	383.81
321.733	367.81
321.962	354.81
322.191	383.81
322.42	428.81
322.649	415.81
322.878	437.81
323.108	460.81
323.337	469.81
323.566	500.81
323.795	562.81
324.024	617.81
324.253	783.81
324.482	1139.81
324.71	1745.81
324.939	2460.81
325.168	2173.81
325.397	1171.81
325.626	766.81
325.855	615.81
326.084	535.81
326.313	523.81
326.542	538.81
326.77	571.81
326.999	718.81
327.228	992.81
327.457	1521.81
327.686	1873.81
327.914	1311.81
328.143	803.81
328.372	678.81
328.6	629.81
328.829	587.81
329.058	632.81
329.287	631.81
329.515	581.81
329.744	505.81
329.972	469.81
330.201	476.81
330.43	509.81
330.658	556.81
330.887	646.81
331.115	644.81
331.344	529.81
331.572	482.81
331.801	455.81
332.03	436.81
332.258	433.81
332.486	416.81
332.715	397.81
332.943	376.81
333.172	377.81
333.4	403.81
333.629	397.81
333.857	394.81
334.085	358.81
334.314	367.81
334.542	355.81
334.771	394.81
334.999	379.81
335.227	360.81
335.455	375.81
335.684	363.81
335.912	368.81
336.14	369.81
336.369	376.81
336.597	377.81
336.825	388.81
337.053	349.81
337.281	354.81
337.51	355.81
337.738	350.81
337.966	355.81
338.194	375.81
338.422	377.81
338.65	373.81
338.878	349.81
339.106	362.81
339.334	360.81
339.562	375.81
339.79	353.81
340.018	356.81
340.246	358.81
340.474	369.81
340.702	377.81
340.93	361.81
341.158	339.81
341.386	355.81
341.614	348.81
341.842	354.81
342.07	341.81
342.298	360.81
342.526	335.81
342.754	335.81
342.981	331.81
343.209	344.81
343.437	317.81
343.665	364.81
343.893	349.81
344.12	341.81
344.348	342.81
344.576	355.81
344.804	364.81
345.031	377.81
345.259	391.81
345.487	385.81
345.714	369.81
345.942	387.81
346.17	369.81
346.397	364.81
346.625	387.81
346.853	356.81
347.08	359.81
347.308	375.81
347.535	384.81
347.763	379.81
347.99	393.81
348.218	381.81
348.445	392.81
348.673	397.81
348.9	371.81
349.128	343.81
349.355	339.81
349.583	334.81
349.81	352.81
350.037	342.81
350.265	348.81
350.492	344.81
350.72	335.81
350.947	337.81
351.174	378.81
351.402	367.81
351.629	363.81
351.856	366.81
352.083	380.81
352.311	379.81
352.538	386.81
352.765	391.81
352.992	383.81
353.22	377.81
353.447	368.81
353.674	363.81
353.901	335.81
354.128	327.81
354.355	333.81
354.583	331.81
354.81	342.81
355.037	335.81
355.264	328.81
355.491	322.81
355.718	341.81
355.945	320.81
356.172	290.81
356.399	305.81
356.626	336.81
356.853	322.81
357.08	323.81
357.307	308.81
357.534	317.81
357.761	326.81
357.988	327.81
358.215	323.81
358.441	325.81
358.668	327.81
358.895	314.81
359.122	337.81
359.349	360.81
359.576	376.81
359.802	421.81
360.029	431.81
360.256	457.81
360.483	426.81
360.709	392.81
360.936	355.81
361.163	367.81
361.39	361.81
361.616	382.81
361.843	384.81
362.07	388.81
362.296	375.81
362.523	357.81
362.749	374.81
362.976	353.81
363.203	342.81
363.429	332.81
363.656	347.81
363.882	360.81
364.109	348.81
364.335	344.81
364.562	349.81
364.788	325.81
365.015	325.81
365.241	338.81
365.468	361.81
365.694	349.81
365.92	347.81
366.147	341.81
366.373	330.81
366.599	354.81
366.826	340.81
367.052	330.81
367.278	335.81
367.505	345.81
367.731	342.81
367.957	325.81
368.184	313.81
368.41	355.81
368.636	360.81
368.862	363.81
369.089	340.81
369.315	329.81
369.541	345.81
369.767	333.81
369.993	327.81
370.219	316.81
370.445	328.81
370.672	326.81
370.898	320.81
371.124	315.81
371.35	322.81
371.576	309.81
371.802	320.81
372.028	321.81
372.254	315.81
372.48	312.81
372.706	316.81
372.932	325.81
373.158	326.81
373.384	310.81
373.61	333.81
373.835	316.81
374.061	311.81
374.287	319.81
374.513	339.81
374.739	345.81
374.965	324.81
375.191	328.81
375.416	346.81
375.642	316.81
375.868	327.81
376.094	337.81
376.319	334.81
376.545	322.81
376.771	326.81
376.997	340.81
377.222	307.81
377.448	332.81
377.674	322.81
377.899	330.81
378.125	327.81
378.35	316.81
378.576	321.81
378.802	319.81
379.027	322.81
379.253	317.81
379.478	316.81
379.704	315.81
379.929	338.81
380.155	340.81
380.38	345.81
380.606	353.81
380.831	337.81
381.057	336.81
381.282	337.81
381.507	326.81
381.733	322.81
381.958	324.81
382.184	331.81
382.409	327.81
382.634	340.81
382.86	337.81
383.085	325.81
383.31	336.81
383.535	337.81
383.761	348.81
383.986	350.81
384.211	342.81
384.436	329.81
384.662	338.81
384.887	345.81
385.112	343.81
385.337	329.81
385.562	340.81
385.787	372.81
386.013	352.81
386.238	363.81
386.463	347.81
386.688	349.81
386.913	336.81
387.138	341.81
387.363	331.81
387.588	349.81
387.813	329.81
388.038	340.81
388.263	349.81
388.488	353.81
388.713	350.81
388.938	359.81
389.163	352.81
389.387	349.81
389.612	337.81
389.837	333.81
390.062	351.81
390.287	330.81
390.512	350.81
390.736	329.81
390.961	337.81
391.186	351.81
391.411	338.81
391.636	338.81
391.86	329.81
392.085	346.81
392.31	325.81
392.534	333.81
392.759	347.81
392.984	327.81
393.208	340.81
393.433	374.81
393.658	351.81
393.882	356.81
394.107	335.81
394.331	342.81
394.556	349.81
394.78	359.81
395.005	344.81
395.229	346.81
395.454	350.81
395.678	353.81
395.903	376.81
396.127	392.81
396.352	393.81
396.576	363.81
396.801	349.81
397.025	373.81
397.249	376.81
397.474	348.81
397.698	367.81
397.922	393.81
398.147	395.81
398.371	394.81
398.595	397.81
398.82	387.81
399.044	384.81
399.268	394.81
399.492	406.81
399.717	441.81
399.941	444.81
400.165	480.81
400.389	488.81
400.613	459.81
400.837	427.81
401.062	401.81
401.286	413.81
401.51	396.81
401.734	398.81
401.958	395.81
402.182	387.81
402.406	407.81
402.63	418.81
402.854	406.81
403.078	415.81
403.302	411.81
403.526	412.81
403.75	417.81
403.974	407.81
404.198	408.81
404.422	433.81
404.645	418.81
404.869	411.81
405.093	444.81
405.317	437.81
405.541	481.81
405.765	459.81
405.988	435.81
406.212	460.81
406.436	493.81
406.66	518.81
406.883	492.81
407.107	479.81
407.331	505.81
407.555	579.81
407.778	596.81
408.002	532.81
408.226	495.81
408.449	495.81
408.673	480.81
408.896	493.81
409.12	535.81
409.344	492.81
409.567	445.81
409.791	409.81
410.014	425.81
410.238	428.81
410.461	427.81
410.685	426.81
410.908	437.81
411.132	480.81
411.355	511.81
411.578	473.81
411.802	432.81
412.025	418.81
412.249	401.81
412.472	425.81
412.695	432.81
412.919	407.81
413.142	385.81
413.365	413.81
413.589	399.81
413.812	398.81
414.035	408.81
414.258	388.81
414.482	389.81
414.705	354.81
414.928	387.81
415.151	394.81
415.374	375.81
415.597	374.81
415.821	407.81
416.044	389.81
416.267	399.81
416.49	396.81
416.713	375.81
416.936	387.81
417.159	417.81
417.382	396.81
417.605	403.81
417.828	408.81
418.051	426.81
418.274	416.81
418.497	387.81
418.72	409.81
418.943	401.81
419.166	392.81
419.389	423.81
419.611	415.81
419.834	418.81
420.057	433.81
420.28	423.81
420.503	406.81
420.726	421.81
420.948	461.81
421.171	482.81
421.394	530.81
421.617	459.81
421.839	430.81
422.062	429.81
422.285	451.81
422.507	519.81
422.73	573.81
422.953	553.81
423.175	488.81
423.398	467.81
423.621	463.81
423.843	476.81
424.066	464.81
424.288	496.81
424.511	483.81
424.733	539.81
424.956	625.81
425.178	597.81
425.401	623.81
425.623	633.81
425.846	536.81
426.068	523.81
426.291	482.81
426.513	480.81
426.735	512.81
426.958	550.81
427.18	646.81
427.402	772.81
427.625	829.81
427.847	763.81
428.069	663.81
428.292	569.81
428.514	532.81
428.736	478.81
428.958	487.81
429.181	455.81
429.403	460.81
429.625	475.81
429.847	490.81
430.069	593.81
430.292	584.81
430.514	488.81
430.736	467.81
430.958	439.81
431.18	449.81
431.402	458.81
431.624	421.81
431.846	425.81
432.068	420.81
432.29	419.81
432.512	418.81
432.734	437.81
432.956	449.81
433.178	438.81
433.4	441.81
433.622	423.81
433.844	418.81
434.066	428.81
434.287	424.81
434.509	432.81
434.731	412.81
434.953	444.81
435.175	466.81
435.397	475.81
435.618	488.81
435.84	545.81
436.062	613.81
436.284	695.81
436.505	590.81
436.727	501.81
436.949	494.81
437.17	465.81
437.392	475.81
437.614	507.81
437.835	526.81
438.057	636.81
438.278	736.81
438.5	712.81
438.721	789.81
438.943	727.81
439.165	611.81
439.386	539.81
439.608	530.81
439.829	531.81
440.05	559.81
440.272	619.81
440.493	586.81
440.715	529.81
440.936	490.81
441.158	468.81
441.379	481.81
441.6	472.81
441.822	507.81
442.043	555.81
442.264	635.81
442.486	673.81
442.707	595.81
442.928	521.81
443.149	547.81
443.371	576.81
443.592	602.81
443.813	677.81
444.034	702.81
444.255	613.81
444.476	529.81
444.698	509.81
444.919	489.81
445.14	577.81
445.361	565.81
445.582	555.81
445.803	620.81
446.024	729.81
446.245	745.81
446.466	665.81
446.687	577.81
446.908	518.81
447.129	494.81
447.35	495.81
447.571	501.81
447.792	480.81
448.013	492.81
448.234	513.81
448.455	566.81
448.675	657.81
448.896	747.81
449.117	652.81
449.338	639.81
449.559	703.81
449.779	775.81
450	645.81
450.221	516.81
450.442	500.81
450.662	488.81
450.883	499.81
451.104	517.81
451.324	496.81
451.545	471.81
451.766	441.81
451.986	449.81
452.207	418.81
452.428	408.81
452.648	439.81
452.869	441.81
453.089	432.81
453.31	455.81
453.53	422.81
453.751	464.81
453.971	439.81
454.192	460.81
454.412	484.81
454.633	442.81
454.853	438.81
455.073	431.81
455.294	436.81
455.514	519.81
455.734	501.81
455.955	424.81
456.175	395.81
456.395	387.81
456.616	405.81
456.836	395.81
457.056	385.81
457.276	373.81
457.497	391.81
457.717	372.81
457.937	389.81
458.157	407.81
458.377	384.81
458.598	442.81
458.818	539.81
459.038	625.81
459.258	599.81
459.478	483.81
459.698	451.81
459.918	424.81
460.138	403.81
460.358	399.81
460.578	418.81
460.798	432.81
461.018	411.81
461.238	407.81
461.458	394.81
461.678	397.81
461.898	424.81
462.118	410.81
462.338	424.81
462.558	432.81
462.777	424.81
462.997	425.81
463.217	409.81
463.437	423.81
463.657	427.81
463.876	416.81
464.096	424.81
464.316	420.81
464.536	445.81
464.755	430.81
464.975	458.81
465.195	531.81
465.414	652.81
465.634	559.81
465.854	503.81
466.073	464.81
466.293	433.81
466.512	425.81
466.732	405.81
466.951	424.81
467.171	413.81
467.391	437.81
467.61	443.81
467.829	441.81
468.049	443.81
468.268	410.81
468.488	425.81
468.707	421.81
468.927	419.81
469.146	396.81
469.365	414.81
469.585	408.81
469.804	422.81
470.023	437.81
470.243	416.81
470.462	453.81
470.681	451.81
470.901	473.81
471.12	421.81
471.339	433.81
471.558	418.81
471.777	423.81
471.997	415.81
472.216	398.81
472.435	438.81
472.654	426.81
472.873	431.81
473.092	424.81
473.311	409.81
473.53	423.81
473.749	442.81
473.968	477.81
474.187	595.81
474.406	608.81
474.625	507.81
474.844	450.81
475.063	423.81
475.282	428.81
475.501	405.81
475.72	440.81
475.939	415.81
476.158	435.81
476.377	444.81
476.596	405.81
476.814	461.81
477.033	457.81
477.252	449.81
477.471	442.81
477.69	453.81
477.908	465.81
478.127	481.81
478.346	447.81
478.564	443.81
478.783	470.81
479.002	467.81
479.22	472.81
479.439	509.81
479.658	521.81
479.876	536.81
480.095	533.81
480.313	541.81
480.532	520.81
480.751	500.81
480.969	500.81
481.188	524.81
481.406	543.81
481.624	491.81
481.843	517.81
482.061	490.81
482.28	501.81
482.498	509.81
482.717	492.81
482.935	490.81
483.153	507.81
483.372	470.81
483.59	493.81
483.808	519.81
484.027	510.81
484.245	490.81
484.463	502.81
484.681	488.81
484.9	484.81
485.118	504.81
485.336	508.81
485.554	522.81
485.772	501.81
485.99	534.81
486.209	531.81
486.427	531.81
486.645	545.81
486.863	571.81
487.081	590.81
487.299	555.81
487.517	537.81
487.735	524.81
487.953	533.81
488.171	540.81
488.389	565.81
488.607	549.81
488.825	546.81
489.043	580.81
489.261	552.81
489.479	558.81
489.696	578.81
489.914	571.81
490.132	580.81
490.35	570.81
490.568	554.81
490.786	594.81
491.003	597.81
491.221	599.81
491.439	611.81
491.657	625.81
491.874	637.81
492.092	610.81
492.31	629.81
492.527	641.81
492.745	653.81
492.963	628.81
493.18	642.81
493.398	634.81
493.615	635.81
493.833	647.81
494.05	654.81
494.268	658.81
494.485	643.81
494.703	635.81
494.92	647.81
495.138	668.81
495.355	655.81
495.573	636.81
495.79	652.81
496.008	647.81
496.225	649.81
496.442	637.81
496.66	673.81
496.877	665.81
497.094	650.81
497.312	663.81
497.529	678.81
497.746	682.81
497.963	683.81
498.181	709.81
498.398	715.81
498.615	708.81
498.832	700.81
499.049	701.81
499.267	717.81
499.484	752.81
499.701	761.81
499.918	762.81
500.135	748.81
500.352	771.81
500.569	779.81
500.786	789.81
501.003	801.81
501.22	769.81
501.437	754.81
501.654	771.81
501.871	787.81
