Data from 1987.PennyLincolnUp.Lamp.En5.5.200Scan.071819.P2_HRD10591_17-14-46-976.txt Node
Date: Thu Jul 18 17:14:46 EDT 2019
User: cochatt
Spectrometer: HR+D1059
Trigger mode: 1
Integration Time (sec): 1.000000E-1
Scans to average: 1
Electric dark correction enabled: true
Nonlinearity correction enabled: false
Boxcar width: 0
XAxis mode: Wavelengths
Number of Pixels in Spectrum: 2048
>>>>>Begin Spectral Data<<<<<
223.165	-6.19
223.4	-6.19
223.635	-6.19
223.869	-24.19
224.104	-32.19
224.338	-18.19
224.573	-13.19
224.808	-1.19
225.042	-8.19
225.277	-4.19
225.511	-0.19
225.746	19.81
225.98	13.81
226.215	4.81
226.449	22.81
226.683	12.81
226.918	21.81
227.152	11.81
227.387	27.81
227.621	46.81
227.856	39.81
228.09	38.81
228.324	47.81
228.559	70.81
228.793	68.81
229.027	103.81
229.262	104.81
229.496	115.81
229.73	134.81
229.964	151.81
230.199	128.81
230.433	131.81
230.667	127.81
230.901	122.81
231.136	116.81
231.37	111.81
231.604	99.81
231.838	107.81
232.072	100.81
232.306	110.81
232.541	94.81
232.775	121.81
233.009	106.81
233.243	110.81
233.477	114.81
233.711	106.81
233.945	118.81
234.179	110.81
234.413	123.81
234.647	114.81
234.881	110.81
235.115	111.81
235.349	103.81
235.583	118.81
235.817	117.81
236.051	122.81
236.285	124.81
236.519	116.81
236.753	135.81
236.987	146.81
237.221	194.81
237.455	227.81
237.689	190.81
237.922	139.81
238.156	121.81
238.39	121.81
238.624	136.81
238.858	118.81
239.091	89.81
239.325	120.81
239.559	122.81
239.793	125.81
240.027	132.81
240.26	144.81
240.494	148.81
240.728	145.81
240.961	134.81
241.195	150.81
241.429	123.81
241.662	121.81
241.896	129.81
242.13	123.81
242.363	126.81
242.597	118.81
242.83	121.81
243.064	135.81
243.298	127.81
243.531	126.81
243.765	126.81
243.998	119.81
244.232	122.81
244.465	137.81
244.699	123.81
244.932	147.81
245.166	134.81
245.399	148.81
245.633	144.81
245.866	121.81
246.099	126.81
246.333	133.81
246.566	126.81
246.8	130.81
247.033	126.81
247.266	151.81
247.5	159.81
247.733	165.81
247.966	142.81
248.2	152.81
248.433	144.81
248.666	170.81
248.899	177.81
249.133	192.81
249.366	208.81
249.599	195.81
249.832	182.81
250.066	172.81
250.299	174.81
250.532	170.81
250.765	169.81
250.998	195.81
251.231	218.81
251.465	214.81
251.698	196.81
251.931	180.81
252.164	170.81
252.397	200.81
252.63	188.81
252.863	209.81
253.096	186.81
253.329	220.81
253.562	197.81
253.795	201.81
254.028	201.81
254.261	211.81
254.494	217.81
254.727	232.81
254.96	266.81
255.193	256.81
255.426	247.81
255.659	212.81
255.892	215.81
256.124	181.81
256.357	212.81
256.59	202.81
256.823	194.81
257.056	198.81
257.289	200.81
257.521	187.81
257.754	182.81
257.987	206.81
258.22	190.81
258.452	203.81
258.685	202.81
258.918	185.81
259.151	214.81
259.383	194.81
259.616	190.81
259.849	211.81
260.081	211.81
260.314	237.81
260.547	243.81
260.779	215.81
261.012	212.81
261.244	199.81
261.477	201.81
261.71	203.81
261.942	200.81
262.175	229.81
262.407	218.81
262.64	207.81
262.872	193.81
263.105	178.81
263.337	202.81
263.57	203.81
263.802	200.81
264.035	199.81
264.267	181.81
264.499	199.81
264.732	186.81
264.964	180.81
265.197	174.81
265.429	188.81
265.661	184.81
265.894	189.81
266.126	185.81
266.358	188.81
266.591	190.81
266.823	186.81
267.055	186.81
267.287	202.81
267.52	179.81
267.752	196.81
267.984	208.81
268.216	190.81
268.448	201.81
268.681	207.81
268.913	208.81
269.145	224.81
269.377	255.81
269.609	243.81
269.841	241.81
270.073	242.81
270.306	281.81
270.538	277.81
270.77	277.81
271.002	256.81
271.234	269.81
271.466	264.81
271.698	290.81
271.93	282.81
272.162	283.81
272.394	284.81
272.626	270.81
272.858	268.81
273.09	254.81
273.322	255.81
273.553	240.81
273.785	247.81
274.017	233.81
274.249	236.81
274.481	227.81
274.713	237.81
274.945	236.81
275.176	236.81
275.408	226.81
275.64	227.81
275.872	245.81
276.104	221.81
276.335	238.81
276.567	253.81
276.799	249.81
277.031	271.81
277.262	272.81
277.494	278.81
277.726	260.81
277.957	235.81
278.189	245.81
278.421	252.81
278.652	242.81
278.884	233.81
279.115	220.81
279.347	218.81
279.579	230.81
279.81	208.81
280.042	215.81
280.273	213.81
280.505	221.81
280.736	214.81
280.968	214.81
281.199	203.81
281.431	225.81
281.662	207.81
281.894	206.81
282.125	214.81
282.356	251.81
282.588	266.81
282.819	279.81
283.051	228.81
283.282	210.81
283.513	216.81
283.745	238.81
283.976	220.81
284.207	210.81
284.439	239.81
284.67	232.81
284.901	212.81
285.132	222.81
285.364	215.81
285.595	206.81
285.826	239.81
286.057	233.81
286.288	223.81
286.52	225.81
286.751	212.81
286.982	212.81
287.213	231.81
287.444	233.81
287.675	228.81
287.906	231.81
288.138	240.81
288.369	255.81
288.6	247.81
288.831	233.81
289.062	227.81
289.293	226.81
289.524	216.81
289.755	232.81
289.986	231.81
290.217	212.81
290.448	226.81
290.679	214.81
290.91	219.81
291.141	238.81
291.371	229.81
291.602	224.81
291.833	218.81
292.064	220.81
292.295	241.81
292.526	230.81
292.757	222.81
292.987	230.81
293.218	230.81
293.449	235.81
293.68	212.81
293.91	231.81
294.141	233.81
294.372	228.81
294.603	222.81
294.833	228.81
295.064	233.81
295.295	244.81
295.525	238.81
295.756	243.81
295.987	216.81
296.217	278.81
296.448	287.81
296.679	241.81
296.909	224.81
297.14	234.81
297.37	225.81
297.601	222.81
297.831	231.81
298.062	231.81
298.292	226.81
298.523	233.81
298.753	240.81
298.984	223.81
299.214	234.81
299.445	221.81
299.675	231.81
299.905	229.81
300.136	242.81
300.366	223.81
300.597	245.81
300.827	229.81
301.057	239.81
301.288	269.81
301.518	260.81
301.748	244.81
301.979	259.81
302.209	271.81
302.439	274.81
302.669	248.81
302.9	250.81
303.13	271.81
303.36	262.81
303.59	254.81
303.82	265.81
304.051	257.81
304.281	239.81
304.511	257.81
304.741	237.81
304.971	238.81
305.201	252.81
305.431	247.81
305.661	264.81
305.891	247.81
306.121	251.81
306.352	274.81
306.582	274.81
306.812	268.81
307.042	247.81
307.272	255.81
307.502	270.81
307.731	257.81
307.961	257.81
308.191	278.81
308.421	256.81
308.651	274.81
308.881	279.81
309.111	283.81
309.341	287.81
309.571	290.81
309.8	318.81
310.03	310.81
310.26	311.81
310.49	314.81
310.72	343.81
310.949	356.81
311.179	347.81
311.409	328.81
311.639	313.81
311.868	326.81
312.098	320.81
312.328	324.81
312.557	349.81
312.787	373.81
313.017	368.81
313.246	332.81
313.476	324.81
313.706	324.81
313.935	315.81
314.165	341.81
314.394	354.81
314.624	341.81
314.853	331.81
315.083	321.81
315.312	320.81
315.542	313.81
315.771	291.81
316.001	311.81
316.23	308.81
316.46	308.81
316.689	322.81
316.919	340.81
317.148	327.81
317.377	321.81
317.607	336.81
317.836	343.81
318.065	322.81
318.295	312.81
318.524	316.81
318.753	304.81
318.983	314.81
319.212	315.81
319.441	336.81
319.67	338.81
319.9	322.81
320.129	320.81
320.358	310.81
320.587	315.81
320.816	339.81
321.046	354.81
321.275	360.81
321.504	335.81
321.733	339.81
321.962	346.81
322.191	370.81
322.42	372.81
322.649	389.81
322.878	425.81
323.108	442.81
323.337	475.81
323.566	479.81
323.795	519.81
324.024	606.81
324.253	754.81
324.482	1080.81
324.71	1674.81
324.939	2310.81
325.168	2060.81
325.397	1135.81
325.626	752.81
325.855	574.81
326.084	527.81
326.313	500.81
326.542	509.81
326.77	558.81
326.999	681.81
327.228	972.81
327.457	1450.81
327.686	1752.81
327.914	1229.81
328.143	773.81
328.372	688.81
328.6	613.81
328.829	574.81
329.058	574.81
329.287	572.81
329.515	534.81
329.744	481.81
329.972	464.81
330.201	458.81
330.43	504.81
330.658	562.81
330.887	622.81
331.115	592.81
331.344	513.81
331.572	449.81
331.801	441.81
332.03	457.81
332.258	424.81
332.486	412.81
332.715	399.81
332.943	371.81
333.172	359.81
333.4	355.81
333.629	380.81
333.857	372.81
334.085	384.81
334.314	366.81
334.542	354.81
334.771	344.81
334.999	366.81
335.227	356.81
335.455	374.81
335.684	370.81
335.912	359.81
336.14	349.81
336.369	360.81
336.597	364.81
336.825	357.81
337.053	356.81
337.281	368.81
337.51	338.81
337.738	346.81
337.966	354.81
338.194	370.81
338.422	358.81
338.65	378.81
338.878	366.81
339.106	335.81
339.334	327.81
339.562	345.81
339.79	341.81
340.018	355.81
340.246	351.81
340.474	355.81
340.702	363.81
340.93	340.81
341.158	339.81
341.386	347.81
341.614	354.81
341.842	347.81
342.07	352.81
342.298	329.81
342.526	338.81
342.754	321.81
342.981	318.81
343.209	329.81
343.437	323.81
343.665	324.81
343.893	334.81
344.12	336.81
344.348	350.81
344.576	352.81
344.804	362.81
345.031	378.81
345.259	388.81
345.487	377.81
345.714	347.81
345.942	346.81
346.17	338.81
346.397	346.81
346.625	341.81
346.853	330.81
347.08	359.81
347.308	358.81
347.535	346.81
347.763	366.81
347.99	378.81
348.218	367.81
348.445	384.81
348.673	366.81
348.9	347.81
349.128	327.81
349.355	340.81
349.583	332.81
349.81	297.81
350.037	314.81
350.265	333.81
350.492	329.81
350.72	329.81
350.947	337.81
351.174	352.81
351.402	372.81
351.629	382.81
351.856	372.81
352.083	393.81
352.311	360.81
352.538	372.81
352.765	386.81
352.992	382.81
353.22	367.81
353.447	354.81
353.674	365.81
353.901	318.81
354.128	324.81
354.355	324.81
354.583	311.81
354.81	334.81
355.037	324.81
355.264	309.81
355.491	303.81
355.718	302.81
355.945	314.81
356.172	298.81
356.399	307.81
356.626	305.81
356.853	308.81
357.08	296.81
357.307	316.81
357.534	318.81
357.761	312.81
357.988	307.81
358.215	319.81
358.441	311.81
358.668	326.81
358.895	328.81
359.122	337.81
359.349	334.81
359.576	351.81
359.802	380.81
360.029	448.81
360.256	438.81
360.483	414.81
360.709	386.81
360.936	363.81
361.163	354.81
361.39	353.81
361.616	378.81
361.843	345.81
362.07	357.81
362.296	378.81
362.523	372.81
362.749	354.81
362.976	347.81
363.203	344.81
363.429	320.81
363.656	345.81
363.882	332.81
364.109	332.81
364.335	303.81
364.562	336.81
364.788	306.81
365.015	334.81
365.241	320.81
365.468	338.81
365.694	349.81
365.92	326.81
366.147	335.81
366.373	314.81
366.599	333.81
366.826	331.81
367.052	329.81
367.278	337.81
367.505	330.81
367.731	315.81
367.957	338.81
368.184	315.81
368.41	315.81
368.636	362.81
368.862	335.81
369.089	341.81
369.315	345.81
369.541	338.81
369.767	303.81
369.993	328.81
370.219	321.81
370.445	331.81
370.672	320.81
370.898	323.81
371.124	320.81
371.35	307.81
371.576	303.81
371.802	325.81
372.028	302.81
372.254	297.81
372.48	309.81
372.706	316.81
372.932	297.81
373.158	314.81
373.384	318.81
373.61	302.81
373.835	313.81
374.061	334.81
374.287	319.81
374.513	329.81
374.739	332.81
374.965	328.81
375.191	316.81
375.416	318.81
375.642	308.81
375.868	305.81
376.094	311.81
376.319	324.81
376.545	323.81
376.771	323.81
376.997	338.81
377.222	294.81
377.448	330.81
377.674	310.81
377.899	292.81
378.125	313.81
378.35	314.81
378.576	309.81
378.802	298.81
379.027	322.81
379.253	314.81
379.478	308.81
379.704	316.81
379.929	320.81
380.155	329.81
380.38	317.81
380.606	335.81
380.831	309.81
381.057	314.81
381.282	312.81
381.507	310.81
381.733	312.81
381.958	302.81
382.184	328.81
382.409	319.81
382.634	314.81
382.86	313.81
383.085	339.81
383.31	323.81
383.535	332.81
383.761	329.81
383.986	325.81
384.211	322.81
384.436	310.81
384.662	313.81
384.887	331.81
385.112	323.81
385.337	328.81
385.562	334.81
385.787	356.81
386.013	346.81
386.238	355.81
386.463	331.81
386.688	347.81
386.913	324.81
387.138	335.81
387.363	332.81
387.588	335.81
387.813	348.81
388.038	334.81
388.263	323.81
388.488	321.81
388.713	327.81
388.938	338.81
389.163	331.81
389.387	350.81
389.612	331.81
389.837	328.81
390.062	325.81
390.287	342.81
390.512	335.81
390.736	336.81
390.961	322.81
391.186	343.81
391.411	342.81
391.636	320.81
391.86	353.81
392.085	334.81
392.31	326.81
392.534	351.81
392.759	329.81
392.984	337.81
393.208	331.81
393.433	354.81
393.658	331.81
393.882	327.81
394.107	319.81
394.331	342.81
394.556	337.81
394.78	335.81
395.005	350.81
395.229	334.81
395.454	327.81
395.678	351.81
395.903	363.81
396.127	381.81
396.352	379.81
396.576	358.81
396.801	359.81
397.025	338.81
397.249	346.81
397.474	361.81
397.698	371.81
397.922	371.81
398.147	386.81
398.371	375.81
398.595	350.81
398.82	354.81
399.044	379.81
399.268	370.81
399.492	388.81
399.717	395.81
399.941	426.81
400.165	470.81
400.389	462.81
400.613	441.81
400.837	402.81
401.062	400.81
401.286	394.81
401.51	388.81
401.734	396.81
401.958	380.81
402.182	394.81
402.406	430.81
402.63	416.81
402.854	422.81
403.078	375.81
403.302	397.81
403.526	406.81
403.75	395.81
403.974	403.81
404.198	382.81
404.422	400.81
404.645	414.81
404.869	409.81
405.093	435.81
405.317	442.81
405.541	455.81
405.765	442.81
405.988	437.81
406.212	446.81
406.436	467.81
406.66	495.81
406.883	472.81
407.107	471.81
407.331	487.81
407.555	572.81
407.778	563.81
408.002	511.81
408.226	473.81
408.449	449.81
408.673	457.81
408.896	483.81
409.12	520.81
409.344	483.81
409.567	432.81
409.791	415.81
410.014	424.81
410.238	405.81
410.461	388.81
410.685	420.81
410.908	411.81
411.132	456.81
411.355	498.81
411.578	478.81
411.802	406.81
412.025	416.81
412.249	422.81
412.472	400.81
412.695	406.81
412.919	409.81
413.142	392.81
413.365	383.81
413.589	386.81
413.812	406.81
414.035	387.81
414.258	377.81
414.482	378.81
414.705	375.81
414.928	375.81
415.151	378.81
415.374	383.81
415.597	357.81
415.821	386.81
416.044	375.81
416.267	399.81
416.49	393.81
416.713	380.81
416.936	384.81
417.159	374.81
417.382	391.81
417.605	402.81
417.828	406.81
418.051	419.81
418.274	414.81
418.497	390.81
418.72	384.81
418.943	380.81
419.166	404.81
419.389	413.81
419.611	415.81
419.834	420.81
420.057	409.81
420.28	400.81
420.503	394.81
420.726	398.81
420.948	436.81
421.171	471.81
421.394	519.81
421.617	445.81
421.839	418.81
422.062	429.81
422.285	447.81
422.507	490.81
422.73	558.81
422.953	558.81
423.175	484.81
423.398	453.81
423.621	449.81
423.843	450.81
424.066	470.81
424.288	479.81
424.511	493.81
424.733	556.81
424.956	635.81
425.178	594.81
425.401	607.81
425.623	582.81
425.846	537.81
426.068	479.81
426.291	465.81
426.513	479.81
426.735	516.81
426.958	546.81
427.18	593.81
427.402	722.81
427.625	802.81
427.847	773.81
428.069	626.81
428.292	533.81
428.514	496.81
428.736	467.81
428.958	462.81
429.181	469.81
429.403	431.81
429.625	468.81
429.847	497.81
430.069	560.81
430.292	561.81
430.514	482.81
430.736	450.81
430.958	428.81
431.18	434.81
431.402	423.81
431.624	395.81
431.846	423.81
432.068	401.81
432.29	404.81
432.512	414.81
432.734	406.81
432.956	416.81
433.178	415.81
433.4	439.81
433.622	416.81
433.844	411.81
434.066	396.81
434.287	411.81
434.509	408.81
434.731	422.81
434.953	443.81
435.175	440.81
435.397	459.81
435.618	494.81
435.84	538.81
436.062	609.81
436.284	682.81
436.505	572.81
436.727	515.81
436.949	468.81
437.17	444.81
437.392	479.81
437.614	469.81
437.835	521.81
438.057	647.81
438.278	714.81
438.5	710.81
438.721	756.81
438.943	713.81
439.165	586.81
439.386	543.81
439.608	540.81
439.829	518.81
440.05	562.81
440.272	549.81
440.493	558.81
440.715	489.81
440.936	480.81
441.158	478.81
441.379	471.81
441.6	481.81
441.822	478.81
442.043	528.81
442.264	614.81
442.486	671.81
442.707	574.81
442.928	518.81
443.149	520.81
443.371	541.81
443.592	572.81
443.813	664.81
444.034	687.81
444.255	598.81
444.476	511.81
444.698	488.81
444.919	476.81
445.14	565.81
445.361	545.81
445.582	531.81
445.803	595.81
446.024	686.81
446.245	692.81
446.466	633.81
446.687	564.81
446.908	514.81
447.129	474.81
447.35	476.81
447.571	454.81
447.792	456.81
448.013	466.81
448.234	478.81
448.455	527.81
448.675	638.81
448.896	725.81
449.117	637.81
449.338	593.81
449.559	662.81
449.779	758.81
450	612.81
450.221	538.81
450.442	483.81
450.662	438.81
450.883	481.81
451.104	496.81
451.324	512.81
451.545	449.81
451.766	427.81
451.986	410.81
452.207	423.81
452.428	420.81
452.648	433.81
452.869	423.81
453.089	446.81
453.31	455.81
453.53	438.81
453.751	422.81
453.971	422.81
454.192	443.81
454.412	448.81
454.633	388.81
454.853	408.81
455.073	415.81
455.294	444.81
455.514	498.81
455.734	493.81
455.955	441.81
456.175	400.81
456.395	374.81
456.616	381.81
456.836	393.81
457.056	389.81
457.276	367.81
457.497	355.81
457.717	373.81
457.937	380.81
458.157	386.81
458.377	397.81
458.598	436.81
458.818	516.81
459.038	592.81
459.258	584.81
459.478	484.81
459.698	453.81
459.918	423.81
460.138	422.81
460.358	409.81
460.578	397.81
460.798	397.81
461.018	394.81
461.238	395.81
461.458	406.81
461.678	389.81
461.898	401.81
462.118	407.81
462.338	405.81
462.558	397.81
462.777	402.81
462.997	398.81
463.217	406.81
463.437	416.81
463.657	441.81
463.876	388.81
464.096	423.81
464.316	438.81
464.536	422.81
464.755	450.81
464.975	438.81
465.195	532.81
465.414	643.81
465.634	530.81
465.854	467.81
466.073	440.81
466.293	436.81
466.512	428.81
466.732	410.81
466.951	399.81
467.171	407.81
467.391	429.81
467.61	418.81
467.829	423.81
468.049	437.81
468.268	394.81
468.488	393.81
468.707	387.81
468.927	387.81
469.146	394.81
469.365	377.81
469.585	411.81
469.804	406.81
470.023	422.81
470.243	425.81
470.462	433.81
470.681	445.81
470.901	460.81
471.12	403.81
471.339	437.81
471.558	426.81
471.777	410.81
471.997	395.81
472.216	407.81
472.435	417.81
472.654	411.81
472.873	402.81
473.092	386.81
473.311	406.81
473.53	392.81
473.749	428.81
473.968	486.81
474.187	567.81
474.406	578.81
474.625	486.81
474.844	433.81
475.063	418.81
475.282	430.81
475.501	410.81
475.72	410.81
475.939	419.81
476.158	444.81
476.377	437.81
476.596	449.81
476.814	435.81
477.033	457.81
477.252	440.81
477.471	443.81
477.69	448.81
477.908	442.81
478.127	436.81
478.346	452.81
478.564	455.81
478.783	438.81
479.002	457.81
479.22	469.81
479.439	486.81
479.658	507.81
479.876	516.81
480.095	488.81
480.313	530.81
480.532	519.81
480.751	494.81
480.969	508.81
481.188	528.81
481.406	547.81
481.624	506.81
481.843	481.81
482.061	476.81
482.28	486.81
482.498	463.81
482.717	475.81
482.935	491.81
483.153	477.81
483.372	488.81
483.59	478.81
483.808	476.81
484.027	486.81
484.245	496.81
484.463	486.81
484.681	531.81
484.9	492.81
485.118	504.81
485.336	509.81
485.554	502.81
485.772	511.81
485.99	497.81
486.209	502.81
486.427	525.81
486.645	532.81
486.863	514.81
487.081	571.81
487.299	557.81
487.517	562.81
487.735	548.81
487.953	547.81
488.171	517.81
488.389	524.81
488.607	536.81
488.825	549.81
489.043	548.81
489.261	558.81
489.479	549.81
489.696	551.81
489.914	545.81
490.132	553.81
490.35	536.81
490.568	558.81
490.786	577.81
491.003	587.81
491.221	583.81
491.439	598.81
491.657	572.81
491.874	584.81
492.092	613.81
492.31	631.81
492.527	603.81
492.745	600.81
492.963	607.81
493.18	603.81
493.398	624.81
493.615	632.81
493.833	631.81
494.05	640.81
494.268	646.81
494.485	637.81
494.703	631.81
494.92	635.81
495.138	644.81
495.355	652.81
495.573	643.81
495.79	638.81
496.008	660.81
496.225	624.81
496.442	661.81
496.66	645.81
496.877	667.81
497.094	636.81
497.312	658.81
497.529	665.81
497.746	654.81
497.963	665.81
498.181	647.81
498.398	667.81
498.615	701.81
498.832	674.81
499.049	679.81
499.267	688.81
499.484	720.81
499.701	725.81
499.918	733.81
500.135	738.81
500.352	783.81
500.569	750.81
500.786	742.81
501.003	765.81
501.22	766.81
501.437	772.81
501.654	757.81
501.871	792.81
