Data from 1987.PennyLincolnUp.Lamp.En5.5.200Scan.071819.P2_HRD10591_17-14-48-971.txt Node
Date: Thu Jul 18 17:14:48 EDT 2019
User: cochatt
Spectrometer: HR+D1059
Trigger mode: 1
Integration Time (sec): 1.000000E-1
Scans to average: 1
Electric dark correction enabled: true
Nonlinearity correction enabled: false
Boxcar width: 0
XAxis mode: Wavelengths
Number of Pixels in Spectrum: 2048
>>>>>Begin Spectral Data<<<<<
223.165	-15.12
223.4	-15.12
223.635	-15.12
223.869	-8.12
224.104	-18.12
224.338	-15.12
224.573	-34.12
224.808	-22.12
225.042	2.88
225.277	-4.12
225.511	8.88
225.746	-2.12
225.98	9.88
226.215	18.88
226.449	2.88
226.683	20.88
226.918	24.88
227.152	29.88
227.387	23.88
227.621	30.88
227.856	62.88
228.09	38.88
228.324	42.88
228.559	49.88
228.793	66.88
229.027	109.88
229.262	116.88
229.496	127.88
229.73	149.88
229.964	164.88
230.199	133.88
230.433	130.88
230.667	128.88
230.901	125.88
231.136	97.88
231.37	105.88
231.604	101.88
231.838	90.88
232.072	113.88
232.306	119.88
232.541	100.88
232.775	110.88
233.009	112.88
233.243	115.88
233.477	110.88
233.711	118.88
233.945	102.88
234.179	115.88
234.413	122.88
234.647	118.88
234.881	124.88
235.115	124.88
235.349	112.88
235.583	115.88
235.817	118.88
236.051	125.88
236.285	122.88
236.519	115.88
236.753	117.88
236.987	156.88
237.221	200.88
237.455	250.88
237.689	195.88
237.922	137.88
238.156	131.88
238.39	127.88
238.624	133.88
238.858	129.88
239.091	129.88
239.325	126.88
239.559	114.88
239.793	131.88
240.027	134.88
240.26	137.88
240.494	155.88
240.728	144.88
240.961	157.88
241.195	152.88
241.429	136.88
241.662	126.88
241.896	130.88
242.13	117.88
242.363	129.88
242.597	108.88
242.83	126.88
243.064	125.88
243.298	126.88
243.531	119.88
243.765	125.88
243.998	141.88
244.232	123.88
244.465	138.88
244.699	142.88
244.932	141.88
245.166	151.88
245.399	140.88
245.633	142.88
245.866	155.88
246.099	138.88
246.333	147.88
246.566	144.88
246.8	142.88
247.033	152.88
247.266	164.88
247.5	147.88
247.733	154.88
247.966	165.88
248.2	150.88
248.433	164.88
248.666	163.88
248.899	174.88
249.133	197.88
249.366	205.88
249.599	203.88
249.832	188.88
250.066	165.88
250.299	169.88
250.532	162.88
250.765	185.88
250.998	212.88
251.231	204.88
251.465	202.88
251.698	203.88
251.931	211.88
252.164	184.88
252.397	189.88
252.63	202.88
252.863	195.88
253.096	208.88
253.329	218.88
253.562	227.88
253.795	205.88
254.028	196.88
254.261	199.88
254.494	220.88
254.727	240.88
254.96	261.88
255.193	278.88
255.426	244.88
255.659	233.88
255.892	221.88
256.124	210.88
256.357	208.88
256.59	197.88
256.823	194.88
257.056	200.88
257.289	205.88
257.521	185.88
257.754	199.88
257.987	203.88
258.22	188.88
258.452	204.88
258.685	184.88
258.918	181.88
259.151	200.88
259.383	203.88
259.616	212.88
259.849	207.88
260.081	226.88
260.314	229.88
260.547	238.88
260.779	243.88
261.012	228.88
261.244	212.88
261.477	194.88
261.71	213.88
261.942	225.88
262.175	236.88
262.407	225.88
262.64	213.88
262.872	178.88
263.105	181.88
263.337	180.88
263.57	187.88
263.802	179.88
264.035	174.88
264.267	177.88
264.499	185.88
264.732	196.88
264.964	192.88
265.197	200.88
265.429	189.88
265.661	184.88
265.894	195.88
266.126	193.88
266.358	201.88
266.591	189.88
266.823	192.88
267.055	176.88
267.287	195.88
267.52	190.88
267.752	192.88
267.984	191.88
268.216	202.88
268.448	209.88
268.681	203.88
268.913	212.88
269.145	225.88
269.377	229.88
269.609	266.88
269.841	233.88
270.073	248.88
270.306	285.88
270.538	286.88
270.77	272.88
271.002	274.88
271.234	267.88
271.466	251.88
271.698	287.88
271.93	301.88
272.162	298.88
272.394	295.88
272.626	277.88
272.858	262.88
273.09	250.88
273.322	245.88
273.553	231.88
273.785	227.88
274.017	240.88
274.249	243.88
274.481	228.88
274.713	233.88
274.945	231.88
275.176	246.88
275.408	220.88
275.64	235.88
275.872	236.88
276.104	213.88
276.335	233.88
276.567	242.88
276.799	244.88
277.031	263.88
277.262	282.88
277.494	273.88
277.726	281.88
277.957	237.88
278.189	235.88
278.421	232.88
278.652	229.88
278.884	219.88
279.115	229.88
279.347	223.88
279.579	229.88
279.81	229.88
280.042	227.88
280.273	235.88
280.505	221.88
280.736	236.88
280.968	216.88
281.199	227.88
281.431	209.88
281.662	211.88
281.894	224.88
282.125	209.88
282.356	240.88
282.588	269.88
282.819	290.88
283.051	240.88
283.282	232.88
283.513	220.88
283.745	221.88
283.976	207.88
284.207	220.88
284.439	224.88
284.67	225.88
284.901	207.88
285.132	223.88
285.364	203.88
285.595	212.88
285.826	216.88
286.057	227.88
286.288	217.88
286.52	218.88
286.751	226.88
286.982	224.88
287.213	213.88
287.444	227.88
287.675	240.88
287.906	244.88
288.138	264.88
288.369	252.88
288.6	250.88
288.831	235.88
289.062	244.88
289.293	235.88
289.524	224.88
289.755	216.88
289.986	239.88
290.217	227.88
290.448	219.88
290.679	225.88
290.91	217.88
291.141	225.88
291.371	243.88
291.602	227.88
291.833	220.88
292.064	220.88
292.295	252.88
292.526	224.88
292.757	232.88
292.987	248.88
293.218	234.88
293.449	222.88
293.68	226.88
293.91	247.88
294.141	231.88
294.372	230.88
294.603	229.88
294.833	250.88
295.064	238.88
295.295	234.88
295.525	233.88
295.756	240.88
295.987	245.88
296.217	285.88
296.448	287.88
296.679	236.88
296.909	249.88
297.14	227.88
297.37	228.88
297.601	224.88
297.831	216.88
298.062	216.88
298.292	231.88
298.523	245.88
298.753	242.88
298.984	239.88
299.214	238.88
299.445	242.88
299.675	248.88
299.905	260.88
300.136	256.88
300.366	256.88
300.597	242.88
300.827	241.88
301.057	244.88
301.288	276.88
301.518	252.88
301.748	247.88
301.979	235.88
302.209	257.88
302.439	274.88
302.669	248.88
302.9	252.88
303.13	257.88
303.36	251.88
303.59	274.88
303.82	247.88
304.051	280.88
304.281	267.88
304.511	266.88
304.741	256.88
304.971	248.88
305.201	263.88
305.431	241.88
305.661	271.88
305.891	268.88
306.121	251.88
306.352	276.88
306.582	285.88
306.812	270.88
307.042	273.88
307.272	260.88
307.502	276.88
307.731	272.88
307.961	266.88
308.191	266.88
308.421	260.88
308.651	244.88
308.881	298.88
309.111	288.88
309.341	287.88
309.571	277.88
309.8	304.88
310.03	315.88
310.26	332.88
310.49	328.88
310.72	345.88
310.949	345.88
311.179	362.88
311.409	348.88
311.639	340.88
311.868	334.88
312.098	315.88
312.328	330.88
312.557	358.88
312.787	374.88
313.017	378.88
313.246	353.88
313.476	318.88
313.706	324.88
313.935	338.88
314.165	345.88
314.394	358.88
314.624	344.88
314.853	343.88
315.083	338.88
315.312	298.88
315.542	312.88
315.771	321.88
316.001	312.88
316.23	322.88
316.46	312.88
316.689	321.88
316.919	310.88
317.148	345.88
317.377	337.88
317.607	314.88
317.836	323.88
318.065	335.88
318.295	335.88
318.524	342.88
318.753	335.88
318.983	320.88
319.212	294.88
319.441	320.88
319.67	325.88
319.9	332.88
320.129	333.88
320.358	333.88
320.587	318.88
320.816	344.88
321.046	354.88
321.275	353.88
321.504	328.88
321.733	345.88
321.962	370.88
322.191	376.88
322.42	392.88
322.649	418.88
322.878	441.88
323.108	440.88
323.337	491.88
323.566	492.88
323.795	546.88
324.024	619.88
324.253	776.88
324.482	1124.88
324.71	1749.88
324.939	2426.88
325.168	2144.88
325.397	1147.88
325.626	742.88
325.855	591.88
326.084	536.88
326.313	514.88
326.542	522.88
326.77	578.88
326.999	703.88
327.228	976.88
327.457	1497.88
327.686	1816.88
327.914	1234.88
328.143	823.88
328.372	685.88
328.6	639.88
328.829	599.88
329.058	603.88
329.287	622.88
329.515	554.88
329.744	482.88
329.972	469.88
330.201	461.88
330.43	523.88
330.658	567.88
330.887	628.88
331.115	632.88
331.344	528.88
331.572	489.88
331.801	466.88
332.03	450.88
332.258	431.88
332.486	383.88
332.715	404.88
332.943	396.88
333.172	382.88
333.4	377.88
333.629	368.88
333.857	372.88
334.085	401.88
334.314	370.88
334.542	365.88
334.771	378.88
334.999	387.88
335.227	384.88
335.455	376.88
335.684	353.88
335.912	366.88
336.14	350.88
336.369	340.88
336.597	348.88
336.825	354.88
337.053	365.88
337.281	346.88
337.51	363.88
337.738	352.88
337.966	333.88
338.194	363.88
338.422	364.88
338.65	355.88
338.878	340.88
339.106	341.88
339.334	346.88
339.562	365.88
339.79	351.88
340.018	355.88
340.246	364.88
340.474	377.88
340.702	361.88
340.93	360.88
341.158	354.88
341.386	368.88
341.614	362.88
341.842	365.88
342.07	334.88
342.298	356.88
342.526	339.88
342.754	327.88
342.981	336.88
343.209	345.88
343.437	344.88
343.665	326.88
343.893	330.88
344.12	361.88
344.348	358.88
344.576	371.88
344.804	378.88
345.031	390.88
345.259	386.88
345.487	377.88
345.714	384.88
345.942	358.88
346.17	364.88
346.397	364.88
346.625	355.88
346.853	352.88
347.08	359.88
347.308	356.88
347.535	369.88
347.763	380.88
347.99	393.88
348.218	368.88
348.445	382.88
348.673	366.88
348.9	368.88
349.128	356.88
349.355	338.88
349.583	350.88
349.81	343.88
350.037	349.88
350.265	336.88
350.492	331.88
350.72	336.88
350.947	362.88
351.174	374.88
351.402	370.88
351.629	373.88
351.856	368.88
352.083	379.88
352.311	380.88
352.538	406.88
352.765	394.88
352.992	399.88
353.22	391.88
353.447	354.88
353.674	345.88
353.901	342.88
354.128	349.88
354.355	341.88
354.583	318.88
354.81	318.88
355.037	316.88
355.264	312.88
355.491	316.88
355.718	324.88
355.945	308.88
356.172	296.88
356.399	320.88
356.626	316.88
356.853	312.88
357.08	316.88
357.307	337.88
357.534	308.88
357.761	327.88
357.988	341.88
358.215	312.88
358.441	346.88
358.668	336.88
358.895	316.88
359.122	336.88
359.349	356.88
359.576	349.88
359.802	406.88
360.029	429.88
360.256	461.88
360.483	425.88
360.709	389.88
360.936	356.88
361.163	356.88
361.39	345.88
361.616	373.88
361.843	352.88
362.07	360.88
362.296	381.88
362.523	359.88
362.749	368.88
362.976	343.88
363.203	348.88
363.429	347.88
363.656	322.88
363.882	337.88
364.109	315.88
364.335	313.88
364.562	345.88
364.788	336.88
365.015	338.88
365.241	338.88
365.468	348.88
365.694	329.88
365.92	342.88
366.147	337.88
366.373	336.88
366.599	324.88
366.826	328.88
367.052	330.88
367.278	339.88
367.505	338.88
367.731	344.88
367.957	344.88
368.184	321.88
368.41	343.88
368.636	376.88
368.862	340.88
369.089	345.88
369.315	328.88
369.541	321.88
369.767	323.88
369.993	334.88
370.219	318.88
370.445	320.88
370.672	328.88
370.898	302.88
371.124	312.88
371.35	335.88
371.576	314.88
371.802	334.88
372.028	308.88
372.254	314.88
372.48	329.88
372.706	317.88
372.932	330.88
373.158	329.88
373.384	325.88
373.61	307.88
373.835	336.88
374.061	311.88
374.287	321.88
374.513	343.88
374.739	344.88
374.965	332.88
375.191	312.88
375.416	329.88
375.642	309.88
375.868	341.88
376.094	314.88
376.319	312.88
376.545	313.88
376.771	319.88
376.997	323.88
377.222	306.88
377.448	326.88
377.674	314.88
377.899	320.88
378.125	312.88
378.35	313.88
378.576	326.88
378.802	293.88
379.027	331.88
379.253	296.88
379.478	311.88
379.704	310.88
379.929	331.88
380.155	317.88
380.38	324.88
380.606	333.88
380.831	325.88
381.057	317.88
381.282	322.88
381.507	318.88
381.733	324.88
381.958	329.88
382.184	330.88
382.409	316.88
382.634	341.88
382.86	325.88
383.085	328.88
383.31	338.88
383.535	338.88
383.761	311.88
383.986	333.88
384.211	337.88
384.436	326.88
384.662	338.88
384.887	332.88
385.112	348.88
385.337	335.88
385.562	340.88
385.787	322.88
386.013	338.88
386.238	355.88
386.463	347.88
386.688	343.88
386.913	355.88
387.138	331.88
387.363	344.88
387.588	347.88
387.813	337.88
388.038	349.88
388.263	347.88
388.488	325.88
388.713	351.88
388.938	333.88
389.163	341.88
389.387	342.88
389.612	346.88
389.837	334.88
390.062	332.88
390.287	333.88
390.512	329.88
390.736	338.88
390.961	345.88
391.186	345.88
391.411	335.88
391.636	348.88
391.86	355.88
392.085	321.88
392.31	340.88
392.534	340.88
392.759	341.88
392.984	330.88
393.208	336.88
393.433	361.88
393.658	360.88
393.882	338.88
394.107	336.88
394.331	342.88
394.556	327.88
394.78	340.88
395.005	339.88
395.229	324.88
395.454	333.88
395.678	356.88
395.903	376.88
396.127	360.88
396.352	393.88
396.576	353.88
396.801	356.88
397.025	345.88
397.249	384.88
397.474	373.88
397.698	364.88
397.922	362.88
398.147	364.88
398.371	404.88
398.595	375.88
398.82	363.88
399.044	371.88
399.268	388.88
399.492	418.88
399.717	413.88
399.941	439.88
400.165	475.88
400.389	491.88
400.613	439.88
400.837	421.88
401.062	413.88
401.286	412.88
401.51	404.88
401.734	368.88
401.958	420.88
402.182	398.88
402.406	398.88
402.63	414.88
402.854	412.88
403.078	397.88
403.302	414.88
403.526	404.88
403.75	426.88
403.974	420.88
404.198	399.88
404.422	402.88
404.645	405.88
404.869	416.88
405.093	430.88
405.317	468.88
405.541	469.88
405.765	437.88
405.988	456.88
406.212	438.88
406.436	482.88
406.66	480.88
406.883	466.88
407.107	492.88
407.331	518.88
407.555	568.88
407.778	599.88
408.002	497.88
408.226	468.88
408.449	486.88
408.673	474.88
408.896	488.88
409.12	514.88
409.344	514.88
409.567	448.88
409.791	418.88
410.014	417.88
410.238	405.88
410.461	412.88
410.685	405.88
410.908	441.88
411.132	457.88
411.355	487.88
411.578	478.88
411.802	425.88
412.025	403.88
412.249	429.88
412.472	420.88
412.695	424.88
412.919	414.88
413.142	422.88
413.365	417.88
413.589	404.88
413.812	382.88
414.035	363.88
414.258	368.88
414.482	376.88
414.705	374.88
414.928	380.88
415.151	381.88
415.374	372.88
415.597	378.88
415.821	386.88
416.044	393.88
416.267	385.88
416.49	390.88
416.713	390.88
416.936	402.88
417.159	386.88
417.382	402.88
417.605	404.88
417.828	408.88
418.051	445.88
418.274	422.88
418.497	409.88
418.72	387.88
418.943	397.88
419.166	408.88
419.389	428.88
419.611	404.88
419.834	440.88
420.057	431.88
420.28	417.88
420.503	404.88
420.726	401.88
420.948	439.88
421.171	471.88
421.394	512.88
421.617	454.88
421.839	417.88
422.062	437.88
422.285	464.88
422.507	517.88
422.73	565.88
422.953	548.88
423.175	451.88
423.398	444.88
423.621	452.88
423.843	470.88
424.066	479.88
424.288	448.88
424.511	474.88
424.733	556.88
424.956	621.88
425.178	599.88
425.401	586.88
425.623	606.88
425.846	534.88
426.068	497.88
426.291	485.88
426.513	502.88
426.735	518.88
426.958	543.88
427.18	642.88
427.402	727.88
427.625	806.88
427.847	766.88
428.069	636.88
428.292	550.88
428.514	526.88
428.736	489.88
428.958	469.88
429.181	457.88
429.403	441.88
429.625	466.88
429.847	501.88
430.069	537.88
430.292	570.88
430.514	464.88
430.736	456.88
430.958	438.88
431.18	422.88
431.402	435.88
431.624	416.88
431.846	411.88
432.068	404.88
432.29	427.88
432.512	419.88
432.734	424.88
432.956	431.88
433.178	438.88
433.4	444.88
433.622	432.88
433.844	422.88
434.066	404.88
434.287	406.88
434.509	415.88
434.731	422.88
434.953	416.88
435.175	460.88
435.397	464.88
435.618	486.88
435.84	533.88
436.062	626.88
436.284	678.88
436.505	580.88
436.727	530.88
436.949	474.88
437.17	457.88
437.392	476.88
437.614	480.88
437.835	532.88
438.057	636.88
438.278	720.88
438.5	711.88
438.721	732.88
438.943	710.88
439.165	626.88
439.386	531.88
439.608	514.88
439.829	535.88
440.05	544.88
440.272	592.88
440.493	566.88
440.715	506.88
440.936	478.88
441.158	470.88
441.379	466.88
441.6	481.88
441.822	490.88
442.043	550.88
442.264	615.88
442.486	654.88
442.707	570.88
442.928	518.88
443.149	522.88
443.371	540.88
443.592	590.88
443.813	684.88
444.034	710.88
444.255	573.88
444.476	517.88
444.698	492.88
444.919	474.88
445.14	586.88
445.361	548.88
445.582	530.88
445.803	619.88
446.024	701.88
446.245	712.88
446.466	660.88
446.687	570.88
446.908	509.88
447.129	481.88
447.35	479.88
447.571	460.88
447.792	474.88
448.013	468.88
448.234	501.88
448.455	568.88
448.675	636.88
448.896	749.88
449.117	632.88
449.338	604.88
449.559	709.88
449.779	768.88
450	636.88
450.221	534.88
450.442	482.88
450.662	464.88
450.883	469.88
451.104	494.88
451.324	488.88
451.545	454.88
451.766	444.88
451.986	426.88
452.207	411.88
452.428	420.88
452.648	415.88
452.869	443.88
453.089	429.88
453.31	451.88
453.53	425.88
453.751	435.88
453.971	408.88
454.192	464.88
454.412	462.88
454.633	432.88
454.853	418.88
455.073	421.88
455.294	465.88
455.514	536.88
455.734	493.88
455.955	411.88
456.175	403.88
456.395	412.88
456.616	385.88
456.836	376.88
457.056	398.88
457.276	384.88
457.497	372.88
457.717	383.88
457.937	382.88
458.157	397.88
458.377	398.88
458.598	437.88
458.818	493.88
459.038	616.88
459.258	595.88
459.478	492.88
459.698	467.88
459.918	430.88
460.138	412.88
460.358	410.88
460.578	406.88
460.798	403.88
461.018	408.88
461.238	411.88
461.458	397.88
461.678	420.88
461.898	412.88
462.118	396.88
462.338	428.88
462.558	409.88
462.777	436.88
462.997	420.88
463.217	414.88
463.437	421.88
463.657	410.88
463.876	416.88
464.096	442.88
464.316	438.88
464.536	439.88
464.755	444.88
464.975	443.88
465.195	529.88
465.414	646.88
465.634	541.88
465.854	485.88
466.073	459.88
466.293	423.88
466.512	426.88
466.732	422.88
466.951	421.88
467.171	404.88
467.391	398.88
467.61	413.88
467.829	461.88
468.049	425.88
468.268	405.88
468.488	408.88
468.707	396.88
468.927	408.88
469.146	398.88
469.365	399.88
469.585	384.88
469.804	414.88
470.023	432.88
470.243	415.88
470.462	421.88
470.681	449.88
470.901	449.88
471.12	421.88
471.339	413.88
471.558	429.88
471.777	435.88
471.997	422.88
472.216	419.88
472.435	417.88
472.654	410.88
472.873	414.88
473.092	413.88
473.311	402.88
473.53	416.88
473.749	425.88
473.968	477.88
474.187	572.88
474.406	604.88
474.625	497.88
474.844	452.88
475.063	413.88
475.282	419.88
475.501	427.88
475.72	430.88
475.939	426.88
476.158	429.88
476.377	421.88
476.596	425.88
476.814	437.88
477.033	437.88
477.252	448.88
477.471	428.88
477.69	461.88
477.908	452.88
478.127	463.88
478.346	434.88
478.564	445.88
478.783	456.88
479.002	471.88
479.22	477.88
479.439	491.88
479.658	502.88
479.876	516.88
480.095	518.88
480.313	524.88
480.532	522.88
480.751	508.88
480.969	502.88
481.188	535.88
481.406	521.88
481.624	501.88
481.843	499.88
482.061	504.88
482.28	501.88
482.498	467.88
482.717	484.88
482.935	480.88
483.153	465.88
483.372	498.88
483.59	504.88
483.808	510.88
484.027	496.88
484.245	512.88
484.463	475.88
484.681	498.88
484.9	518.88
485.118	526.88
485.336	488.88
485.554	520.88
485.772	500.88
485.99	528.88
486.209	519.88
486.427	522.88
486.645	536.88
486.863	559.88
487.081	562.88
487.299	560.88
487.517	551.88
487.735	547.88
487.953	543.88
488.171	553.88
488.389	534.88
488.607	542.88
488.825	545.88
489.043	548.88
489.261	566.88
489.479	552.88
489.696	546.88
489.914	557.88
490.132	563.88
490.35	563.88
490.568	568.88
490.786	569.88
491.003	588.88
491.221	590.88
491.439	618.88
491.657	617.88
491.874	617.88
492.092	602.88
492.31	612.88
492.527	628.88
492.745	614.88
492.963	629.88
493.18	642.88
493.398	637.88
493.615	646.88
493.833	650.88
494.05	630.88
494.268	639.88
494.485	646.88
494.703	632.88
494.92	653.88
495.138	642.88
495.355	666.88
495.573	664.88
495.79	664.88
496.008	645.88
496.225	656.88
496.442	642.88
496.66	644.88
496.877	638.88
497.094	668.88
497.312	642.88
497.529	655.88
497.746	686.88
497.963	656.88
498.181	712.88
498.398	697.88
498.615	713.88
498.832	729.88
499.049	718.88
499.267	700.88
499.484	729.88
499.701	754.88
499.918	767.88
500.135	741.88
500.352	782.88
500.569	745.88
500.786	772.88
501.003	772.88
501.22	774.88
501.437	755.88
501.654	769.88
501.871	792.88
