Data from 1987.PennyLincolnUp.Lamp.En5.5.200Scan.071819.P2_HRD10591_17-16-34-971.txt Node
Date: Thu Jul 18 17:16:34 EDT 2019
User: cochatt
Spectrometer: HR+D1059
Trigger mode: 1
Integration Time (sec): 1.000000E-1
Scans to average: 1
Electric dark correction enabled: true
Nonlinearity correction enabled: false
Boxcar width: 0
XAxis mode: Wavelengths
Number of Pixels in Spectrum: 2048
>>>>>Begin Spectral Data<<<<<
223.165	-8.44
223.4	-8.44
223.635	-8.44
223.869	-5.44
224.104	-25.44
224.338	-10.44
224.573	-19.44
224.808	-22.44
225.042	-5.44
225.277	-8.44
225.511	-4.44
225.746	8.56
225.98	-0.44
226.215	3.56
226.449	15.56
226.683	21.56
226.918	32.56
227.152	28.56
227.387	23.56
227.621	29.56
227.856	41.56
228.09	43.56
228.324	54.56
228.559	62.56
228.793	76.56
229.027	114.56
229.262	114.56
229.496	119.56
229.73	153.56
229.964	186.56
230.199	147.56
230.433	125.56
230.667	104.56
230.901	120.56
231.136	98.56
231.37	111.56
231.604	111.56
231.838	112.56
232.072	109.56
232.306	105.56
232.541	101.56
232.775	106.56
233.009	111.56
233.243	115.56
233.477	105.56
233.711	113.56
233.945	124.56
234.179	123.56
234.413	102.56
234.647	115.56
234.881	105.56
235.115	123.56
235.349	100.56
235.583	119.56
235.817	113.56
236.051	126.56
236.285	131.56
236.519	114.56
236.753	142.56
236.987	158.56
237.221	197.56
237.455	256.56
237.689	223.56
237.922	140.56
238.156	139.56
238.39	139.56
238.624	146.56
238.858	136.56
239.091	130.56
239.325	122.56
239.559	129.56
239.793	137.56
240.027	129.56
240.26	155.56
240.494	164.56
240.728	169.56
240.961	153.56
241.195	141.56
241.429	136.56
241.662	140.56
241.896	146.56
242.13	134.56
242.363	129.56
242.597	136.56
242.83	121.56
243.064	133.56
243.298	141.56
243.531	120.56
243.765	122.56
243.998	133.56
244.232	138.56
244.465	131.56
244.699	129.56
244.932	147.56
245.166	147.56
245.399	146.56
245.633	135.56
245.866	137.56
246.099	148.56
246.333	141.56
246.566	150.56
246.8	136.56
247.033	133.56
247.266	165.56
247.5	155.56
247.733	163.56
247.966	156.56
248.2	167.56
248.433	168.56
248.666	184.56
248.899	170.56
249.133	189.56
249.366	212.56
249.599	201.56
249.832	198.56
250.066	178.56
250.299	171.56
250.532	182.56
250.765	183.56
250.998	231.56
251.231	242.56
251.465	214.56
251.698	197.56
251.931	203.56
252.164	176.56
252.397	198.56
252.63	191.56
252.863	203.56
253.096	212.56
253.329	219.56
253.562	236.56
253.795	221.56
254.028	218.56
254.261	208.56
254.494	220.56
254.727	257.56
254.96	281.56
255.193	298.56
255.426	245.56
255.659	223.56
255.892	239.56
256.124	212.56
256.357	218.56
256.59	210.56
256.823	205.56
257.056	203.56
257.289	214.56
257.521	199.56
257.754	208.56
257.987	201.56
258.22	198.56
258.452	192.56
258.685	201.56
258.918	187.56
259.151	201.56
259.383	217.56
259.616	205.56
259.849	218.56
260.081	240.56
260.314	247.56
260.547	245.56
260.779	226.56
261.012	230.56
261.244	226.56
261.477	225.56
261.71	192.56
261.942	220.56
262.175	242.56
262.407	230.56
262.64	228.56
262.872	199.56
263.105	200.56
263.337	197.56
263.57	181.56
263.802	208.56
264.035	195.56
264.267	187.56
264.499	198.56
264.732	199.56
264.964	199.56
265.197	208.56
265.429	182.56
265.661	177.56
265.894	189.56
266.126	200.56
266.358	196.56
266.591	203.56
266.823	205.56
267.055	207.56
267.287	206.56
267.52	199.56
267.752	205.56
267.984	197.56
268.216	228.56
268.448	210.56
268.681	205.56
268.913	206.56
269.145	240.56
269.377	241.56
269.609	264.56
269.841	255.56
270.073	282.56
270.306	284.56
270.538	308.56
270.77	330.56
271.002	303.56
271.234	289.56
271.466	291.56
271.698	309.56
271.93	298.56
272.162	289.56
272.394	333.56
272.626	305.56
272.858	290.56
273.09	266.56
273.322	253.56
273.553	251.56
273.785	251.56
274.017	237.56
274.249	243.56
274.481	254.56
274.713	236.56
274.945	242.56
275.176	236.56
275.408	247.56
275.64	236.56
275.872	224.56
276.104	231.56
276.335	260.56
276.567	247.56
276.799	279.56
277.031	293.56
277.262	284.56
277.494	320.56
277.726	284.56
277.957	269.56
278.189	257.56
278.421	244.56
278.652	240.56
278.884	233.56
279.115	224.56
279.347	239.56
279.579	225.56
279.81	229.56
280.042	222.56
280.273	224.56
280.505	218.56
280.736	216.56
280.968	232.56
281.199	218.56
281.431	232.56
281.662	228.56
281.894	226.56
282.125	236.56
282.356	253.56
282.588	265.56
282.819	276.56
283.051	259.56
283.282	239.56
283.513	240.56
283.745	242.56
283.976	234.56
284.207	247.56
284.439	236.56
284.67	227.56
284.901	226.56
285.132	213.56
285.364	233.56
285.595	226.56
285.826	232.56
286.057	227.56
286.288	227.56
286.52	240.56
286.751	233.56
286.982	231.56
287.213	235.56
287.444	245.56
287.675	239.56
287.906	248.56
288.138	245.56
288.369	253.56
288.6	264.56
288.831	249.56
289.062	255.56
289.293	255.56
289.524	244.56
289.755	236.56
289.986	235.56
290.217	226.56
290.448	246.56
290.679	235.56
290.91	257.56
291.141	233.56
291.371	234.56
291.602	249.56
291.833	236.56
292.064	243.56
292.295	243.56
292.526	242.56
292.757	228.56
292.987	244.56
293.218	219.56
293.449	241.56
293.68	240.56
293.91	250.56
294.141	223.56
294.372	242.56
294.603	241.56
294.833	228.56
295.064	243.56
295.295	257.56
295.525	232.56
295.756	237.56
295.987	249.56
296.217	280.56
296.448	319.56
296.679	271.56
296.909	245.56
297.14	236.56
297.37	250.56
297.601	234.56
297.831	251.56
298.062	263.56
298.292	261.56
298.523	249.56
298.753	236.56
298.984	257.56
299.214	268.56
299.445	241.56
299.675	258.56
299.905	245.56
300.136	260.56
300.366	264.56
300.597	254.56
300.827	259.56
301.057	277.56
301.288	272.56
301.518	267.56
301.748	265.56
301.979	270.56
302.209	255.56
302.439	288.56
302.669	285.56
302.9	258.56
303.13	290.56
303.36	278.56
303.59	272.56
303.82	279.56
304.051	304.56
304.281	273.56
304.511	269.56
304.741	273.56
304.971	282.56
305.201	276.56
305.431	278.56
305.661	268.56
305.891	266.56
306.121	276.56
306.352	283.56
306.582	281.56
306.812	263.56
307.042	282.56
307.272	256.56
307.502	259.56
307.731	288.56
307.961	275.56
308.191	269.56
308.421	283.56
308.651	286.56
308.881	291.56
309.111	301.56
309.341	294.56
309.571	338.56
309.8	309.56
310.03	325.56
310.26	332.56
310.49	338.56
310.72	367.56
310.949	379.56
311.179	383.56
311.409	359.56
311.639	325.56
311.868	357.56
312.098	336.56
312.328	349.56
312.557	383.56
312.787	415.56
313.017	393.56
313.246	380.56
313.476	344.56
313.706	350.56
313.935	352.56
314.165	373.56
314.394	383.56
314.624	380.56
314.853	362.56
315.083	345.56
315.312	340.56
315.542	312.56
315.771	321.56
316.001	321.56
316.23	323.56
316.46	320.56
316.689	329.56
316.919	348.56
317.148	342.56
317.377	353.56
317.607	339.56
317.836	345.56
318.065	335.56
318.295	320.56
318.524	323.56
318.753	338.56
318.983	320.56
319.212	325.56
319.441	331.56
319.67	359.56
319.9	331.56
320.129	330.56
320.358	350.56
320.587	331.56
320.816	381.56
321.046	362.56
321.275	367.56
321.504	358.56
321.733	371.56
321.962	389.56
322.191	402.56
322.42	452.56
322.649	443.56
322.878	469.56
323.108	482.56
323.337	511.56
323.566	554.56
323.795	605.56
324.024	650.56
324.253	845.56
324.482	1243.56
324.71	1918.56
324.939	2731.56
325.168	2386.56
325.397	1297.56
325.626	855.56
325.855	659.56
326.084	562.56
326.313	544.56
326.542	555.56
326.77	619.56
326.999	765.56
327.228	1062.56
327.457	1683.56
327.686	2020.56
327.914	1400.56
328.143	910.56
328.372	749.56
328.6	675.56
328.829	642.56
329.058	643.56
329.287	675.56
329.515	605.56
329.744	533.56
329.972	488.56
330.201	504.56
330.43	579.56
330.658	613.56
330.887	679.56
331.115	662.56
331.344	538.56
331.572	515.56
331.801	499.56
332.03	488.56
332.258	453.56
332.486	435.56
332.715	418.56
332.943	393.56
333.172	397.56
333.4	386.56
333.629	392.56
333.857	411.56
334.085	397.56
334.314	389.56
334.542	379.56
334.771	399.56
334.999	412.56
335.227	379.56
335.455	388.56
335.684	373.56
335.912	377.56
336.14	392.56
336.369	367.56
336.597	389.56
336.825	401.56
337.053	400.56
337.281	372.56
337.51	363.56
337.738	361.56
337.966	389.56
338.194	371.56
338.422	391.56
338.65	383.56
338.878	373.56
339.106	358.56
339.334	371.56
339.562	345.56
339.79	369.56
340.018	380.56
340.246	369.56
340.474	378.56
340.702	371.56
340.93	351.56
341.158	379.56
341.386	367.56
341.614	364.56
341.842	375.56
342.07	371.56
342.298	368.56
342.526	367.56
342.754	340.56
342.981	342.56
343.209	345.56
343.437	340.56
343.665	343.56
343.893	351.56
344.12	359.56
344.348	365.56
344.576	350.56
344.804	371.56
345.031	402.56
345.259	416.56
345.487	382.56
345.714	390.56
345.942	389.56
346.17	359.56
346.397	354.56
346.625	355.56
346.853	340.56
347.08	360.56
347.308	379.56
347.535	396.56
347.763	401.56
347.99	381.56
348.218	375.56
348.445	407.56
348.673	412.56
348.9	393.56
349.128	367.56
349.355	340.56
349.583	354.56
349.81	372.56
350.037	369.56
350.265	358.56
350.492	370.56
350.72	362.56
350.947	373.56
351.174	377.56
351.402	408.56
351.629	385.56
351.856	378.56
352.083	391.56
352.311	412.56
352.538	411.56
352.765	418.56
352.992	401.56
353.22	381.56
353.447	370.56
353.674	372.56
353.901	353.56
354.128	358.56
354.355	333.56
354.583	320.56
354.81	338.56
355.037	332.56
355.264	309.56
355.491	323.56
355.718	336.56
355.945	312.56
356.172	332.56
356.399	318.56
356.626	320.56
356.853	333.56
357.08	316.56
357.307	305.56
357.534	322.56
357.761	316.56
357.988	325.56
358.215	338.56
358.441	315.56
358.668	327.56
358.895	344.56
359.122	353.56
359.349	350.56
359.576	386.56
359.802	402.56
360.029	462.56
360.256	469.56
360.483	458.56
360.709	395.56
360.936	362.56
361.163	375.56
361.39	387.56
361.616	401.56
361.843	392.56
362.07	390.56
362.296	397.56
362.523	385.56
362.749	388.56
362.976	377.56
363.203	375.56
363.429	363.56
363.656	351.56
363.882	341.56
364.109	353.56
364.335	348.56
364.562	363.56
364.788	360.56
365.015	341.56
365.241	361.56
365.468	356.56
365.694	372.56
365.92	378.56
366.147	355.56
366.373	336.56
366.599	360.56
366.826	337.56
367.052	344.56
367.278	330.56
367.505	359.56
367.731	322.56
367.957	335.56
368.184	350.56
368.41	353.56
368.636	355.56
368.862	370.56
369.089	361.56
369.315	341.56
369.541	329.56
369.767	347.56
369.993	347.56
370.219	332.56
370.445	333.56
370.672	346.56
370.898	318.56
371.124	337.56
371.35	329.56
371.576	320.56
371.802	320.56
372.028	315.56
372.254	297.56
372.48	344.56
372.706	323.56
372.932	315.56
373.158	329.56
373.384	340.56
373.61	333.56
373.835	329.56
374.061	323.56
374.287	327.56
374.513	328.56
374.739	328.56
374.965	323.56
375.191	327.56
375.416	326.56
375.642	326.56
375.868	334.56
376.094	337.56
376.319	339.56
376.545	342.56
376.771	331.56
376.997	327.56
377.222	322.56
377.448	323.56
377.674	320.56
377.899	308.56
378.125	311.56
378.35	328.56
378.576	320.56
378.802	314.56
379.027	324.56
379.253	326.56
379.478	333.56
379.704	331.56
379.929	329.56
380.155	347.56
380.38	331.56
380.606	345.56
380.831	321.56
381.057	330.56
381.282	319.56
381.507	339.56
381.733	330.56
381.958	322.56
382.184	329.56
382.409	345.56
382.634	347.56
382.86	325.56
383.085	320.56
383.31	321.56
383.535	327.56
383.761	316.56
383.986	338.56
384.211	323.56
384.436	350.56
384.662	333.56
384.887	338.56
385.112	327.56
385.337	332.56
385.562	339.56
385.787	331.56
386.013	347.56
386.238	346.56
386.463	353.56
386.688	350.56
386.913	323.56
387.138	322.56
387.363	338.56
387.588	337.56
387.813	353.56
388.038	349.56
388.263	338.56
388.488	322.56
388.713	340.56
388.938	340.56
389.163	353.56
389.387	354.56
389.612	346.56
389.837	337.56
390.062	331.56
390.287	339.56
390.512	324.56
390.736	331.56
390.961	339.56
391.186	337.56
391.411	346.56
391.636	341.56
391.86	324.56
392.085	355.56
392.31	354.56
392.534	357.56
392.759	355.56
392.984	343.56
393.208	325.56
393.433	353.56
393.658	335.56
393.882	325.56
394.107	350.56
394.331	352.56
394.556	353.56
394.78	338.56
395.005	358.56
395.229	341.56
395.454	363.56
395.678	348.56
395.903	371.56
396.127	386.56
396.352	391.56
396.576	370.56
396.801	343.56
397.025	372.56
397.249	343.56
397.474	352.56
397.698	373.56
397.922	383.56
398.147	391.56
398.371	405.56
398.595	383.56
398.82	363.56
399.044	371.56
399.268	398.56
399.492	393.56
399.717	438.56
399.941	435.56
400.165	473.56
400.389	484.56
400.613	467.56
400.837	412.56
401.062	391.56
401.286	407.56
401.51	408.56
401.734	393.56
401.958	384.56
402.182	391.56
402.406	414.56
402.63	417.56
402.854	405.56
403.078	414.56
403.302	410.56
403.526	428.56
403.75	417.56
403.974	421.56
404.198	401.56
404.422	436.56
404.645	410.56
404.869	411.56
405.093	443.56
405.317	466.56
405.541	501.56
405.765	447.56
405.988	434.56
406.212	447.56
406.436	480.56
406.66	501.56
406.883	491.56
407.107	490.56
407.331	507.56
407.555	575.56
407.778	584.56
408.002	537.56
408.226	497.56
408.449	476.56
408.673	452.56
408.896	483.56
409.12	538.56
409.344	495.56
409.567	456.56
409.791	422.56
410.014	429.56
410.238	417.56
410.461	432.56
410.685	437.56
410.908	435.56
411.132	469.56
411.355	520.56
411.578	468.56
411.802	453.56
412.025	400.56
412.249	423.56
412.472	425.56
412.695	432.56
412.919	407.56
413.142	401.56
413.365	410.56
413.589	389.56
413.812	373.56
414.035	391.56
414.258	387.56
414.482	377.56
414.705	385.56
414.928	394.56
415.151	391.56
415.374	376.56
415.597	375.56
415.821	402.56
416.044	412.56
416.267	412.56
416.49	411.56
416.713	395.56
416.936	395.56
417.159	396.56
417.382	398.56
417.605	413.56
417.828	417.56
418.051	424.56
418.274	419.56
418.497	400.56
418.72	405.56
418.943	395.56
419.166	406.56
419.389	424.56
419.611	436.56
419.834	397.56
420.057	411.56
420.28	421.56
420.503	408.56
420.726	434.56
420.948	444.56
421.171	491.56
421.394	521.56
421.617	455.56
421.839	429.56
422.062	428.56
422.285	447.56
422.507	512.56
422.73	583.56
422.953	557.56
423.175	492.56
423.398	497.56
423.621	469.56
423.843	467.56
424.066	492.56
424.288	492.56
424.511	496.56
424.733	559.56
424.956	647.56
425.178	628.56
425.401	632.56
425.623	642.56
425.846	544.56
426.068	525.56
426.291	525.56
426.513	520.56
426.735	541.56
426.958	562.56
427.18	653.56
427.402	735.56
427.625	856.56
427.847	829.56
428.069	677.56
428.292	586.56
428.514	526.56
428.736	505.56
428.958	499.56
429.181	480.56
429.403	443.56
429.625	468.56
429.847	542.56
430.069	578.56
430.292	574.56
430.514	490.56
430.736	448.56
430.958	437.56
431.18	417.56
431.402	427.56
431.624	401.56
431.846	394.56
432.068	420.56
432.29	404.56
432.512	426.56
432.734	440.56
432.956	418.56
433.178	461.56
433.4	431.56
433.622	442.56
433.844	435.56
434.066	415.56
434.287	433.56
434.509	413.56
434.731	433.56
434.953	447.56
435.175	440.56
435.397	495.56
435.618	515.56
435.84	531.56
436.062	652.56
436.284	694.56
436.505	597.56
436.727	541.56
436.949	489.56
437.17	480.56
437.392	475.56
437.614	485.56
437.835	547.56
438.057	659.56
438.278	747.56
438.5	730.56
438.721	760.56
438.943	758.56
439.165	614.56
439.386	548.56
439.608	539.56
439.829	544.56
440.05	593.56
440.272	613.56
440.493	565.56
440.715	532.56
440.936	500.56
441.158	485.56
441.379	478.56
441.6	516.56
441.822	514.56
442.043	552.56
442.264	643.56
442.486	676.56
442.707	595.56
442.928	539.56
443.149	536.56
443.371	569.56
443.592	624.56
443.813	683.56
444.034	709.56
444.255	611.56
444.476	536.56
444.698	497.56
444.919	496.56
445.14	607.56
445.361	565.56
445.582	572.56
445.803	643.56
446.024	730.56
446.245	725.56
446.466	659.56
446.687	571.56
446.908	534.56
447.129	491.56
447.35	484.56
447.571	502.56
447.792	474.56
448.013	502.56
448.234	511.56
448.455	579.56
448.675	675.56
448.896	752.56
449.117	669.56
449.338	650.56
449.559	728.56
449.779	780.56
450	682.56
450.221	551.56
450.442	499.56
450.662	495.56
450.883	498.56
451.104	541.56
451.324	515.56
451.545	476.56
451.766	459.56
451.986	456.56
452.207	448.56
452.428	419.56
452.648	432.56
452.869	446.56
453.089	448.56
453.31	469.56
453.53	435.56
453.751	429.56
453.971	449.56
454.192	477.56
454.412	456.56
454.633	449.56
454.853	446.56
455.073	430.56
455.294	455.56
455.514	546.56
455.734	533.56
455.955	435.56
456.175	391.56
456.395	395.56
456.616	368.56
456.836	392.56
457.056	383.56
457.276	385.56
457.497	396.56
457.717	373.56
457.937	373.56
458.157	379.56
458.377	412.56
458.598	451.56
458.818	535.56
459.038	659.56
459.258	639.56
459.478	539.56
459.698	475.56
459.918	453.56
460.138	424.56
460.358	424.56
460.578	425.56
460.798	432.56
461.018	412.56
461.238	386.56
461.458	421.56
461.678	426.56
461.898	425.56
462.118	409.56
462.338	424.56
462.558	397.56
462.777	401.56
462.997	403.56
463.217	427.56
463.437	432.56
463.657	417.56
463.876	413.56
464.096	410.56
464.316	449.56
464.536	427.56
464.755	444.56
464.975	458.56
465.195	563.56
465.414	700.56
465.634	603.56
465.854	515.56
466.073	471.56
466.293	453.56
466.512	447.56
466.732	433.56
466.951	417.56
467.171	412.56
467.391	432.56
467.61	442.56
467.829	468.56
468.049	424.56
468.268	427.56
468.488	420.56
468.707	428.56
468.927	420.56
469.146	403.56
469.365	394.56
469.585	396.56
469.804	425.56
470.023	391.56
470.243	424.56
470.462	443.56
470.681	484.56
470.901	473.56
471.12	439.56
471.339	420.56
471.558	433.56
471.777	438.56
471.997	428.56
472.216	419.56
472.435	416.56
472.654	434.56
472.873	424.56
473.092	425.56
473.311	417.56
473.53	450.56
473.749	428.56
473.968	479.56
474.187	595.56
474.406	629.56
474.625	500.56
474.844	465.56
475.063	419.56
475.282	418.56
475.501	403.56
475.72	422.56
475.939	421.56
476.158	435.56
476.377	458.56
476.596	450.56
476.814	468.56
477.033	484.56
477.252	440.56
477.471	463.56
477.69	460.56
477.908	473.56
478.127	450.56
478.346	467.56
478.564	458.56
478.783	477.56
479.002	471.56
479.22	473.56
479.439	491.56
479.658	516.56
479.876	546.56
480.095	530.56
480.313	572.56
480.532	540.56
480.751	516.56
480.969	498.56
481.188	531.56
481.406	507.56
481.624	543.56
481.843	507.56
482.061	508.56
482.28	498.56
482.498	495.56
482.717	497.56
482.935	509.56
483.153	513.56
483.372	505.56
483.59	495.56
483.808	500.56
484.027	508.56
484.245	502.56
484.463	518.56
484.681	519.56
484.9	520.56
485.118	501.56
485.336	523.56
485.554	504.56
485.772	530.56
485.99	533.56
486.209	539.56
486.427	528.56
486.645	556.56
486.863	593.56
487.081	578.56
487.299	575.56
487.517	553.56
487.735	556.56
487.953	574.56
488.171	564.56
488.389	551.56
488.607	563.56
488.825	579.56
489.043	562.56
489.261	552.56
489.479	570.56
489.696	561.56
489.914	559.56
490.132	579.56
490.35	615.56
490.568	572.56
490.786	591.56
491.003	595.56
491.221	608.56
491.439	623.56
491.657	647.56
491.874	635.56
492.092	647.56
492.31	643.56
492.527	634.56
492.745	623.56
492.963	641.56
493.18	657.56
493.398	653.56
493.615	653.56
493.833	675.56
494.05	676.56
494.268	667.56
494.485	667.56
494.703	652.56
494.92	676.56
495.138	672.56
495.355	674.56
495.573	671.56
495.79	665.56
496.008	672.56
496.225	681.56
496.442	668.56
496.66	665.56
496.877	669.56
497.094	681.56
497.312	677.56
497.529	670.56
497.746	665.56
497.963	694.56
498.181	714.56
498.398	715.56
498.615	696.56
498.832	721.56
499.049	724.56
499.267	684.56
499.484	706.56
499.701	756.56
499.918	740.56
500.135	745.56
500.352	769.56
500.569	777.56
500.786	774.56
501.003	808.56
501.22	784.56
501.437	752.56
501.654	775.56
501.871	820.56
