Data from 1987.PennyLincolnUp.Lamp.En5.5.200Scan.071819.P2_HRD10591_17-14-19-971.txt Node
Date: Thu Jul 18 17:14:19 EDT 2019
User: cochatt
Spectrometer: HR+D1059
Trigger mode: 1
Integration Time (sec): 1.000000E-1
Scans to average: 1
Electric dark correction enabled: true
Nonlinearity correction enabled: false
Boxcar width: 0
XAxis mode: Wavelengths
Number of Pixels in Spectrum: 2048
>>>>>Begin Spectral Data<<<<<
223.165	-10.44
223.4	-10.44
223.635	-10.44
223.869	-9.44
224.104	-18.44
224.338	-26.44
224.573	-25.44
224.808	-14.44
225.042	-4.44
225.277	-10.44
225.511	-7.44
225.746	7.56
225.98	-2.44
226.215	30.56
226.449	5.56
226.683	24.56
226.918	24.56
227.152	36.56
227.387	26.56
227.621	46.56
227.856	39.56
228.09	36.56
228.324	39.56
228.559	41.56
228.793	68.56
229.027	85.56
229.262	107.56
229.496	107.56
229.73	131.56
229.964	153.56
230.199	133.56
230.433	110.56
230.667	107.56
230.901	96.56
231.136	106.56
231.37	107.56
231.604	105.56
231.838	103.56
232.072	93.56
232.306	109.56
232.541	109.56
232.775	86.56
233.009	99.56
233.243	109.56
233.477	121.56
233.711	122.56
233.945	120.56
234.179	121.56
234.413	113.56
234.647	108.56
234.881	102.56
235.115	104.56
235.349	117.56
235.583	99.56
235.817	99.56
236.051	126.56
236.285	121.56
236.519	117.56
236.753	124.56
236.987	135.56
237.221	170.56
237.455	223.56
237.689	187.56
237.922	135.56
238.156	130.56
238.39	119.56
238.624	123.56
238.858	113.56
239.091	119.56
239.325	113.56
239.559	127.56
239.793	124.56
240.027	140.56
240.26	127.56
240.494	153.56
240.728	154.56
240.961	145.56
241.195	128.56
241.429	133.56
241.662	120.56
241.896	117.56
242.13	125.56
242.363	122.56
242.597	128.56
242.83	122.56
243.064	127.56
243.298	116.56
243.531	119.56
243.765	128.56
243.998	114.56
244.232	123.56
244.465	138.56
244.699	135.56
244.932	126.56
245.166	135.56
245.399	135.56
245.633	148.56
245.866	125.56
246.099	116.56
246.333	139.56
246.566	139.56
246.8	141.56
247.033	147.56
247.266	142.56
247.5	133.56
247.733	141.56
247.966	140.56
248.2	149.56
248.433	147.56
248.666	142.56
248.899	166.56
249.133	179.56
249.366	183.56
249.599	186.56
249.832	164.56
250.066	167.56
250.299	166.56
250.532	149.56
250.765	185.56
250.998	181.56
251.231	199.56
251.465	184.56
251.698	199.56
251.931	171.56
252.164	198.56
252.397	199.56
252.63	192.56
252.863	173.56
253.096	178.56
253.329	206.56
253.562	204.56
253.795	201.56
254.028	190.56
254.261	192.56
254.494	201.56
254.727	234.56
254.96	257.56
255.193	248.56
255.426	211.56
255.659	210.56
255.892	210.56
256.124	214.56
256.357	194.56
256.59	198.56
256.823	178.56
257.056	181.56
257.289	180.56
257.521	177.56
257.754	189.56
257.987	170.56
258.22	185.56
258.452	189.56
258.685	186.56
258.918	165.56
259.151	194.56
259.383	187.56
259.616	197.56
259.849	206.56
260.081	190.56
260.314	238.56
260.547	226.56
260.779	222.56
261.012	224.56
261.244	203.56
261.477	201.56
261.71	184.56
261.942	191.56
262.175	199.56
262.407	196.56
262.64	177.56
262.872	187.56
263.105	173.56
263.337	183.56
263.57	166.56
263.802	168.56
264.035	170.56
264.267	163.56
264.499	170.56
264.732	167.56
264.964	153.56
265.197	177.56
265.429	185.56
265.661	163.56
265.894	170.56
266.126	176.56
266.358	182.56
266.591	155.56
266.823	194.56
267.055	190.56
267.287	174.56
267.52	188.56
267.752	179.56
267.984	180.56
268.216	179.56
268.448	196.56
268.681	164.56
268.913	199.56
269.145	206.56
269.377	218.56
269.609	217.56
269.841	223.56
270.073	235.56
270.306	239.56
270.538	253.56
270.77	267.56
271.002	256.56
271.234	251.56
271.466	234.56
271.698	274.56
271.93	267.56
272.162	274.56
272.394	261.56
272.626	257.56
272.858	239.56
273.09	233.56
273.322	251.56
273.553	210.56
273.785	245.56
274.017	212.56
274.249	212.56
274.481	212.56
274.713	224.56
274.945	212.56
275.176	229.56
275.408	228.56
275.64	220.56
275.872	215.56
276.104	227.56
276.335	218.56
276.567	218.56
276.799	224.56
277.031	257.56
277.262	249.56
277.494	277.56
277.726	253.56
277.957	229.56
278.189	219.56
278.421	221.56
278.652	210.56
278.884	220.56
279.115	212.56
279.347	216.56
279.579	226.56
279.81	212.56
280.042	201.56
280.273	225.56
280.505	216.56
280.736	206.56
280.968	185.56
281.199	195.56
281.431	200.56
281.662	201.56
281.894	213.56
282.125	198.56
282.356	210.56
282.588	249.56
282.819	242.56
283.051	226.56
283.282	219.56
283.513	205.56
283.745	210.56
283.976	210.56
284.207	198.56
284.439	208.56
284.67	222.56
284.901	207.56
285.132	203.56
285.364	210.56
285.595	210.56
285.826	211.56
286.057	219.56
286.288	204.56
286.52	227.56
286.751	198.56
286.982	207.56
287.213	205.56
287.444	202.56
287.675	224.56
287.906	217.56
288.138	225.56
288.369	216.56
288.6	228.56
288.831	214.56
289.062	244.56
289.293	210.56
289.524	225.56
289.755	211.56
289.986	207.56
290.217	182.56
290.448	194.56
290.679	206.56
290.91	218.56
291.141	199.56
291.371	202.56
291.602	205.56
291.833	214.56
292.064	210.56
292.295	206.56
292.526	214.56
292.757	207.56
292.987	207.56
293.218	210.56
293.449	211.56
293.68	209.56
293.91	209.56
294.141	210.56
294.372	215.56
294.603	210.56
294.833	212.56
295.064	193.56
295.295	205.56
295.525	206.56
295.756	226.56
295.987	238.56
296.217	244.56
296.448	266.56
296.679	231.56
296.909	221.56
297.14	226.56
297.37	241.56
297.601	239.56
297.831	196.56
298.062	202.56
298.292	219.56
298.523	223.56
298.753	227.56
298.984	221.56
299.214	208.56
299.445	222.56
299.675	215.56
299.905	224.56
300.136	207.56
300.366	225.56
300.597	226.56
300.827	221.56
301.057	245.56
301.288	239.56
301.518	229.56
301.748	223.56
301.979	226.56
302.209	229.56
302.439	243.56
302.669	235.56
302.9	231.56
303.13	244.56
303.36	237.56
303.59	246.56
303.82	232.56
304.051	255.56
304.281	244.56
304.511	242.56
304.741	219.56
304.971	233.56
305.201	253.56
305.431	236.56
305.661	242.56
305.891	228.56
306.121	246.56
306.352	237.56
306.582	244.56
306.812	251.56
307.042	240.56
307.272	234.56
307.502	231.56
307.731	244.56
307.961	241.56
308.191	246.56
308.421	240.56
308.651	258.56
308.881	261.56
309.111	249.56
309.341	276.56
309.571	283.56
309.8	284.56
310.03	290.56
310.26	295.56
310.49	285.56
310.72	287.56
310.949	326.56
311.179	327.56
311.409	320.56
311.639	298.56
311.868	289.56
312.098	306.56
312.328	301.56
312.557	292.56
312.787	333.56
313.017	316.56
313.246	321.56
313.476	302.56
313.706	281.56
313.935	294.56
314.165	305.56
314.394	305.56
314.624	303.56
314.853	289.56
315.083	282.56
315.312	287.56
315.542	275.56
315.771	296.56
316.001	274.56
316.23	276.56
316.46	261.56
316.689	289.56
316.919	293.56
317.148	279.56
317.377	290.56
317.607	298.56
317.836	292.56
318.065	282.56
318.295	288.56
318.524	271.56
318.753	285.56
318.983	263.56
319.212	279.56
319.441	293.56
319.67	304.56
319.9	301.56
320.129	282.56
320.358	287.56
320.587	287.56
320.816	326.56
321.046	305.56
321.275	327.56
321.504	314.56
321.733	320.56
321.962	345.56
322.191	337.56
322.42	353.56
322.649	373.56
322.878	387.56
323.108	406.56
323.337	450.56
323.566	463.56
323.795	492.56
324.024	531.56
324.253	650.56
324.482	977.56
324.71	1437.56
324.939	2045.56
325.168	1780.56
325.397	1002.56
325.626	647.56
325.855	540.56
326.084	474.56
326.313	445.56
326.542	457.56
326.77	518.56
326.999	625.56
327.228	825.56
327.457	1265.56
327.686	1559.56
327.914	1083.56
328.143	708.56
328.372	579.56
328.6	543.56
328.829	515.56
329.058	535.56
329.287	537.56
329.515	514.56
329.744	445.56
329.972	413.56
330.201	409.56
330.43	461.56
330.658	510.56
330.887	542.56
331.115	539.56
331.344	443.56
331.572	415.56
331.801	394.56
332.03	399.56
332.258	387.56
332.486	336.56
332.715	348.56
332.943	319.56
333.172	345.56
333.4	339.56
333.629	323.56
333.857	335.56
334.085	355.56
334.314	340.56
334.542	369.56
334.771	352.56
334.999	356.56
335.227	346.56
335.455	331.56
335.684	335.56
335.912	337.56
336.14	319.56
336.369	309.56
336.597	333.56
336.825	324.56
337.053	316.56
337.281	339.56
337.51	323.56
337.738	335.56
337.966	321.56
338.194	327.56
338.422	335.56
338.65	330.56
338.878	317.56
339.106	311.56
339.334	321.56
339.562	301.56
339.79	323.56
340.018	324.56
340.246	324.56
340.474	313.56
340.702	322.56
340.93	317.56
341.158	304.56
341.386	325.56
341.614	332.56
341.842	333.56
342.07	308.56
342.298	314.56
342.526	310.56
342.754	305.56
342.981	283.56
343.209	297.56
343.437	302.56
343.665	305.56
343.893	311.56
344.12	305.56
344.348	319.56
344.576	309.56
344.804	340.56
345.031	342.56
345.259	349.56
345.487	346.56
345.714	347.56
345.942	342.56
346.17	327.56
346.397	316.56
346.625	325.56
346.853	317.56
347.08	282.56
347.308	335.56
347.535	333.56
347.763	329.56
347.99	300.56
348.218	343.56
348.445	351.56
348.673	345.56
348.9	321.56
349.128	313.56
349.355	298.56
349.583	296.56
349.81	307.56
350.037	298.56
350.265	305.56
350.492	301.56
350.72	316.56
350.947	318.56
351.174	339.56
351.402	341.56
351.629	344.56
351.856	347.56
352.083	352.56
352.311	347.56
352.538	342.56
352.765	362.56
352.992	339.56
353.22	348.56
353.447	321.56
353.674	312.56
353.901	302.56
354.128	289.56
354.355	291.56
354.583	267.56
354.81	283.56
355.037	273.56
355.264	291.56
355.491	291.56
355.718	275.56
355.945	290.56
356.172	287.56
356.399	287.56
356.626	291.56
356.853	290.56
357.08	302.56
357.307	277.56
357.534	278.56
357.761	297.56
357.988	280.56
358.215	285.56
358.441	296.56
358.668	299.56
358.895	288.56
359.122	321.56
359.349	321.56
359.576	346.56
359.802	357.56
360.029	391.56
360.256	413.56
360.483	379.56
360.709	330.56
360.936	347.56
361.163	331.56
361.39	337.56
361.616	344.56
361.843	317.56
362.07	317.56
362.296	328.56
362.523	322.56
362.749	331.56
362.976	331.56
363.203	313.56
363.429	289.56
363.656	309.56
363.882	317.56
364.109	303.56
364.335	298.56
364.562	287.56
364.788	328.56
365.015	311.56
365.241	299.56
365.468	324.56
365.694	331.56
365.92	306.56
366.147	311.56
366.373	297.56
366.599	313.56
366.826	313.56
367.052	295.56
367.278	311.56
367.505	289.56
367.731	309.56
367.957	297.56
368.184	314.56
368.41	302.56
368.636	294.56
368.862	319.56
369.089	312.56
369.315	291.56
369.541	315.56
369.767	305.56
369.993	303.56
370.219	298.56
370.445	305.56
370.672	285.56
370.898	305.56
371.124	313.56
371.35	301.56
371.576	298.56
371.802	275.56
372.028	292.56
372.254	301.56
372.48	296.56
372.706	305.56
372.932	311.56
373.158	302.56
373.384	296.56
373.61	292.56
373.835	298.56
374.061	311.56
374.287	305.56
374.513	288.56
374.739	305.56
374.965	313.56
375.191	302.56
375.416	298.56
375.642	282.56
375.868	286.56
376.094	287.56
376.319	281.56
376.545	279.56
376.771	288.56
376.997	294.56
377.222	305.56
377.448	294.56
377.674	297.56
377.899	273.56
378.125	299.56
378.35	282.56
378.576	301.56
378.802	297.56
379.027	307.56
379.253	288.56
379.478	296.56
379.704	287.56
379.929	288.56
380.155	306.56
380.38	314.56
380.606	297.56
380.831	298.56
381.057	303.56
381.282	286.56
381.507	305.56
381.733	287.56
381.958	300.56
382.184	314.56
382.409	290.56
382.634	297.56
382.86	308.56
383.085	306.56
383.31	320.56
383.535	308.56
383.761	307.56
383.986	281.56
384.211	314.56
384.436	292.56
384.662	289.56
384.887	305.56
385.112	312.56
385.337	329.56
385.562	312.56
385.787	317.56
386.013	334.56
386.238	309.56
386.463	311.56
386.688	322.56
386.913	322.56
387.138	313.56
387.363	322.56
387.588	295.56
387.813	311.56
388.038	309.56
388.263	309.56
388.488	321.56
388.713	298.56
388.938	309.56
389.163	315.56
389.387	318.56
389.612	301.56
389.837	297.56
390.062	322.56
390.287	311.56
390.512	299.56
390.736	301.56
390.961	303.56
391.186	315.56
391.411	303.56
391.636	308.56
391.86	333.56
392.085	312.56
392.31	330.56
392.534	320.56
392.759	313.56
392.984	320.56
393.208	307.56
393.433	329.56
393.658	347.56
393.882	316.56
394.107	298.56
394.331	326.56
394.556	311.56
394.78	302.56
395.005	310.56
395.229	304.56
395.454	313.56
395.678	321.56
395.903	330.56
396.127	344.56
396.352	359.56
396.576	352.56
396.801	341.56
397.025	352.56
397.249	331.56
397.474	342.56
397.698	337.56
397.922	342.56
398.147	365.56
398.371	370.56
398.595	350.56
398.82	342.56
399.044	353.56
399.268	349.56
399.492	371.56
399.717	385.56
399.941	375.56
400.165	409.56
400.389	437.56
400.613	403.56
400.837	383.56
401.062	365.56
401.286	361.56
401.51	354.56
401.734	355.56
401.958	365.56
402.182	377.56
402.406	377.56
402.63	356.56
402.854	371.56
403.078	393.56
403.302	373.56
403.526	386.56
403.75	377.56
403.974	392.56
404.198	365.56
404.422	381.56
404.645	378.56
404.869	392.56
405.093	387.56
405.317	418.56
405.541	446.56
405.765	398.56
405.988	399.56
406.212	402.56
406.436	424.56
406.66	450.56
406.883	431.56
407.107	468.56
407.331	453.56
407.555	475.56
407.778	513.56
408.002	465.56
408.226	418.56
408.449	421.56
408.673	417.56
408.896	451.56
409.12	499.56
409.344	457.56
409.567	438.56
409.791	410.56
410.014	385.56
410.238	374.56
410.461	384.56
410.685	402.56
410.908	394.56
411.132	435.56
411.355	451.56
411.578	439.56
411.802	379.56
412.025	386.56
412.249	379.56
412.472	393.56
412.695	382.56
412.919	389.56
413.142	373.56
413.365	370.56
413.589	354.56
413.812	357.56
414.035	323.56
414.258	358.56
414.482	352.56
414.705	345.56
414.928	348.56
415.151	336.56
415.374	350.56
415.597	339.56
415.821	356.56
416.044	362.56
416.267	373.56
416.49	390.56
416.713	354.56
416.936	361.56
417.159	366.56
417.382	366.56
417.605	363.56
417.828	377.56
418.051	397.56
418.274	378.56
418.497	367.56
418.72	369.56
418.943	374.56
419.166	393.56
419.389	385.56
419.611	390.56
419.834	384.56
420.057	386.56
420.28	383.56
420.503	374.56
420.726	380.56
420.948	413.56
421.171	456.56
421.394	476.56
421.617	426.56
421.839	393.56
422.062	406.56
422.285	402.56
422.507	481.56
422.73	546.56
422.953	519.56
423.175	438.56
423.398	398.56
423.621	420.56
423.843	431.56
424.066	443.56
424.288	438.56
424.511	457.56
424.733	498.56
424.956	581.56
425.178	583.56
425.401	564.56
425.623	572.56
425.846	498.56
426.068	489.56
426.291	453.56
426.513	446.56
426.735	458.56
426.958	518.56
427.18	577.56
427.402	669.56
427.625	737.56
427.847	669.56
428.069	552.56
428.292	512.56
428.514	472.56
428.736	444.56
428.958	427.56
429.181	431.56
429.403	427.56
429.625	405.56
429.847	470.56
430.069	510.56
430.292	513.56
430.514	447.56
430.736	405.56
430.958	419.56
431.18	404.56
431.402	377.56
431.624	391.56
431.846	393.56
432.068	403.56
432.29	378.56
432.512	385.56
432.734	389.56
432.956	376.56
433.178	401.56
433.4	402.56
433.622	385.56
433.844	365.56
434.066	395.56
434.287	381.56
434.509	389.56
434.731	395.56
434.953	402.56
435.175	434.56
435.397	445.56
435.618	433.56
435.84	476.56
436.062	549.56
436.284	635.56
436.505	535.56
436.727	478.56
436.949	443.56
437.17	425.56
437.392	417.56
437.614	432.56
437.835	477.56
438.057	584.56
438.278	656.56
438.5	671.56
438.721	710.56
438.943	674.56
439.165	570.56
439.386	503.56
439.608	463.56
439.829	496.56
440.05	512.56
440.272	538.56
440.493	506.56
440.715	470.56
440.936	456.56
441.158	415.56
441.379	425.56
441.6	418.56
441.822	478.56
442.043	481.56
442.264	566.56
442.486	608.56
442.707	516.56
442.928	484.56
443.149	485.56
443.371	493.56
443.592	529.56
443.813	609.56
444.034	668.56
444.255	532.56
444.476	479.56
444.698	457.56
444.919	425.56
445.14	530.56
445.361	499.56
445.582	491.56
445.803	538.56
446.024	641.56
446.245	645.56
446.466	605.56
446.687	517.56
446.908	465.56
447.129	433.56
447.35	432.56
447.571	435.56
447.792	412.56
448.013	424.56
448.234	464.56
448.455	493.56
448.675	584.56
448.896	673.56
449.117	605.56
449.338	583.56
449.559	619.56
449.779	674.56
450	607.56
450.221	504.56
450.442	451.56
450.662	434.56
450.883	446.56
451.104	456.56
451.324	437.56
451.545	418.56
451.766	390.56
451.986	375.56
452.207	387.56
452.428	381.56
452.648	368.56
452.869	380.56
453.089	386.56
453.31	426.56
453.53	384.56
453.751	388.56
453.971	398.56
454.192	425.56
454.412	394.56
454.633	375.56
454.853	373.56
455.073	383.56
455.294	421.56
455.514	488.56
455.734	480.56
455.955	392.56
456.175	369.56
456.395	336.56
456.616	373.56
456.836	369.56
457.056	334.56
457.276	325.56
457.497	334.56
457.717	342.56
457.937	367.56
458.157	353.56
458.377	360.56
458.598	377.56
458.818	466.56
459.038	537.56
459.258	541.56
459.478	474.56
459.698	393.56
459.918	391.56
460.138	379.56
460.358	371.56
460.578	396.56
460.798	368.56
461.018	390.56
461.238	386.56
461.458	379.56
461.678	367.56
461.898	359.56
462.118	350.56
462.338	358.56
462.558	375.56
462.777	361.56
462.997	369.56
463.217	387.56
463.437	377.56
463.657	377.56
463.876	394.56
464.096	395.56
464.316	387.56
464.536	392.56
464.755	386.56
464.975	418.56
465.195	473.56
465.414	593.56
465.634	491.56
465.854	441.56
466.073	411.56
466.293	399.56
466.512	392.56
466.732	372.56
466.951	390.56
467.171	378.56
467.391	370.56
467.61	387.56
467.829	387.56
468.049	385.56
468.268	389.56
468.488	377.56
468.707	356.56
468.927	362.56
469.146	370.56
469.365	359.56
469.585	375.56
469.804	373.56
470.023	405.56
470.243	394.56
470.462	394.56
470.681	430.56
470.901	403.56
471.12	426.56
471.339	396.56
471.558	396.56
471.777	379.56
471.997	377.56
472.216	385.56
472.435	390.56
472.654	384.56
472.873	382.56
473.092	373.56
473.311	369.56
473.53	383.56
473.749	399.56
473.968	444.56
474.187	541.56
474.406	562.56
474.625	455.56
474.844	419.56
475.063	396.56
475.282	371.56
475.501	394.56
475.72	395.56
475.939	414.56
476.158	395.56
476.377	407.56
476.596	393.56
476.814	409.56
477.033	403.56
477.252	408.56
477.471	411.56
477.69	410.56
477.908	393.56
478.127	415.56
478.346	408.56
478.564	422.56
478.783	432.56
479.002	424.56
479.22	413.56
479.439	448.56
479.658	462.56
479.876	465.56
480.095	466.56
480.313	479.56
480.532	483.56
480.751	469.56
480.969	464.56
481.188	473.56
481.406	494.56
481.624	477.56
481.843	449.56
482.061	469.56
482.28	463.56
482.498	451.56
482.717	453.56
482.935	458.56
483.153	445.56
483.372	446.56
483.59	474.56
483.808	447.56
484.027	460.56
484.245	457.56
484.463	461.56
484.681	449.56
484.9	475.56
485.118	455.56
485.336	463.56
485.554	477.56
485.772	475.56
485.99	452.56
486.209	476.56
486.427	485.56
486.645	480.56
486.863	522.56
487.081	493.56
487.299	516.56
487.517	487.56
487.735	513.56
487.953	504.56
488.171	487.56
488.389	489.56
488.607	517.56
488.825	505.56
489.043	513.56
489.261	515.56
489.479	487.56
489.696	521.56
489.914	519.56
490.132	536.56
490.35	518.56
490.568	536.56
490.786	526.56
491.003	553.56
491.221	523.56
491.439	571.56
491.657	558.56
491.874	567.56
492.092	557.56
492.31	563.56
492.527	579.56
492.745	566.56
492.963	596.56
493.18	593.56
493.398	570.56
493.615	593.56
493.833	591.56
494.05	588.56
494.268	610.56
494.485	583.56
494.703	603.56
494.92	599.56
495.138	628.56
495.355	602.56
495.573	587.56
495.79	613.56
496.008	600.56
496.225	602.56
496.442	617.56
496.66	621.56
496.877	575.56
497.094	590.56
497.312	607.56
497.529	610.56
497.746	617.56
497.963	603.56
498.181	625.56
498.398	629.56
498.615	633.56
498.832	618.56
499.049	658.56
499.267	663.56
499.484	674.56
499.701	672.56
499.918	682.56
500.135	707.56
500.352	717.56
500.569	716.56
500.786	714.56
501.003	739.56
501.22	678.56
501.437	711.56
501.654	695.56
501.871	736.56
502.088	705.56
