Data from 1987.PennyLincolnUp.Lamp.En5.5.200Scan.071819.P2_HRD10591_17-16-13-971.txt Node
Date: Thu Jul 18 17:16:13 EDT 2019
User: cochatt
Spectrometer: HR+D1059
Trigger mode: 1
Integration Time (sec): 1.000000E-1
Scans to average: 1
Electric dark correction enabled: true
Nonlinearity correction enabled: false
Boxcar width: 0
XAxis mode: Wavelengths
Number of Pixels in Spectrum: 2048
>>>>>Begin Spectral Data<<<<<
223.165	-0.94
223.4	-0.94
223.635	-0.94
223.869	-24.94
224.104	-20.94
224.338	-18.94
224.573	0.06
224.808	-7.94
225.042	-12.94
225.277	-9.94
225.511	-7.94
225.746	-11.94
225.98	4.06
226.215	20.06
226.449	13.06
226.683	27.06
226.918	21.06
227.152	31.06
227.387	36.06
227.621	38.06
227.856	39.06
228.09	40.06
228.324	51.06
228.559	50.06
228.793	71.06
229.027	105.06
229.262	126.06
229.496	135.06
229.73	143.06
229.964	171.06
230.199	150.06
230.433	126.06
230.667	117.06
230.901	115.06
231.136	116.06
231.37	110.06
231.604	100.06
231.838	117.06
232.072	124.06
232.306	118.06
232.541	127.06
232.775	123.06
233.009	118.06
233.243	114.06
233.477	118.06
233.711	125.06
233.945	105.06
234.179	119.06
234.413	119.06
234.647	121.06
234.881	122.06
235.115	128.06
235.349	113.06
235.583	99.06
235.817	138.06
236.051	143.06
236.285	140.06
236.519	123.06
236.753	135.06
236.987	165.06
237.221	191.06
237.455	263.06
237.689	209.06
237.922	146.06
238.156	141.06
238.39	131.06
238.624	148.06
238.858	140.06
239.091	125.06
239.325	121.06
239.559	134.06
239.793	123.06
240.027	135.06
240.26	139.06
240.494	157.06
240.728	151.06
240.961	156.06
241.195	155.06
241.429	132.06
241.662	133.06
241.896	126.06
242.13	127.06
242.363	143.06
242.597	143.06
242.83	137.06
243.064	149.06
243.298	146.06
243.531	149.06
243.765	147.06
243.998	129.06
244.232	143.06
244.465	150.06
244.699	142.06
244.932	150.06
245.166	139.06
245.399	142.06
245.633	148.06
245.866	141.06
246.099	154.06
246.333	143.06
246.566	139.06
246.8	151.06
247.033	156.06
247.266	158.06
247.5	144.06
247.733	170.06
247.966	174.06
248.2	171.06
248.433	161.06
248.666	177.06
248.899	191.06
249.133	206.06
249.366	227.06
249.599	220.06
249.832	184.06
250.066	193.06
250.299	180.06
250.532	198.06
250.765	190.06
250.998	226.06
251.231	233.06
251.465	231.06
251.698	214.06
251.931	204.06
252.164	197.06
252.397	200.06
252.63	193.06
252.863	208.06
253.096	213.06
253.329	219.06
253.562	227.06
253.795	231.06
254.028	225.06
254.261	218.06
254.494	211.06
254.727	253.06
254.96	297.06
255.193	275.06
255.426	256.06
255.659	226.06
255.892	235.06
256.124	217.06
256.357	223.06
256.59	228.06
256.823	208.06
257.056	204.06
257.289	204.06
257.521	216.06
257.754	209.06
257.987	203.06
258.22	198.06
258.452	193.06
258.685	195.06
258.918	202.06
259.151	193.06
259.383	215.06
259.616	229.06
259.849	216.06
260.081	228.06
260.314	231.06
260.547	245.06
260.779	244.06
261.012	228.06
261.244	221.06
261.477	211.06
261.71	227.06
261.942	236.06
262.175	254.06
262.407	220.06
262.64	209.06
262.872	196.06
263.105	199.06
263.337	180.06
263.57	199.06
263.802	205.06
264.035	200.06
264.267	190.06
264.499	215.06
264.732	210.06
264.964	202.06
265.197	201.06
265.429	195.06
265.661	194.06
265.894	203.06
266.126	200.06
266.358	197.06
266.591	197.06
266.823	207.06
267.055	209.06
267.287	220.06
267.52	195.06
267.752	197.06
267.984	203.06
268.216	209.06
268.448	209.06
268.681	236.06
268.913	221.06
269.145	263.06
269.377	250.06
269.609	248.06
269.841	256.06
270.073	271.06
270.306	278.06
270.538	302.06
270.77	318.06
271.002	310.06
271.234	294.06
271.466	291.06
271.698	304.06
271.93	309.06
272.162	296.06
272.394	321.06
272.626	297.06
272.858	309.06
273.09	293.06
273.322	258.06
273.553	247.06
273.785	268.06
274.017	249.06
274.249	259.06
274.481	245.06
274.713	270.06
274.945	261.06
275.176	249.06
275.408	246.06
275.64	252.06
275.872	237.06
276.104	255.06
276.335	246.06
276.567	245.06
276.799	284.06
277.031	300.06
277.262	302.06
277.494	322.06
277.726	284.06
277.957	275.06
278.189	256.06
278.421	248.06
278.652	236.06
278.884	234.06
279.115	218.06
279.347	244.06
279.579	237.06
279.81	255.06
280.042	233.06
280.273	232.06
280.505	224.06
280.736	232.06
280.968	244.06
281.199	233.06
281.431	235.06
281.662	232.06
281.894	255.06
282.125	231.06
282.356	264.06
282.588	294.06
282.819	301.06
283.051	259.06
283.282	248.06
283.513	246.06
283.745	219.06
283.976	238.06
284.207	238.06
284.439	236.06
284.67	247.06
284.901	236.06
285.132	247.06
285.364	225.06
285.595	227.06
285.826	225.06
286.057	233.06
286.288	241.06
286.52	224.06
286.751	248.06
286.982	239.06
287.213	245.06
287.444	233.06
287.675	244.06
287.906	251.06
288.138	258.06
288.369	267.06
288.6	271.06
288.831	262.06
289.062	251.06
289.293	245.06
289.524	244.06
289.755	247.06
289.986	243.06
290.217	235.06
290.448	252.06
290.679	245.06
290.91	241.06
291.141	255.06
291.371	242.06
291.602	239.06
291.833	225.06
292.064	234.06
292.295	236.06
292.526	253.06
292.757	241.06
292.987	240.06
293.218	240.06
293.449	252.06
293.68	251.06
293.91	240.06
294.141	246.06
294.372	235.06
294.603	237.06
294.833	223.06
295.064	271.06
295.295	255.06
295.525	258.06
295.756	249.06
295.987	262.06
296.217	281.06
296.448	295.06
296.679	272.06
296.909	244.06
297.14	262.06
297.37	272.06
297.601	247.06
297.831	254.06
298.062	244.06
298.292	272.06
298.523	245.06
298.753	241.06
298.984	246.06
299.214	229.06
299.445	254.06
299.675	272.06
299.905	246.06
300.136	259.06
300.366	266.06
300.597	238.06
300.827	261.06
301.057	282.06
301.288	279.06
301.518	289.06
301.748	266.06
301.979	267.06
302.209	265.06
302.439	279.06
302.669	279.06
302.9	282.06
303.13	291.06
303.36	266.06
303.59	281.06
303.82	290.06
304.051	292.06
304.281	255.06
304.511	281.06
304.741	270.06
304.971	257.06
305.201	262.06
305.431	275.06
305.661	279.06
305.891	261.06
306.121	271.06
306.352	289.06
306.582	313.06
306.812	280.06
307.042	276.06
307.272	268.06
307.502	268.06
307.731	262.06
307.961	292.06
308.191	285.06
308.421	276.06
308.651	282.06
308.881	288.06
309.111	296.06
309.341	300.06
309.571	325.06
309.8	331.06
310.03	326.06
310.26	357.06
310.49	351.06
310.72	364.06
310.949	386.06
311.179	410.06
311.409	372.06
311.639	352.06
311.868	379.06
312.098	365.06
312.328	351.06
312.557	374.06
312.787	390.06
313.017	404.06
313.246	368.06
313.476	365.06
313.706	351.06
313.935	358.06
314.165	393.06
314.394	393.06
314.624	382.06
314.853	368.06
315.083	352.06
315.312	351.06
315.542	351.06
315.771	331.06
316.001	339.06
316.23	334.06
316.46	334.06
316.689	340.06
316.919	359.06
317.148	358.06
317.377	355.06
317.607	364.06
317.836	353.06
318.065	327.06
318.295	334.06
318.524	328.06
318.753	332.06
318.983	357.06
319.212	328.06
319.441	373.06
319.67	371.06
319.9	319.06
320.129	337.06
320.358	339.06
320.587	345.06
320.816	350.06
321.046	380.06
321.275	373.06
321.504	377.06
321.733	378.06
321.962	392.06
322.191	415.06
322.42	437.06
322.649	462.06
322.878	454.06
323.108	478.06
323.337	540.06
323.566	546.06
323.795	591.06
324.024	671.06
324.253	880.06
324.482	1252.06
324.71	2015.06
324.939	2798.06
325.168	2389.06
325.397	1314.06
325.626	845.06
325.855	661.06
326.084	574.06
326.313	564.06
326.542	566.06
326.77	644.06
326.999	744.06
327.228	1108.06
327.457	1705.06
327.686	2103.06
327.914	1435.06
328.143	917.06
328.372	759.06
328.6	692.06
328.829	665.06
329.058	663.06
329.287	703.06
329.515	643.06
329.744	548.06
329.972	539.06
330.201	530.06
330.43	568.06
330.658	607.06
330.887	721.06
331.115	707.06
331.344	565.06
331.572	508.06
331.801	498.06
332.03	492.06
332.258	480.06
332.486	425.06
332.715	400.06
332.943	408.06
333.172	422.06
333.4	403.06
333.629	384.06
333.857	393.06
334.085	409.06
334.314	392.06
334.542	399.06
334.771	422.06
334.999	404.06
335.227	402.06
335.455	393.06
335.684	379.06
335.912	383.06
336.14	367.06
336.369	368.06
336.597	405.06
336.825	402.06
337.053	402.06
337.281	379.06
337.51	379.06
337.738	366.06
337.966	384.06
338.194	395.06
338.422	394.06
338.65	392.06
338.878	366.06
339.106	367.06
339.334	384.06
339.562	366.06
339.79	363.06
340.018	389.06
340.246	374.06
340.474	385.06
340.702	387.06
340.93	381.06
341.158	376.06
341.386	378.06
341.614	383.06
341.842	388.06
342.07	379.06
342.298	369.06
342.526	355.06
342.754	356.06
342.981	367.06
343.209	356.06
343.437	374.06
343.665	355.06
343.893	364.06
344.12	371.06
344.348	383.06
344.576	372.06
344.804	402.06
345.031	396.06
345.259	427.06
345.487	411.06
345.714	388.06
345.942	361.06
346.17	373.06
346.397	381.06
346.625	360.06
346.853	391.06
347.08	387.06
347.308	372.06
347.535	391.06
347.763	409.06
347.99	397.06
348.218	411.06
348.445	418.06
348.673	389.06
348.9	374.06
349.128	387.06
349.355	348.06
349.583	365.06
349.81	380.06
350.037	384.06
350.265	367.06
350.492	359.06
350.72	348.06
350.947	382.06
351.174	387.06
351.402	415.06
351.629	399.06
351.856	411.06
352.083	411.06
352.311	427.06
352.538	430.06
352.765	389.06
352.992	401.06
353.22	407.06
353.447	401.06
353.674	397.06
353.901	368.06
354.128	361.06
354.355	347.06
354.583	336.06
354.81	349.06
355.037	320.06
355.264	314.06
355.491	341.06
355.718	331.06
355.945	340.06
356.172	351.06
356.399	311.06
356.626	334.06
356.853	330.06
357.08	312.06
357.307	334.06
357.534	336.06
357.761	339.06
357.988	323.06
358.215	322.06
358.441	343.06
358.668	351.06
358.895	346.06
359.122	368.06
359.349	363.06
359.576	392.06
359.802	427.06
360.029	478.06
360.256	505.06
360.483	447.06
360.709	404.06
360.936	391.06
361.163	385.06
361.39	383.06
361.616	400.06
361.843	390.06
362.07	389.06
362.296	413.06
362.523	413.06
362.749	390.06
362.976	382.06
363.203	358.06
363.429	347.06
363.656	360.06
363.882	343.06
364.109	353.06
364.335	343.06
364.562	333.06
364.788	351.06
365.015	363.06
365.241	357.06
365.468	364.06
365.694	372.06
365.92	369.06
366.147	365.06
366.373	349.06
366.599	361.06
366.826	338.06
367.052	343.06
367.278	348.06
367.505	341.06
367.731	349.06
367.957	344.06
368.184	344.06
368.41	352.06
368.636	363.06
368.862	380.06
369.089	349.06
369.315	356.06
369.541	336.06
369.767	331.06
369.993	343.06
370.219	333.06
370.445	349.06
370.672	343.06
370.898	329.06
371.124	333.06
371.35	334.06
371.576	319.06
371.802	332.06
372.028	321.06
372.254	325.06
372.48	336.06
372.706	350.06
372.932	328.06
373.158	319.06
373.384	336.06
373.61	336.06
373.835	332.06
374.061	334.06
374.287	357.06
374.513	337.06
374.739	329.06
374.965	339.06
375.191	326.06
375.416	360.06
375.642	346.06
375.868	344.06
376.094	343.06
376.319	325.06
376.545	333.06
376.771	334.06
376.997	321.06
377.222	332.06
377.448	329.06
377.674	325.06
377.899	326.06
378.125	336.06
378.35	345.06
378.576	351.06
378.802	344.06
379.027	341.06
379.253	338.06
379.478	336.06
379.704	324.06
379.929	313.06
380.155	335.06
380.38	337.06
380.606	348.06
380.831	339.06
381.057	344.06
381.282	344.06
381.507	337.06
381.733	343.06
381.958	326.06
382.184	327.06
382.409	332.06
382.634	330.06
382.86	347.06
383.085	343.06
383.31	326.06
383.535	343.06
383.761	342.06
383.986	330.06
384.211	340.06
384.436	360.06
384.662	345.06
384.887	352.06
385.112	343.06
385.337	354.06
385.562	347.06
385.787	356.06
386.013	379.06
386.238	385.06
386.463	371.06
386.688	358.06
386.913	345.06
387.138	345.06
387.363	354.06
387.588	368.06
387.813	344.06
388.038	341.06
388.263	346.06
388.488	336.06
388.713	341.06
388.938	366.06
389.163	357.06
389.387	395.06
389.612	348.06
389.837	348.06
390.062	351.06
390.287	371.06
390.512	340.06
390.736	345.06
390.961	354.06
391.186	358.06
391.411	346.06
391.636	358.06
391.86	360.06
392.085	354.06
392.31	371.06
392.534	367.06
392.759	352.06
392.984	358.06
393.208	356.06
393.433	358.06
393.658	354.06
393.882	342.06
394.107	351.06
394.331	336.06
394.556	358.06
394.78	350.06
395.005	335.06
395.229	363.06
395.454	349.06
395.678	361.06
395.903	382.06
396.127	409.06
396.352	404.06
396.576	379.06
396.801	366.06
397.025	375.06
397.249	369.06
397.474	385.06
397.698	374.06
397.922	398.06
398.147	407.06
398.371	399.06
398.595	408.06
398.82	395.06
399.044	399.06
399.268	415.06
399.492	414.06
399.717	411.06
399.941	460.06
400.165	502.06
400.389	511.06
400.613	458.06
400.837	419.06
401.062	439.06
401.286	415.06
401.51	388.06
401.734	402.06
401.958	413.06
402.182	417.06
402.406	440.06
402.63	419.06
402.854	449.06
403.078	432.06
403.302	427.06
403.526	421.06
403.75	433.06
403.974	424.06
404.198	414.06
404.422	412.06
404.645	420.06
404.869	431.06
405.093	443.06
405.317	496.06
405.541	490.06
405.765	471.06
405.988	440.06
406.212	479.06
406.436	509.06
406.66	515.06
406.883	491.06
407.107	499.06
407.331	545.06
407.555	604.06
407.778	600.06
408.002	553.06
408.226	499.06
408.449	476.06
408.673	474.06
408.896	512.06
409.12	561.06
409.344	500.06
409.567	452.06
409.791	454.06
410.014	448.06
410.238	447.06
410.461	451.06
410.685	448.06
410.908	475.06
411.132	481.06
411.355	512.06
411.578	511.06
411.802	474.06
412.025	423.06
412.249	417.06
412.472	453.06
412.695	467.06
412.919	443.06
413.142	431.06
413.365	414.06
413.589	418.06
413.812	411.06
414.035	424.06
414.258	401.06
414.482	409.06
414.705	396.06
414.928	401.06
415.151	384.06
415.374	406.06
415.597	391.06
415.821	392.06
416.044	385.06
416.267	404.06
416.49	397.06
416.713	400.06
416.936	413.06
417.159	416.06
417.382	411.06
417.605	454.06
417.828	425.06
418.051	443.06
418.274	449.06
418.497	432.06
418.72	409.06
418.943	413.06
419.166	398.06
419.389	439.06
419.611	469.06
419.834	427.06
420.057	431.06
420.28	437.06
420.503	426.06
420.726	431.06
420.948	441.06
421.171	513.06
421.394	539.06
421.617	484.06
421.839	453.06
422.062	461.06
422.285	467.06
422.507	535.06
422.73	615.06
422.953	583.06
423.175	512.06
423.398	490.06
423.621	493.06
423.843	501.06
424.066	519.06
424.288	499.06
424.511	522.06
424.733	591.06
424.956	654.06
425.178	677.06
425.401	670.06
425.623	658.06
425.846	582.06
426.068	509.06
426.291	515.06
426.513	502.06
426.735	518.06
426.958	577.06
427.18	668.06
427.402	782.06
427.625	893.06
427.847	850.06
428.069	696.06
428.292	581.06
428.514	542.06
428.736	528.06
428.958	481.06
429.181	479.06
429.403	464.06
429.625	480.06
429.847	535.06
430.069	597.06
430.292	586.06
430.514	501.06
430.736	468.06
430.958	480.06
431.18	457.06
431.402	448.06
431.624	443.06
431.846	417.06
432.068	408.06
432.29	432.06
432.512	436.06
432.734	449.06
432.956	427.06
433.178	455.06
433.4	466.06
433.622	452.06
433.844	453.06
434.066	436.06
434.287	437.06
434.509	443.06
434.731	431.06
434.953	464.06
435.175	465.06
435.397	512.06
435.618	531.06
435.84	592.06
436.062	640.06
436.284	737.06
436.505	641.06
436.727	559.06
436.949	518.06
437.17	500.06
437.392	500.06
437.614	512.06
437.835	549.06
438.057	687.06
438.278	784.06
438.5	757.06
438.721	816.06
438.943	752.06
439.165	627.06
439.386	575.06
439.608	567.06
439.829	583.06
440.05	596.06
440.272	641.06
440.493	606.06
440.715	550.06
440.936	517.06
441.158	495.06
441.379	499.06
441.6	503.06
441.822	538.06
442.043	581.06
442.264	663.06
442.486	714.06
442.707	605.06
442.928	574.06
443.149	563.06
443.371	590.06
443.592	623.06
443.813	708.06
444.034	739.06
444.255	616.06
444.476	533.06
444.698	539.06
444.919	523.06
445.14	586.06
445.361	571.06
445.582	585.06
445.803	656.06
446.024	750.06
446.245	757.06
446.466	695.06
446.687	631.06
446.908	538.06
447.129	511.06
447.35	519.06
447.571	505.06
447.792	491.06
448.013	501.06
448.234	538.06
448.455	585.06
448.675	685.06
448.896	808.06
449.117	691.06
449.338	665.06
449.559	733.06
449.779	838.06
450	693.06
450.221	591.06
450.442	526.06
450.662	524.06
450.883	525.06
451.104	551.06
451.324	554.06
451.545	505.06
451.766	473.06
451.986	441.06
452.207	439.06
452.428	437.06
452.648	440.06
452.869	445.06
453.089	460.06
453.31	472.06
453.53	465.06
453.751	446.06
453.971	453.06
454.192	502.06
454.412	475.06
454.633	465.06
454.853	454.06
455.073	446.06
455.294	470.06
455.514	542.06
455.734	548.06
455.955	456.06
456.175	438.06
456.395	416.06
456.616	399.06
456.836	417.06
457.056	405.06
457.276	397.06
457.497	391.06
457.717	402.06
457.937	387.06
458.157	415.06
458.377	427.06
458.598	465.06
458.818	539.06
459.038	676.06
459.258	667.06
459.478	535.06
459.698	478.06
459.918	446.06
460.138	429.06
460.358	447.06
460.578	427.06
460.798	437.06
461.018	444.06
461.238	421.06
461.458	424.06
461.678	437.06
461.898	417.06
462.118	442.06
462.338	440.06
462.558	409.06
462.777	413.06
462.997	442.06
463.217	423.06
463.437	436.06
463.657	430.06
463.876	436.06
464.096	439.06
464.316	438.06
464.536	464.06
464.755	472.06
464.975	492.06
465.195	561.06
465.414	704.06
465.634	612.06
465.854	527.06
466.073	493.06
466.293	449.06
466.512	454.06
466.732	437.06
466.951	455.06
467.171	439.06
467.391	448.06
467.61	463.06
467.829	460.06
468.049	455.06
468.268	458.06
468.488	439.06
468.707	416.06
468.927	423.06
469.146	419.06
469.365	447.06
469.585	406.06
469.804	425.06
470.023	461.06
470.243	447.06
470.462	446.06
470.681	461.06
470.901	458.06
471.12	447.06
471.339	441.06
471.558	455.06
471.777	447.06
471.997	401.06
472.216	428.06
472.435	447.06
472.654	424.06
472.873	426.06
473.092	429.06
473.311	416.06
473.53	431.06
473.749	442.06
473.968	521.06
474.187	617.06
474.406	677.06
474.625	519.06
474.844	491.06
475.063	446.06
475.282	447.06
475.501	436.06
475.72	457.06
475.939	443.06
476.158	457.06
476.377	445.06
476.596	439.06
476.814	461.06
477.033	468.06
477.252	466.06
477.471	460.06
477.69	449.06
477.908	477.06
478.127	465.06
478.346	483.06
478.564	478.06
478.783	476.06
479.002	488.06
479.22	475.06
479.439	498.06
479.658	533.06
479.876	555.06
480.095	558.06
480.313	555.06
480.532	550.06
480.751	525.06
480.969	527.06
481.188	555.06
481.406	560.06
481.624	536.06
481.843	527.06
482.061	507.06
482.28	516.06
482.498	529.06
482.717	502.06
482.935	517.06
483.153	495.06
483.372	530.06
483.59	507.06
483.808	490.06
484.027	498.06
484.245	533.06
484.463	531.06
484.681	514.06
484.9	529.06
485.118	536.06
485.336	551.06
485.554	577.06
485.772	523.06
485.99	544.06
486.209	540.06
486.427	567.06
486.645	585.06
486.863	587.06
487.081	581.06
487.299	568.06
487.517	585.06
487.735	572.06
487.953	577.06
488.171	552.06
488.389	566.06
488.607	561.06
488.825	567.06
489.043	572.06
489.261	584.06
489.479	584.06
489.696	581.06
489.914	578.06
490.132	590.06
490.35	578.06
490.568	600.06
490.786	612.06
491.003	639.06
491.221	633.06
491.439	646.06
491.657	657.06
491.874	625.06
492.092	651.06
492.31	659.06
492.527	649.06
492.745	658.06
492.963	672.06
493.18	691.06
493.398	649.06
493.615	683.06
493.833	673.06
494.05	680.06
494.268	684.06
494.485	680.06
494.703	676.06
494.92	699.06
495.138	689.06
495.355	696.06
495.573	702.06
495.79	696.06
496.008	676.06
496.225	674.06
496.442	688.06
496.66	672.06
496.877	716.06
497.094	677.06
497.312	683.06
497.529	724.06
497.746	710.06
497.963	685.06
498.181	707.06
498.398	745.06
498.615	710.06
498.832	750.06
499.049	725.06
499.267	725.06
499.484	753.06
499.701	764.06
499.918	777.06
500.135	791.06
500.352	793.06
500.569	789.06
500.786	815.06
501.003	791.06
501.22	814.06
501.437	800.06
501.654	803.06
501.871	823.06
