Data from 1987.PennyLincolnUp.Lamp.En5.5.200Scan.071819.P2_HRD10591_17-15-42-971.txt Node
Date: Thu Jul 18 17:15:42 EDT 2019
User: cochatt
Spectrometer: HR+D1059
Trigger mode: 1
Integration Time (sec): 1.000000E-1
Scans to average: 1
Electric dark correction enabled: true
Nonlinearity correction enabled: false
Boxcar width: 0
XAxis mode: Wavelengths
Number of Pixels in Spectrum: 2048
>>>>>Begin Spectral Data<<<<<
223.165	-19.31
223.4	-19.31
223.635	-19.31
223.869	-17.31
224.104	-17.31
224.338	-19.31
224.573	3.69
224.808	-13.31
225.042	-13.31
225.277	-19.31
225.511	-9.31
225.746	10.69
225.98	3.69
226.215	12.69
226.449	18.69
226.683	24.69
226.918	18.69
227.152	35.69
227.387	37.69
227.621	33.69
227.856	39.69
228.09	42.69
228.324	58.69
228.559	64.69
228.793	65.69
229.027	104.69
229.262	109.69
229.496	127.69
229.73	159.69
229.964	179.69
230.199	141.69
230.433	126.69
230.667	126.69
230.901	128.69
231.136	114.69
231.37	118.69
231.604	117.69
231.838	106.69
232.072	102.69
232.306	119.69
232.541	110.69
232.775	125.69
233.009	116.69
233.243	124.69
233.477	116.69
233.711	111.69
233.945	116.69
234.179	118.69
234.413	117.69
234.647	116.69
234.881	132.69
235.115	125.69
235.349	123.69
235.583	134.69
235.817	132.69
236.051	146.69
236.285	125.69
236.519	134.69
236.753	123.69
236.987	153.69
237.221	211.69
237.455	274.69
237.689	228.69
237.922	158.69
238.156	151.69
238.39	141.69
238.624	124.69
238.858	130.69
239.091	132.69
239.325	131.69
239.559	135.69
239.793	132.69
240.027	128.69
240.26	152.69
240.494	175.69
240.728	157.69
240.961	150.69
241.195	145.69
241.429	150.69
241.662	138.69
241.896	151.69
242.13	144.69
242.363	141.69
242.597	117.69
242.83	143.69
243.064	146.69
243.298	128.69
243.531	143.69
243.765	132.69
243.998	134.69
244.232	140.69
244.465	153.69
244.699	148.69
244.932	147.69
245.166	145.69
245.399	116.69
245.633	123.69
245.866	157.69
246.099	138.69
246.333	146.69
246.566	148.69
246.8	137.69
247.033	163.69
247.266	159.69
247.5	159.69
247.733	184.69
247.966	172.69
248.2	174.69
248.433	147.69
248.666	181.69
248.899	178.69
249.133	194.69
249.366	202.69
249.599	206.69
249.832	182.69
250.066	166.69
250.299	167.69
250.532	176.69
250.765	183.69
250.998	217.69
251.231	229.69
251.465	216.69
251.698	208.69
251.931	203.69
252.164	203.69
252.397	210.69
252.63	207.69
252.863	205.69
253.096	212.69
253.329	236.69
253.562	233.69
253.795	226.69
254.028	224.69
254.261	226.69
254.494	232.69
254.727	263.69
254.96	293.69
255.193	262.69
255.426	234.69
255.659	227.69
255.892	217.69
256.124	226.69
256.357	197.69
256.59	211.69
256.823	214.69
257.056	206.69
257.289	195.69
257.521	212.69
257.754	215.69
257.987	198.69
258.22	205.69
258.452	196.69
258.685	206.69
258.918	204.69
259.151	201.69
259.383	201.69
259.616	219.69
259.849	231.69
260.081	243.69
260.314	244.69
260.547	260.69
260.779	238.69
261.012	228.69
261.244	214.69
261.477	214.69
261.71	212.69
261.942	230.69
262.175	245.69
262.407	242.69
262.64	217.69
262.872	218.69
263.105	206.69
263.337	195.69
263.57	192.69
263.802	183.69
264.035	197.69
264.267	215.69
264.499	209.69
264.732	188.69
264.964	206.69
265.197	189.69
265.429	202.69
265.661	194.69
265.894	202.69
266.126	195.69
266.358	207.69
266.591	178.69
266.823	218.69
267.055	231.69
267.287	220.69
267.52	203.69
267.752	196.69
267.984	217.69
268.216	221.69
268.448	234.69
268.681	210.69
268.913	219.69
269.145	236.69
269.377	283.69
269.609	273.69
269.841	246.69
270.073	271.69
270.306	277.69
270.538	298.69
270.77	306.69
271.002	302.69
271.234	302.69
271.466	288.69
271.698	308.69
271.93	298.69
272.162	309.69
272.394	314.69
272.626	302.69
272.858	295.69
273.09	269.69
273.322	258.69
273.553	262.69
273.785	243.69
274.017	245.69
274.249	242.69
274.481	263.69
274.713	224.69
274.945	245.69
275.176	237.69
275.408	261.69
275.64	225.69
275.872	243.69
276.104	250.69
276.335	252.69
276.567	232.69
276.799	296.69
277.031	293.69
277.262	300.69
277.494	300.69
277.726	294.69
277.957	259.69
278.189	268.69
278.421	263.69
278.652	228.69
278.884	249.69
279.115	239.69
279.347	247.69
279.579	226.69
279.81	254.69
280.042	236.69
280.273	238.69
280.505	232.69
280.736	228.69
280.968	232.69
281.199	233.69
281.431	228.69
281.662	230.69
281.894	228.69
282.125	233.69
282.356	250.69
282.588	280.69
282.819	294.69
283.051	255.69
283.282	230.69
283.513	238.69
283.745	239.69
283.976	236.69
284.207	246.69
284.439	254.69
284.67	222.69
284.901	242.69
285.132	251.69
285.364	231.69
285.595	220.69
285.826	237.69
286.057	230.69
286.288	240.69
286.52	236.69
286.751	213.69
286.982	235.69
287.213	235.69
287.444	244.69
287.675	222.69
287.906	250.69
288.138	264.69
288.369	265.69
288.6	251.69
288.831	246.69
289.062	259.69
289.293	263.69
289.524	233.69
289.755	242.69
289.986	242.69
290.217	233.69
290.448	244.69
290.679	250.69
290.91	255.69
291.141	218.69
291.371	219.69
291.602	247.69
291.833	237.69
292.064	226.69
292.295	234.69
292.526	242.69
292.757	244.69
292.987	248.69
293.218	227.69
293.449	233.69
293.68	268.69
293.91	221.69
294.141	242.69
294.372	243.69
294.603	239.69
294.833	237.69
295.064	264.69
295.295	248.69
295.525	248.69
295.756	248.69
295.987	259.69
296.217	294.69
296.448	311.69
296.679	254.69
296.909	233.69
297.14	242.69
297.37	249.69
297.601	238.69
297.831	262.69
298.062	244.69
298.292	228.69
298.523	248.69
298.753	248.69
298.984	251.69
299.214	244.69
299.445	254.69
299.675	246.69
299.905	272.69
300.136	261.69
300.366	245.69
300.597	250.69
300.827	279.69
301.057	258.69
301.288	297.69
301.518	294.69
301.748	273.69
301.979	278.69
302.209	263.69
302.439	258.69
302.669	267.69
302.9	271.69
303.13	262.69
303.36	291.69
303.59	296.69
303.82	290.69
304.051	270.69
304.281	260.69
304.511	256.69
304.741	273.69
304.971	262.69
305.201	271.69
305.431	272.69
305.661	264.69
305.891	283.69
306.121	276.69
306.352	286.69
306.582	288.69
306.812	282.69
307.042	287.69
307.272	254.69
307.502	290.69
307.731	285.69
307.961	269.69
308.191	264.69
308.421	299.69
308.651	274.69
308.881	298.69
309.111	297.69
309.341	287.69
309.571	309.69
309.8	342.69
310.03	337.69
310.26	360.69
310.49	347.69
310.72	359.69
310.949	383.69
311.179	382.69
311.409	358.69
311.639	350.69
311.868	349.69
312.098	340.69
312.328	359.69
312.557	398.69
312.787	415.69
313.017	388.69
313.246	367.69
313.476	337.69
313.706	326.69
313.935	338.69
314.165	361.69
314.394	376.69
314.624	390.69
314.853	373.69
315.083	349.69
315.312	313.69
315.542	324.69
315.771	326.69
316.001	327.69
316.23	325.69
316.46	331.69
316.689	338.69
316.919	338.69
317.148	357.69
317.377	356.69
317.607	337.69
317.836	326.69
318.065	340.69
318.295	344.69
318.524	324.69
318.753	321.69
318.983	333.69
319.212	340.69
319.441	350.69
319.67	359.69
319.9	332.69
320.129	338.69
320.358	347.69
320.587	335.69
320.816	365.69
321.046	354.69
321.275	373.69
321.504	384.69
321.733	387.69
321.962	383.69
322.191	398.69
322.42	432.69
322.649	459.69
322.878	476.69
323.108	485.69
323.337	504.69
323.566	526.69
323.795	593.69
324.024	671.69
324.253	873.69
324.482	1239.69
324.71	1931.69
324.939	2606.69
325.168	2328.69
325.397	1290.69
325.626	829.69
325.855	666.69
326.084	587.69
326.313	548.69
326.542	570.69
326.77	637.69
326.999	757.69
327.228	1076.69
327.457	1646.69
327.686	2012.69
327.914	1414.69
328.143	892.69
328.372	741.69
328.6	672.69
328.829	632.69
329.058	646.69
329.287	672.69
329.515	615.69
329.744	508.69
329.972	506.69
330.201	512.69
330.43	546.69
330.658	611.69
330.887	669.69
331.115	676.69
331.344	546.69
331.572	491.69
331.801	478.69
332.03	482.69
332.258	455.69
332.486	416.69
332.715	404.69
332.943	386.69
333.172	409.69
333.4	386.69
333.629	393.69
333.857	428.69
334.085	406.69
334.314	399.69
334.542	407.69
334.771	393.69
334.999	406.69
335.227	405.69
335.455	382.69
335.684	378.69
335.912	382.69
336.14	375.69
336.369	389.69
336.597	400.69
336.825	411.69
337.053	389.69
337.281	378.69
337.51	375.69
337.738	372.69
337.966	371.69
338.194	381.69
338.422	394.69
338.65	374.69
338.878	359.69
339.106	384.69
339.334	383.69
339.562	366.69
339.79	354.69
340.018	362.69
340.246	390.69
340.474	376.69
340.702	389.69
340.93	373.69
341.158	356.69
341.386	357.69
341.614	381.69
341.842	384.69
342.07	403.69
342.298	362.69
342.526	359.69
342.754	352.69
342.981	357.69
343.209	334.69
343.437	363.69
343.665	381.69
343.893	359.69
344.12	364.69
344.348	354.69
344.576	358.69
344.804	389.69
345.031	396.69
345.259	413.69
345.487	386.69
345.714	380.69
345.942	365.69
346.17	378.69
346.397	373.69
346.625	374.69
346.853	363.69
347.08	384.69
347.308	388.69
347.535	382.69
347.763	410.69
347.99	391.69
348.218	402.69
348.445	401.69
348.673	403.69
348.9	389.69
349.128	376.69
349.355	365.69
349.583	335.69
349.81	356.69
350.037	354.69
350.265	371.69
350.492	359.69
350.72	377.69
350.947	370.69
351.174	371.69
351.402	409.69
351.629	406.69
351.856	388.69
352.083	408.69
352.311	419.69
352.538	400.69
352.765	415.69
352.992	412.69
353.22	392.69
353.447	396.69
353.674	389.69
353.901	354.69
354.128	333.69
354.355	350.69
354.583	332.69
354.81	349.69
355.037	323.69
355.264	327.69
355.491	339.69
355.718	329.69
355.945	322.69
356.172	332.69
356.399	344.69
356.626	351.69
356.853	339.69
357.08	326.69
357.307	334.69
357.534	338.69
357.761	346.69
357.988	335.69
358.215	346.69
358.441	335.69
358.668	354.69
358.895	348.69
359.122	330.69
359.349	348.69
359.576	386.69
359.802	426.69
360.029	479.69
360.256	478.69
360.483	470.69
360.709	404.69
360.936	390.69
361.163	372.69
361.39	389.69
361.616	386.69
361.843	369.69
362.07	381.69
362.296	372.69
362.523	374.69
362.749	363.69
362.976	374.69
363.203	360.69
363.429	362.69
363.656	372.69
363.882	354.69
364.109	365.69
364.335	342.69
364.562	347.69
364.788	351.69
365.015	352.69
365.241	350.69
365.468	350.69
365.694	357.69
365.92	367.69
366.147	344.69
366.373	362.69
366.599	324.69
366.826	345.69
367.052	346.69
367.278	348.69
367.505	348.69
367.731	351.69
367.957	338.69
368.184	350.69
368.41	363.69
368.636	351.69
368.862	362.69
369.089	370.69
369.315	355.69
369.541	348.69
369.767	341.69
369.993	342.69
370.219	357.69
370.445	344.69
370.672	317.69
370.898	329.69
371.124	331.69
371.35	334.69
371.576	335.69
371.802	325.69
372.028	345.69
372.254	354.69
372.48	327.69
372.706	340.69
372.932	332.69
373.158	339.69
373.384	346.69
373.61	343.69
373.835	340.69
374.061	330.69
374.287	337.69
374.513	331.69
374.739	329.69
374.965	335.69
375.191	332.69
375.416	336.69
375.642	331.69
375.868	356.69
376.094	348.69
376.319	320.69
376.545	332.69
376.771	343.69
376.997	336.69
377.222	345.69
377.448	334.69
377.674	340.69
377.899	331.69
378.125	340.69
378.35	329.69
378.576	332.69
378.802	341.69
379.027	318.69
379.253	327.69
379.478	324.69
379.704	323.69
379.929	333.69
380.155	321.69
380.38	350.69
380.606	338.69
380.831	342.69
381.057	320.69
381.282	346.69
381.507	351.69
381.733	317.69
381.958	328.69
382.184	359.69
382.409	339.69
382.634	336.69
382.86	336.69
383.085	340.69
383.31	341.69
383.535	335.69
383.761	328.69
383.986	341.69
384.211	328.69
384.436	327.69
384.662	360.69
384.887	352.69
385.112	302.69
385.337	350.69
385.562	336.69
385.787	343.69
386.013	374.69
386.238	368.69
386.463	376.69
386.688	376.69
386.913	367.69
387.138	364.69
387.363	353.69
387.588	363.69
387.813	355.69
388.038	355.69
388.263	354.69
388.488	342.69
388.713	355.69
388.938	349.69
389.163	349.69
389.387	351.69
389.612	362.69
389.837	349.69
390.062	336.69
390.287	323.69
390.512	355.69
390.736	343.69
390.961	345.69
391.186	340.69
391.411	357.69
391.636	362.69
391.86	355.69
392.085	352.69
392.31	373.69
392.534	368.69
392.759	349.69
392.984	358.69
393.208	363.69
393.433	336.69
393.658	358.69
393.882	346.69
394.107	340.69
394.331	378.69
394.556	340.69
394.78	363.69
395.005	359.69
395.229	324.69
395.454	374.69
395.678	370.69
395.903	379.69
396.127	380.69
396.352	398.69
396.576	378.69
396.801	356.69
397.025	342.69
397.249	362.69
397.474	389.69
397.698	381.69
397.922	383.69
398.147	385.69
398.371	399.69
398.595	396.69
398.82	379.69
399.044	385.69
399.268	390.69
399.492	400.69
399.717	424.69
399.941	458.69
400.165	484.69
400.389	490.69
400.613	459.69
400.837	452.69
401.062	421.69
401.286	422.69
401.51	402.69
401.734	399.69
401.958	412.69
402.182	423.69
402.406	444.69
402.63	425.69
402.854	421.69
403.078	419.69
403.302	400.69
403.526	432.69
403.75	426.69
403.974	429.69
404.198	411.69
404.422	420.69
404.645	435.69
404.869	427.69
405.093	440.69
405.317	466.69
405.541	476.69
405.765	482.69
405.988	447.69
406.212	469.69
406.436	505.69
406.66	492.69
406.883	487.69
407.107	521.69
407.331	516.69
407.555	589.69
407.778	591.69
408.002	535.69
408.226	486.69
408.449	498.69
408.673	487.69
408.896	521.69
409.12	557.69
409.344	519.69
409.567	477.69
409.791	447.69
410.014	443.69
410.238	407.69
410.461	429.69
410.685	438.69
410.908	439.69
411.132	469.69
411.355	511.69
411.578	488.69
411.802	462.69
412.025	432.69
412.249	429.69
412.472	435.69
412.695	434.69
412.919	425.69
413.142	411.69
413.365	398.69
413.589	390.69
413.812	407.69
414.035	417.69
414.258	394.69
414.482	372.69
414.705	395.69
414.928	398.69
415.151	410.69
415.374	406.69
415.597	391.69
415.821	401.69
416.044	388.69
416.267	404.69
416.49	409.69
416.713	417.69
416.936	400.69
417.159	400.69
417.382	407.69
417.605	407.69
417.828	428.69
418.051	448.69
418.274	439.69
418.497	418.69
418.72	418.69
418.943	421.69
419.166	418.69
419.389	430.69
419.611	412.69
419.834	428.69
420.057	441.69
420.28	425.69
420.503	420.69
420.726	415.69
420.948	440.69
421.171	495.69
421.394	539.69
421.617	470.69
421.839	453.69
422.062	427.69
422.285	481.69
422.507	542.69
422.73	607.69
422.953	572.69
423.175	522.69
423.398	481.69
423.621	461.69
423.843	485.69
424.066	492.69
424.288	515.69
424.511	516.69
424.733	556.69
424.956	636.69
425.178	637.69
425.401	621.69
425.623	638.69
425.846	561.69
426.068	525.69
426.291	520.69
426.513	495.69
426.735	543.69
426.958	566.69
427.18	651.69
427.402	761.69
427.625	864.69
427.847	801.69
428.069	679.69
428.292	582.69
428.514	529.69
428.736	484.69
428.958	483.69
429.181	490.69
429.403	472.69
429.625	501.69
429.847	531.69
430.069	571.69
430.292	598.69
430.514	483.69
430.736	487.69
430.958	459.69
431.18	431.69
431.402	446.69
431.624	435.69
431.846	402.69
432.068	444.69
432.29	439.69
432.512	443.69
432.734	439.69
432.956	452.69
433.178	452.69
433.4	466.69
433.622	445.69
433.844	454.69
434.066	434.69
434.287	437.69
434.509	410.69
434.731	445.69
434.953	438.69
435.175	437.69
435.397	502.69
435.618	526.69
435.84	578.69
436.062	633.69
436.284	725.69
436.505	598.69
436.727	554.69
436.949	518.69
437.17	503.69
437.392	488.69
437.614	501.69
437.835	563.69
438.057	646.69
438.278	721.69
438.5	741.69
438.721	786.69
438.943	760.69
439.165	633.69
439.386	551.69
439.608	554.69
439.829	533.69
440.05	575.69
440.272	619.69
440.493	598.69
440.715	549.69
440.936	519.69
441.158	494.69
441.379	480.69
441.6	485.69
441.822	530.69
442.043	550.69
442.264	619.69
442.486	679.69
442.707	568.69
442.928	560.69
443.149	572.69
443.371	575.69
443.592	603.69
443.813	684.69
444.034	741.69
444.255	649.69
444.476	536.69
444.698	507.69
444.919	520.69
445.14	612.69
445.361	572.69
445.582	573.69
445.803	615.69
446.024	732.69
446.245	728.69
446.466	683.69
446.687	598.69
446.908	534.69
447.129	523.69
447.35	503.69
447.571	490.69
447.792	496.69
448.013	486.69
448.234	534.69
448.455	586.69
448.675	682.69
448.896	759.69
449.117	660.69
449.338	643.69
449.559	718.69
449.779	802.69
450	660.69
450.221	535.69
450.442	512.69
450.662	516.69
450.883	515.69
451.104	532.69
451.324	531.69
451.545	467.69
451.766	453.69
451.986	448.69
452.207	434.69
452.428	426.69
452.648	448.69
452.869	446.69
453.089	441.69
453.31	469.69
453.53	467.69
453.751	421.69
453.971	464.69
454.192	483.69
454.412	483.69
454.633	428.69
454.853	450.69
455.073	450.69
455.294	471.69
455.514	543.69
455.734	521.69
455.955	439.69
456.175	422.69
456.395	388.69
456.616	398.69
456.836	410.69
457.056	387.69
457.276	377.69
457.497	404.69
457.717	402.69
457.937	401.69
458.157	402.69
458.377	414.69
458.598	446.69
458.818	515.69
459.038	628.69
459.258	664.69
459.478	537.69
459.698	474.69
459.918	430.69
460.138	431.69
460.358	452.69
460.578	416.69
460.798	450.69
461.018	428.69
461.238	415.69
461.458	423.69
461.678	415.69
461.898	437.69
462.118	416.69
462.338	423.69
462.558	418.69
462.777	411.69
462.997	420.69
463.217	429.69
463.437	436.69
463.657	427.69
463.876	452.69
464.096	428.69
464.316	432.69
464.536	462.69
464.755	465.69
464.975	474.69
465.195	543.69
465.414	676.69
465.634	596.69
465.854	520.69
466.073	494.69
466.293	449.69
466.512	441.69
466.732	435.69
466.951	431.69
467.171	423.69
467.391	437.69
467.61	443.69
467.829	455.69
468.049	446.69
468.268	418.69
468.488	416.69
468.707	426.69
468.927	419.69
469.146	415.69
469.365	407.69
469.585	413.69
469.804	437.69
470.023	473.69
470.243	446.69
470.462	468.69
470.681	485.69
470.901	487.69
471.12	464.69
471.339	442.69
471.558	431.69
471.777	423.69
471.997	407.69
472.216	427.69
472.435	414.69
472.654	410.69
472.873	420.69
473.092	422.69
473.311	415.69
473.53	419.69
473.749	462.69
473.968	478.69
474.187	586.69
474.406	631.69
474.625	521.69
474.844	475.69
475.063	440.69
475.282	416.69
475.501	432.69
475.72	440.69
475.939	429.69
476.158	458.69
476.377	444.69
476.596	456.69
476.814	470.69
477.033	452.69
477.252	464.69
477.471	482.69
477.69	452.69
477.908	460.69
478.127	467.69
478.346	474.69
478.564	481.69
478.783	475.69
479.002	492.69
479.22	490.69
479.439	517.69
479.658	557.69
479.876	533.69
480.095	533.69
480.313	550.69
480.532	543.69
480.751	528.69
480.969	532.69
481.188	534.69
481.406	552.69
481.624	529.69
481.843	522.69
482.061	532.69
482.28	520.69
482.498	510.69
482.717	526.69
482.935	527.69
483.153	525.69
483.372	516.69
483.59	515.69
483.808	496.69
484.027	519.69
484.245	507.69
484.463	524.69
484.681	514.69
484.9	535.69
485.118	519.69
485.336	537.69
485.554	527.69
485.772	548.69
485.99	523.69
486.209	522.69
486.427	558.69
486.645	580.69
486.863	597.69
487.081	573.69
487.299	560.69
487.517	552.69
487.735	544.69
487.953	542.69
488.171	556.69
488.389	583.69
488.607	549.69
488.825	559.69
489.043	572.69
489.261	574.69
489.479	573.69
489.696	572.69
489.914	574.69
490.132	566.69
490.35	592.69
490.568	595.69
490.786	612.69
491.003	597.69
491.221	621.69
491.439	612.69
491.657	634.69
491.874	650.69
492.092	639.69
492.31	660.69
492.527	638.69
492.745	650.69
492.963	649.69
493.18	666.69
493.398	675.69
493.615	674.69
493.833	657.69
494.05	660.69
494.268	671.69
494.485	649.69
494.703	661.69
494.92	667.69
495.138	656.69
495.355	638.69
495.573	647.69
495.79	666.69
496.008	675.69
496.225	677.69
496.442	683.69
496.66	668.69
496.877	696.69
497.094	682.69
497.312	702.69
497.529	686.69
497.746	685.69
497.963	671.69
498.181	724.69
498.398	693.69
498.615	721.69
498.832	734.69
499.049	740.69
499.267	754.69
499.484	767.69
499.701	749.69
499.918	770.69
500.135	780.69
500.352	796.69
500.569	822.69
500.786	816.69
501.003	785.69
501.22	756.69
501.437	805.69
501.654	796.69
501.871	808.69
