Data from 1987.PennyLincolnUp.Lamp.En5.5.200Scan.071819.P2_HRD10591_17-16-44-972.txt Node
Date: Thu Jul 18 17:16:44 EDT 2019
User: cochatt
Spectrometer: HR+D1059
Trigger mode: 1
Integration Time (sec): 1.000000E-1
Scans to average: 1
Electric dark correction enabled: true
Nonlinearity correction enabled: false
Boxcar width: 0
XAxis mode: Wavelengths
Number of Pixels in Spectrum: 2048
>>>>>Begin Spectral Data<<<<<
223.165	0.25
223.4	0.25
223.635	0.25
223.869	-23.75
224.104	-14.75
224.338	4.25
224.573	-29.75
224.808	-9.75
225.042	-4.75
225.277	-23.75
225.511	2.25
225.746	-7.75
225.98	14.25
226.215	15.25
226.449	4.25
226.683	12.25
226.918	32.25
227.152	29.25
227.387	36.25
227.621	23.25
227.856	47.25
228.09	36.25
228.324	50.25
228.559	54.25
228.793	71.25
229.027	121.25
229.262	120.25
229.496	132.25
229.73	151.25
229.964	176.25
230.199	134.25
230.433	122.25
230.667	121.25
230.901	111.25
231.136	128.25
231.37	113.25
231.604	108.25
231.838	119.25
232.072	120.25
232.306	121.25
232.541	129.25
232.775	125.25
233.009	117.25
233.243	107.25
233.477	118.25
233.711	115.25
233.945	122.25
234.179	127.25
234.413	120.25
234.647	107.25
234.881	116.25
235.115	112.25
235.349	119.25
235.583	120.25
235.817	125.25
236.051	140.25
236.285	135.25
236.519	142.25
236.753	134.25
236.987	138.25
237.221	201.25
237.455	270.25
237.689	210.25
237.922	161.25
238.156	150.25
238.39	138.25
238.624	129.25
238.858	130.25
239.091	125.25
239.325	130.25
239.559	136.25
239.793	132.25
240.027	133.25
240.26	152.25
240.494	172.25
240.728	161.25
240.961	164.25
241.195	159.25
241.429	124.25
241.662	127.25
241.896	132.25
242.13	135.25
242.363	144.25
242.597	140.25
242.83	149.25
243.064	142.25
243.298	140.25
243.531	129.25
243.765	143.25
243.998	132.25
244.232	136.25
244.465	144.25
244.699	140.25
244.932	133.25
245.166	124.25
245.399	138.25
245.633	149.25
245.866	131.25
246.099	146.25
246.333	158.25
246.566	141.25
246.8	157.25
247.033	141.25
247.266	153.25
247.5	162.25
247.733	169.25
247.966	170.25
248.2	167.25
248.433	169.25
248.666	158.25
248.899	201.25
249.133	210.25
249.366	223.25
249.599	199.25
249.832	208.25
250.066	186.25
250.299	193.25
250.532	187.25
250.765	184.25
250.998	216.25
251.231	213.25
251.465	218.25
251.698	216.25
251.931	210.25
252.164	204.25
252.397	210.25
252.63	203.25
252.863	195.25
253.096	214.25
253.329	235.25
253.562	232.25
253.795	223.25
254.028	222.25
254.261	240.25
254.494	229.25
254.727	270.25
254.96	310.25
255.193	287.25
255.426	252.25
255.659	232.25
255.892	227.25
256.124	220.25
256.357	230.25
256.59	227.25
256.823	215.25
257.056	217.25
257.289	210.25
257.521	208.25
257.754	196.25
257.987	203.25
258.22	200.25
258.452	205.25
258.685	200.25
258.918	207.25
259.151	204.25
259.383	223.25
259.616	232.25
259.849	214.25
260.081	217.25
260.314	249.25
260.547	268.25
260.779	271.25
261.012	236.25
261.244	244.25
261.477	208.25
261.71	229.25
261.942	223.25
262.175	266.25
262.407	252.25
262.64	223.25
262.872	217.25
263.105	200.25
263.337	204.25
263.57	205.25
263.802	202.25
264.035	196.25
264.267	185.25
264.499	217.25
264.732	201.25
264.964	197.25
265.197	208.25
265.429	194.25
265.661	202.25
265.894	208.25
266.126	189.25
266.358	216.25
266.591	217.25
266.823	215.25
267.055	210.25
267.287	222.25
267.52	196.25
267.752	209.25
267.984	214.25
268.216	223.25
268.448	224.25
268.681	230.25
268.913	238.25
269.145	224.25
269.377	257.25
269.609	272.25
269.841	252.25
270.073	266.25
270.306	269.25
270.538	320.25
270.77	302.25
271.002	312.25
271.234	289.25
271.466	283.25
271.698	293.25
271.93	314.25
272.162	306.25
272.394	335.25
272.626	310.25
272.858	295.25
273.09	276.25
273.322	260.25
273.553	272.25
273.785	254.25
274.017	253.25
274.249	246.25
274.481	237.25
274.713	245.25
274.945	249.25
275.176	250.25
275.408	262.25
275.64	246.25
275.872	256.25
276.104	223.25
276.335	244.25
276.567	259.25
276.799	294.25
277.031	309.25
277.262	316.25
277.494	305.25
277.726	280.25
277.957	290.25
278.189	270.25
278.421	243.25
278.652	238.25
278.884	239.25
279.115	249.25
279.347	237.25
279.579	235.25
279.81	255.25
280.042	241.25
280.273	239.25
280.505	239.25
280.736	211.25
280.968	220.25
281.199	222.25
281.431	226.25
281.662	244.25
281.894	241.25
282.125	238.25
282.356	279.25
282.588	288.25
282.819	284.25
283.051	242.25
283.282	231.25
283.513	237.25
283.745	235.25
283.976	225.25
284.207	247.25
284.439	241.25
284.67	253.25
284.901	229.25
285.132	246.25
285.364	236.25
285.595	238.25
285.826	238.25
286.057	236.25
286.288	237.25
286.52	248.25
286.751	237.25
286.982	247.25
287.213	241.25
287.444	258.25
287.675	249.25
287.906	258.25
288.138	265.25
288.369	262.25
288.6	263.25
288.831	268.25
289.062	254.25
289.293	260.25
289.524	264.25
289.755	239.25
289.986	238.25
290.217	250.25
290.448	256.25
290.679	241.25
290.91	235.25
291.141	255.25
291.371	231.25
291.602	240.25
291.833	245.25
292.064	227.25
292.295	257.25
292.526	239.25
292.757	253.25
292.987	252.25
293.218	250.25
293.449	242.25
293.68	248.25
293.91	237.25
294.141	233.25
294.372	255.25
294.603	249.25
294.833	244.25
295.064	251.25
295.295	244.25
295.525	249.25
295.756	269.25
295.987	257.25
296.217	310.25
296.448	308.25
296.679	279.25
296.909	261.25
297.14	237.25
297.37	257.25
297.601	252.25
297.831	247.25
298.062	266.25
298.292	257.25
298.523	252.25
298.753	252.25
298.984	251.25
299.214	252.25
299.445	257.25
299.675	274.25
299.905	283.25
300.136	257.25
300.366	270.25
300.597	271.25
300.827	268.25
301.057	264.25
301.288	278.25
301.518	288.25
301.748	275.25
301.979	270.25
302.209	295.25
302.439	264.25
302.669	266.25
302.9	263.25
303.13	278.25
303.36	260.25
303.59	271.25
303.82	319.25
304.051	296.25
304.281	287.25
304.511	278.25
304.741	279.25
304.971	274.25
305.201	267.25
305.431	269.25
305.661	269.25
305.891	269.25
306.121	283.25
306.352	289.25
306.582	277.25
306.812	271.25
307.042	274.25
307.272	291.25
307.502	280.25
307.731	289.25
307.961	273.25
308.191	284.25
308.421	282.25
308.651	294.25
308.881	305.25
309.111	303.25
309.341	303.25
309.571	327.25
309.8	352.25
310.03	353.25
310.26	365.25
310.49	348.25
310.72	376.25
310.949	392.25
311.179	397.25
311.409	368.25
311.639	372.25
311.868	350.25
312.098	359.25
312.328	384.25
312.557	395.25
312.787	401.25
313.017	405.25
313.246	382.25
313.476	343.25
313.706	360.25
313.935	361.25
314.165	375.25
314.394	392.25
314.624	395.25
314.853	355.25
315.083	346.25
315.312	365.25
315.542	320.25
315.771	324.25
316.001	332.25
316.23	338.25
316.46	348.25
316.689	344.25
316.919	332.25
317.148	356.25
317.377	360.25
317.607	346.25
317.836	364.25
318.065	340.25
318.295	310.25
318.524	339.25
318.753	338.25
318.983	317.25
319.212	338.25
319.441	365.25
319.67	367.25
319.9	341.25
320.129	347.25
320.358	341.25
320.587	338.25
320.816	345.25
321.046	376.25
321.275	377.25
321.504	368.25
321.733	381.25
321.962	394.25
322.191	433.25
322.42	433.25
322.649	459.25
322.878	467.25
323.108	489.25
323.337	535.25
323.566	563.25
323.795	604.25
324.024	681.25
324.253	881.25
324.482	1332.25
324.71	2016.25
324.939	2826.25
325.168	2487.25
325.397	1351.25
325.626	868.25
325.855	661.25
326.084	588.25
326.313	561.25
326.542	588.25
326.77	630.25
326.999	776.25
327.228	1136.25
327.457	1696.25
327.686	2116.25
327.914	1468.25
328.143	907.25
328.372	756.25
328.6	689.25
328.829	641.25
329.058	676.25
329.287	682.25
329.515	641.25
329.744	532.25
329.972	510.25
330.201	516.25
330.43	571.25
330.658	640.25
330.887	717.25
331.115	686.25
331.344	569.25
331.572	494.25
331.801	487.25
332.03	504.25
332.258	465.25
332.486	440.25
332.715	416.25
332.943	394.25
333.172	402.25
333.4	399.25
333.629	420.25
333.857	425.25
334.085	434.25
334.314	402.25
334.542	408.25
334.771	411.25
334.999	406.25
335.227	421.25
335.455	393.25
335.684	376.25
335.912	380.25
336.14	365.25
336.369	381.25
336.597	404.25
336.825	408.25
337.053	380.25
337.281	382.25
337.51	389.25
337.738	381.25
337.966	393.25
338.194	378.25
338.422	395.25
338.65	392.25
338.878	374.25
339.106	368.25
339.334	366.25
339.562	377.25
339.79	380.25
340.018	385.25
340.246	380.25
340.474	384.25
340.702	394.25
340.93	381.25
341.158	382.25
341.386	396.25
341.614	398.25
341.842	402.25
342.07	360.25
342.298	384.25
342.526	389.25
342.754	366.25
342.981	353.25
343.209	360.25
343.437	361.25
343.665	360.25
343.893	370.25
344.12	360.25
344.348	376.25
344.576	376.25
344.804	403.25
345.031	436.25
345.259	429.25
345.487	412.25
345.714	426.25
345.942	380.25
346.17	368.25
346.397	370.25
346.625	384.25
346.853	367.25
347.08	367.25
347.308	379.25
347.535	400.25
347.763	409.25
347.99	386.25
348.218	390.25
348.445	398.25
348.673	392.25
348.9	392.25
349.128	373.25
349.355	351.25
349.583	352.25
349.81	355.25
350.037	360.25
350.265	362.25
350.492	367.25
350.72	361.25
350.947	381.25
351.174	372.25
351.402	414.25
351.629	395.25
351.856	403.25
352.083	406.25
352.311	433.25
352.538	439.25
352.765	439.25
352.992	412.25
353.22	422.25
353.447	388.25
353.674	382.25
353.901	343.25
354.128	344.25
354.355	345.25
354.583	351.25
354.81	359.25
355.037	345.25
355.264	317.25
355.491	351.25
355.718	318.25
355.945	331.25
356.172	337.25
356.399	347.25
356.626	314.25
356.853	326.25
357.08	335.25
357.307	343.25
357.534	312.25
357.761	321.25
357.988	342.25
358.215	331.25
358.441	340.25
358.668	334.25
358.895	369.25
359.122	342.25
359.349	383.25
359.576	393.25
359.802	427.25
360.029	475.25
360.256	481.25
360.483	461.25
360.709	411.25
360.936	409.25
361.163	383.25
361.39	410.25
361.616	408.25
361.843	380.25
362.07	374.25
362.296	403.25
362.523	400.25
362.749	381.25
362.976	369.25
363.203	394.25
363.429	356.25
363.656	374.25
363.882	378.25
364.109	370.25
364.335	344.25
364.562	349.25
364.788	354.25
365.015	349.25
365.241	354.25
365.468	349.25
365.694	382.25
365.92	362.25
366.147	356.25
366.373	336.25
366.599	340.25
366.826	350.25
367.052	352.25
367.278	350.25
367.505	362.25
367.731	342.25
367.957	344.25
368.184	339.25
368.41	359.25
368.636	368.25
368.862	377.25
369.089	364.25
369.315	340.25
369.541	342.25
369.767	350.25
369.993	360.25
370.219	341.25
370.445	349.25
370.672	343.25
370.898	328.25
371.124	345.25
371.35	323.25
371.576	346.25
371.802	327.25
372.028	334.25
372.254	333.25
372.48	361.25
372.706	330.25
372.932	336.25
373.158	349.25
373.384	324.25
373.61	338.25
373.835	349.25
374.061	343.25
374.287	341.25
374.513	360.25
374.739	336.25
374.965	338.25
375.191	331.25
375.416	338.25
375.642	339.25
375.868	336.25
376.094	338.25
376.319	326.25
376.545	338.25
376.771	343.25
376.997	333.25
377.222	339.25
377.448	325.25
377.674	336.25
377.899	316.25
378.125	338.25
378.35	344.25
378.576	336.25
378.802	328.25
379.027	336.25
379.253	337.25
379.478	327.25
379.704	336.25
379.929	337.25
380.155	341.25
380.38	324.25
380.606	326.25
380.831	341.25
381.057	322.25
381.282	319.25
381.507	340.25
381.733	334.25
381.958	332.25
382.184	342.25
382.409	330.25
382.634	336.25
382.86	319.25
383.085	350.25
383.31	351.25
383.535	337.25
383.761	349.25
383.986	351.25
384.211	344.25
384.436	336.25
384.662	365.25
384.887	342.25
385.112	336.25
385.337	351.25
385.562	350.25
385.787	354.25
386.013	372.25
386.238	378.25
386.463	351.25
386.688	355.25
386.913	357.25
387.138	362.25
387.363	369.25
387.588	346.25
387.813	357.25
388.038	360.25
388.263	361.25
388.488	369.25
388.713	372.25
388.938	376.25
389.163	376.25
389.387	369.25
389.612	352.25
389.837	365.25
390.062	349.25
390.287	348.25
390.512	358.25
390.736	367.25
390.961	356.25
391.186	348.25
391.411	354.25
391.636	351.25
391.86	356.25
392.085	354.25
392.31	350.25
392.534	360.25
392.759	337.25
392.984	358.25
393.208	347.25
393.433	372.25
393.658	361.25
393.882	369.25
394.107	358.25
394.331	355.25
394.556	349.25
394.78	356.25
395.005	365.25
395.229	343.25
395.454	342.25
395.678	357.25
395.903	381.25
396.127	403.25
396.352	399.25
396.576	363.25
396.801	356.25
397.025	348.25
397.249	398.25
397.474	356.25
397.698	386.25
397.922	365.25
398.147	415.25
398.371	424.25
398.595	404.25
398.82	399.25
399.044	403.25
399.268	380.25
399.492	427.25
399.717	440.25
399.941	440.25
400.165	493.25
400.389	504.25
400.613	461.25
400.837	430.25
401.062	402.25
401.286	412.25
401.51	406.25
401.734	421.25
401.958	412.25
402.182	420.25
402.406	432.25
402.63	431.25
402.854	433.25
403.078	421.25
403.302	410.25
403.526	429.25
403.75	430.25
403.974	437.25
404.198	404.25
404.422	438.25
404.645	427.25
404.869	431.25
405.093	449.25
405.317	486.25
405.541	502.25
405.765	505.25
405.988	463.25
406.212	479.25
406.436	516.25
406.66	564.25
406.883	518.25
407.107	509.25
407.331	559.25
407.555	586.25
407.778	598.25
408.002	568.25
408.226	481.25
408.449	456.25
408.673	481.25
408.896	498.25
409.12	549.25
409.344	522.25
409.567	485.25
409.791	465.25
410.014	430.25
410.238	434.25
410.461	437.25
410.685	424.25
410.908	441.25
411.132	482.25
411.355	521.25
411.578	486.25
411.802	456.25
412.025	434.25
412.249	444.25
412.472	433.25
412.695	454.25
412.919	432.25
413.142	437.25
413.365	398.25
413.589	407.25
413.812	410.25
414.035	408.25
414.258	386.25
414.482	395.25
414.705	390.25
414.928	414.25
415.151	383.25
415.374	405.25
415.597	408.25
415.821	408.25
416.044	402.25
416.267	393.25
416.49	401.25
416.713	414.25
416.936	415.25
417.159	414.25
417.382	420.25
417.605	425.25
417.828	437.25
418.051	440.25
418.274	433.25
418.497	411.25
418.72	420.25
418.943	407.25
419.166	425.25
419.389	448.25
419.611	436.25
419.834	423.25
420.057	432.25
420.28	415.25
420.503	441.25
420.726	436.25
420.948	472.25
421.171	509.25
421.394	543.25
421.617	479.25
421.839	447.25
422.062	463.25
422.285	491.25
422.507	551.25
422.73	604.25
422.953	572.25
423.175	498.25
423.398	509.25
423.621	466.25
423.843	489.25
424.066	486.25
424.288	493.25
424.511	527.25
424.733	566.25
424.956	651.25
425.178	650.25
425.401	640.25
425.623	674.25
425.846	564.25
426.068	529.25
426.291	527.25
426.513	543.25
426.735	542.25
426.958	580.25
427.18	677.25
427.402	762.25
427.625	881.25
427.847	822.25
428.069	684.25
428.292	612.25
428.514	543.25
428.736	534.25
428.958	518.25
429.181	487.25
429.403	489.25
429.625	492.25
429.847	528.25
430.069	617.25
430.292	587.25
430.514	512.25
430.736	493.25
430.958	452.25
431.18	417.25
431.402	454.25
431.624	421.25
431.846	428.25
432.068	409.25
432.29	429.25
432.512	433.25
432.734	445.25
432.956	431.25
433.178	458.25
433.4	462.25
433.622	436.25
433.844	422.25
434.066	442.25
434.287	434.25
434.509	457.25
434.731	478.25
434.953	417.25
435.175	458.25
435.397	503.25
435.618	514.25
435.84	564.25
436.062	647.25
436.284	716.25
436.505	633.25
436.727	566.25
436.949	509.25
437.17	501.25
437.392	477.25
437.614	508.25
437.835	568.25
438.057	697.25
438.278	784.25
438.5	763.25
438.721	786.25
438.943	770.25
439.165	619.25
439.386	563.25
439.608	569.25
439.829	544.25
440.05	582.25
440.272	630.25
440.493	601.25
440.715	531.25
440.936	512.25
441.158	504.25
441.379	491.25
441.6	512.25
441.822	538.25
442.043	576.25
442.264	662.25
442.486	712.25
442.707	620.25
442.928	576.25
443.149	568.25
443.371	575.25
443.592	636.25
443.813	708.25
444.034	766.25
444.255	621.25
444.476	549.25
444.698	504.25
444.919	516.25
445.14	612.25
445.361	573.25
445.582	592.25
445.803	648.25
446.024	754.25
446.245	771.25
446.466	694.25
446.687	608.25
446.908	558.25
447.129	518.25
447.35	504.25
447.571	511.25
447.792	502.25
448.013	485.25
448.234	523.25
448.455	583.25
448.675	686.25
448.896	772.25
449.117	697.25
449.338	668.25
449.559	756.25
449.779	829.25
450	683.25
450.221	587.25
450.442	516.25
450.662	505.25
450.883	530.25
451.104	550.25
451.324	543.25
451.545	520.25
451.766	469.25
451.986	450.25
452.207	437.25
452.428	428.25
452.648	455.25
452.869	454.25
453.089	486.25
453.31	470.25
453.53	455.25
453.751	447.25
453.971	444.25
454.192	512.25
454.412	486.25
454.633	462.25
454.853	450.25
455.073	452.25
455.294	495.25
455.514	560.25
455.734	529.25
455.955	446.25
456.175	425.25
456.395	413.25
456.616	400.25
456.836	417.25
457.056	401.25
457.276	389.25
457.497	410.25
457.717	405.25
457.937	420.25
458.157	425.25
458.377	407.25
458.598	454.25
458.818	539.25
459.038	654.25
459.258	644.25
459.478	560.25
459.698	486.25
459.918	454.25
460.138	441.25
460.358	440.25
460.578	429.25
460.798	426.25
461.018	438.25
461.238	420.25
461.458	429.25
461.678	391.25
461.898	430.25
462.118	407.25
462.338	410.25
462.558	426.25
462.777	428.25
462.997	428.25
463.217	428.25
463.437	430.25
463.657	427.25
463.876	454.25
464.096	430.25
464.316	439.25
464.536	456.25
464.755	466.25
464.975	484.25
465.195	571.25
465.414	697.25
465.634	617.25
465.854	534.25
466.073	482.25
466.293	461.25
466.512	453.25
466.732	445.25
466.951	431.25
467.171	438.25
467.391	444.25
467.61	452.25
467.829	471.25
468.049	438.25
468.268	409.25
468.488	404.25
468.707	432.25
468.927	422.25
469.146	390.25
469.365	418.25
469.585	402.25
469.804	417.25
470.023	479.25
470.243	455.25
470.462	438.25
470.681	494.25
470.901	481.25
471.12	445.25
471.339	463.25
471.558	440.25
471.777	445.25
471.997	429.25
472.216	448.25
472.435	422.25
472.654	448.25
472.873	426.25
473.092	428.25
473.311	434.25
473.53	433.25
473.749	455.25
473.968	502.25
474.187	612.25
474.406	625.25
474.625	510.25
474.844	463.25
475.063	449.25
475.282	457.25
475.501	463.25
475.72	459.25
475.939	450.25
476.158	445.25
476.377	447.25
476.596	458.25
476.814	452.25
477.033	459.25
477.252	459.25
477.471	433.25
477.69	480.25
477.908	489.25
478.127	454.25
478.346	473.25
478.564	460.25
478.783	489.25
479.002	496.25
479.22	488.25
479.439	510.25
479.658	540.25
479.876	545.25
480.095	566.25
480.313	566.25
480.532	545.25
480.751	536.25
480.969	526.25
481.188	561.25
481.406	580.25
481.624	552.25
481.843	520.25
482.061	529.25
482.28	537.25
482.498	510.25
482.717	518.25
482.935	506.25
483.153	518.25
483.372	522.25
483.59	501.25
483.808	524.25
484.027	513.25
484.245	525.25
484.463	524.25
484.681	526.25
484.9	519.25
485.118	548.25
485.336	542.25
485.554	522.25
485.772	534.25
485.99	531.25
486.209	566.25
486.427	539.25
486.645	570.25
486.863	579.25
487.081	597.25
487.299	577.25
487.517	576.25
487.735	573.25
487.953	569.25
488.171	567.25
488.389	578.25
488.607	567.25
488.825	571.25
489.043	566.25
489.261	567.25
489.479	581.25
489.696	585.25
489.914	600.25
490.132	602.25
490.35	571.25
490.568	608.25
490.786	595.25
491.003	604.25
491.221	641.25
491.439	660.25
491.657	639.25
491.874	654.25
492.092	638.25
492.31	638.25
492.527	652.25
492.745	677.25
492.963	653.25
493.18	637.25
493.398	689.25
493.615	659.25
493.833	633.25
494.05	704.25
494.268	666.25
494.485	666.25
494.703	695.25
494.92	684.25
495.138	687.25
495.355	686.25
495.573	679.25
495.79	671.25
496.008	698.25
496.225	678.25
496.442	696.25
496.66	712.25
496.877	697.25
497.094	698.25
497.312	695.25
497.529	687.25
497.746	724.25
497.963	725.25
498.181	737.25
498.398	735.25
498.615	745.25
498.832	751.25
499.049	737.25
499.267	729.25
499.484	753.25
499.701	757.25
499.918	778.25
500.135	760.25
500.352	780.25
500.569	758.25
500.786	800.25
501.003	811.25
501.22	802.25
501.437	823.25
501.654	810.25
501.871	799.25
502.088	801.25
