Data from 1987.PennyLincolnUp.Lamp.En5.5.200Scan.071819.P2_HRD10591_17-16-57-972.txt Node
Date: Thu Jul 18 17:16:57 EDT 2019
User: cochatt
Spectrometer: HR+D1059
Trigger mode: 1
Integration Time (sec): 1.000000E-1
Scans to average: 1
Electric dark correction enabled: true
Nonlinearity correction enabled: false
Boxcar width: 0
XAxis mode: Wavelengths
Number of Pixels in Spectrum: 2048
>>>>>Begin Spectral Data<<<<<
223.165	-12.5
223.4	-12.5
223.635	-12.5
223.869	-17.5
224.104	-25.5
224.338	3.5
224.573	-11.5
224.808	-23.5
225.042	9.5
225.277	-6.5
225.511	-12.5
225.746	-11.5
225.98	1.5
226.215	11.5
226.449	14.5
226.683	26.5
226.918	24.5
227.152	29.5
227.387	26.5
227.621	27.5
227.856	36.5
228.09	53.5
228.324	52.5
228.559	59.5
228.793	64.5
229.027	96.5
229.262	124.5
229.496	112.5
229.73	153.5
229.964	162.5
230.199	133.5
230.433	140.5
230.667	127.5
230.901	121.5
231.136	104.5
231.37	128.5
231.604	113.5
231.838	118.5
232.072	114.5
232.306	98.5
232.541	123.5
232.775	120.5
233.009	107.5
233.243	97.5
233.477	96.5
233.711	101.5
233.945	124.5
234.179	122.5
234.413	114.5
234.647	118.5
234.881	106.5
235.115	110.5
235.349	115.5
235.583	121.5
235.817	113.5
236.051	124.5
236.285	127.5
236.519	127.5
236.753	132.5
236.987	152.5
237.221	192.5
237.455	253.5
237.689	202.5
237.922	139.5
238.156	140.5
238.39	132.5
238.624	140.5
238.858	146.5
239.091	116.5
239.325	121.5
239.559	135.5
239.793	137.5
240.027	133.5
240.26	134.5
240.494	151.5
240.728	150.5
240.961	147.5
241.195	144.5
241.429	147.5
241.662	129.5
241.896	139.5
242.13	133.5
242.363	133.5
242.597	117.5
242.83	140.5
243.064	130.5
243.298	121.5
243.531	143.5
243.765	149.5
243.998	130.5
244.232	134.5
244.465	135.5
244.699	135.5
244.932	129.5
245.166	142.5
245.399	148.5
245.633	144.5
245.866	115.5
246.099	150.5
246.333	132.5
246.566	147.5
246.8	128.5
247.033	152.5
247.266	139.5
247.5	153.5
247.733	168.5
247.966	175.5
248.2	147.5
248.433	189.5
248.666	158.5
248.899	171.5
249.133	200.5
249.366	195.5
249.599	182.5
249.832	201.5
250.066	178.5
250.299	164.5
250.532	182.5
250.765	214.5
250.998	210.5
251.231	220.5
251.465	220.5
251.698	209.5
251.931	183.5
252.164	183.5
252.397	190.5
252.63	203.5
252.863	208.5
253.096	227.5
253.329	224.5
253.562	232.5
253.795	215.5
254.028	219.5
254.261	209.5
254.494	232.5
254.727	268.5
254.96	293.5
255.193	272.5
255.426	254.5
255.659	228.5
255.892	211.5
256.124	229.5
256.357	205.5
256.59	198.5
256.823	198.5
257.056	202.5
257.289	199.5
257.521	208.5
257.754	187.5
257.987	200.5
258.22	200.5
258.452	201.5
258.685	190.5
258.918	202.5
259.151	199.5
259.383	205.5
259.616	223.5
259.849	215.5
260.081	254.5
260.314	232.5
260.547	260.5
260.779	239.5
261.012	221.5
261.244	209.5
261.477	228.5
261.71	211.5
261.942	224.5
262.175	229.5
262.407	244.5
262.64	218.5
262.872	203.5
263.105	210.5
263.337	198.5
263.57	191.5
263.802	185.5
264.035	187.5
264.267	207.5
264.499	199.5
264.732	194.5
264.964	194.5
265.197	195.5
265.429	187.5
265.661	196.5
265.894	194.5
266.126	191.5
266.358	192.5
266.591	214.5
266.823	201.5
267.055	205.5
267.287	225.5
267.52	199.5
267.752	191.5
267.984	197.5
268.216	202.5
268.448	210.5
268.681	211.5
268.913	224.5
269.145	228.5
269.377	250.5
269.609	260.5
269.841	248.5
270.073	254.5
270.306	276.5
270.538	290.5
270.77	304.5
271.002	293.5
271.234	276.5
271.466	280.5
271.698	291.5
271.93	310.5
272.162	308.5
272.394	308.5
272.626	297.5
272.858	277.5
273.09	260.5
273.322	241.5
273.553	252.5
273.785	262.5
274.017	241.5
274.249	236.5
274.481	244.5
274.713	229.5
274.945	258.5
275.176	227.5
275.408	237.5
275.64	233.5
275.872	237.5
276.104	235.5
276.335	242.5
276.567	241.5
276.799	268.5
277.031	296.5
277.262	291.5
277.494	303.5
277.726	295.5
277.957	260.5
278.189	264.5
278.421	266.5
278.652	259.5
278.884	238.5
279.115	234.5
279.347	222.5
279.579	229.5
279.81	215.5
280.042	230.5
280.273	224.5
280.505	227.5
280.736	219.5
280.968	218.5
281.199	224.5
281.431	225.5
281.662	238.5
281.894	223.5
282.125	254.5
282.356	254.5
282.588	292.5
282.819	296.5
283.051	241.5
283.282	245.5
283.513	232.5
283.745	227.5
283.976	238.5
284.207	229.5
284.439	241.5
284.67	222.5
284.901	242.5
285.132	244.5
285.364	231.5
285.595	226.5
285.826	231.5
286.057	232.5
286.288	243.5
286.52	220.5
286.751	240.5
286.982	226.5
287.213	230.5
287.444	240.5
287.675	238.5
287.906	242.5
288.138	260.5
288.369	255.5
288.6	255.5
288.831	249.5
289.062	246.5
289.293	247.5
289.524	235.5
289.755	236.5
289.986	223.5
290.217	226.5
290.448	224.5
290.679	256.5
290.91	228.5
291.141	233.5
291.371	232.5
291.602	231.5
291.833	226.5
292.064	253.5
292.295	238.5
292.526	251.5
292.757	253.5
292.987	233.5
293.218	218.5
293.449	241.5
293.68	234.5
293.91	235.5
294.141	239.5
294.372	219.5
294.603	231.5
294.833	250.5
295.064	221.5
295.295	216.5
295.525	246.5
295.756	233.5
295.987	258.5
296.217	286.5
296.448	290.5
296.679	268.5
296.909	231.5
297.14	246.5
297.37	244.5
297.601	235.5
297.831	235.5
298.062	276.5
298.292	263.5
298.523	242.5
298.753	243.5
298.984	236.5
299.214	252.5
299.445	251.5
299.675	263.5
299.905	276.5
300.136	258.5
300.366	231.5
300.597	249.5
300.827	256.5
301.057	252.5
301.288	287.5
301.518	279.5
301.748	267.5
301.979	281.5
302.209	268.5
302.439	251.5
302.669	278.5
302.9	266.5
303.13	273.5
303.36	272.5
303.59	266.5
303.82	281.5
304.051	275.5
304.281	280.5
304.511	290.5
304.741	274.5
304.971	255.5
305.201	262.5
305.431	268.5
305.661	295.5
305.891	265.5
306.121	268.5
306.352	274.5
306.582	281.5
306.812	286.5
307.042	248.5
307.272	266.5
307.502	253.5
307.731	276.5
307.961	282.5
308.191	268.5
308.421	259.5
308.651	291.5
308.881	299.5
309.111	303.5
309.341	290.5
309.571	315.5
309.8	317.5
310.03	341.5
310.26	337.5
310.49	344.5
310.72	346.5
310.949	379.5
311.179	370.5
311.409	355.5
311.639	347.5
311.868	336.5
312.098	332.5
312.328	359.5
312.557	381.5
312.787	400.5
313.017	388.5
313.246	354.5
313.476	339.5
313.706	326.5
313.935	342.5
314.165	360.5
314.394	371.5
314.624	361.5
314.853	355.5
315.083	341.5
315.312	346.5
315.542	338.5
315.771	320.5
316.001	329.5
316.23	320.5
316.46	320.5
316.689	320.5
316.919	348.5
317.148	341.5
317.377	347.5
317.607	341.5
317.836	335.5
318.065	314.5
318.295	342.5
318.524	339.5
318.753	337.5
318.983	325.5
319.212	348.5
319.441	359.5
319.67	356.5
319.9	344.5
320.129	339.5
320.358	338.5
320.587	326.5
320.816	358.5
321.046	363.5
321.275	372.5
321.504	360.5
321.733	357.5
321.962	381.5
322.191	399.5
322.42	415.5
322.649	453.5
322.878	450.5
323.108	465.5
323.337	499.5
323.566	547.5
323.795	596.5
324.024	648.5
324.253	843.5
324.482	1246.5
324.71	1918.5
324.939	2705.5
325.168	2359.5
325.397	1258.5
325.626	816.5
325.855	630.5
326.084	568.5
326.313	541.5
326.542	558.5
326.77	618.5
326.999	774.5
327.228	1112.5
327.457	1677.5
327.686	2088.5
327.914	1427.5
328.143	874.5
328.372	743.5
328.6	684.5
328.829	622.5
329.058	650.5
329.287	696.5
329.515	604.5
329.744	530.5
329.972	504.5
330.201	497.5
330.43	555.5
330.658	601.5
330.887	667.5
331.115	677.5
331.344	552.5
331.572	486.5
331.801	485.5
332.03	472.5
332.258	436.5
332.486	411.5
332.715	415.5
332.943	405.5
333.172	399.5
333.4	386.5
333.629	396.5
333.857	391.5
334.085	403.5
334.314	400.5
334.542	404.5
334.771	395.5
334.999	414.5
335.227	368.5
335.455	387.5
335.684	353.5
335.912	375.5
336.14	356.5
336.369	396.5
336.597	400.5
336.825	395.5
337.053	388.5
337.281	358.5
337.51	354.5
337.738	376.5
337.966	372.5
338.194	388.5
338.422	377.5
338.65	375.5
338.878	364.5
339.106	346.5
339.334	365.5
339.562	378.5
339.79	351.5
340.018	376.5
340.246	359.5
340.474	386.5
340.702	370.5
340.93	377.5
341.158	350.5
341.386	395.5
341.614	374.5
341.842	382.5
342.07	369.5
342.298	344.5
342.526	356.5
342.754	333.5
342.981	347.5
343.209	341.5
343.437	348.5
343.665	344.5
343.893	364.5
344.12	353.5
344.348	359.5
344.576	368.5
344.804	376.5
345.031	380.5
345.259	406.5
345.487	378.5
345.714	392.5
345.942	375.5
346.17	362.5
346.397	352.5
346.625	343.5
346.853	360.5
347.08	361.5
347.308	363.5
347.535	387.5
347.763	412.5
347.99	395.5
348.218	375.5
348.445	411.5
348.673	410.5
348.9	395.5
349.128	354.5
349.355	350.5
349.583	373.5
349.81	368.5
350.037	342.5
350.265	348.5
350.492	346.5
350.72	353.5
350.947	370.5
351.174	372.5
351.402	407.5
351.629	380.5
351.856	393.5
352.083	390.5
352.311	426.5
352.538	415.5
352.765	411.5
352.992	404.5
353.22	391.5
353.447	390.5
353.674	364.5
353.901	360.5
354.128	366.5
354.355	324.5
354.583	335.5
354.81	347.5
355.037	331.5
355.264	335.5
355.491	319.5
355.718	310.5
355.945	313.5
356.172	315.5
356.399	329.5
356.626	331.5
356.853	328.5
357.08	326.5
357.307	338.5
357.534	333.5
357.761	320.5
357.988	312.5
358.215	300.5
358.441	314.5
358.668	336.5
358.895	340.5
359.122	338.5
359.349	345.5
359.576	368.5
359.802	408.5
360.029	463.5
360.256	469.5
360.483	444.5
360.709	392.5
360.936	386.5
361.163	377.5
361.39	384.5
361.616	397.5
361.843	371.5
362.07	384.5
362.296	394.5
362.523	379.5
362.749	377.5
362.976	362.5
363.203	370.5
363.429	331.5
363.656	348.5
363.882	353.5
364.109	352.5
364.335	342.5
364.562	355.5
364.788	354.5
365.015	356.5
365.241	352.5
365.468	349.5
365.694	378.5
365.92	371.5
366.147	348.5
366.373	342.5
366.599	352.5
366.826	332.5
367.052	336.5
367.278	320.5
367.505	333.5
367.731	340.5
367.957	365.5
368.184	331.5
368.41	330.5
368.636	363.5
368.862	362.5
369.089	352.5
369.315	329.5
369.541	350.5
369.767	319.5
369.993	330.5
370.219	351.5
370.445	350.5
370.672	339.5
370.898	328.5
371.124	326.5
371.35	329.5
371.576	331.5
371.802	312.5
372.028	337.5
372.254	313.5
372.48	322.5
372.706	304.5
372.932	311.5
373.158	326.5
373.384	346.5
373.61	325.5
373.835	321.5
374.061	343.5
374.287	334.5
374.513	327.5
374.739	318.5
374.965	329.5
375.191	335.5
375.416	330.5
375.642	326.5
375.868	342.5
376.094	321.5
376.319	328.5
376.545	328.5
376.771	326.5
376.997	319.5
377.222	326.5
377.448	351.5
377.674	344.5
377.899	325.5
378.125	297.5
378.35	323.5
378.576	314.5
378.802	323.5
379.027	308.5
379.253	340.5
379.478	323.5
379.704	323.5
379.929	350.5
380.155	343.5
380.38	335.5
380.606	337.5
380.831	322.5
381.057	339.5
381.282	334.5
381.507	331.5
381.733	335.5
381.958	329.5
382.184	336.5
382.409	324.5
382.634	339.5
382.86	347.5
383.085	326.5
383.31	330.5
383.535	343.5
383.761	331.5
383.986	347.5
384.211	343.5
384.436	327.5
384.662	336.5
384.887	343.5
385.112	337.5
385.337	328.5
385.562	354.5
385.787	336.5
386.013	362.5
386.238	368.5
386.463	366.5
386.688	342.5
386.913	338.5
387.138	346.5
387.363	359.5
387.588	342.5
387.813	336.5
388.038	322.5
388.263	350.5
388.488	323.5
388.713	357.5
388.938	339.5
389.163	338.5
389.387	339.5
389.612	344.5
389.837	352.5
390.062	353.5
390.287	320.5
390.512	315.5
390.736	337.5
390.961	344.5
391.186	350.5
391.411	335.5
391.636	331.5
391.86	339.5
392.085	345.5
392.31	345.5
392.534	343.5
392.759	366.5
392.984	355.5
393.208	351.5
393.433	354.5
393.658	350.5
393.882	363.5
394.107	348.5
394.331	343.5
394.556	330.5
394.78	370.5
395.005	350.5
395.229	346.5
395.454	355.5
395.678	375.5
395.903	368.5
396.127	388.5
396.352	397.5
396.576	366.5
396.801	367.5
397.025	359.5
397.249	331.5
397.474	382.5
397.698	363.5
397.922	395.5
398.147	375.5
398.371	400.5
398.595	386.5
398.82	395.5
399.044	381.5
399.268	392.5
399.492	408.5
399.717	408.5
399.941	463.5
400.165	506.5
400.389	508.5
400.613	461.5
400.837	400.5
401.062	434.5
401.286	416.5
401.51	390.5
401.734	388.5
401.958	399.5
402.182	416.5
402.406	415.5
402.63	423.5
402.854	423.5
403.078	422.5
403.302	412.5
403.526	407.5
403.75	423.5
403.974	412.5
404.198	383.5
404.422	420.5
404.645	438.5
404.869	452.5
405.093	451.5
405.317	456.5
405.541	500.5
405.765	471.5
405.988	456.5
406.212	458.5
406.436	485.5
406.66	501.5
406.883	483.5
407.107	491.5
407.331	525.5
407.555	569.5
407.778	544.5
408.002	538.5
408.226	470.5
408.449	465.5
408.673	475.5
408.896	529.5
409.12	521.5
409.344	524.5
409.567	464.5
409.791	446.5
410.014	439.5
410.238	415.5
410.461	435.5
410.685	431.5
410.908	418.5
411.132	468.5
411.355	491.5
411.578	508.5
411.802	436.5
412.025	438.5
412.249	430.5
412.472	420.5
412.695	430.5
412.919	410.5
413.142	434.5
413.365	401.5
413.589	399.5
413.812	397.5
414.035	395.5
414.258	394.5
414.482	374.5
414.705	367.5
414.928	381.5
415.151	388.5
415.374	387.5
415.597	403.5
415.821	405.5
416.044	394.5
416.267	406.5
416.49	384.5
416.713	412.5
416.936	407.5
417.159	400.5
417.382	415.5
417.605	401.5
417.828	417.5
418.051	435.5
418.274	425.5
418.497	404.5
418.72	405.5
418.943	418.5
419.166	440.5
419.389	422.5
419.611	432.5
419.834	429.5
420.057	442.5
420.28	416.5
420.503	421.5
420.726	425.5
420.948	468.5
421.171	490.5
421.394	536.5
421.617	456.5
421.839	434.5
422.062	437.5
422.285	467.5
422.507	499.5
422.73	609.5
422.953	567.5
423.175	499.5
423.398	475.5
423.621	481.5
423.843	484.5
424.066	478.5
424.288	515.5
424.511	535.5
424.733	565.5
424.956	628.5
425.178	630.5
425.401	617.5
425.623	687.5
425.846	559.5
426.068	512.5
426.291	498.5
426.513	485.5
426.735	521.5
426.958	567.5
427.18	649.5
427.402	751.5
427.625	858.5
427.847	803.5
428.069	664.5
428.292	582.5
428.514	529.5
428.736	498.5
428.958	499.5
429.181	486.5
429.403	482.5
429.625	471.5
429.847	513.5
430.069	570.5
430.292	586.5
430.514	486.5
430.736	466.5
430.958	450.5
431.18	439.5
431.402	444.5
431.624	427.5
431.846	408.5
432.068	419.5
432.29	436.5
432.512	435.5
432.734	427.5
432.956	446.5
433.178	462.5
433.4	472.5
433.622	443.5
433.844	423.5
434.066	420.5
434.287	428.5
434.509	431.5
434.731	429.5
434.953	438.5
435.175	468.5
435.397	506.5
435.618	500.5
435.84	547.5
436.062	648.5
436.284	674.5
436.505	602.5
436.727	533.5
436.949	496.5
437.17	456.5
437.392	463.5
437.614	487.5
437.835	543.5
438.057	638.5
438.278	753.5
438.5	729.5
438.721	799.5
438.943	765.5
439.165	608.5
439.386	560.5
439.608	552.5
439.829	548.5
440.05	585.5
440.272	638.5
440.493	577.5
440.715	531.5
440.936	502.5
441.158	478.5
441.379	476.5
441.6	492.5
441.822	525.5
442.043	570.5
442.264	642.5
442.486	686.5
442.707	583.5
442.928	553.5
443.149	544.5
443.371	583.5
443.592	638.5
443.813	683.5
444.034	743.5
444.255	608.5
444.476	514.5
444.698	510.5
444.919	508.5
445.14	591.5
445.361	582.5
445.582	573.5
445.803	671.5
446.024	741.5
446.245	765.5
446.466	680.5
446.687	616.5
446.908	549.5
447.129	516.5
447.35	498.5
447.571	471.5
447.792	472.5
448.013	496.5
448.234	483.5
448.455	586.5
448.675	682.5
448.896	774.5
449.117	657.5
449.338	648.5
449.559	703.5
449.779	822.5
450	656.5
450.221	578.5
450.442	526.5
450.662	510.5
450.883	519.5
451.104	531.5
451.324	544.5
451.545	486.5
451.766	473.5
451.986	450.5
452.207	438.5
452.428	426.5
452.648	434.5
452.869	428.5
453.089	467.5
453.31	460.5
453.53	446.5
453.751	444.5
453.971	428.5
454.192	471.5
454.412	483.5
454.633	454.5
454.853	438.5
455.073	437.5
455.294	473.5
455.514	539.5
455.734	529.5
455.955	420.5
456.175	426.5
456.395	401.5
456.616	392.5
456.836	408.5
457.056	380.5
457.276	383.5
457.497	406.5
457.717	394.5
457.937	393.5
458.157	416.5
458.377	418.5
458.598	423.5
458.818	530.5
459.038	646.5
459.258	633.5
459.478	540.5
459.698	443.5
459.918	442.5
460.138	422.5
460.358	413.5
460.578	429.5
460.798	433.5
461.018	436.5
461.238	407.5
461.458	399.5
461.678	397.5
461.898	413.5
462.118	416.5
462.338	418.5
462.558	412.5
462.777	410.5
462.997	411.5
463.217	414.5
463.437	434.5
463.657	425.5
463.876	415.5
464.096	434.5
464.316	426.5
464.536	457.5
464.755	450.5
464.975	480.5
465.195	533.5
465.414	674.5
465.634	587.5
465.854	528.5
466.073	478.5
466.293	451.5
466.512	423.5
466.732	434.5
466.951	425.5
467.171	428.5
467.391	448.5
467.61	463.5
467.829	449.5
468.049	443.5
468.268	419.5
468.488	419.5
468.707	422.5
468.927	400.5
469.146	391.5
469.365	415.5
469.585	395.5
469.804	423.5
470.023	434.5
470.243	423.5
470.462	457.5
470.681	467.5
470.901	472.5
471.12	450.5
471.339	441.5
471.558	431.5
471.777	440.5
471.997	433.5
472.216	427.5
472.435	434.5
472.654	418.5
472.873	417.5
473.092	425.5
473.311	412.5
473.53	405.5
473.749	436.5
473.968	495.5
474.187	615.5
474.406	652.5
474.625	511.5
474.844	475.5
475.063	444.5
475.282	430.5
475.501	430.5
475.72	438.5
475.939	442.5
476.158	450.5
476.377	441.5
476.596	440.5
476.814	463.5
477.033	455.5
477.252	482.5
477.471	472.5
477.69	465.5
477.908	458.5
478.127	450.5
478.346	482.5
478.564	469.5
478.783	462.5
479.002	483.5
479.22	477.5
479.439	511.5
479.658	526.5
479.876	550.5
480.095	545.5
480.313	547.5
480.532	540.5
480.751	516.5
480.969	521.5
481.188	550.5
481.406	552.5
481.624	554.5
481.843	536.5
482.061	497.5
482.28	512.5
482.498	500.5
482.717	518.5
482.935	505.5
483.153	502.5
483.372	514.5
483.59	494.5
483.808	508.5
484.027	511.5
484.245	503.5
484.463	534.5
484.681	525.5
484.9	520.5
485.118	528.5
485.336	530.5
485.554	531.5
485.772	503.5
485.99	547.5
486.209	531.5
486.427	562.5
486.645	564.5
486.863	581.5
487.081	594.5
487.299	560.5
487.517	555.5
487.735	564.5
487.953	567.5
488.171	551.5
488.389	564.5
488.607	543.5
488.825	570.5
489.043	564.5
489.261	585.5
489.479	580.5
489.696	565.5
489.914	568.5
490.132	584.5
490.35	608.5
490.568	567.5
490.786	591.5
491.003	593.5
491.221	618.5
491.439	623.5
491.657	627.5
491.874	634.5
492.092	646.5
492.31	646.5
492.527	665.5
492.745	664.5
492.963	658.5
493.18	655.5
493.398	666.5
493.615	651.5
493.833	671.5
494.05	655.5
494.268	673.5
494.485	689.5
494.703	674.5
494.92	690.5
495.138	688.5
495.355	654.5
495.573	677.5
495.79	675.5
496.008	671.5
496.225	653.5
496.442	682.5
496.66	679.5
496.877	649.5
497.094	691.5
497.312	690.5
497.529	682.5
497.746	706.5
497.963	707.5
498.181	722.5
498.398	715.5
498.615	688.5
498.832	727.5
499.049	726.5
499.267	713.5
499.484	738.5
499.701	741.5
499.918	776.5
500.135	775.5
500.352	780.5
500.569	798.5
500.786	794.5
501.003	777.5
501.22	794.5
501.437	788.5
501.654	782.5
501.871	815.5
502.088	795.5
502.305	739.5
502.522	766.5
502.739	721.5
502.956	690.5
503.172	678.5
503.389	707.5
503.606	724.5
503.823	736.5
504.04	683.5
504.256	661.5
504.473	684.5
504.69	669.5
504.907	672.5
505.123	661.5
505.34	704.5
505.557	681.5
505.773	683.5
505.99	662.5
506.207	674.5
506.423	654.5
506.64	686.5
506.856	676.5
507.073	669.5
507.289	650.5
507.506	642.5
507.722	684.5
507.939	714.5
508.155	698.5
508.372	660.5
508.588	667.5
508.805	648.5
509.021	666.5
509.238	676.5
509.454	667.5
509.67	673.5
509.887	660.5
510.103	675.5
510.319	697.5
510.536	823.5
510.752	1551.5
510.968	1259.5
511.184	747.5
511.401	673.5
511.617	638.5
511.833	638.5
512.049	629.5
512.265	640.5
512.481	646.5
512.698	634.5
512.914	631.5
513.13	624.5
513.346	654.5
513.562	670.5
513.778	675.5
513.994	667.5
514.21	698.5
514.426	727.5
514.642	817.5
514.858	836.5
515.074	937.5
515.29	1213.5
515.506	1822.5
515.721	1466.5
515.937	879.5
516.153	782.5
516.369	710.5
516.585	698.5
516.801	676.5
517.016	663.5
517.232	649.5
517.448	658.5
517.664	658.5
517.879	643.5
518.095	656.5
518.311	637.5
518.527	634.5
518.742	628.5
518.958	634.5
519.173	643.5
519.389	626.5
519.605	652.5
519.82	670.5
