Data from 1987.PennyLincolnUp.Lamp.En5.5.200Scan.071819.P2_HRD10591_17-14-03-972.txt Node
Date: Thu Jul 18 17:14:03 EDT 2019
User: cochatt
Spectrometer: HR+D1059
Trigger mode: 1
Integration Time (sec): 1.000000E-1
Scans to average: 1
Electric dark correction enabled: true
Nonlinearity correction enabled: false
Boxcar width: 0
XAxis mode: Wavelengths
Number of Pixels in Spectrum: 2048
>>>>>Begin Spectral Data<<<<<
223.165	-0.5
223.4	-0.5
223.635	-0.5
223.869	-30.5
224.104	-16.5
224.338	-20.5
224.573	-13.5
224.808	-6.5
225.042	-7.5
225.277	-11.5
225.511	-1.5
225.746	2.5
225.98	4.5
226.215	4.5
226.449	16.5
226.683	24.5
226.918	34.5
227.152	21.5
227.387	35.5
227.621	25.5
227.856	45.5
228.09	47.5
228.324	61.5
228.559	66.5
228.793	59.5
229.027	95.5
229.262	97.5
229.496	106.5
229.73	128.5
229.964	150.5
230.199	119.5
230.433	115.5
230.667	117.5
230.901	138.5
231.136	99.5
231.37	105.5
231.604	113.5
231.838	122.5
232.072	115.5
232.306	114.5
232.541	98.5
232.775	109.5
233.009	122.5
233.243	104.5
233.477	115.5
233.711	106.5
233.945	102.5
234.179	111.5
234.413	107.5
234.647	124.5
234.881	124.5
235.115	122.5
235.349	119.5
235.583	112.5
235.817	116.5
236.051	123.5
236.285	112.5
236.519	114.5
236.753	127.5
236.987	144.5
237.221	152.5
237.455	212.5
237.689	180.5
237.922	137.5
238.156	123.5
238.39	122.5
238.624	127.5
238.858	105.5
239.091	126.5
239.325	111.5
239.559	112.5
239.793	108.5
240.027	136.5
240.26	134.5
240.494	148.5
240.728	144.5
240.961	135.5
241.195	131.5
241.429	123.5
241.662	137.5
241.896	123.5
242.13	136.5
242.363	125.5
242.597	134.5
242.83	121.5
243.064	133.5
243.298	142.5
243.531	120.5
243.765	118.5
243.998	127.5
244.232	126.5
244.465	136.5
244.699	133.5
244.932	132.5
245.166	127.5
245.399	131.5
245.633	136.5
245.866	132.5
246.099	153.5
246.333	125.5
246.566	127.5
246.8	136.5
247.033	134.5
247.266	144.5
247.5	132.5
247.733	162.5
247.966	143.5
248.2	160.5
248.433	142.5
248.666	147.5
248.899	166.5
249.133	154.5
249.366	181.5
249.599	191.5
249.832	160.5
250.066	166.5
250.299	157.5
250.532	171.5
250.765	175.5
250.998	190.5
251.231	203.5
251.465	186.5
251.698	178.5
251.931	184.5
252.164	178.5
252.397	180.5
252.63	181.5
252.863	193.5
253.096	193.5
253.329	205.5
253.562	184.5
253.795	191.5
254.028	207.5
254.261	203.5
254.494	184.5
254.727	223.5
254.96	244.5
255.193	236.5
255.426	226.5
255.659	201.5
255.892	197.5
256.124	195.5
256.357	192.5
256.59	174.5
256.823	180.5
257.056	180.5
257.289	169.5
257.521	177.5
257.754	183.5
257.987	183.5
258.22	171.5
258.452	178.5
258.685	184.5
258.918	170.5
259.151	174.5
259.383	197.5
259.616	191.5
259.849	184.5
260.081	183.5
260.314	210.5
260.547	217.5
260.779	196.5
261.012	207.5
261.244	198.5
261.477	189.5
261.71	195.5
261.942	202.5
262.175	202.5
262.407	210.5
262.64	187.5
262.872	175.5
263.105	190.5
263.337	178.5
263.57	180.5
263.802	173.5
264.035	170.5
264.267	168.5
264.499	180.5
264.732	176.5
264.964	179.5
265.197	162.5
265.429	171.5
265.661	163.5
265.894	184.5
266.126	182.5
266.358	169.5
266.591	182.5
266.823	188.5
267.055	185.5
267.287	185.5
267.52	197.5
267.752	191.5
267.984	182.5
268.216	189.5
268.448	188.5
268.681	190.5
268.913	204.5
269.145	213.5
269.377	227.5
269.609	231.5
269.841	209.5
270.073	226.5
270.306	239.5
270.538	240.5
270.77	232.5
271.002	254.5
271.234	239.5
271.466	253.5
271.698	252.5
271.93	276.5
272.162	258.5
272.394	271.5
272.626	265.5
272.858	232.5
273.09	234.5
273.322	228.5
273.553	221.5
273.785	226.5
274.017	226.5
274.249	214.5
274.481	214.5
274.713	195.5
274.945	212.5
275.176	210.5
275.408	198.5
275.64	223.5
275.872	212.5
276.104	220.5
276.335	219.5
276.567	215.5
276.799	228.5
277.031	260.5
277.262	250.5
277.494	247.5
277.726	258.5
277.957	233.5
278.189	229.5
278.421	223.5
278.652	229.5
278.884	214.5
279.115	211.5
279.347	212.5
279.579	195.5
279.81	209.5
280.042	206.5
280.273	201.5
280.505	198.5
280.736	200.5
280.968	222.5
281.199	195.5
281.431	214.5
281.662	213.5
281.894	202.5
282.125	193.5
282.356	229.5
282.588	239.5
282.819	230.5
283.051	224.5
283.282	217.5
283.513	204.5
283.745	200.5
283.976	207.5
284.207	212.5
284.439	218.5
284.67	194.5
284.901	218.5
285.132	204.5
285.364	191.5
285.595	208.5
285.826	214.5
286.057	205.5
286.288	213.5
286.52	205.5
286.751	206.5
286.982	203.5
287.213	189.5
287.444	199.5
287.675	199.5
287.906	209.5
288.138	210.5
288.369	222.5
288.6	222.5
288.831	227.5
289.062	216.5
289.293	220.5
289.524	217.5
289.755	191.5
289.986	193.5
290.217	222.5
290.448	211.5
290.679	194.5
290.91	192.5
291.141	211.5
291.371	232.5
291.602	202.5
291.833	214.5
292.064	204.5
292.295	210.5
292.526	225.5
292.757	215.5
292.987	215.5
293.218	225.5
293.449	207.5
293.68	198.5
293.91	204.5
294.141	217.5
294.372	212.5
294.603	207.5
294.833	215.5
295.064	215.5
295.295	208.5
295.525	208.5
295.756	206.5
295.987	231.5
296.217	244.5
296.448	244.5
296.679	229.5
296.909	221.5
297.14	203.5
297.37	215.5
297.601	210.5
297.831	215.5
298.062	211.5
298.292	222.5
298.523	236.5
298.753	232.5
298.984	216.5
299.214	234.5
299.445	218.5
299.675	223.5
299.905	230.5
300.136	230.5
300.366	229.5
300.597	218.5
300.827	238.5
301.057	231.5
301.288	248.5
301.518	239.5
301.748	229.5
301.979	213.5
302.209	215.5
302.439	251.5
302.669	232.5
302.9	228.5
303.13	236.5
303.36	248.5
303.59	242.5
303.82	239.5
304.051	249.5
304.281	250.5
304.511	237.5
304.741	228.5
304.971	224.5
305.201	226.5
305.431	230.5
305.661	222.5
305.891	244.5
306.121	239.5
306.352	238.5
306.582	258.5
306.812	230.5
307.042	235.5
307.272	234.5
307.502	232.5
307.731	240.5
307.961	258.5
308.191	258.5
308.421	252.5
308.651	252.5
308.881	262.5
309.111	260.5
309.341	265.5
309.571	268.5
309.8	286.5
310.03	293.5
310.26	295.5
310.49	295.5
310.72	308.5
310.949	313.5
311.179	318.5
311.409	305.5
311.639	279.5
311.868	278.5
312.098	277.5
312.328	306.5
312.557	299.5
312.787	316.5
313.017	317.5
313.246	299.5
313.476	284.5
313.706	284.5
313.935	291.5
314.165	304.5
314.394	302.5
314.624	302.5
314.853	277.5
315.083	295.5
315.312	291.5
315.542	270.5
315.771	267.5
316.001	284.5
316.23	278.5
316.46	266.5
316.689	282.5
316.919	302.5
317.148	289.5
317.377	287.5
317.607	298.5
317.836	294.5
318.065	300.5
318.295	287.5
318.524	285.5
318.753	283.5
318.983	276.5
319.212	286.5
319.441	278.5
319.67	276.5
319.9	271.5
320.129	283.5
320.358	282.5
320.587	284.5
320.816	313.5
321.046	316.5
321.275	296.5
321.504	298.5
321.733	288.5
321.962	312.5
322.191	330.5
322.42	351.5
322.649	352.5
322.878	374.5
323.108	376.5
323.337	403.5
323.566	414.5
323.795	429.5
324.024	482.5
324.253	593.5
324.482	868.5
324.71	1340.5
324.939	1900.5
325.168	1654.5
325.397	903.5
325.626	613.5
325.855	494.5
326.084	428.5
326.313	417.5
326.542	422.5
326.77	471.5
326.999	551.5
327.228	761.5
327.457	1164.5
327.686	1416.5
327.914	997.5
328.143	660.5
328.372	540.5
328.6	503.5
328.829	469.5
329.058	497.5
329.287	500.5
329.515	460.5
329.744	403.5
329.972	406.5
330.201	410.5
330.43	417.5
330.658	466.5
330.887	509.5
331.115	482.5
331.344	416.5
331.572	375.5
331.801	383.5
332.03	402.5
332.258	362.5
332.486	353.5
332.715	351.5
332.943	340.5
333.172	325.5
333.4	346.5
333.629	333.5
333.857	355.5
334.085	344.5
334.314	325.5
334.542	326.5
334.771	332.5
334.999	333.5
335.227	338.5
335.455	337.5
335.684	330.5
335.912	319.5
336.14	316.5
336.369	327.5
336.597	349.5
336.825	343.5
337.053	327.5
337.281	308.5
337.51	314.5
337.738	328.5
337.966	344.5
338.194	312.5
338.422	318.5
338.65	321.5
338.878	311.5
339.106	326.5
339.334	316.5
339.562	299.5
339.79	308.5
340.018	331.5
340.246	326.5
340.474	321.5
340.702	330.5
340.93	302.5
341.158	317.5
341.386	337.5
341.614	320.5
341.842	315.5
342.07	296.5
342.298	319.5
342.526	318.5
342.754	315.5
342.981	292.5
343.209	306.5
343.437	304.5
343.665	306.5
343.893	292.5
344.12	318.5
344.348	301.5
344.576	322.5
344.804	318.5
345.031	340.5
345.259	317.5
345.487	335.5
345.714	329.5
345.942	312.5
346.17	323.5
346.397	308.5
346.625	310.5
346.853	316.5
347.08	323.5
347.308	323.5
347.535	325.5
347.763	330.5
347.99	337.5
348.218	324.5
348.445	325.5
348.673	314.5
348.9	333.5
349.128	328.5
349.355	295.5
349.583	303.5
349.81	323.5
350.037	312.5
350.265	314.5
350.492	302.5
350.72	315.5
350.947	322.5
351.174	336.5
351.402	317.5
351.629	340.5
351.856	335.5
352.083	337.5
352.311	327.5
352.538	326.5
352.765	356.5
352.992	322.5
353.22	329.5
353.447	308.5
353.674	314.5
353.901	309.5
354.128	294.5
354.355	288.5
354.583	325.5
354.81	314.5
355.037	293.5
355.264	290.5
355.491	293.5
355.718	275.5
355.945	299.5
356.172	288.5
356.399	284.5
356.626	289.5
356.853	278.5
357.08	299.5
357.307	293.5
357.534	287.5
357.761	301.5
357.988	276.5
358.215	293.5
358.441	293.5
358.668	313.5
358.895	299.5
359.122	296.5
359.349	319.5
359.576	322.5
359.802	334.5
360.029	357.5
360.256	351.5
360.483	357.5
360.709	319.5
360.936	326.5
361.163	318.5
361.39	311.5
361.616	343.5
361.843	343.5
362.07	320.5
362.296	313.5
362.523	316.5
362.749	336.5
362.976	310.5
363.203	302.5
363.429	309.5
363.656	313.5
363.882	309.5
364.109	312.5
364.335	327.5
364.562	306.5
364.788	300.5
365.015	299.5
365.241	308.5
365.468	303.5
365.694	302.5
365.92	322.5
366.147	309.5
366.373	318.5
366.599	309.5
366.826	313.5
367.052	298.5
367.278	294.5
367.505	309.5
367.731	312.5
367.957	309.5
368.184	312.5
368.41	320.5
368.636	322.5
368.862	307.5
369.089	308.5
369.315	306.5
369.541	302.5
369.767	323.5
369.993	296.5
370.219	319.5
370.445	310.5
370.672	296.5
370.898	296.5
371.124	288.5
371.35	280.5
371.576	304.5
371.802	292.5
372.028	295.5
372.254	287.5
372.48	306.5
372.706	286.5
372.932	315.5
373.158	310.5
373.384	319.5
373.61	314.5
373.835	291.5
374.061	287.5
374.287	305.5
374.513	310.5
374.739	287.5
374.965	298.5
375.191	299.5
375.416	311.5
375.642	282.5
375.868	312.5
376.094	308.5
376.319	316.5
376.545	301.5
376.771	306.5
376.997	294.5
377.222	262.5
377.448	299.5
377.674	306.5
377.899	296.5
378.125	296.5
378.35	312.5
378.576	280.5
378.802	296.5
379.027	314.5
379.253	286.5
379.478	292.5
379.704	286.5
379.929	320.5
380.155	296.5
380.38	309.5
380.606	299.5
380.831	297.5
381.057	313.5
381.282	294.5
381.507	302.5
381.733	318.5
381.958	301.5
382.184	320.5
382.409	315.5
382.634	301.5
382.86	308.5
383.085	300.5
383.31	325.5
383.535	327.5
383.761	320.5
383.986	311.5
384.211	304.5
384.436	301.5
384.662	312.5
384.887	332.5
385.112	315.5
385.337	308.5
385.562	324.5
385.787	304.5
386.013	333.5
386.238	324.5
386.463	330.5
386.688	316.5
386.913	319.5
387.138	315.5
387.363	331.5
387.588	329.5
387.813	321.5
388.038	311.5
388.263	322.5
388.488	325.5
388.713	323.5
388.938	336.5
389.163	339.5
389.387	338.5
389.612	308.5
389.837	326.5
390.062	336.5
390.287	336.5
390.512	322.5
390.736	339.5
390.961	331.5
391.186	331.5
391.411	306.5
391.636	329.5
391.86	339.5
392.085	334.5
392.31	325.5
392.534	320.5
392.759	306.5
392.984	345.5
393.208	320.5
393.433	381.5
393.658	382.5
393.882	322.5
394.107	312.5
394.331	315.5
394.556	307.5
394.78	330.5
395.005	324.5
395.229	304.5
395.454	330.5
395.678	325.5
395.903	345.5
396.127	366.5
396.352	358.5
396.576	324.5
396.801	351.5
397.025	356.5
397.249	368.5
397.474	330.5
397.698	361.5
397.922	344.5
398.147	360.5
398.371	376.5
398.595	346.5
398.82	368.5
399.044	357.5
399.268	351.5
399.492	389.5
399.717	388.5
399.941	396.5
400.165	454.5
400.389	458.5
400.613	425.5
400.837	383.5
401.062	374.5
401.286	357.5
401.51	373.5
401.734	349.5
401.958	362.5
402.182	372.5
402.406	372.5
402.63	393.5
402.854	380.5
403.078	364.5
403.302	386.5
403.526	395.5
403.75	359.5
403.974	386.5
404.198	380.5
404.422	383.5
404.645	366.5
404.869	384.5
405.093	414.5
405.317	429.5
405.541	435.5
405.765	428.5
405.988	410.5
406.212	424.5
406.436	423.5
406.66	447.5
406.883	430.5
407.107	420.5
407.331	473.5
407.555	519.5
407.778	508.5
408.002	486.5
408.226	430.5
408.449	421.5
408.673	430.5
408.896	462.5
409.12	489.5
409.344	470.5
409.567	431.5
409.791	400.5
410.014	380.5
410.238	390.5
410.461	402.5
410.685	394.5
410.908	397.5
411.132	426.5
411.355	469.5
411.578	441.5
411.802	381.5
412.025	401.5
412.249	376.5
412.472	366.5
412.695	398.5
412.919	387.5
413.142	392.5
413.365	380.5
413.589	382.5
413.812	360.5
414.035	365.5
414.258	360.5
414.482	351.5
414.705	357.5
414.928	373.5
415.151	340.5
415.374	354.5
415.597	365.5
415.821	359.5
416.044	365.5
416.267	372.5
416.49	363.5
416.713	362.5
416.936	374.5
417.159	373.5
417.382	384.5
417.605	374.5
417.828	371.5
418.051	410.5
418.274	379.5
418.497	355.5
418.72	384.5
418.943	346.5
419.166	380.5
419.389	414.5
419.611	392.5
419.834	394.5
420.057	390.5
420.28	390.5
420.503	405.5
420.726	403.5
420.948	392.5
421.171	449.5
421.394	475.5
421.617	440.5
421.839	398.5
422.062	382.5
422.285	409.5
422.507	463.5
422.73	541.5
422.953	528.5
423.175	458.5
423.398	436.5
423.621	428.5
423.843	429.5
424.066	442.5
424.288	427.5
424.511	459.5
424.733	499.5
424.956	572.5
425.178	564.5
425.401	551.5
425.623	564.5
425.846	506.5
426.068	463.5
426.291	471.5
426.513	444.5
426.735	482.5
426.958	495.5
427.18	574.5
427.402	694.5
427.625	724.5
427.847	676.5
428.069	573.5
428.292	511.5
428.514	477.5
428.736	451.5
428.958	452.5
429.181	417.5
429.403	432.5
429.625	444.5
429.847	443.5
430.069	522.5
430.292	550.5
430.514	432.5
430.736	425.5
430.958	403.5
431.18	395.5
431.402	416.5
431.624	398.5
431.846	381.5
432.068	411.5
432.29	396.5
432.512	372.5
432.734	381.5
432.956	403.5
433.178	404.5
433.4	426.5
433.622	372.5
433.844	388.5
434.066	379.5
434.287	373.5
434.509	377.5
434.731	398.5
434.953	400.5
435.175	416.5
435.397	427.5
435.618	458.5
435.84	485.5
436.062	572.5
436.284	610.5
436.505	520.5
436.727	485.5
436.949	446.5
437.17	416.5
437.392	432.5
437.614	461.5
437.835	476.5
438.057	575.5
438.278	656.5
438.5	663.5
438.721	707.5
438.943	649.5
439.165	538.5
439.386	479.5
439.608	482.5
439.829	478.5
440.05	499.5
440.272	531.5
440.493	514.5
440.715	465.5
440.936	436.5
441.158	420.5
441.379	418.5
441.6	436.5
441.822	476.5
442.043	510.5
442.264	575.5
442.486	600.5
442.707	526.5
442.928	478.5
443.149	444.5
443.371	514.5
443.592	539.5
443.813	591.5
444.034	650.5
444.255	534.5
444.476	483.5
444.698	457.5
444.919	456.5
445.14	553.5
445.361	476.5
445.582	474.5
445.803	538.5
446.024	615.5
446.245	626.5
446.466	562.5
446.687	514.5
446.908	468.5
447.129	447.5
447.35	435.5
447.571	434.5
447.792	425.5
448.013	452.5
448.234	452.5
448.455	499.5
448.675	572.5
448.896	683.5
449.117	588.5
449.338	568.5
449.559	630.5
449.779	711.5
450	583.5
450.221	518.5
450.442	467.5
450.662	427.5
450.883	442.5
451.104	454.5
451.324	442.5
451.545	417.5
451.766	407.5
451.986	389.5
452.207	402.5
452.428	368.5
452.648	392.5
452.869	395.5
453.089	404.5
453.31	399.5
453.53	389.5
453.751	384.5
453.971	383.5
454.192	407.5
454.412	394.5
454.633	414.5
454.853	397.5
455.073	379.5
455.294	409.5
455.514	475.5
455.734	477.5
455.955	398.5
456.175	378.5
456.395	363.5
456.616	347.5
456.836	356.5
457.056	346.5
457.276	330.5
457.497	356.5
457.717	344.5
457.937	352.5
458.157	383.5
458.377	382.5
458.598	381.5
458.818	459.5
459.038	531.5
459.258	532.5
459.478	442.5
459.698	413.5
459.918	403.5
460.138	380.5
460.358	380.5
460.578	390.5
460.798	392.5
461.018	384.5
461.238	383.5
461.458	394.5
461.678	381.5
461.898	384.5
462.118	377.5
462.338	379.5
462.558	394.5
462.777	404.5
462.997	390.5
463.217	389.5
463.437	397.5
463.657	393.5
463.876	394.5
464.096	396.5
464.316	390.5
464.536	414.5
464.755	424.5
464.975	427.5
465.195	454.5
465.414	512.5
465.634	471.5
465.854	421.5
466.073	423.5
466.293	409.5
466.512	374.5
466.732	367.5
466.951	382.5
467.171	386.5
467.391	383.5
467.61	371.5
467.829	411.5
468.049	406.5
468.268	373.5
468.488	390.5
468.707	379.5
468.927	378.5
469.146	387.5
469.365	360.5
469.585	354.5
469.804	393.5
470.023	381.5
470.243	404.5
470.462	374.5
470.681	420.5
470.901	414.5
471.12	381.5
471.339	390.5
471.558	390.5
471.777	381.5
471.997	389.5
472.216	368.5
472.435	394.5
472.654	394.5
472.873	388.5
473.092	397.5
473.311	383.5
473.53	390.5
473.749	406.5
473.968	441.5
474.187	536.5
474.406	566.5
474.625	456.5
474.844	400.5
475.063	393.5
475.282	394.5
475.501	391.5
475.72	400.5
475.939	387.5
476.158	382.5
476.377	399.5
476.596	382.5
476.814	408.5
477.033	410.5
477.252	414.5
477.471	424.5
477.69	430.5
477.908	409.5
478.127	416.5
478.346	440.5
478.564	418.5
478.783	412.5
479.002	455.5
479.22	437.5
479.439	450.5
479.658	471.5
479.876	473.5
480.095	472.5
480.313	479.5
480.532	471.5
480.751	462.5
480.969	473.5
481.188	460.5
481.406	482.5
481.624	476.5
481.843	451.5
482.061	461.5
482.28	455.5
482.498	464.5
482.717	470.5
482.935	470.5
483.153	441.5
483.372	443.5
483.59	446.5
483.808	443.5
484.027	464.5
484.245	462.5
484.463	453.5
484.681	454.5
484.9	471.5
485.118	484.5
485.336	474.5
485.554	485.5
485.772	479.5
485.99	472.5
486.209	469.5
486.427	482.5
486.645	497.5
486.863	514.5
487.081	528.5
487.299	507.5
487.517	491.5
487.735	504.5
487.953	490.5
488.171	510.5
488.389	507.5
488.607	516.5
488.825	514.5
489.043	491.5
489.261	502.5
489.479	526.5
489.696	516.5
489.914	506.5
490.132	507.5
490.35	531.5
490.568	512.5
490.786	527.5
491.003	550.5
491.221	543.5
491.439	573.5
491.657	574.5
491.874	565.5
492.092	568.5
492.31	568.5
492.527	563.5
492.745	578.5
492.963	586.5
493.18	591.5
493.398	593.5
493.615	585.5
493.833	593.5
494.05	602.5
494.268	595.5
494.485	587.5
494.703	609.5
494.92	583.5
495.138	591.5
495.355	593.5
495.573	603.5
495.79	623.5
496.008	622.5
496.225	603.5
496.442	602.5
496.66	591.5
496.877	605.5
497.094	599.5
497.312	607.5
497.529	603.5
497.746	634.5
497.963	612.5
498.181	642.5
498.398	646.5
498.615	652.5
498.832	652.5
499.049	630.5
499.267	653.5
499.484	696.5
499.701	719.5
499.918	693.5
500.135	715.5
500.352	722.5
500.569	740.5
500.786	733.5
501.003	741.5
501.22	744.5
501.437	717.5
501.654	712.5
501.871	728.5
502.088	711.5
502.305	679.5
502.522	680.5
502.739	645.5
502.956	660.5
503.172	616.5
503.389	668.5
503.606	634.5
503.823	631.5
504.04	633.5
504.256	599.5
504.473	602.5
504.69	602.5
504.907	600.5
505.123	595.5
505.34	585.5
505.557	586.5
505.773	614.5
505.99	591.5
506.207	598.5
506.423	579.5
506.64	579.5
506.856	579.5
507.073	593.5
507.289	581.5
507.506	574.5
507.722	604.5
507.939	619.5
508.155	574.5
508.372	590.5
508.588	576.5
508.805	571.5
509.021	572.5
509.238	595.5
509.454	584.5
509.67	552.5
509.887	555.5
510.103	593.5
510.319	586.5
510.536	702.5
510.752	1167.5
510.968	960.5
511.184	632.5
511.401	588.5
511.617	566.5
511.833	551.5
512.049	534.5
512.265	557.5
512.481	535.5
512.698	530.5
512.914	516.5
513.13	539.5
513.346	554.5
513.562	560.5
513.778	551.5
513.994	559.5
514.21	562.5
514.426	590.5
514.642	644.5
514.858	682.5
515.074	700.5
515.29	840.5
515.506	1286.5
515.721	1052.5
515.937	713.5
516.153	650.5
516.369	607.5
516.585	578.5
516.801	536.5
517.016	575.5
517.232	546.5
517.448	544.5
517.664	559.5
517.879	565.5
518.095	557.5
518.311	552.5
518.527	529.5
518.742	542.5
518.958	540.5
519.173	535.5
519.389	553.5
519.605	547.5
519.82	558.5
520.036	562.5
