Data from 1987.PennyLincolnUp.Lamp.En5.5.200Scan.071819.P2_HRD10591_17-16-53-971.txt Node
Date: Thu Jul 18 17:16:53 EDT 2019
User: cochatt
Spectrometer: HR+D1059
Trigger mode: 1
Integration Time (sec): 1.000000E-1
Scans to average: 1
Electric dark correction enabled: true
Nonlinearity correction enabled: false
Boxcar width: 0
XAxis mode: Wavelengths
Number of Pixels in Spectrum: 2048
>>>>>Begin Spectral Data<<<<<
223.165	-9.62
223.4	-9.62
223.635	-9.62
223.869	-16.62
224.104	-23.62
224.338	-7.62
224.573	-12.62
224.808	-20.62
225.042	-6.62
225.277	1.38
225.511	1.38
225.746	8.38
225.98	4.38
226.215	20.38
226.449	14.38
226.683	12.38
226.918	9.38
227.152	25.38
227.387	29.38
227.621	46.38
227.856	40.38
228.09	26.38
228.324	53.38
228.559	57.38
228.793	54.38
229.027	114.38
229.262	118.38
229.496	139.38
229.73	163.38
229.964	184.38
230.199	145.38
230.433	141.38
230.667	113.38
230.901	130.38
231.136	126.38
231.37	130.38
231.604	120.38
231.838	113.38
232.072	105.38
232.306	106.38
232.541	105.38
232.775	117.38
233.009	128.38
233.243	124.38
233.477	121.38
233.711	115.38
233.945	126.38
234.179	127.38
234.413	115.38
234.647	106.38
234.881	120.38
235.115	112.38
235.349	125.38
235.583	119.38
235.817	123.38
236.051	125.38
236.285	114.38
236.519	115.38
236.753	141.38
236.987	150.38
237.221	198.38
237.455	270.38
237.689	215.38
237.922	153.38
238.156	131.38
238.39	130.38
238.624	125.38
238.858	125.38
239.091	137.38
239.325	123.38
239.559	120.38
239.793	126.38
240.027	134.38
240.26	149.38
240.494	162.38
240.728	148.38
240.961	152.38
241.195	131.38
241.429	143.38
241.662	117.38
241.896	134.38
242.13	124.38
242.363	115.38
242.597	128.38
242.83	122.38
243.064	134.38
243.298	146.38
243.531	133.38
243.765	145.38
243.998	124.38
244.232	141.38
244.465	150.38
244.699	140.38
244.932	138.38
245.166	156.38
245.399	146.38
245.633	141.38
245.866	145.38
246.099	148.38
246.333	134.38
246.566	160.38
246.8	128.38
247.033	144.38
247.266	163.38
247.5	150.38
247.733	165.38
247.966	161.38
248.2	178.38
248.433	170.38
248.666	179.38
248.899	179.38
249.133	204.38
249.366	213.38
249.599	202.38
249.832	191.38
250.066	190.38
250.299	182.38
250.532	188.38
250.765	191.38
250.998	201.38
251.231	218.38
251.465	220.38
251.698	209.38
251.931	203.38
252.164	202.38
252.397	180.38
252.63	198.38
252.863	210.38
253.096	217.38
253.329	216.38
253.562	204.38
253.795	217.38
254.028	233.38
254.261	237.38
254.494	220.38
254.727	276.38
254.96	293.38
255.193	285.38
255.426	243.38
255.659	256.38
255.892	215.38
256.124	212.38
256.357	219.38
256.59	195.38
256.823	223.38
257.056	215.38
257.289	184.38
257.521	194.38
257.754	194.38
257.987	192.38
258.22	211.38
258.452	193.38
258.685	205.38
258.918	201.38
259.151	204.38
259.383	213.38
259.616	226.38
259.849	219.38
260.081	227.38
260.314	234.38
260.547	230.38
260.779	249.38
261.012	223.38
261.244	224.38
261.477	200.38
261.71	217.38
261.942	216.38
262.175	242.38
262.407	228.38
262.64	213.38
262.872	213.38
263.105	197.38
263.337	210.38
263.57	206.38
263.802	203.38
264.035	202.38
264.267	194.38
264.499	200.38
264.732	193.38
264.964	206.38
265.197	200.38
265.429	183.38
265.661	189.38
265.894	188.38
266.126	208.38
266.358	187.38
266.591	205.38
266.823	200.38
267.055	204.38
267.287	206.38
267.52	203.38
267.752	217.38
267.984	214.38
268.216	198.38
268.448	196.38
268.681	221.38
268.913	211.38
269.145	243.38
269.377	265.38
269.609	260.38
269.841	271.38
270.073	276.38
270.306	279.38
270.538	300.38
270.77	312.38
271.002	288.38
271.234	276.38
271.466	283.38
271.698	294.38
271.93	320.38
272.162	307.38
272.394	312.38
272.626	305.38
272.858	292.38
273.09	268.38
273.322	263.38
273.553	253.38
273.785	240.38
274.017	262.38
274.249	253.38
274.481	243.38
274.713	246.38
274.945	262.38
275.176	249.38
275.408	251.38
275.64	234.38
275.872	235.38
276.104	225.38
276.335	238.38
276.567	242.38
276.799	268.38
277.031	306.38
277.262	305.38
277.494	302.38
277.726	288.38
277.957	283.38
278.189	244.38
278.421	235.38
278.652	240.38
278.884	240.38
279.115	236.38
279.347	240.38
279.579	246.38
279.81	205.38
280.042	231.38
280.273	214.38
280.505	224.38
280.736	211.38
280.968	233.38
281.199	232.38
281.431	212.38
281.662	225.38
281.894	231.38
282.125	254.38
282.356	266.38
282.588	305.38
282.819	290.38
283.051	232.38
283.282	219.38
283.513	242.38
283.745	226.38
283.976	237.38
284.207	232.38
284.439	228.38
284.67	236.38
284.901	239.38
285.132	239.38
285.364	248.38
285.595	237.38
285.826	231.38
286.057	232.38
286.288	229.38
286.52	227.38
286.751	218.38
286.982	236.38
287.213	233.38
287.444	242.38
287.675	235.38
287.906	261.38
288.138	252.38
288.369	269.38
288.6	261.38
288.831	246.38
289.062	262.38
289.293	249.38
289.524	246.38
289.755	242.38
289.986	243.38
290.217	242.38
290.448	235.38
290.679	240.38
290.91	248.38
291.141	241.38
291.371	237.38
291.602	223.38
291.833	237.38
292.064	229.38
292.295	234.38
292.526	221.38
292.757	234.38
292.987	237.38
293.218	235.38
293.449	222.38
293.68	235.38
293.91	227.38
294.141	234.38
294.372	230.38
294.603	226.38
294.833	228.38
295.064	228.38
295.295	241.38
295.525	256.38
295.756	262.38
295.987	267.38
296.217	286.38
296.448	312.38
296.679	260.38
296.909	247.38
297.14	256.38
297.37	250.38
297.601	236.38
297.831	244.38
298.062	253.38
298.292	282.38
298.523	233.38
298.753	250.38
298.984	250.38
299.214	257.38
299.445	256.38
299.675	247.38
299.905	260.38
300.136	254.38
300.366	248.38
300.597	237.38
300.827	260.38
301.057	244.38
301.288	302.38
301.518	253.38
301.748	283.38
301.979	275.38
302.209	275.38
302.439	270.38
302.669	280.38
302.9	260.38
303.13	260.38
303.36	276.38
303.59	262.38
303.82	273.38
304.051	276.38
304.281	267.38
304.511	252.38
304.741	267.38
304.971	253.38
305.201	275.38
305.431	262.38
305.661	279.38
305.891	270.38
306.121	286.38
306.352	272.38
306.582	292.38
306.812	280.38
307.042	266.38
307.272	270.38
307.502	273.38
307.731	259.38
307.961	277.38
308.191	269.38
308.421	285.38
308.651	280.38
308.881	285.38
309.111	289.38
309.341	278.38
309.571	314.38
309.8	323.38
310.03	329.38
310.26	356.38
310.49	349.38
310.72	361.38
310.949	375.38
311.179	381.38
311.409	345.38
311.639	354.38
311.868	356.38
312.098	362.38
312.328	356.38
312.557	390.38
312.787	387.38
313.017	393.38
313.246	377.38
313.476	328.38
313.706	328.38
313.935	354.38
314.165	370.38
314.394	369.38
314.624	369.38
314.853	347.38
315.083	333.38
315.312	335.38
315.542	333.38
315.771	331.38
316.001	320.38
316.23	320.38
316.46	315.38
316.689	320.38
316.919	322.38
317.148	342.38
317.377	337.38
317.607	359.38
317.836	322.38
318.065	339.38
318.295	323.38
318.524	312.38
318.753	310.38
318.983	324.38
319.212	330.38
319.441	364.38
319.67	342.38
319.9	340.38
320.129	329.38
320.358	330.38
320.587	340.38
320.816	346.38
321.046	362.38
321.275	363.38
321.504	366.38
321.733	352.38
321.962	369.38
322.191	380.38
322.42	423.38
322.649	438.38
322.878	467.38
323.108	474.38
323.337	537.38
323.566	541.38
323.795	588.38
324.024	668.38
324.253	859.38
324.482	1292.38
324.71	1997.38
324.939	2722.38
325.168	2407.38
325.397	1316.38
325.626	821.38
325.855	642.38
326.084	581.38
326.313	544.38
326.542	572.38
326.77	631.38
326.999	763.38
327.228	1067.38
327.457	1720.38
327.686	2061.38
327.914	1414.38
328.143	908.38
328.372	761.38
328.6	690.38
328.829	639.38
329.058	667.38
329.287	677.38
329.515	620.38
329.744	527.38
329.972	523.38
330.201	519.38
330.43	532.38
330.658	637.38
330.887	685.38
331.115	689.38
331.344	555.38
331.572	478.38
331.801	491.38
332.03	501.38
332.258	445.38
332.486	428.38
332.715	410.38
332.943	376.38
333.172	387.38
333.4	393.38
333.629	386.38
333.857	392.38
334.085	409.38
334.314	381.38
334.542	406.38
334.771	411.38
334.999	397.38
335.227	405.38
335.455	399.38
335.684	377.38
335.912	382.38
336.14	368.38
336.369	354.38
336.597	396.38
336.825	391.38
337.053	390.38
337.281	378.38
337.51	363.38
337.738	384.38
337.966	377.38
338.194	390.38
338.422	393.38
338.65	384.38
338.878	380.38
339.106	347.38
339.334	360.38
339.562	373.38
339.79	364.38
340.018	357.38
340.246	382.38
340.474	392.38
340.702	390.38
340.93	369.38
341.158	356.38
341.386	370.38
341.614	395.38
341.842	376.38
342.07	365.38
342.298	384.38
342.526	345.38
342.754	346.38
342.981	341.38
343.209	349.38
343.437	345.38
343.665	355.38
343.893	361.38
344.12	350.38
344.348	361.38
344.576	364.38
344.804	375.38
345.031	410.38
345.259	409.38
345.487	393.38
345.714	394.38
345.942	388.38
346.17	362.38
346.397	386.38
346.625	377.38
346.853	372.38
347.08	355.38
347.308	366.38
347.535	375.38
347.763	400.38
347.99	402.38
348.218	405.38
348.445	406.38
348.673	403.38
348.9	384.38
349.128	373.38
349.355	364.38
349.583	344.38
349.81	352.38
350.037	339.38
350.265	336.38
350.492	361.38
350.72	353.38
350.947	359.38
351.174	382.38
351.402	394.38
351.629	381.38
351.856	389.38
352.083	381.38
352.311	408.38
352.538	410.38
352.765	395.38
352.992	413.38
353.22	390.38
353.447	372.38
353.674	372.38
353.901	360.38
354.128	360.38
354.355	349.38
354.583	325.38
354.81	320.38
355.037	329.38
355.264	342.38
355.491	296.38
355.718	322.38
355.945	330.38
356.172	348.38
356.399	327.38
356.626	313.38
356.853	338.38
357.08	328.38
357.307	314.38
357.534	322.38
357.761	313.38
357.988	331.38
358.215	330.38
358.441	328.38
358.668	341.38
358.895	349.38
359.122	337.38
359.349	373.38
359.576	363.38
359.802	450.38
360.029	487.38
360.256	504.38
360.483	455.38
360.709	408.38
360.936	383.38
361.163	365.38
361.39	382.38
361.616	379.38
361.843	378.38
362.07	400.38
362.296	372.38
362.523	378.38
362.749	398.38
362.976	374.38
363.203	361.38
363.429	366.38
363.656	369.38
363.882	354.38
364.109	348.38
364.335	343.38
364.562	355.38
364.788	355.38
365.015	347.38
365.241	377.38
365.468	361.38
365.694	363.38
365.92	358.38
366.147	370.38
366.373	337.38
366.599	342.38
366.826	353.38
367.052	340.38
367.278	361.38
367.505	336.38
367.731	333.38
367.957	342.38
368.184	372.38
368.41	358.38
368.636	369.38
368.862	374.38
369.089	355.38
369.315	331.38
369.541	340.38
369.767	345.38
369.993	356.38
370.219	339.38
370.445	340.38
370.672	315.38
370.898	322.38
371.124	328.38
371.35	339.38
371.576	328.38
371.802	336.38
372.028	320.38
372.254	326.38
372.48	336.38
372.706	333.38
372.932	312.38
373.158	338.38
373.384	332.38
373.61	336.38
373.835	335.38
374.061	330.38
374.287	346.38
374.513	341.38
374.739	333.38
374.965	322.38
375.191	347.38
375.416	330.38
375.642	328.38
375.868	346.38
376.094	329.38
376.319	328.38
376.545	329.38
376.771	339.38
376.997	320.38
377.222	334.38
377.448	328.38
377.674	300.38
377.899	329.38
378.125	332.38
378.35	324.38
378.576	326.38
378.802	331.38
379.027	323.38
379.253	319.38
379.478	322.38
379.704	323.38
379.929	325.38
380.155	322.38
380.38	312.38
380.606	343.38
380.831	329.38
381.057	331.38
381.282	315.38
381.507	315.38
381.733	338.38
381.958	347.38
382.184	324.38
382.409	326.38
382.634	309.38
382.86	299.38
383.085	344.38
383.31	322.38
383.535	328.38
383.761	331.38
383.986	325.38
384.211	336.38
384.436	318.38
384.662	331.38
384.887	327.38
385.112	323.38
385.337	330.38
385.562	328.38
385.787	342.38
386.013	352.38
386.238	359.38
386.463	355.38
386.688	349.38
386.913	339.38
387.138	364.38
387.363	350.38
387.588	340.38
387.813	332.38
388.038	350.38
388.263	343.38
388.488	354.38
388.713	343.38
388.938	344.38
389.163	375.38
389.387	357.38
389.612	354.38
389.837	354.38
390.062	341.38
390.287	347.38
390.512	338.38
390.736	327.38
390.961	338.38
391.186	319.38
391.411	324.38
391.636	314.38
391.86	344.38
392.085	346.38
392.31	351.38
392.534	344.38
392.759	350.38
392.984	359.38
393.208	338.38
393.433	351.38
393.658	355.38
393.882	370.38
394.107	346.38
394.331	342.38
394.556	334.38
394.78	353.38
395.005	354.38
395.229	325.38
395.454	350.38
395.678	344.38
395.903	377.38
396.127	384.38
396.352	389.38
396.576	357.38
396.801	352.38
397.025	355.38
397.249	372.38
397.474	363.38
397.698	374.38
397.922	384.38
398.147	376.38
398.371	382.38
398.595	379.38
398.82	388.38
399.044	397.38
399.268	368.38
399.492	388.38
399.717	422.38
399.941	446.38
400.165	464.38
400.389	500.38
400.613	449.38
400.837	428.38
401.062	390.38
401.286	397.38
401.51	404.38
401.734	412.38
401.958	396.38
402.182	396.38
402.406	429.38
402.63	417.38
402.854	418.38
403.078	401.38
403.302	412.38
403.526	435.38
403.75	430.38
403.974	432.38
404.198	403.38
404.422	412.38
404.645	424.38
404.869	428.38
405.093	436.38
405.317	456.38
405.541	500.38
405.765	450.38
405.988	461.38
406.212	455.38
406.436	500.38
406.66	526.38
406.883	469.38
407.107	498.38
407.331	539.38
407.555	625.38
407.778	582.38
408.002	540.38
408.226	484.38
408.449	476.38
408.673	491.38
408.896	510.38
409.12	555.38
409.344	512.38
409.567	445.38
409.791	434.38
410.014	424.38
410.238	415.38
410.461	438.38
410.685	446.38
410.908	439.38
411.132	487.38
411.355	501.38
411.578	485.38
411.802	448.38
412.025	429.38
412.249	401.38
412.472	411.38
412.695	433.38
412.919	437.38
413.142	401.38
413.365	401.38
413.589	411.38
413.812	401.38
414.035	416.38
414.258	369.38
414.482	393.38
414.705	410.38
414.928	381.38
415.151	374.38
415.374	373.38
415.597	375.38
415.821	372.38
416.044	399.38
416.267	405.38
416.49	385.38
416.713	411.38
416.936	404.38
417.159	394.38
417.382	418.38
417.605	417.38
417.828	427.38
418.051	432.38
418.274	430.38
418.497	417.38
418.72	407.38
418.943	396.38
419.166	406.38
419.389	432.38
419.611	437.38
419.834	430.38
420.057	424.38
420.28	433.38
420.503	422.38
420.726	422.38
420.948	444.38
421.171	504.38
421.394	530.38
421.617	453.38
421.839	447.38
422.062	440.38
422.285	462.38
422.507	502.38
422.73	574.38
422.953	548.38
423.175	488.38
423.398	469.38
423.621	474.38
423.843	483.38
424.066	468.38
424.288	480.38
424.511	504.38
424.733	557.38
424.956	649.38
425.178	662.38
425.401	604.38
425.623	634.38
425.846	554.38
426.068	509.38
426.291	516.38
426.513	501.38
426.735	516.38
426.958	557.38
427.18	626.38
427.402	732.38
427.625	842.38
427.847	801.38
428.069	674.38
428.292	590.38
428.514	527.38
428.736	497.38
428.958	472.38
429.181	469.38
429.403	471.38
429.625	484.38
429.847	526.38
430.069	564.38
430.292	594.38
430.514	523.38
430.736	465.38
430.958	448.38
431.18	447.38
431.402	436.38
431.624	420.38
431.846	437.38
432.068	425.38
432.29	448.38
432.512	416.38
432.734	433.38
432.956	420.38
433.178	441.38
433.4	468.38
433.622	448.38
433.844	432.38
434.066	424.38
434.287	421.38
434.509	434.38
434.731	421.38
434.953	452.38
435.175	471.38
435.397	494.38
435.618	515.38
435.84	570.38
436.062	640.38
436.284	706.38
436.505	579.38
436.727	555.38
436.949	483.38
437.17	477.38
437.392	480.38
437.614	517.38
437.835	550.38
438.057	672.38
438.278	737.38
438.5	717.38
438.721	758.38
438.943	721.38
439.165	632.38
439.386	577.38
439.608	524.38
439.829	549.38
440.05	578.38
440.272	619.38
440.493	581.38
440.715	530.38
440.936	489.38
441.158	500.38
441.379	470.38
441.6	493.38
441.822	502.38
442.043	549.38
442.264	658.38
442.486	680.38
442.707	579.38
442.928	546.38
443.149	536.38
443.371	568.38
443.592	603.38
443.813	660.38
444.034	726.38
444.255	614.38
444.476	534.38
444.698	524.38
444.919	499.38
445.14	595.38
445.361	558.38
445.582	562.38
445.803	621.38
446.024	741.38
446.245	741.38
446.466	691.38
446.687	580.38
446.908	544.38
447.129	503.38
447.35	484.38
447.571	488.38
447.792	500.38
448.013	469.38
448.234	515.38
448.455	574.38
448.675	679.38
448.896	770.38
449.117	684.38
449.338	643.38
449.559	723.38
449.779	783.38
450	659.38
450.221	563.38
450.442	513.38
450.662	489.38
450.883	519.38
451.104	562.38
451.324	531.38
451.545	511.38
451.766	476.38
451.986	443.38
452.207	421.38
452.428	439.38
452.648	436.38
452.869	440.38
453.089	442.38
453.31	455.38
453.53	445.38
453.751	442.38
453.971	465.38
454.192	460.38
454.412	473.38
454.633	464.38
454.853	467.38
455.073	422.38
455.294	457.38
455.514	532.38
455.734	524.38
455.955	452.38
456.175	404.38
456.395	403.38
456.616	395.38
456.836	413.38
457.056	381.38
457.276	377.38
457.497	380.38
457.717	386.38
457.937	402.38
458.157	406.38
458.377	435.38
458.598	443.38
458.818	531.38
459.038	650.38
459.258	671.38
459.478	526.38
459.698	462.38
459.918	426.38
460.138	422.38
460.358	424.38
460.578	425.38
460.798	421.38
461.018	413.38
461.238	410.38
461.458	440.38
461.678	394.38
461.898	428.38
462.118	408.38
462.338	408.38
462.558	398.38
462.777	431.38
462.997	430.38
463.217	402.38
463.437	414.38
463.657	417.38
463.876	404.38
464.096	430.38
464.316	437.38
464.536	442.38
464.755	448.38
464.975	466.38
465.195	541.38
465.414	678.38
465.634	577.38
465.854	520.38
466.073	470.38
466.293	453.38
466.512	432.38
466.732	434.38
466.951	438.38
467.171	416.38
467.391	443.38
467.61	448.38
467.829	459.38
468.049	440.38
468.268	433.38
468.488	394.38
468.707	398.38
468.927	401.38
469.146	413.38
469.365	385.38
469.585	410.38
469.804	413.38
470.023	461.38
470.243	444.38
470.462	428.38
470.681	467.38
470.901	490.38
471.12	437.38
471.339	440.38
471.558	426.38
471.777	419.38
471.997	409.38
472.216	410.38
472.435	439.38
472.654	421.38
472.873	405.38
473.092	435.38
473.311	412.38
473.53	422.38
473.749	442.38
473.968	498.38
474.187	620.38
474.406	637.38
474.625	526.38
474.844	459.38
475.063	451.38
475.282	430.38
475.501	456.38
475.72	449.38
475.939	441.38
476.158	442.38
476.377	429.38
476.596	427.38
476.814	457.38
477.033	474.38
477.252	454.38
477.471	446.38
477.69	440.38
477.908	452.38
478.127	459.38
478.346	457.38
478.564	465.38
478.783	462.38
479.002	460.38
479.22	482.38
479.439	507.38
479.658	563.38
479.876	534.38
480.095	536.38
480.313	565.38
480.532	547.38
480.751	522.38
480.969	528.38
481.188	524.38
481.406	544.38
481.624	532.38
481.843	518.38
482.061	501.38
482.28	493.38
482.498	507.38
482.717	516.38
482.935	519.38
483.153	518.38
483.372	482.38
483.59	518.38
483.808	510.38
484.027	509.38
484.245	493.38
484.463	492.38
484.681	515.38
484.9	517.38
485.118	501.38
485.336	530.38
485.554	515.38
485.772	525.38
485.99	517.38
486.209	553.38
486.427	560.38
486.645	556.38
486.863	572.38
487.081	576.38
487.299	571.38
487.517	564.38
487.735	567.38
487.953	556.38
488.171	547.38
488.389	550.38
488.607	562.38
488.825	558.38
489.043	555.38
489.261	586.38
489.479	572.38
489.696	577.38
489.914	581.38
490.132	562.38
490.35	590.38
490.568	563.38
490.786	588.38
491.003	617.38
491.221	624.38
491.439	618.38
491.657	606.38
491.874	631.38
492.092	651.38
492.31	647.38
492.527	641.38
492.745	638.38
492.963	636.38
493.18	644.38
493.398	645.38
493.615	684.38
493.833	666.38
494.05	669.38
494.268	666.38
494.485	650.38
494.703	640.38
494.92	651.38
495.138	648.38
495.355	683.38
495.573	669.38
495.79	674.38
496.008	693.38
496.225	676.38
496.442	678.38
496.66	676.38
496.877	674.38
497.094	663.38
497.312	674.38
497.529	685.38
497.746	674.38
497.963	694.38
498.181	711.38
498.398	708.38
498.615	722.38
498.832	726.38
499.049	722.38
499.267	731.38
499.484	734.38
499.701	752.38
499.918	738.38
500.135	757.38
500.352	780.38
500.569	744.38
500.786	776.38
501.003	763.38
501.22	805.38
501.437	769.38
501.654	800.38
501.871	787.38
