Data from 1987.PennyLincolnUp.Lamp.En5.5.200Scan.071819.P2_HRD10591_17-16-25-971.txt Node
Date: Thu Jul 18 17:16:25 EDT 2019
User: cochatt
Spectrometer: HR+D1059
Trigger mode: 1
Integration Time (sec): 1.000000E-1
Scans to average: 1
Electric dark correction enabled: true
Nonlinearity correction enabled: false
Boxcar width: 0
XAxis mode: Wavelengths
Number of Pixels in Spectrum: 2048
>>>>>Begin Spectral Data<<<<<
223.165	-9.44
223.4	-9.44
223.635	-9.44
223.869	-15.44
224.104	-16.44
224.338	-9.44
224.573	-25.44
224.808	-12.44
225.042	-12.44
225.277	0.56
225.511	5.56
225.746	5.56
225.98	14.56
226.215	-9.44
226.449	14.56
226.683	17.56
226.918	18.56
227.152	33.56
227.387	39.56
227.621	37.56
227.856	50.56
228.09	29.56
228.324	51.56
228.559	42.56
228.793	70.56
229.027	113.56
229.262	113.56
229.496	101.56
229.73	142.56
229.964	171.56
230.199	147.56
230.433	134.56
230.667	131.56
230.901	121.56
231.136	112.56
231.37	116.56
231.604	130.56
231.838	112.56
232.072	102.56
232.306	118.56
232.541	124.56
232.775	133.56
233.009	114.56
233.243	126.56
233.477	140.56
233.711	115.56
233.945	112.56
234.179	112.56
234.413	107.56
234.647	114.56
234.881	119.56
235.115	114.56
235.349	110.56
235.583	122.56
235.817	135.56
236.051	126.56
236.285	103.56
236.519	133.56
236.753	146.56
236.987	156.56
237.221	212.56
237.455	268.56
237.689	205.56
237.922	165.56
238.156	136.56
238.39	144.56
238.624	138.56
238.858	126.56
239.091	134.56
239.325	132.56
239.559	124.56
239.793	134.56
240.027	138.56
240.26	147.56
240.494	159.56
240.728	156.56
240.961	159.56
241.195	143.56
241.429	142.56
241.662	135.56
241.896	135.56
242.13	126.56
242.363	140.56
242.597	145.56
242.83	134.56
243.064	127.56
243.298	143.56
243.531	133.56
243.765	136.56
243.998	136.56
244.232	132.56
244.465	147.56
244.699	133.56
244.932	137.56
245.166	142.56
245.399	118.56
245.633	127.56
245.866	129.56
246.099	152.56
246.333	149.56
246.566	156.56
246.8	152.56
247.033	147.56
247.266	152.56
247.5	149.56
247.733	149.56
247.966	164.56
248.2	170.56
248.433	153.56
248.666	172.56
248.899	187.56
249.133	201.56
249.366	227.56
249.599	211.56
249.832	185.56
250.066	198.56
250.299	184.56
250.532	188.56
250.765	190.56
250.998	226.56
251.231	225.56
251.465	216.56
251.698	228.56
251.931	195.56
252.164	189.56
252.397	196.56
252.63	201.56
252.863	198.56
253.096	227.56
253.329	229.56
253.562	214.56
253.795	227.56
254.028	224.56
254.261	214.56
254.494	241.56
254.727	270.56
254.96	288.56
255.193	289.56
255.426	265.56
255.659	235.56
255.892	225.56
256.124	242.56
256.357	237.56
256.59	215.56
256.823	217.56
257.056	198.56
257.289	213.56
257.521	216.56
257.754	194.56
257.987	201.56
258.22	199.56
258.452	206.56
258.685	206.56
258.918	201.56
259.151	197.56
259.383	206.56
259.616	211.56
259.849	214.56
260.081	241.56
260.314	248.56
260.547	274.56
260.779	254.56
261.012	227.56
261.244	214.56
261.477	225.56
261.71	200.56
261.942	244.56
262.175	249.56
262.407	242.56
262.64	214.56
262.872	206.56
263.105	198.56
263.337	202.56
263.57	211.56
263.802	206.56
264.035	193.56
264.267	195.56
264.499	191.56
264.732	199.56
264.964	204.56
265.197	211.56
265.429	207.56
265.661	187.56
265.894	193.56
266.126	197.56
266.358	198.56
266.591	196.56
266.823	214.56
267.055	203.56
267.287	200.56
267.52	232.56
267.752	221.56
267.984	208.56
268.216	219.56
268.448	200.56
268.681	217.56
268.913	242.56
269.145	248.56
269.377	249.56
269.609	296.56
269.841	270.56
270.073	265.56
270.306	279.56
270.538	323.56
270.77	316.56
271.002	286.56
271.234	295.56
271.466	297.56
271.698	312.56
271.93	313.56
272.162	312.56
272.394	315.56
272.626	310.56
272.858	295.56
273.09	277.56
273.322	274.56
273.553	251.56
273.785	260.56
274.017	237.56
274.249	271.56
274.481	246.56
274.713	260.56
274.945	251.56
275.176	269.56
275.408	253.56
275.64	255.56
275.872	250.56
276.104	235.56
276.335	235.56
276.567	252.56
276.799	296.56
277.031	301.56
277.262	317.56
277.494	308.56
277.726	306.56
277.957	278.56
278.189	266.56
278.421	256.56
278.652	239.56
278.884	231.56
279.115	242.56
279.347	237.56
279.579	229.56
279.81	232.56
280.042	238.56
280.273	232.56
280.505	215.56
280.736	230.56
280.968	229.56
281.199	224.56
281.431	243.56
281.662	232.56
281.894	235.56
282.125	248.56
282.356	264.56
282.588	297.56
282.819	299.56
283.051	257.56
283.282	235.56
283.513	229.56
283.745	239.56
283.976	241.56
284.207	243.56
284.439	245.56
284.67	247.56
284.901	232.56
285.132	243.56
285.364	242.56
285.595	237.56
285.826	238.56
286.057	245.56
286.288	242.56
286.52	241.56
286.751	236.56
286.982	232.56
287.213	242.56
287.444	237.56
287.675	252.56
287.906	242.56
288.138	256.56
288.369	261.56
288.6	269.56
288.831	237.56
289.062	265.56
289.293	253.56
289.524	247.56
289.755	266.56
289.986	252.56
290.217	236.56
290.448	250.56
290.679	240.56
290.91	242.56
291.141	248.56
291.371	258.56
291.602	233.56
291.833	240.56
292.064	245.56
292.295	259.56
292.526	257.56
292.757	243.56
292.987	253.56
293.218	237.56
293.449	258.56
293.68	226.56
293.91	235.56
294.141	244.56
294.372	246.56
294.603	259.56
294.833	242.56
295.064	236.56
295.295	254.56
295.525	230.56
295.756	248.56
295.987	275.56
296.217	290.56
296.448	304.56
296.679	265.56
296.909	249.56
297.14	266.56
297.37	257.56
297.601	237.56
297.831	242.56
298.062	260.56
298.292	246.56
298.523	260.56
298.753	261.56
298.984	240.56
299.214	255.56
299.445	262.56
299.675	263.56
299.905	272.56
300.136	262.56
300.366	276.56
300.597	260.56
300.827	264.56
301.057	286.56
301.288	292.56
301.518	270.56
301.748	285.56
301.979	270.56
302.209	270.56
302.439	273.56
302.669	271.56
302.9	281.56
303.13	280.56
303.36	277.56
303.59	284.56
303.82	304.56
304.051	278.56
304.281	268.56
304.511	284.56
304.741	277.56
304.971	290.56
305.201	286.56
305.431	283.56
305.661	275.56
305.891	269.56
306.121	284.56
306.352	278.56
306.582	316.56
306.812	305.56
307.042	295.56
307.272	284.56
307.502	298.56
307.731	298.56
307.961	286.56
308.191	276.56
308.421	282.56
308.651	276.56
308.881	299.56
309.111	303.56
309.341	302.56
309.571	316.56
309.8	314.56
310.03	339.56
310.26	349.56
310.49	353.56
310.72	364.56
310.949	374.56
311.179	396.56
311.409	348.56
311.639	343.56
311.868	353.56
312.098	348.56
312.328	359.56
312.557	398.56
312.787	406.56
313.017	416.56
313.246	382.56
313.476	352.56
313.706	344.56
313.935	349.56
314.165	377.56
314.394	400.56
314.624	373.56
314.853	359.56
315.083	371.56
315.312	361.56
315.542	332.56
315.771	321.56
316.001	336.56
316.23	333.56
316.46	339.56
316.689	340.56
316.919	354.56
317.148	372.56
317.377	359.56
317.607	343.56
317.836	357.56
318.065	345.56
318.295	336.56
318.524	360.56
318.753	322.56
318.983	338.56
319.212	337.56
319.441	363.56
319.67	375.56
319.9	356.56
320.129	332.56
320.358	344.56
320.587	361.56
320.816	362.56
321.046	373.56
321.275	386.56
321.504	387.56
321.733	393.56
321.962	393.56
322.191	413.56
322.42	437.56
322.649	459.56
322.878	465.56
323.108	488.56
323.337	537.56
323.566	541.56
323.795	632.56
324.024	677.56
324.253	907.56
324.482	1297.56
324.71	2009.56
324.939	2824.56
325.168	2449.56
325.397	1338.56
325.626	853.56
325.855	652.56
326.084	591.56
326.313	552.56
326.542	584.56
326.77	644.56
326.999	809.56
327.228	1095.56
327.457	1741.56
327.686	2120.56
327.914	1476.56
328.143	932.56
328.372	774.56
328.6	711.56
328.829	671.56
329.058	703.56
329.287	706.56
329.515	641.56
329.744	549.56
329.972	531.56
330.201	538.56
330.43	580.56
330.658	634.56
330.887	699.56
331.115	688.56
331.344	579.56
331.572	497.56
331.801	515.56
332.03	498.56
332.258	467.56
332.486	414.56
332.715	401.56
332.943	410.56
333.172	401.56
333.4	398.56
333.629	404.56
333.857	425.56
334.085	409.56
334.314	384.56
334.542	382.56
334.771	434.56
334.999	410.56
335.227	402.56
335.455	411.56
335.684	382.56
335.912	378.56
336.14	403.56
336.369	394.56
336.597	400.56
336.825	405.56
337.053	392.56
337.281	381.56
337.51	384.56
337.738	396.56
337.966	388.56
338.194	407.56
338.422	392.56
338.65	384.56
338.878	392.56
339.106	377.56
339.334	376.56
339.562	358.56
339.79	394.56
340.018	376.56
340.246	371.56
340.474	390.56
340.702	396.56
340.93	390.56
341.158	382.56
341.386	389.56
341.614	389.56
341.842	386.56
342.07	371.56
342.298	365.56
342.526	357.56
342.754	365.56
342.981	353.56
343.209	353.56
343.437	363.56
343.665	371.56
343.893	366.56
344.12	344.56
344.348	360.56
344.576	386.56
344.804	400.56
345.031	402.56
345.259	433.56
345.487	407.56
345.714	400.56
345.942	384.56
346.17	360.56
346.397	395.56
346.625	377.56
346.853	361.56
347.08	379.56
347.308	393.56
347.535	410.56
347.763	412.56
347.99	409.56
348.218	402.56
348.445	424.56
348.673	395.56
348.9	386.56
349.128	359.56
349.355	362.56
349.583	366.56
349.81	360.56
350.037	374.56
350.265	354.56
350.492	344.56
350.72	362.56
350.947	384.56
351.174	392.56
351.402	412.56
351.629	381.56
351.856	406.56
352.083	424.56
352.311	422.56
352.538	421.56
352.765	426.56
352.992	411.56
353.22	404.56
353.447	388.56
353.674	392.56
353.901	365.56
354.128	348.56
354.355	353.56
354.583	370.56
354.81	340.56
355.037	327.56
355.264	329.56
355.491	336.56
355.718	333.56
355.945	316.56
356.172	324.56
356.399	324.56
356.626	331.56
356.853	336.56
357.08	344.56
357.307	345.56
357.534	331.56
357.761	341.56
357.988	347.56
358.215	330.56
358.441	343.56
358.668	372.56
358.895	346.56
359.122	360.56
359.349	375.56
359.576	392.56
359.802	421.56
360.029	481.56
360.256	502.56
360.483	470.56
360.709	401.56
360.936	417.56
361.163	385.56
361.39	393.56
361.616	388.56
361.843	397.56
362.07	372.56
362.296	404.56
362.523	397.56
362.749	392.56
362.976	387.56
363.203	378.56
363.429	370.56
363.656	368.56
363.882	383.56
364.109	366.56
364.335	345.56
364.562	362.56
364.788	361.56
365.015	373.56
365.241	376.56
365.468	353.56
365.694	346.56
365.92	366.56
366.147	363.56
366.373	355.56
366.599	361.56
366.826	354.56
367.052	339.56
367.278	330.56
367.505	370.56
367.731	360.56
367.957	348.56
368.184	351.56
368.41	366.56
368.636	366.56
368.862	376.56
369.089	357.56
369.315	360.56
369.541	350.56
369.767	348.56
369.993	341.56
370.219	349.56
370.445	347.56
370.672	337.56
370.898	340.56
371.124	331.56
371.35	340.56
371.576	346.56
371.802	322.56
372.028	332.56
372.254	315.56
372.48	342.56
372.706	330.56
372.932	323.56
373.158	329.56
373.384	336.56
373.61	337.56
373.835	346.56
374.061	342.56
374.287	346.56
374.513	355.56
374.739	326.56
374.965	340.56
375.191	337.56
375.416	337.56
375.642	338.56
375.868	322.56
376.094	344.56
376.319	333.56
376.545	334.56
376.771	346.56
376.997	334.56
377.222	346.56
377.448	339.56
377.674	341.56
377.899	330.56
378.125	354.56
378.35	304.56
378.576	338.56
378.802	330.56
379.027	318.56
379.253	345.56
379.478	321.56
379.704	331.56
379.929	338.56
380.155	327.56
380.38	355.56
380.606	340.56
380.831	344.56
381.057	349.56
381.282	338.56
381.507	301.56
381.733	339.56
381.958	333.56
382.184	332.56
382.409	336.56
382.634	342.56
382.86	334.56
383.085	345.56
383.31	353.56
383.535	342.56
383.761	359.56
383.986	333.56
384.211	329.56
384.436	340.56
384.662	348.56
384.887	334.56
385.112	345.56
385.337	342.56
385.562	353.56
385.787	343.56
386.013	361.56
386.238	373.56
386.463	384.56
386.688	374.56
386.913	348.56
387.138	356.56
387.363	347.56
387.588	348.56
387.813	358.56
388.038	340.56
388.263	358.56
388.488	357.56
388.713	343.56
388.938	327.56
389.163	350.56
389.387	347.56
389.612	335.56
389.837	348.56
390.062	333.56
390.287	352.56
390.512	353.56
390.736	344.56
390.961	340.56
391.186	353.56
391.411	356.56
391.636	372.56
391.86	351.56
392.085	356.56
392.31	364.56
392.534	359.56
392.759	358.56
392.984	349.56
393.208	359.56
393.433	376.56
393.658	360.56
393.882	353.56
394.107	339.56
394.331	368.56
394.556	357.56
394.78	376.56
395.005	340.56
395.229	349.56
395.454	368.56
395.678	358.56
395.903	384.56
396.127	396.56
396.352	409.56
396.576	394.56
396.801	359.56
397.025	347.56
397.249	384.56
397.474	377.56
397.698	373.56
397.922	384.56
398.147	406.56
398.371	429.56
398.595	407.56
398.82	368.56
399.044	412.56
399.268	416.56
399.492	406.56
399.717	445.56
399.941	461.56
400.165	480.56
400.389	524.56
400.613	478.56
400.837	440.56
401.062	401.56
401.286	412.56
401.51	410.56
401.734	390.56
401.958	412.56
402.182	420.56
402.406	446.56
402.63	430.56
402.854	419.56
403.078	425.56
403.302	436.56
403.526	440.56
403.75	442.56
403.974	425.56
404.198	419.56
404.422	425.56
404.645	435.56
404.869	441.56
405.093	452.56
405.317	493.56
405.541	517.56
405.765	470.56
405.988	466.56
406.212	469.56
406.436	493.56
406.66	538.56
406.883	502.56
407.107	519.56
407.331	554.56
407.555	611.56
407.778	618.56
408.002	546.56
408.226	515.56
408.449	493.56
408.673	494.56
408.896	516.56
409.12	540.56
409.344	506.56
409.567	468.56
409.791	462.56
410.014	448.56
410.238	438.56
410.461	434.56
410.685	445.56
410.908	477.56
411.132	477.56
411.355	539.56
411.578	507.56
411.802	452.56
412.025	448.56
412.249	444.56
412.472	439.56
412.695	456.56
412.919	461.56
413.142	443.56
413.365	415.56
413.589	380.56
413.812	412.56
414.035	397.56
414.258	401.56
414.482	392.56
414.705	416.56
414.928	410.56
415.151	410.56
415.374	392.56
415.597	396.56
415.821	385.56
416.044	414.56
416.267	414.56
416.49	406.56
416.713	404.56
416.936	409.56
417.159	410.56
417.382	432.56
417.605	418.56
417.828	451.56
418.051	446.56
418.274	462.56
418.497	418.56
418.72	416.56
418.943	411.56
419.166	428.56
419.389	448.56
419.611	428.56
419.834	436.56
420.057	441.56
420.28	443.56
420.503	428.56
420.726	454.56
420.948	491.56
421.171	521.56
421.394	575.56
421.617	501.56
421.839	476.56
422.062	450.56
422.285	474.56
422.507	541.56
422.73	619.56
422.953	569.56
423.175	516.56
423.398	504.56
423.621	475.56
423.843	472.56
424.066	481.56
424.288	494.56
424.511	513.56
424.733	569.56
424.956	649.56
425.178	641.56
425.401	626.56
425.623	644.56
425.846	573.56
426.068	532.56
426.291	546.56
426.513	509.56
426.735	544.56
426.958	577.56
427.18	671.56
427.402	780.56
427.625	867.56
427.847	848.56
428.069	673.56
428.292	596.56
428.514	569.56
428.736	510.56
428.958	512.56
429.181	478.56
429.403	482.56
429.625	506.56
429.847	516.56
430.069	588.56
430.292	582.56
430.514	519.56
430.736	484.56
430.958	462.56
431.18	460.56
431.402	441.56
431.624	443.56
431.846	460.56
432.068	450.56
432.29	427.56
432.512	432.56
432.734	438.56
432.956	447.56
433.178	470.56
433.4	469.56
433.622	453.56
433.844	449.56
434.066	424.56
434.287	428.56
434.509	425.56
434.731	458.56
434.953	451.56
435.175	470.56
435.397	505.56
435.618	528.56
435.84	583.56
436.062	666.56
436.284	718.56
436.505	631.56
436.727	545.56
436.949	506.56
437.17	503.56
437.392	487.56
437.614	506.56
437.835	561.56
438.057	677.56
438.278	779.56
438.5	768.56
438.721	830.56
438.943	753.56
439.165	634.56
439.386	605.56
439.608	556.56
439.829	547.56
440.05	573.56
440.272	646.56
440.493	600.56
440.715	560.56
440.936	525.56
441.158	502.56
441.379	489.56
441.6	514.56
441.822	516.56
442.043	582.56
442.264	650.56
442.486	709.56
442.707	602.56
442.928	588.56
443.149	568.56
443.371	580.56
443.592	609.56
443.813	696.56
444.034	778.56
444.255	623.56
444.476	556.56
444.698	541.56
444.919	524.56
445.14	612.56
445.361	560.56
445.582	570.56
445.803	643.56
446.024	748.56
446.245	787.56
446.466	720.56
446.687	610.56
446.908	550.56
447.129	515.56
447.35	502.56
447.571	489.56
447.792	492.56
448.013	517.56
448.234	514.56
448.455	591.56
448.675	707.56
448.896	779.56
449.117	693.56
449.338	648.56
449.559	720.56
449.779	791.56
450	645.56
450.221	591.56
450.442	520.56
450.662	518.56
450.883	521.56
451.104	546.56
451.324	544.56
451.545	498.56
451.766	483.56
451.986	449.56
452.207	439.56
452.428	444.56
452.648	466.56
452.869	460.56
453.089	445.56
453.31	465.56
453.53	487.56
453.751	451.56
453.971	454.56
454.192	504.56
454.412	474.56
454.633	476.56
454.853	452.56
455.073	442.56
455.294	472.56
455.514	556.56
455.734	565.56
455.955	454.56
456.175	424.56
456.395	416.56
456.616	404.56
456.836	393.56
457.056	388.56
457.276	390.56
457.497	386.56
457.717	396.56
457.937	413.56
458.157	426.56
458.377	424.56
458.598	465.56
458.818	534.56
459.038	652.56
459.258	660.56
459.478	554.56
459.698	473.56
459.918	454.56
460.138	433.56
460.358	451.56
460.578	425.56
460.798	428.56
461.018	455.56
461.238	427.56
461.458	414.56
461.678	413.56
461.898	433.56
462.118	410.56
462.338	422.56
462.558	431.56
462.777	428.56
462.997	447.56
463.217	433.56
463.437	426.56
463.657	430.56
463.876	435.56
464.096	456.56
464.316	448.56
464.536	460.56
464.755	471.56
464.975	498.56
465.195	564.56
465.414	717.56
465.634	601.56
465.854	514.56
466.073	485.56
466.293	466.56
466.512	424.56
466.732	451.56
466.951	445.56
467.171	420.56
467.391	415.56
467.61	439.56
467.829	480.56
468.049	458.56
468.268	437.56
468.488	436.56
468.707	430.56
468.927	404.56
469.146	417.56
469.365	413.56
469.585	412.56
469.804	433.56
470.023	461.56
470.243	459.56
470.462	458.56
470.681	488.56
470.901	478.56
471.12	457.56
471.339	439.56
471.558	429.56
471.777	452.56
471.997	448.56
472.216	430.56
472.435	443.56
472.654	435.56
472.873	426.56
473.092	418.56
473.311	435.56
473.53	427.56
473.749	472.56
473.968	521.56
474.187	623.56
474.406	640.56
474.625	520.56
474.844	468.56
475.063	466.56
475.282	435.56
475.501	449.56
475.72	463.56
475.939	466.56
476.158	456.56
476.377	444.56
476.596	460.56
476.814	447.56
477.033	481.56
477.252	484.56
477.471	476.56
477.69	477.56
477.908	467.56
478.127	491.56
478.346	473.56
478.564	462.56
478.783	477.56
479.002	481.56
479.22	485.56
479.439	517.56
479.658	539.56
479.876	550.56
480.095	580.56
480.313	584.56
480.532	542.56
480.751	552.56
480.969	538.56
481.188	544.56
481.406	580.56
481.624	528.56
481.843	509.56
482.061	520.56
482.28	496.56
482.498	518.56
482.717	513.56
482.935	525.56
483.153	525.56
483.372	517.56
483.59	518.56
483.808	523.56
484.027	530.56
484.245	532.56
484.463	517.56
484.681	530.56
484.9	532.56
485.118	513.56
485.336	524.56
485.554	554.56
485.772	542.56
485.99	538.56
486.209	537.56
486.427	536.56
486.645	572.56
486.863	581.56
487.081	596.56
487.299	590.56
487.517	579.56
487.735	579.56
487.953	578.56
488.171	592.56
488.389	591.56
488.607	600.56
488.825	584.56
489.043	579.56
489.261	597.56
489.479	578.56
489.696	587.56
489.914	582.56
490.132	595.56
490.35	595.56
490.568	613.56
490.786	600.56
491.003	613.56
491.221	637.56
491.439	626.56
491.657	645.56
491.874	644.56
492.092	646.56
492.31	655.56
492.527	657.56
492.745	673.56
492.963	663.56
493.18	691.56
493.398	673.56
493.615	655.56
493.833	674.56
494.05	682.56
494.268	700.56
494.485	681.56
494.703	667.56
494.92	683.56
495.138	681.56
495.355	703.56
495.573	702.56
495.79	710.56
496.008	675.56
496.225	702.56
496.442	691.56
496.66	701.56
496.877	683.56
497.094	690.56
497.312	708.56
497.529	690.56
497.746	702.56
497.963	716.56
498.181	726.56
498.398	750.56
498.615	749.56
498.832	739.56
499.049	743.56
499.267	755.56
499.484	741.56
499.701	755.56
499.918	789.56
500.135	795.56
500.352	797.56
500.569	785.56
500.786	794.56
501.003	791.56
501.22	800.56
501.437	806.56
501.654	801.56
501.871	873.56
