Data from 1987.PennyLincolnUp.Lamp.En5.5.200Scan.071819.P2_HRD10591_17-16-27-971.txt Node
Date: Thu Jul 18 17:16:27 EDT 2019
User: cochatt
Spectrometer: HR+D1059
Trigger mode: 1
Integration Time (sec): 1.000000E-1
Scans to average: 1
Electric dark correction enabled: true
Nonlinearity correction enabled: false
Boxcar width: 0
XAxis mode: Wavelengths
Number of Pixels in Spectrum: 2048
>>>>>Begin Spectral Data<<<<<
223.165	-22.06
223.4	-22.06
223.635	-22.06
223.869	-26.06
224.104	-17.06
224.338	-16.06
224.573	-0.06
224.808	-15.06
225.042	-1.06
225.277	-9.06
225.511	-18.06
225.746	1.94
225.98	-1.06
226.215	10.94
226.449	11.94
226.683	39.94
226.918	23.94
227.152	36.94
227.387	33.94
227.621	41.94
227.856	44.94
228.09	55.94
228.324	58.94
228.559	53.94
228.793	74.94
229.027	90.94
229.262	110.94
229.496	125.94
229.73	136.94
229.964	177.94
230.199	147.94
230.433	123.94
230.667	116.94
230.901	116.94
231.136	130.94
231.37	120.94
231.604	105.94
231.838	107.94
232.072	109.94
232.306	113.94
232.541	101.94
232.775	119.94
233.009	117.94
233.243	104.94
233.477	125.94
233.711	118.94
233.945	108.94
234.179	113.94
234.413	128.94
234.647	112.94
234.881	121.94
235.115	122.94
235.349	131.94
235.583	132.94
235.817	133.94
236.051	134.94
236.285	128.94
236.519	120.94
236.753	126.94
236.987	140.94
237.221	199.94
237.455	280.94
237.689	214.94
237.922	145.94
238.156	160.94
238.39	146.94
238.624	139.94
238.858	131.94
239.091	144.94
239.325	127.94
239.559	137.94
239.793	131.94
240.027	147.94
240.26	154.94
240.494	154.94
240.728	156.94
240.961	165.94
241.195	141.94
241.429	138.94
241.662	134.94
241.896	123.94
242.13	138.94
242.363	133.94
242.597	123.94
242.83	139.94
243.064	144.94
243.298	129.94
243.531	132.94
243.765	125.94
243.998	144.94
244.232	132.94
244.465	129.94
244.699	160.94
244.932	148.94
245.166	145.94
245.399	148.94
245.633	137.94
245.866	137.94
246.099	147.94
246.333	147.94
246.566	141.94
246.8	149.94
247.033	155.94
247.266	156.94
247.5	172.94
247.733	159.94
247.966	178.94
248.2	161.94
248.433	160.94
248.666	178.94
248.899	177.94
249.133	217.94
249.366	217.94
249.599	203.94
249.832	195.94
250.066	186.94
250.299	184.94
250.532	166.94
250.765	191.94
250.998	219.94
251.231	217.94
251.465	217.94
251.698	211.94
251.931	188.94
252.164	182.94
252.397	198.94
252.63	206.94
252.863	197.94
253.096	225.94
253.329	229.94
253.562	229.94
253.795	197.94
254.028	226.94
254.261	219.94
254.494	228.94
254.727	272.94
254.96	282.94
255.193	268.94
255.426	244.94
255.659	246.94
255.892	224.94
256.124	223.94
256.357	217.94
256.59	227.94
256.823	228.94
257.056	214.94
257.289	195.94
257.521	211.94
257.754	217.94
257.987	211.94
258.22	211.94
258.452	196.94
258.685	198.94
258.918	191.94
259.151	210.94
259.383	205.94
259.616	225.94
259.849	225.94
260.081	223.94
260.314	246.94
260.547	263.94
260.779	261.94
261.012	237.94
261.244	221.94
261.477	210.94
261.71	217.94
261.942	217.94
262.175	252.94
262.407	243.94
262.64	211.94
262.872	219.94
263.105	213.94
263.337	212.94
263.57	200.94
263.802	211.94
264.035	185.94
264.267	179.94
264.499	201.94
264.732	203.94
264.964	210.94
265.197	206.94
265.429	180.94
265.661	209.94
265.894	192.94
266.126	193.94
266.358	206.94
266.591	192.94
266.823	193.94
267.055	195.94
267.287	197.94
267.52	197.94
267.752	210.94
267.984	201.94
268.216	204.94
268.448	212.94
268.681	217.94
268.913	241.94
269.145	252.94
269.377	260.94
269.609	279.94
269.841	255.94
270.073	276.94
270.306	273.94
270.538	295.94
270.77	312.94
271.002	307.94
271.234	293.94
271.466	303.94
271.698	292.94
271.93	301.94
272.162	319.94
272.394	303.94
272.626	295.94
272.858	289.94
273.09	273.94
273.322	249.94
273.553	243.94
273.785	244.94
274.017	244.94
274.249	260.94
274.481	242.94
274.713	250.94
274.945	243.94
275.176	229.94
275.408	243.94
275.64	239.94
275.872	240.94
276.104	244.94
276.335	227.94
276.567	257.94
276.799	273.94
277.031	298.94
277.262	319.94
277.494	291.94
277.726	293.94
277.957	282.94
278.189	257.94
278.421	263.94
278.652	264.94
278.884	244.94
279.115	241.94
279.347	259.94
279.579	239.94
279.81	230.94
280.042	241.94
280.273	239.94
280.505	230.94
280.736	230.94
280.968	217.94
281.199	219.94
281.431	235.94
281.662	211.94
281.894	221.94
282.125	235.94
282.356	251.94
282.588	273.94
282.819	300.94
283.051	243.94
283.282	227.94
283.513	232.94
283.745	240.94
283.976	222.94
284.207	264.94
284.439	262.94
284.67	233.94
284.901	239.94
285.132	250.94
285.364	217.94
285.595	232.94
285.826	227.94
286.057	244.94
286.288	234.94
286.52	241.94
286.751	216.94
286.982	221.94
287.213	237.94
287.444	248.94
287.675	260.94
287.906	258.94
288.138	274.94
288.369	262.94
288.6	254.94
288.831	251.94
289.062	256.94
289.293	249.94
289.524	246.94
289.755	229.94
289.986	227.94
290.217	241.94
290.448	239.94
290.679	231.94
290.91	241.94
291.141	240.94
291.371	247.94
291.602	237.94
291.833	230.94
292.064	236.94
292.295	228.94
292.526	247.94
292.757	227.94
292.987	242.94
293.218	253.94
293.449	244.94
293.68	251.94
293.91	228.94
294.141	254.94
294.372	249.94
294.603	247.94
294.833	241.94
295.064	233.94
295.295	239.94
295.525	244.94
295.756	251.94
295.987	255.94
296.217	283.94
296.448	320.94
296.679	271.94
296.909	261.94
297.14	231.94
297.37	241.94
297.601	242.94
297.831	231.94
298.062	269.94
298.292	253.94
298.523	256.94
298.753	245.94
298.984	263.94
299.214	255.94
299.445	278.94
299.675	267.94
299.905	262.94
300.136	262.94
300.366	246.94
300.597	263.94
300.827	263.94
301.057	263.94
301.288	298.94
301.518	277.94
301.748	263.94
301.979	267.94
302.209	274.94
302.439	273.94
302.669	279.94
302.9	266.94
303.13	252.94
303.36	274.94
303.59	273.94
303.82	303.94
304.051	268.94
304.281	296.94
304.511	259.94
304.741	265.94
304.971	271.94
305.201	266.94
305.431	273.94
305.661	281.94
305.891	256.94
306.121	281.94
306.352	298.94
306.582	292.94
306.812	284.94
307.042	263.94
307.272	276.94
307.502	273.94
307.731	282.94
307.961	279.94
308.191	298.94
308.421	278.94
308.651	284.94
308.881	284.94
309.111	301.94
309.341	304.94
309.571	313.94
309.8	312.94
310.03	326.94
310.26	365.94
310.49	341.94
310.72	359.94
310.949	379.94
311.179	405.94
311.409	373.94
311.639	356.94
311.868	363.94
312.098	362.94
312.328	346.94
312.557	382.94
312.787	396.94
313.017	419.94
313.246	383.94
313.476	358.94
313.706	350.94
313.935	353.94
314.165	383.94
314.394	375.94
314.624	390.94
314.853	351.94
315.083	361.94
315.312	355.94
315.542	335.94
315.771	331.94
316.001	338.94
316.23	325.94
316.46	324.94
316.689	331.94
316.919	345.94
317.148	353.94
317.377	365.94
317.607	354.94
317.836	346.94
318.065	345.94
318.295	322.94
318.524	328.94
318.753	330.94
318.983	315.94
319.212	362.94
319.441	343.94
319.67	359.94
319.9	349.94
320.129	330.94
320.358	335.94
320.587	364.94
320.816	364.94
321.046	369.94
321.275	367.94
321.504	377.94
321.733	372.94
321.962	381.94
322.191	386.94
322.42	437.94
322.649	461.94
322.878	465.94
323.108	485.94
323.337	535.94
323.566	581.94
323.795	610.94
324.024	679.94
324.253	866.94
324.482	1330.94
324.71	2002.94
324.939	2791.94
325.168	2438.94
325.397	1322.94
325.626	849.94
325.855	679.94
326.084	579.94
326.313	562.94
326.542	575.94
326.77	657.94
326.999	797.94
327.228	1111.94
327.457	1705.94
327.686	2117.94
327.914	1441.94
328.143	939.94
328.372	781.94
328.6	691.94
328.829	641.94
329.058	652.94
329.287	678.94
329.515	630.94
329.744	548.94
329.972	507.94
330.201	516.94
330.43	552.94
330.658	618.94
330.887	722.94
331.115	708.94
331.344	576.94
331.572	522.94
331.801	480.94
332.03	489.94
332.258	476.94
332.486	439.94
332.715	409.94
332.943	411.94
333.172	419.94
333.4	393.94
333.629	392.94
333.857	423.94
334.085	421.94
334.314	397.94
334.542	427.94
334.771	432.94
334.999	423.94
335.227	391.94
335.455	382.94
335.684	392.94
335.912	379.94
336.14	371.94
336.369	382.94
336.597	388.94
336.825	433.94
337.053	398.94
337.281	375.94
337.51	382.94
337.738	394.94
337.966	392.94
338.194	404.94
338.422	401.94
338.65	383.94
338.878	384.94
339.106	384.94
339.334	360.94
339.562	376.94
339.79	374.94
340.018	385.94
340.246	387.94
340.474	398.94
340.702	390.94
340.93	378.94
341.158	365.94
341.386	375.94
341.614	368.94
341.842	371.94
342.07	381.94
342.298	385.94
342.526	376.94
342.754	362.94
342.981	364.94
343.209	336.94
343.437	347.94
343.665	352.94
343.893	342.94
344.12	348.94
344.348	367.94
344.576	384.94
344.804	391.94
345.031	391.94
345.259	417.94
345.487	406.94
345.714	390.94
345.942	376.94
346.17	387.94
346.397	371.94
346.625	396.94
346.853	385.94
347.08	391.94
347.308	377.94
347.535	410.94
347.763	393.94
347.99	395.94
348.218	391.94
348.445	428.94
348.673	416.94
348.9	375.94
349.128	405.94
349.355	369.94
349.583	344.94
349.81	370.94
350.037	357.94
350.265	355.94
350.492	355.94
350.72	364.94
350.947	381.94
351.174	392.94
351.402	407.94
351.629	386.94
351.856	395.94
352.083	409.94
352.311	429.94
352.538	422.94
352.765	413.94
352.992	404.94
353.22	407.94
353.447	384.94
353.674	380.94
353.901	355.94
354.128	332.94
354.355	349.94
354.583	340.94
354.81	346.94
355.037	331.94
355.264	335.94
355.491	334.94
355.718	315.94
355.945	340.94
356.172	333.94
356.399	344.94
356.626	313.94
356.853	318.94
357.08	324.94
357.307	333.94
357.534	337.94
357.761	330.94
357.988	333.94
358.215	338.94
358.441	333.94
358.668	345.94
358.895	334.94
359.122	353.94
359.349	392.94
359.576	383.94
359.802	435.94
360.029	469.94
360.256	509.94
360.483	442.94
360.709	408.94
360.936	391.94
361.163	380.94
361.39	425.94
361.616	387.94
361.843	376.94
362.07	378.94
362.296	401.94
362.523	385.94
362.749	398.94
362.976	379.94
363.203	359.94
363.429	369.94
363.656	363.94
363.882	345.94
364.109	364.94
364.335	347.94
364.562	344.94
364.788	362.94
365.015	348.94
365.241	360.94
365.468	365.94
365.694	379.94
365.92	383.94
366.147	371.94
366.373	359.94
366.599	354.94
366.826	338.94
367.052	359.94
367.278	342.94
367.505	356.94
367.731	372.94
367.957	341.94
368.184	342.94
368.41	372.94
368.636	359.94
368.862	391.94
369.089	372.94
369.315	341.94
369.541	351.94
369.767	337.94
369.993	370.94
370.219	345.94
370.445	329.94
370.672	328.94
370.898	329.94
371.124	332.94
371.35	320.94
371.576	328.94
371.802	335.94
372.028	320.94
372.254	344.94
372.48	335.94
372.706	335.94
372.932	349.94
373.158	338.94
373.384	344.94
373.61	325.94
373.835	328.94
374.061	323.94
374.287	339.94
374.513	343.94
374.739	347.94
374.965	332.94
375.191	346.94
375.416	341.94
375.642	330.94
375.868	337.94
376.094	342.94
376.319	335.94
376.545	329.94
376.771	316.94
376.997	324.94
377.222	336.94
377.448	344.94
377.674	325.94
377.899	350.94
378.125	318.94
378.35	333.94
378.576	323.94
378.802	336.94
379.027	333.94
379.253	315.94
379.478	336.94
379.704	332.94
379.929	335.94
380.155	341.94
380.38	362.94
380.606	327.94
380.831	332.94
381.057	340.94
381.282	324.94
381.507	347.94
381.733	344.94
381.958	345.94
382.184	344.94
382.409	321.94
382.634	330.94
382.86	336.94
383.085	341.94
383.31	343.94
383.535	332.94
383.761	325.94
383.986	343.94
384.211	329.94
384.436	329.94
384.662	351.94
384.887	336.94
385.112	345.94
385.337	361.94
385.562	337.94
385.787	341.94
386.013	363.94
386.238	383.94
386.463	360.94
386.688	371.94
386.913	335.94
387.138	362.94
387.363	353.94
387.588	346.94
387.813	326.94
388.038	335.94
388.263	345.94
388.488	354.94
388.713	350.94
388.938	352.94
389.163	353.94
389.387	360.94
389.612	354.94
389.837	356.94
390.062	338.94
390.287	338.94
390.512	341.94
390.736	355.94
390.961	338.94
391.186	344.94
391.411	345.94
391.636	357.94
391.86	350.94
392.085	363.94
392.31	346.94
392.534	349.94
392.759	362.94
392.984	353.94
393.208	361.94
393.433	356.94
393.658	326.94
393.882	349.94
394.107	337.94
394.331	332.94
394.556	355.94
394.78	360.94
395.005	352.94
395.229	355.94
395.454	377.94
395.678	367.94
395.903	386.94
396.127	394.94
396.352	411.94
396.576	392.94
396.801	362.94
397.025	365.94
397.249	363.94
397.474	386.94
397.698	369.94
397.922	385.94
398.147	401.94
398.371	425.94
398.595	415.94
398.82	388.94
399.044	385.94
399.268	396.94
399.492	425.94
399.717	415.94
399.941	450.94
400.165	487.94
400.389	485.94
400.613	457.94
400.837	418.94
401.062	405.94
401.286	403.94
401.51	400.94
401.734	403.94
401.958	409.94
402.182	408.94
402.406	438.94
402.63	417.94
402.854	412.94
403.078	417.94
403.302	442.94
403.526	433.94
403.75	414.94
403.974	403.94
404.198	411.94
404.422	409.94
404.645	415.94
404.869	426.94
405.093	435.94
405.317	465.94
405.541	490.94
405.765	496.94
405.988	453.94
406.212	471.94
406.436	506.94
406.66	542.94
406.883	493.94
407.107	485.94
407.331	542.94
407.555	606.94
407.778	583.94
408.002	538.94
408.226	497.94
408.449	465.94
408.673	479.94
408.896	529.94
409.12	560.94
409.344	533.94
409.567	471.94
409.791	445.94
410.014	449.94
410.238	418.94
410.461	419.94
410.685	440.94
410.908	453.94
411.132	484.94
411.355	538.94
411.578	539.94
411.802	461.94
412.025	439.94
412.249	433.94
412.472	435.94
412.695	450.94
412.919	401.94
413.142	435.94
413.365	405.94
413.589	427.94
413.812	396.94
414.035	399.94
414.258	396.94
414.482	424.94
414.705	403.94
414.928	389.94
415.151	396.94
415.374	386.94
415.597	394.94
415.821	386.94
416.044	390.94
416.267	405.94
416.49	438.94
416.713	401.94
416.936	397.94
417.159	411.94
417.382	416.94
417.605	419.94
417.828	431.94
418.051	443.94
418.274	424.94
418.497	402.94
418.72	403.94
418.943	391.94
419.166	417.94
419.389	417.94
419.611	441.94
419.834	427.94
420.057	449.94
420.28	436.94
420.503	452.94
420.726	427.94
420.948	456.94
421.171	507.94
421.394	531.94
421.617	463.94
421.839	445.94
422.062	468.94
422.285	472.94
422.507	511.94
422.73	609.94
422.953	604.94
423.175	504.94
423.398	475.94
423.621	481.94
423.843	489.94
424.066	521.94
424.288	497.94
424.511	534.94
424.733	564.94
424.956	668.94
425.178	644.94
425.401	637.94
425.623	643.94
425.846	560.94
426.068	497.94
426.291	515.94
426.513	522.94
426.735	522.94
426.958	567.94
427.18	643.94
427.402	782.94
427.625	879.94
427.847	837.94
428.069	667.94
428.292	559.94
428.514	549.94
428.736	515.94
428.958	485.94
429.181	480.94
429.403	466.94
429.625	484.94
429.847	524.94
430.069	586.94
430.292	596.94
430.514	503.94
430.736	472.94
430.958	468.94
431.18	450.94
431.402	444.94
431.624	439.94
431.846	427.94
432.068	437.94
432.29	411.94
432.512	442.94
432.734	457.94
432.956	437.94
433.178	442.94
433.4	459.94
433.622	437.94
433.844	437.94
434.066	430.94
434.287	415.94
434.509	435.94
434.731	441.94
434.953	441.94
435.175	462.94
435.397	487.94
435.618	519.94
435.84	581.94
436.062	659.94
436.284	722.94
436.505	614.94
436.727	579.94
436.949	515.94
437.17	492.94
437.392	482.94
437.614	492.94
437.835	564.94
438.057	673.94
438.278	791.94
438.5	743.94
438.721	806.94
438.943	744.94
439.165	641.94
439.386	563.94
439.608	573.94
439.829	562.94
440.05	582.94
440.272	627.94
440.493	597.94
440.715	570.94
440.936	495.94
441.158	510.94
441.379	475.94
441.6	492.94
441.822	540.94
442.043	564.94
442.264	653.94
442.486	682.94
442.707	595.94
442.928	553.94
443.149	547.94
443.371	549.94
443.592	607.94
443.813	687.94
444.034	745.94
444.255	637.94
444.476	555.94
444.698	527.94
444.919	504.94
445.14	595.94
445.361	578.94
445.582	588.94
445.803	660.94
446.024	746.94
446.245	787.94
446.466	697.94
446.687	612.94
446.908	543.94
447.129	505.94
447.35	497.94
447.571	493.94
447.792	482.94
448.013	501.94
448.234	521.94
448.455	571.94
448.675	711.94
448.896	796.94
449.117	691.94
449.338	643.94
449.559	713.94
449.779	801.94
450	696.94
450.221	551.94
450.442	524.94
450.662	509.94
450.883	510.94
451.104	571.94
451.324	533.94
451.545	495.94
451.766	475.94
451.986	456.94
452.207	439.94
452.428	437.94
452.648	441.94
452.869	447.94
453.089	461.94
453.31	455.94
453.53	469.94
453.751	467.94
453.971	456.94
454.192	502.94
454.412	467.94
454.633	466.94
454.853	459.94
455.073	443.94
455.294	484.94
455.514	515.94
455.734	513.94
455.955	445.94
456.175	439.94
456.395	409.94
456.616	381.94
456.836	393.94
457.056	377.94
457.276	388.94
457.497	371.94
457.717	394.94
457.937	402.94
458.157	399.94
458.377	424.94
458.598	444.94
458.818	537.94
459.038	667.94
459.258	663.94
459.478	536.94
459.698	480.94
459.918	437.94
460.138	438.94
460.358	437.94
460.578	433.94
460.798	446.94
461.018	427.94
461.238	423.94
461.458	434.94
461.678	406.94
461.898	420.94
462.118	415.94
462.338	424.94
462.558	435.94
462.777	412.94
462.997	397.94
463.217	419.94
463.437	420.94
463.657	440.94
463.876	440.94
464.096	425.94
464.316	472.94
464.536	476.94
464.755	474.94
464.975	504.94
465.195	576.94
465.414	694.94
465.634	621.94
465.854	533.94
466.073	522.94
466.293	465.94
466.512	441.94
466.732	439.94
466.951	426.94
467.171	423.94
467.391	435.94
467.61	459.94
467.829	446.94
468.049	451.94
468.268	441.94
468.488	434.94
468.707	423.94
468.927	395.94
469.146	388.94
469.365	423.94
469.585	409.94
469.804	406.94
470.023	442.94
470.243	445.94
470.462	449.94
470.681	487.94
470.901	475.94
471.12	456.94
471.339	443.94
471.558	469.94
471.777	418.94
471.997	412.94
472.216	422.94
472.435	446.94
472.654	422.94
472.873	417.94
473.092	431.94
473.311	413.94
473.53	434.94
473.749	460.94
473.968	513.94
474.187	613.94
474.406	645.94
474.625	504.94
474.844	476.94
475.063	433.94
475.282	437.94
475.501	432.94
475.72	448.94
475.939	439.94
476.158	447.94
476.377	446.94
476.596	443.94
476.814	449.94
477.033	472.94
477.252	473.94
477.471	471.94
477.69	471.94
477.908	455.94
478.127	443.94
478.346	489.94
478.564	465.94
478.783	476.94
479.002	475.94
479.22	474.94
479.439	500.94
479.658	528.94
479.876	530.94
480.095	544.94
480.313	551.94
480.532	539.94
480.751	539.94
480.969	534.94
481.188	539.94
481.406	562.94
481.624	545.94
481.843	517.94
482.061	531.94
482.28	521.94
482.498	492.94
482.717	520.94
482.935	545.94
483.153	529.94
483.372	508.94
483.59	534.94
483.808	526.94
484.027	523.94
484.245	509.94
484.463	540.94
484.681	537.94
484.9	517.94
485.118	521.94
485.336	539.94
485.554	532.94
485.772	518.94
485.99	548.94
486.209	537.94
486.427	521.94
486.645	533.94
486.863	583.94
487.081	591.94
487.299	571.94
487.517	588.94
487.735	575.94
487.953	545.94
488.171	566.94
488.389	591.94
488.607	580.94
488.825	564.94
489.043	554.94
489.261	583.94
489.479	570.94
489.696	573.94
489.914	586.94
490.132	586.94
490.35	607.94
490.568	597.94
490.786	609.94
491.003	616.94
491.221	626.94
491.439	660.94
491.657	626.94
491.874	649.94
492.092	677.94
492.31	652.94
492.527	660.94
492.745	659.94
492.963	673.94
493.18	678.94
493.398	691.94
493.615	665.94
493.833	659.94
494.05	672.94
494.268	700.94
494.485	688.94
494.703	703.94
494.92	693.94
495.138	707.94
495.355	692.94
495.573	671.94
495.79	687.94
496.008	677.94
496.225	692.94
496.442	678.94
496.66	673.94
496.877	676.94
497.094	698.94
497.312	685.94
497.529	673.94
497.746	711.94
497.963	722.94
498.181	728.94
498.398	728.94
498.615	714.94
498.832	739.94
499.049	738.94
499.267	740.94
499.484	748.94
499.701	753.94
499.918	773.94
500.135	755.94
500.352	775.94
500.569	787.94
500.786	807.94
501.003	826.94
501.22	817.94
501.437	811.94
501.654	781.94
501.871	804.94
