Data from 1987.PennyLincolnUp.Lamp.En5.5.200Scan.071819.P2_HRD10591_17-14-51-971.txt Node
Date: Thu Jul 18 17:14:51 EDT 2019
User: cochatt
Spectrometer: HR+D1059
Trigger mode: 1
Integration Time (sec): 1.000000E-1
Scans to average: 1
Electric dark correction enabled: true
Nonlinearity correction enabled: false
Boxcar width: 0
XAxis mode: Wavelengths
Number of Pixels in Spectrum: 2048
>>>>>Begin Spectral Data<<<<<
223.165	-19.19
223.4	-19.19
223.635	-19.19
223.869	-14.19
224.104	-21.19
224.338	-15.19
224.573	-22.19
224.808	-0.19
225.042	4.81
225.277	-10.19
225.511	-5.19
225.746	-4.19
225.98	11.81
226.215	8.81
226.449	12.81
226.683	17.81
226.918	26.81
227.152	28.81
227.387	33.81
227.621	34.81
227.856	41.81
228.09	44.81
228.324	46.81
228.559	53.81
228.793	81.81
229.027	122.81
229.262	112.81
229.496	122.81
229.73	125.81
229.964	166.81
230.199	132.81
230.433	125.81
230.667	112.81
230.901	126.81
231.136	125.81
231.37	131.81
231.604	125.81
231.838	119.81
232.072	113.81
232.306	123.81
232.541	130.81
232.775	119.81
233.009	124.81
233.243	124.81
233.477	107.81
233.711	119.81
233.945	118.81
234.179	118.81
234.413	115.81
234.647	124.81
234.881	117.81
235.115	118.81
235.349	112.81
235.583	128.81
235.817	117.81
236.051	128.81
236.285	140.81
236.519	131.81
236.753	145.81
236.987	152.81
237.221	192.81
237.455	249.81
237.689	204.81
237.922	150.81
238.156	128.81
238.39	140.81
238.624	128.81
238.858	126.81
239.091	141.81
239.325	143.81
239.559	117.81
239.793	117.81
240.027	135.81
240.26	132.81
240.494	162.81
240.728	150.81
240.961	132.81
241.195	148.81
241.429	146.81
241.662	133.81
241.896	144.81
242.13	114.81
242.363	132.81
242.597	119.81
242.83	128.81
243.064	119.81
243.298	126.81
243.531	128.81
243.765	136.81
243.998	142.81
244.232	135.81
244.465	158.81
244.699	137.81
244.932	130.81
245.166	150.81
245.399	146.81
245.633	134.81
245.866	133.81
246.099	134.81
246.333	149.81
246.566	151.81
246.8	141.81
247.033	153.81
247.266	161.81
247.5	152.81
247.733	176.81
247.966	155.81
248.2	160.81
248.433	162.81
248.666	163.81
248.899	184.81
249.133	198.81
249.366	201.81
249.599	196.81
249.832	166.81
250.066	183.81
250.299	182.81
250.532	181.81
250.765	205.81
250.998	216.81
251.231	201.81
251.465	198.81
251.698	188.81
251.931	194.81
252.164	198.81
252.397	210.81
252.63	198.81
252.863	210.81
253.096	201.81
253.329	212.81
253.562	217.81
253.795	227.81
254.028	211.81
254.261	198.81
254.494	225.81
254.727	243.81
254.96	284.81
255.193	268.81
255.426	253.81
255.659	228.81
255.892	218.81
256.124	209.81
256.357	204.81
256.59	205.81
256.823	191.81
257.056	204.81
257.289	188.81
257.521	207.81
257.754	205.81
257.987	203.81
258.22	203.81
258.452	207.81
258.685	208.81
258.918	199.81
259.151	202.81
259.383	204.81
259.616	217.81
259.849	217.81
260.081	228.81
260.314	241.81
260.547	239.81
260.779	225.81
261.012	223.81
261.244	208.81
261.477	222.81
261.71	218.81
261.942	233.81
262.175	247.81
262.407	231.81
262.64	218.81
262.872	202.81
263.105	208.81
263.337	194.81
263.57	188.81
263.802	181.81
264.035	190.81
264.267	182.81
264.499	183.81
264.732	186.81
264.964	196.81
265.197	187.81
265.429	188.81
265.661	186.81
265.894	199.81
266.126	203.81
266.358	207.81
266.591	203.81
266.823	183.81
267.055	212.81
267.287	196.81
267.52	210.81
267.752	212.81
267.984	232.81
268.216	225.81
268.448	218.81
268.681	208.81
268.913	219.81
269.145	232.81
269.377	264.81
269.609	267.81
269.841	250.81
270.073	253.81
270.306	271.81
270.538	292.81
270.77	309.81
271.002	308.81
271.234	289.81
271.466	294.81
271.698	307.81
271.93	312.81
272.162	299.81
272.394	296.81
272.626	297.81
272.858	275.81
273.09	278.81
273.322	276.81
273.553	231.81
273.785	252.81
274.017	246.81
274.249	241.81
274.481	246.81
274.713	243.81
274.945	238.81
275.176	241.81
275.408	233.81
275.64	238.81
275.872	236.81
276.104	233.81
276.335	238.81
276.567	254.81
276.799	273.81
277.031	278.81
277.262	316.81
277.494	297.81
277.726	267.81
277.957	271.81
278.189	253.81
278.421	236.81
278.652	225.81
278.884	222.81
279.115	216.81
279.347	215.81
279.579	229.81
279.81	231.81
280.042	222.81
280.273	237.81
280.505	232.81
280.736	231.81
280.968	226.81
281.199	221.81
281.431	206.81
281.662	206.81
281.894	215.81
282.125	229.81
282.356	242.81
282.588	277.81
282.819	273.81
283.051	240.81
283.282	234.81
283.513	223.81
283.745	222.81
283.976	224.81
284.207	244.81
284.439	237.81
284.67	238.81
284.901	234.81
285.132	229.81
285.364	222.81
285.595	236.81
285.826	244.81
286.057	243.81
286.288	221.81
286.52	240.81
286.751	232.81
286.982	240.81
287.213	238.81
287.444	248.81
287.675	232.81
287.906	235.81
288.138	244.81
288.369	244.81
288.6	248.81
288.831	272.81
289.062	240.81
289.293	224.81
289.524	235.81
289.755	245.81
289.986	238.81
290.217	232.81
290.448	235.81
290.679	232.81
290.91	223.81
291.141	228.81
291.371	241.81
291.602	233.81
291.833	232.81
292.064	234.81
292.295	230.81
292.526	250.81
292.757	235.81
292.987	234.81
293.218	234.81
293.449	238.81
293.68	249.81
293.91	237.81
294.141	235.81
294.372	240.81
294.603	249.81
294.833	254.81
295.064	226.81
295.295	226.81
295.525	234.81
295.756	256.81
295.987	241.81
296.217	308.81
296.448	308.81
296.679	260.81
296.909	247.81
297.14	250.81
297.37	242.81
297.601	222.81
297.831	238.81
298.062	253.81
298.292	245.81
298.523	255.81
298.753	247.81
298.984	257.81
299.214	231.81
299.445	247.81
299.675	266.81
299.905	275.81
300.136	242.81
300.366	255.81
300.597	246.81
300.827	269.81
301.057	264.81
301.288	256.81
301.518	282.81
301.748	264.81
301.979	263.81
302.209	267.81
302.439	275.81
302.669	260.81
302.9	257.81
303.13	269.81
303.36	276.81
303.59	283.81
303.82	285.81
304.051	280.81
304.281	270.81
304.511	275.81
304.741	276.81
304.971	263.81
305.201	265.81
305.431	265.81
305.661	264.81
305.891	264.81
306.121	274.81
306.352	288.81
306.582	274.81
306.812	273.81
307.042	264.81
307.272	270.81
307.502	285.81
307.731	270.81
307.961	281.81
308.191	282.81
308.421	279.81
308.651	270.81
308.881	277.81
309.111	309.81
309.341	297.81
309.571	294.81
309.8	320.81
310.03	333.81
310.26	326.81
310.49	335.81
310.72	366.81
310.949	361.81
311.179	376.81
311.409	360.81
311.639	354.81
311.868	349.81
312.098	358.81
312.328	364.81
312.557	352.81
312.787	384.81
313.017	380.81
313.246	359.81
313.476	334.81
313.706	331.81
313.935	342.81
314.165	347.81
314.394	353.81
314.624	380.81
314.853	342.81
315.083	358.81
315.312	328.81
315.542	327.81
315.771	325.81
316.001	312.81
316.23	312.81
316.46	322.81
316.689	346.81
316.919	332.81
317.148	340.81
317.377	367.81
317.607	348.81
317.836	340.81
318.065	321.81
318.295	343.81
318.524	320.81
318.753	318.81
318.983	312.81
319.212	342.81
319.441	357.81
319.67	365.81
319.9	348.81
320.129	345.81
320.358	333.81
320.587	324.81
320.816	351.81
321.046	356.81
321.275	347.81
321.504	362.81
321.733	363.81
321.962	398.81
322.191	396.81
322.42	402.81
322.649	453.81
322.878	433.81
323.108	472.81
323.337	485.81
323.566	528.81
323.795	564.81
324.024	639.81
324.253	822.81
324.482	1153.81
324.71	1769.81
324.939	2490.81
325.168	2182.81
325.397	1222.81
325.626	787.81
325.855	608.81
326.084	564.81
326.313	520.81
326.542	526.81
326.77	592.81
326.999	723.81
327.228	1002.81
327.457	1561.81
327.686	1906.81
327.914	1308.81
328.143	830.81
328.372	704.81
328.6	650.81
328.829	602.81
329.058	635.81
329.287	624.81
329.515	607.81
329.744	508.81
329.972	480.81
330.201	495.81
330.43	510.81
330.658	564.81
330.887	643.81
331.115	659.81
331.344	507.81
331.572	468.81
331.801	472.81
332.03	472.81
332.258	438.81
332.486	413.81
332.715	380.81
332.943	386.81
333.172	394.81
333.4	394.81
333.629	422.81
333.857	406.81
334.085	378.81
334.314	383.81
334.542	396.81
334.771	394.81
334.999	392.81
335.227	394.81
335.455	380.81
335.684	387.81
335.912	358.81
336.14	382.81
336.369	365.81
336.597	392.81
336.825	374.81
337.053	382.81
337.281	374.81
337.51	345.81
337.738	376.81
337.966	344.81
338.194	380.81
338.422	369.81
338.65	381.81
338.878	366.81
339.106	344.81
339.334	344.81
339.562	360.81
339.79	374.81
340.018	364.81
340.246	378.81
340.474	367.81
340.702	362.81
340.93	363.81
341.158	357.81
341.386	366.81
341.614	370.81
341.842	358.81
342.07	368.81
342.298	384.81
342.526	357.81
342.754	349.81
342.981	346.81
343.209	349.81
343.437	336.81
343.665	357.81
343.893	345.81
344.12	354.81
344.348	358.81
344.576	356.81
344.804	397.81
345.031	405.81
345.259	397.81
345.487	392.81
345.714	377.81
345.942	376.81
346.17	347.81
346.397	358.81
346.625	338.81
346.853	367.81
347.08	352.81
347.308	383.81
347.535	374.81
347.763	384.81
347.99	383.81
348.218	381.81
348.445	377.81
348.673	403.81
348.9	366.81
349.128	374.81
349.355	369.81
349.583	342.81
349.81	338.81
350.037	349.81
350.265	352.81
350.492	347.81
350.72	365.81
350.947	358.81
351.174	380.81
351.402	394.81
351.629	378.81
351.856	374.81
352.083	379.81
352.311	406.81
352.538	411.81
352.765	382.81
352.992	386.81
353.22	364.81
353.447	384.81
353.674	382.81
353.901	373.81
354.128	321.81
354.355	330.81
354.583	329.81
354.81	339.81
355.037	337.81
355.264	352.81
355.491	343.81
355.718	320.81
355.945	336.81
356.172	298.81
356.399	341.81
356.626	334.81
356.853	330.81
357.08	323.81
357.307	331.81
357.534	325.81
357.761	324.81
357.988	319.81
358.215	335.81
358.441	325.81
358.668	330.81
358.895	335.81
359.122	338.81
359.349	362.81
359.576	375.81
359.802	426.81
360.029	457.81
360.256	462.81
360.483	438.81
360.709	369.81
360.936	378.81
361.163	401.81
361.39	390.81
361.616	383.81
361.843	388.81
362.07	378.81
362.296	372.81
362.523	384.81
362.749	378.81
362.976	381.81
363.203	371.81
363.429	336.81
363.656	343.81
363.882	347.81
364.109	354.81
364.335	334.81
364.562	345.81
364.788	347.81
365.015	361.81
365.241	352.81
365.468	382.81
365.694	350.81
365.92	361.81
366.147	344.81
366.373	342.81
366.599	327.81
366.826	334.81
367.052	336.81
367.278	351.81
367.505	334.81
367.731	334.81
367.957	362.81
368.184	340.81
368.41	344.81
368.636	375.81
368.862	365.81
369.089	357.81
369.315	345.81
369.541	337.81
369.767	338.81
369.993	330.81
370.219	327.81
370.445	330.81
370.672	342.81
370.898	308.81
371.124	337.81
371.35	349.81
371.576	330.81
371.802	331.81
372.028	318.81
372.254	323.81
372.48	339.81
372.706	329.81
372.932	342.81
373.158	325.81
373.384	322.81
373.61	322.81
373.835	309.81
374.061	309.81
374.287	333.81
374.513	342.81
374.739	344.81
374.965	348.81
375.191	336.81
375.416	336.81
375.642	331.81
375.868	350.81
376.094	332.81
376.319	312.81
376.545	333.81
376.771	342.81
376.997	313.81
377.222	334.81
377.448	330.81
377.674	310.81
377.899	330.81
378.125	335.81
378.35	333.81
378.576	325.81
378.802	316.81
379.027	311.81
379.253	343.81
379.478	332.81
379.704	329.81
379.929	330.81
380.155	362.81
380.38	354.81
380.606	331.81
380.831	328.81
381.057	341.81
381.282	333.81
381.507	332.81
381.733	329.81
381.958	352.81
382.184	332.81
382.409	352.81
382.634	339.81
382.86	337.81
383.085	336.81
383.31	346.81
383.535	324.81
383.761	332.81
383.986	337.81
384.211	342.81
384.436	321.81
384.662	343.81
384.887	348.81
385.112	335.81
385.337	346.81
385.562	347.81
385.787	350.81
386.013	348.81
386.238	355.81
386.463	360.81
386.688	374.81
386.913	347.81
387.138	348.81
387.363	341.81
387.588	346.81
387.813	343.81
388.038	341.81
388.263	333.81
388.488	343.81
388.713	343.81
388.938	343.81
389.163	343.81
389.387	345.81
389.612	344.81
389.837	346.81
390.062	361.81
390.287	342.81
390.512	358.81
390.736	351.81
390.961	337.81
391.186	343.81
391.411	365.81
391.636	350.81
391.86	352.81
392.085	345.81
392.31	366.81
392.534	339.81
392.759	354.81
392.984	362.81
393.208	377.81
393.433	356.81
393.658	348.81
393.882	340.81
394.107	359.81
394.331	369.81
394.556	343.81
394.78	336.81
395.005	361.81
395.229	357.81
395.454	359.81
395.678	365.81
395.903	377.81
396.127	406.81
396.352	384.81
396.576	395.81
396.801	365.81
397.025	388.81
397.249	376.81
397.474	389.81
397.698	386.81
397.922	387.81
398.147	388.81
398.371	392.81
398.595	375.81
398.82	376.81
399.044	386.81
399.268	398.81
399.492	412.81
399.717	417.81
399.941	461.81
400.165	486.81
400.389	505.81
400.613	456.81
400.837	407.81
401.062	410.81
401.286	415.81
401.51	394.81
401.734	409.81
401.958	402.81
402.182	392.81
402.406	410.81
402.63	438.81
402.854	425.81
403.078	429.81
403.302	421.81
403.526	414.81
403.75	420.81
403.974	437.81
404.198	428.81
404.422	428.81
404.645	422.81
404.869	429.81
405.093	438.81
405.317	474.81
405.541	490.81
405.765	466.81
405.988	434.81
406.212	444.81
406.436	503.81
406.66	529.81
406.883	474.81
407.107	480.81
407.331	521.81
407.555	607.81
407.778	593.81
408.002	527.81
408.226	485.81
408.449	494.81
408.673	469.81
408.896	516.81
409.12	554.81
409.344	528.81
409.567	461.81
409.791	446.81
410.014	433.81
410.238	417.81
410.461	406.81
410.685	434.81
410.908	440.81
411.132	486.81
411.355	523.81
411.578	489.81
411.802	443.81
412.025	438.81
412.249	419.81
412.472	427.81
412.695	420.81
412.919	430.81
413.142	431.81
413.365	402.81
413.589	425.81
413.812	397.81
414.035	395.81
414.258	414.81
414.482	388.81
414.705	396.81
414.928	397.81
415.151	402.81
415.374	402.81
415.597	432.81
415.821	421.81
416.044	408.81
416.267	410.81
416.49	409.81
416.713	395.81
416.936	409.81
417.159	399.81
417.382	411.81
417.605	401.81
417.828	414.81
418.051	442.81
418.274	435.81
418.497	399.81
418.72	407.81
418.943	421.81
419.166	412.81
419.389	411.81
419.611	421.81
419.834	451.81
420.057	444.81
420.28	422.81
420.503	448.81
420.726	447.81
420.948	444.81
421.171	476.81
421.394	503.81
421.617	460.81
421.839	445.81
422.062	441.81
422.285	447.81
422.507	522.81
422.73	604.81
422.953	602.81
423.175	517.81
423.398	471.81
423.621	471.81
423.843	492.81
424.066	491.81
424.288	495.81
424.511	508.81
424.733	544.81
424.956	622.81
425.178	641.81
425.401	611.81
425.623	639.81
425.846	551.81
426.068	527.81
426.291	496.81
426.513	497.81
426.735	511.81
426.958	554.81
427.18	648.81
427.402	749.81
427.625	850.81
427.847	820.81
428.069	660.81
428.292	577.81
428.514	518.81
428.736	520.81
428.958	491.81
429.181	464.81
429.403	467.81
429.625	473.81
429.847	512.81
430.069	591.81
430.292	594.81
430.514	518.81
430.736	454.81
430.958	452.81
431.18	452.81
431.402	433.81
431.624	437.81
431.846	417.81
432.068	413.81
432.29	425.81
432.512	412.81
432.734	442.81
432.956	441.81
433.178	455.81
433.4	459.81
433.622	443.81
433.844	427.81
434.066	405.81
434.287	401.81
434.509	448.81
434.731	444.81
434.953	453.81
435.175	464.81
435.397	495.81
435.618	498.81
435.84	555.81
436.062	644.81
436.284	700.81
436.505	586.81
436.727	536.81
436.949	473.81
437.17	458.81
437.392	504.81
437.614	496.81
437.835	544.81
438.057	654.81
438.278	753.81
438.5	742.81
438.721	794.81
438.943	750.81
439.165	607.81
439.386	568.81
439.608	533.81
439.829	546.81
440.05	580.81
440.272	610.81
440.493	566.81
440.715	524.81
440.936	496.81
441.158	490.81
441.379	510.81
441.6	481.81
441.822	527.81
442.043	574.81
442.264	629.81
442.486	683.81
442.707	569.81
442.928	540.81
443.149	548.81
443.371	557.81
443.592	614.81
443.813	675.81
444.034	741.81
444.255	582.81
444.476	540.81
444.698	519.81
444.919	515.81
445.14	583.81
445.361	548.81
445.582	561.81
445.803	651.81
446.024	722.81
446.245	723.81
446.466	698.81
446.687	580.81
446.908	542.81
447.129	486.81
447.35	465.81
447.571	493.81
447.792	492.81
448.013	477.81
448.234	505.81
448.455	564.81
448.675	662.81
448.896	744.81
449.117	640.81
449.338	620.81
449.559	724.81
449.779	804.81
450	653.81
450.221	533.81
450.442	508.81
450.662	492.81
450.883	502.81
451.104	540.81
451.324	505.81
451.545	476.81
451.766	470.81
451.986	442.81
452.207	449.81
452.428	410.81
452.648	430.81
452.869	448.81
453.089	438.81
453.31	478.81
453.53	445.81
453.751	437.81
453.971	431.81
454.192	483.81
454.412	472.81
454.633	463.81
454.853	415.81
455.073	436.81
455.294	489.81
455.514	525.81
455.734	505.81
455.955	456.81
456.175	423.81
456.395	418.81
456.616	410.81
456.836	401.81
457.056	401.81
457.276	394.81
457.497	388.81
457.717	403.81
457.937	416.81
458.157	409.81
458.377	391.81
458.598	439.81
458.818	520.81
459.038	640.81
459.258	640.81
459.478	517.81
459.698	474.81
459.918	425.81
460.138	429.81
460.358	432.81
460.578	427.81
460.798	446.81
461.018	440.81
461.238	433.81
461.458	438.81
461.678	415.81
461.898	416.81
462.118	413.81
462.338	420.81
462.558	422.81
462.777	437.81
462.997	432.81
463.217	424.81
463.437	416.81
463.657	438.81
463.876	448.81
464.096	445.81
464.316	431.81
464.536	447.81
464.755	463.81
464.975	466.81
465.195	542.81
465.414	664.81
465.634	568.81
465.854	474.81
466.073	465.81
466.293	430.81
466.512	431.81
466.732	424.81
466.951	417.81
467.171	421.81
467.391	442.81
467.61	457.81
467.829	440.81
468.049	438.81
468.268	426.81
468.488	396.81
468.707	406.81
468.927	392.81
469.146	404.81
469.365	399.81
469.585	413.81
469.804	434.81
470.023	458.81
470.243	450.81
470.462	457.81
470.681	472.81
470.901	471.81
471.12	442.81
471.339	424.81
471.558	432.81
471.777	440.81
471.997	428.81
472.216	412.81
472.435	445.81
472.654	406.81
472.873	427.81
473.092	420.81
473.311	401.81
473.53	439.81
473.749	440.81
473.968	491.81
474.187	613.81
474.406	625.81
474.625	513.81
474.844	457.81
475.063	444.81
475.282	443.81
475.501	426.81
475.72	434.81
475.939	454.81
476.158	423.81
476.377	436.81
476.596	447.81
476.814	467.81
477.033	457.81
477.252	483.81
477.471	459.81
477.69	455.81
477.908	449.81
478.127	464.81
478.346	463.81
478.564	476.81
478.783	448.81
479.002	468.81
479.22	484.81
479.439	480.81
479.658	533.81
479.876	550.81
480.095	541.81
480.313	568.81
480.532	569.81
480.751	521.81
480.969	521.81
481.188	548.81
481.406	553.81
481.624	512.81
481.843	500.81
482.061	472.81
482.28	518.81
482.498	524.81
482.717	471.81
482.935	502.81
483.153	510.81
483.372	520.81
483.59	519.81
483.808	504.81
484.027	512.81
484.245	506.81
484.463	519.81
484.681	516.81
484.9	505.81
485.118	515.81
485.336	544.81
485.554	539.81
485.772	527.81
485.99	504.81
486.209	521.81
486.427	534.81
486.645	568.81
486.863	568.81
487.081	582.81
487.299	564.81
487.517	572.81
487.735	566.81
487.953	559.81
488.171	561.81
488.389	546.81
488.607	549.81
488.825	560.81
489.043	564.81
489.261	554.81
489.479	583.81
489.696	550.81
489.914	544.81
490.132	573.81
490.35	581.81
490.568	589.81
490.786	590.81
491.003	603.81
491.221	607.81
491.439	588.81
491.657	631.81
491.874	628.81
492.092	623.81
492.31	641.81
492.527	632.81
492.745	627.81
492.963	636.81
493.18	655.81
493.398	657.81
493.615	652.81
493.833	665.81
494.05	666.81
494.268	666.81
494.485	668.81
494.703	645.81
494.92	644.81
495.138	656.81
495.355	653.81
495.573	679.81
495.79	668.81
496.008	685.81
496.225	671.81
496.442	672.81
496.66	663.81
496.877	688.81
497.094	677.81
497.312	666.81
497.529	685.81
497.746	696.81
497.963	658.81
498.181	717.81
498.398	713.81
498.615	721.81
498.832	719.81
499.049	731.81
499.267	734.81
499.484	748.81
499.701	714.81
499.918	770.81
500.135	758.81
500.352	764.81
500.569	784.81
500.786	789.81
501.003	792.81
501.22	793.81
501.437	788.81
501.654	780.81
501.871	784.81
