Data from 1987.PennyLincolnUp.Lamp.En5.5.200Scan.071819.P2_HRD10591_17-15-56-971.txt Node
Date: Thu Jul 18 17:15:56 EDT 2019
User: cochatt
Spectrometer: HR+D1059
Trigger mode: 1
Integration Time (sec): 1.000000E-1
Scans to average: 1
Electric dark correction enabled: true
Nonlinearity correction enabled: false
Boxcar width: 0
XAxis mode: Wavelengths
Number of Pixels in Spectrum: 2048
>>>>>Begin Spectral Data<<<<<
223.165	-1.31
223.4	-1.31
223.635	-1.31
223.869	-8.31
224.104	-31.31
224.338	-9.31
224.573	-20.31
224.808	-9.31
225.042	-13.31
225.277	4.69
225.511	-6.31
225.746	4.69
225.98	-7.31
226.215	11.69
226.449	14.69
226.683	23.69
226.918	24.69
227.152	22.69
227.387	42.69
227.621	47.69
227.856	43.69
228.09	40.69
228.324	47.69
228.559	56.69
228.793	77.69
229.027	115.69
229.262	114.69
229.496	138.69
229.73	143.69
229.964	178.69
230.199	158.69
230.433	136.69
230.667	120.69
230.901	112.69
231.136	116.69
231.37	120.69
231.604	111.69
231.838	114.69
232.072	110.69
232.306	109.69
232.541	121.69
232.775	115.69
233.009	115.69
233.243	99.69
233.477	112.69
233.711	120.69
233.945	125.69
234.179	117.69
234.413	116.69
234.647	126.69
234.881	107.69
235.115	123.69
235.349	127.69
235.583	118.69
235.817	113.69
236.051	141.69
236.285	128.69
236.519	123.69
236.753	128.69
236.987	150.69
237.221	196.69
237.455	255.69
237.689	207.69
237.922	144.69
238.156	131.69
238.39	168.69
238.624	130.69
238.858	120.69
239.091	117.69
239.325	126.69
239.559	135.69
239.793	134.69
240.027	122.69
240.26	159.69
240.494	182.69
240.728	166.69
240.961	155.69
241.195	155.69
241.429	143.69
241.662	122.69
241.896	120.69
242.13	151.69
242.363	137.69
242.597	142.69
242.83	144.69
243.064	137.69
243.298	128.69
243.531	131.69
243.765	134.69
243.998	134.69
244.232	135.69
244.465	126.69
244.699	126.69
244.932	147.69
245.166	138.69
245.399	146.69
245.633	159.69
245.866	140.69
246.099	136.69
246.333	145.69
246.566	146.69
246.8	149.69
247.033	156.69
247.266	154.69
247.5	151.69
247.733	157.69
247.966	174.69
248.2	166.69
248.433	165.69
248.666	171.69
248.899	191.69
249.133	194.69
249.366	212.69
249.599	203.69
249.832	182.69
250.066	176.69
250.299	168.69
250.532	188.69
250.765	188.69
250.998	213.69
251.231	223.69
251.465	208.69
251.698	201.69
251.931	194.69
252.164	200.69
252.397	211.69
252.63	211.69
252.863	191.69
253.096	223.69
253.329	249.69
253.562	215.69
253.795	207.69
254.028	230.69
254.261	222.69
254.494	227.69
254.727	268.69
254.96	303.69
255.193	281.69
255.426	270.69
255.659	238.69
255.892	243.69
256.124	210.69
256.357	215.69
256.59	222.69
256.823	209.69
257.056	227.69
257.289	204.69
257.521	203.69
257.754	190.69
257.987	198.69
258.22	195.69
258.452	197.69
258.685	210.69
258.918	213.69
259.151	197.69
259.383	194.69
259.616	220.69
259.849	207.69
260.081	264.69
260.314	227.69
260.547	275.69
260.779	234.69
261.012	217.69
261.244	228.69
261.477	236.69
261.71	236.69
261.942	247.69
262.175	241.69
262.407	232.69
262.64	204.69
262.872	207.69
263.105	205.69
263.337	190.69
263.57	207.69
263.802	196.69
264.035	205.69
264.267	186.69
264.499	202.69
264.732	194.69
264.964	200.69
265.197	198.69
265.429	191.69
265.661	178.69
265.894	192.69
266.126	197.69
266.358	179.69
266.591	205.69
266.823	202.69
267.055	223.69
267.287	206.69
267.52	222.69
267.752	208.69
267.984	208.69
268.216	182.69
268.448	224.69
268.681	229.69
268.913	220.69
269.145	261.69
269.377	250.69
269.609	252.69
269.841	251.69
270.073	260.69
270.306	268.69
270.538	309.69
270.77	306.69
271.002	297.69
271.234	280.69
271.466	300.69
271.698	316.69
271.93	297.69
272.162	304.69
272.394	302.69
272.626	301.69
272.858	266.69
273.09	270.69
273.322	266.69
273.553	255.69
273.785	253.69
274.017	242.69
274.249	246.69
274.481	242.69
274.713	236.69
274.945	253.69
275.176	246.69
275.408	258.69
275.64	244.69
275.872	243.69
276.104	237.69
276.335	244.69
276.567	248.69
276.799	285.69
277.031	282.69
277.262	299.69
277.494	313.69
277.726	268.69
277.957	267.69
278.189	261.69
278.421	245.69
278.652	236.69
278.884	249.69
279.115	251.69
279.347	247.69
279.579	246.69
279.81	227.69
280.042	234.69
280.273	228.69
280.505	248.69
280.736	233.69
280.968	228.69
281.199	220.69
281.431	217.69
281.662	230.69
281.894	226.69
282.125	221.69
282.356	250.69
282.588	295.69
282.819	286.69
283.051	242.69
283.282	248.69
283.513	244.69
283.745	236.69
283.976	236.69
284.207	246.69
284.439	235.69
284.67	240.69
284.901	216.69
285.132	244.69
285.364	240.69
285.595	227.69
285.826	239.69
286.057	233.69
286.288	238.69
286.52	236.69
286.751	235.69
286.982	238.69
287.213	224.69
287.444	221.69
287.675	251.69
287.906	258.69
288.138	264.69
288.369	260.69
288.6	267.69
288.831	268.69
289.062	243.69
289.293	262.69
289.524	255.69
289.755	245.69
289.986	243.69
290.217	234.69
290.448	238.69
290.679	239.69
290.91	224.69
291.141	229.69
291.371	239.69
291.602	232.69
291.833	242.69
292.064	237.69
292.295	247.69
292.526	259.69
292.757	234.69
292.987	246.69
293.218	255.69
293.449	249.69
293.68	239.69
293.91	248.69
294.141	252.69
294.372	236.69
294.603	240.69
294.833	234.69
295.064	229.69
295.295	254.69
295.525	248.69
295.756	259.69
295.987	270.69
296.217	285.69
296.448	313.69
296.679	272.69
296.909	243.69
297.14	244.69
297.37	247.69
297.601	258.69
297.831	241.69
298.062	255.69
298.292	248.69
298.523	261.69
298.753	259.69
298.984	247.69
299.214	251.69
299.445	243.69
299.675	259.69
299.905	268.69
300.136	258.69
300.366	255.69
300.597	259.69
300.827	256.69
301.057	265.69
301.288	286.69
301.518	268.69
301.748	271.69
301.979	295.69
302.209	253.69
302.439	256.69
302.669	269.69
302.9	277.69
303.13	276.69
303.36	279.69
303.59	283.69
303.82	274.69
304.051	288.69
304.281	269.69
304.511	281.69
304.741	267.69
304.971	274.69
305.201	273.69
305.431	258.69
305.661	271.69
305.891	267.69
306.121	288.69
306.352	286.69
306.582	292.69
306.812	260.69
307.042	271.69
307.272	282.69
307.502	271.69
307.731	285.69
307.961	281.69
308.191	269.69
308.421	280.69
308.651	296.69
308.881	305.69
309.111	283.69
309.341	305.69
309.571	311.69
309.8	330.69
310.03	350.69
310.26	348.69
310.49	349.69
310.72	354.69
310.949	348.69
311.179	383.69
311.409	371.69
311.639	359.69
311.868	346.69
312.098	342.69
312.328	361.69
312.557	385.69
312.787	388.69
313.017	404.69
313.246	383.69
313.476	343.69
313.706	335.69
313.935	333.69
314.165	366.69
314.394	390.69
314.624	389.69
314.853	363.69
315.083	352.69
315.312	330.69
315.542	334.69
315.771	333.69
316.001	326.69
316.23	339.69
316.46	325.69
316.689	347.69
316.919	328.69
317.148	362.69
317.377	358.69
317.607	375.69
317.836	350.69
318.065	331.69
318.295	350.69
318.524	304.69
318.753	319.69
318.983	335.69
319.212	330.69
319.441	356.69
319.67	359.69
319.9	350.69
320.129	325.69
320.358	321.69
320.587	358.69
320.816	363.69
321.046	377.69
321.275	380.69
321.504	365.69
321.733	360.69
321.962	382.69
322.191	400.69
322.42	426.69
322.649	455.69
322.878	475.69
323.108	475.69
323.337	511.69
323.566	565.69
323.795	578.69
324.024	678.69
324.253	822.69
324.482	1231.69
324.71	1871.69
324.939	2720.69
325.168	2386.69
325.397	1294.69
325.626	830.69
325.855	655.69
326.084	566.69
326.313	542.69
326.542	547.69
326.77	614.69
326.999	759.69
327.228	1049.69
327.457	1676.69
327.686	2027.69
327.914	1416.69
328.143	884.69
328.372	731.69
328.6	685.69
328.829	634.69
329.058	660.69
329.287	670.69
329.515	607.69
329.744	536.69
329.972	518.69
330.201	538.69
330.43	550.69
330.658	617.69
330.887	690.69
331.115	666.69
331.344	538.69
331.572	495.69
331.801	479.69
332.03	478.69
332.258	461.69
332.486	435.69
332.715	415.69
332.943	406.69
333.172	396.69
333.4	398.69
333.629	404.69
333.857	423.69
334.085	415.69
334.314	392.69
334.542	424.69
334.771	388.69
334.999	422.69
335.227	376.69
335.455	387.69
335.684	388.69
335.912	383.69
336.14	383.69
336.369	395.69
336.597	386.69
336.825	402.69
337.053	366.69
337.281	375.69
337.51	401.69
337.738	389.69
337.966	413.69
338.194	392.69
338.422	409.69
338.65	392.69
338.878	372.69
339.106	367.69
339.334	388.69
339.562	382.69
339.79	379.69
340.018	375.69
340.246	388.69
340.474	389.69
340.702	390.69
340.93	368.69
341.158	379.69
341.386	373.69
341.614	406.69
341.842	384.69
342.07	366.69
342.298	357.69
342.526	359.69
342.754	375.69
342.981	351.69
343.209	354.69
343.437	370.69
343.665	355.69
343.893	370.69
344.12	380.69
344.348	383.69
344.576	376.69
344.804	378.69
345.031	412.69
345.259	410.69
345.487	387.69
345.714	397.69
345.942	378.69
346.17	360.69
346.397	378.69
346.625	355.69
346.853	371.69
347.08	380.69
347.308	383.69
347.535	402.69
347.763	407.69
347.99	384.69
348.218	388.69
348.445	426.69
348.673	395.69
348.9	393.69
349.128	363.69
349.355	351.69
349.583	362.69
349.81	344.69
350.037	342.69
350.265	346.69
350.492	364.69
350.72	366.69
350.947	380.69
351.174	390.69
351.402	384.69
351.629	397.69
351.856	390.69
352.083	394.69
352.311	419.69
352.538	415.69
352.765	423.69
352.992	402.69
353.22	400.69
353.447	378.69
353.674	368.69
353.901	355.69
354.128	357.69
354.355	328.69
354.583	347.69
354.81	352.69
355.037	327.69
355.264	337.69
355.491	322.69
355.718	343.69
355.945	336.69
356.172	331.69
356.399	325.69
356.626	325.69
356.853	320.69
357.08	332.69
357.307	315.69
357.534	347.69
357.761	347.69
357.988	321.69
358.215	337.69
358.441	332.69
358.668	343.69
358.895	362.69
359.122	351.69
359.349	360.69
359.576	388.69
359.802	422.69
360.029	481.69
360.256	468.69
360.483	462.69
360.709	399.69
360.936	386.69
361.163	390.69
361.39	396.69
361.616	388.69
361.843	371.69
362.07	374.69
362.296	412.69
362.523	375.69
362.749	374.69
362.976	386.69
363.203	370.69
363.429	357.69
363.656	346.69
363.882	349.69
364.109	351.69
364.335	361.69
364.562	362.69
364.788	367.69
365.015	373.69
365.241	358.69
365.468	373.69
365.694	356.69
365.92	360.69
366.147	358.69
366.373	347.69
366.599	339.69
366.826	350.69
367.052	335.69
367.278	346.69
367.505	358.69
367.731	363.69
367.957	357.69
368.184	360.69
368.41	381.69
368.636	340.69
368.862	366.69
369.089	360.69
369.315	340.69
369.541	352.69
369.767	334.69
369.993	363.69
370.219	352.69
370.445	345.69
370.672	329.69
370.898	346.69
371.124	328.69
371.35	320.69
371.576	325.69
371.802	314.69
372.028	328.69
372.254	347.69
372.48	345.69
372.706	323.69
372.932	324.69
373.158	347.69
373.384	353.69
373.61	327.69
373.835	337.69
374.061	329.69
374.287	324.69
374.513	345.69
374.739	326.69
374.965	348.69
375.191	330.69
375.416	317.69
375.642	327.69
375.868	344.69
376.094	344.69
376.319	335.69
376.545	329.69
376.771	332.69
376.997	339.69
377.222	342.69
377.448	339.69
377.674	342.69
377.899	329.69
378.125	335.69
378.35	344.69
378.576	343.69
378.802	329.69
379.027	328.69
379.253	331.69
379.478	336.69
379.704	324.69
379.929	327.69
380.155	343.69
380.38	334.69
380.606	348.69
380.831	351.69
381.057	323.69
381.282	327.69
381.507	336.69
381.733	329.69
381.958	331.69
382.184	347.69
382.409	354.69
382.634	342.69
382.86	335.69
383.085	342.69
383.31	340.69
383.535	339.69
383.761	335.69
383.986	345.69
384.211	339.69
384.436	342.69
384.662	339.69
384.887	341.69
385.112	352.69
385.337	332.69
385.562	352.69
385.787	357.69
386.013	371.69
386.238	362.69
386.463	361.69
386.688	361.69
386.913	351.69
387.138	356.69
387.363	363.69
387.588	338.69
387.813	329.69
388.038	342.69
388.263	339.69
388.488	353.69
388.713	347.69
388.938	363.69
389.163	349.69
389.387	360.69
389.612	347.69
389.837	315.69
390.062	324.69
390.287	342.69
390.512	346.69
390.736	334.69
390.961	347.69
391.186	343.69
391.411	357.69
391.636	372.69
391.86	355.69
392.085	340.69
392.31	344.69
392.534	345.69
392.759	348.69
392.984	360.69
393.208	355.69
393.433	367.69
393.658	354.69
393.882	341.69
394.107	347.69
394.331	344.69
394.556	337.69
394.78	348.69
395.005	364.69
395.229	345.69
395.454	352.69
395.678	349.69
395.903	376.69
396.127	399.69
396.352	393.69
396.576	385.69
396.801	375.69
397.025	386.69
397.249	372.69
397.474	379.69
397.698	374.69
397.922	397.69
398.147	407.69
398.371	427.69
398.595	412.69
398.82	402.69
399.044	402.69
399.268	390.69
399.492	405.69
399.717	427.69
399.941	450.69
400.165	492.69
400.389	528.69
400.613	453.69
400.837	425.69
401.062	432.69
401.286	412.69
401.51	412.69
401.734	407.69
401.958	401.69
402.182	406.69
402.406	432.69
402.63	433.69
402.854	417.69
403.078	411.69
403.302	426.69
403.526	427.69
403.75	418.69
403.974	407.69
404.198	420.69
404.422	406.69
404.645	420.69
404.869	439.69
405.093	444.69
405.317	468.69
405.541	484.69
405.765	487.69
405.988	450.69
406.212	447.69
406.436	486.69
406.66	519.69
406.883	501.69
407.107	478.69
407.331	547.69
407.555	594.69
407.778	596.69
408.002	531.69
408.226	508.69
408.449	460.69
408.673	475.69
408.896	499.69
409.12	532.69
409.344	534.69
409.567	468.69
409.791	447.69
410.014	427.69
410.238	414.69
410.461	422.69
410.685	454.69
410.908	463.69
411.132	507.69
411.355	528.69
411.578	506.69
411.802	452.69
412.025	419.69
412.249	414.69
412.472	423.69
412.695	450.69
412.919	444.69
413.142	407.69
413.365	412.69
413.589	403.69
413.812	416.69
414.035	400.69
414.258	387.69
414.482	397.69
414.705	402.69
414.928	418.69
415.151	380.69
415.374	378.69
415.597	407.69
415.821	390.69
416.044	396.69
416.267	409.69
416.49	392.69
416.713	396.69
416.936	386.69
417.159	415.69
417.382	417.69
417.605	411.69
417.828	421.69
418.051	444.69
418.274	448.69
418.497	414.69
418.72	405.69
418.943	409.69
419.166	427.69
419.389	450.69
419.611	439.69
419.834	440.69
420.057	421.69
420.28	428.69
420.503	420.69
420.726	435.69
420.948	452.69
421.171	519.69
421.394	529.69
421.617	457.69
421.839	456.69
422.062	438.69
422.285	463.69
422.507	540.69
422.73	597.69
422.953	590.69
423.175	491.69
423.398	478.69
423.621	469.69
423.843	484.69
424.066	492.69
424.288	501.69
424.511	504.69
424.733	563.69
424.956	660.69
425.178	628.69
425.401	626.69
425.623	650.69
425.846	572.69
426.068	498.69
426.291	510.69
426.513	526.69
426.735	546.69
426.958	586.69
427.18	640.69
427.402	770.69
427.625	858.69
427.847	831.69
428.069	672.69
428.292	599.69
428.514	558.69
428.736	519.69
428.958	486.69
429.181	490.69
429.403	486.69
429.625	485.69
429.847	526.69
430.069	573.69
430.292	579.69
430.514	506.69
430.736	485.69
430.958	478.69
431.18	471.69
431.402	452.69
431.624	442.69
431.846	438.69
432.068	414.69
432.29	432.69
432.512	442.69
432.734	438.69
432.956	428.69
433.178	453.69
433.4	448.69
433.622	462.69
433.844	434.69
434.066	416.69
434.287	422.69
434.509	444.69
434.731	432.69
434.953	450.69
435.175	464.69
435.397	494.69
435.618	527.69
435.84	583.69
436.062	647.69
436.284	726.69
436.505	638.69
436.727	563.69
436.949	518.69
437.17	512.69
437.392	495.69
437.614	486.69
437.835	554.69
438.057	696.69
438.278	768.69
438.5	764.69
438.721	788.69
438.943	767.69
439.165	621.69
439.386	559.69
439.608	572.69
439.829	563.69
440.05	568.69
440.272	636.69
440.493	591.69
440.715	552.69
440.936	493.69
441.158	503.69
441.379	488.69
441.6	509.69
441.822	506.69
442.043	572.69
442.264	661.69
442.486	711.69
442.707	616.69
442.928	556.69
443.149	555.69
443.371	572.69
443.592	644.69
443.813	694.69
444.034	743.69
444.255	611.69
444.476	554.69
444.698	528.69
444.919	521.69
445.14	626.69
445.361	587.69
445.582	593.69
445.803	642.69
446.024	759.69
446.245	774.69
446.466	696.69
446.687	590.69
446.908	526.69
447.129	518.69
447.35	514.69
447.571	504.69
447.792	481.69
448.013	487.69
448.234	505.69
448.455	590.69
448.675	675.69
448.896	780.69
449.117	674.69
449.338	610.69
449.559	707.69
449.779	819.69
450	673.69
450.221	587.69
450.442	538.69
450.662	481.69
450.883	512.69
451.104	538.69
451.324	517.69
451.545	472.69
451.766	474.69
451.986	458.69
452.207	441.69
452.428	443.69
452.648	441.69
452.869	431.69
453.089	442.69
453.31	452.69
453.53	450.69
453.751	443.69
453.971	457.69
454.192	510.69
454.412	466.69
454.633	442.69
454.853	449.69
455.073	441.69
455.294	490.69
455.514	564.69
455.734	536.69
455.955	433.69
456.175	398.69
456.395	412.69
456.616	399.69
456.836	399.69
457.056	407.69
457.276	390.69
457.497	422.69
457.717	389.69
457.937	398.69
458.157	385.69
458.377	416.69
458.598	447.69
458.818	512.69
459.038	641.69
459.258	674.69
459.478	536.69
459.698	486.69
459.918	460.69
460.138	423.69
460.358	415.69
460.578	415.69
460.798	428.69
461.018	440.69
461.238	431.69
461.458	438.69
461.678	415.69
461.898	426.69
462.118	423.69
462.338	436.69
462.558	432.69
462.777	422.69
462.997	436.69
463.217	420.69
463.437	436.69
463.657	423.69
463.876	442.69
464.096	444.69
464.316	445.69
464.536	464.69
464.755	463.69
464.975	478.69
465.195	550.69
465.414	697.69
465.634	614.69
465.854	523.69
466.073	495.69
466.293	464.69
466.512	413.69
466.732	441.69
466.951	427.69
467.171	424.69
467.391	430.69
467.61	419.69
467.829	461.69
468.049	429.69
468.268	416.69
468.488	408.69
468.707	406.69
468.927	424.69
469.146	420.69
469.365	411.69
469.585	418.69
469.804	434.69
470.023	451.69
470.243	428.69
470.462	464.69
470.681	469.69
470.901	486.69
471.12	432.69
471.339	438.69
471.558	431.69
471.777	443.69
471.997	425.69
472.216	425.69
472.435	448.69
472.654	425.69
472.873	436.69
473.092	412.69
473.311	421.69
473.53	444.69
473.749	438.69
473.968	502.69
474.187	607.69
474.406	637.69
474.625	533.69
474.844	474.69
475.063	448.69
475.282	445.69
475.501	440.69
475.72	455.69
475.939	442.69
476.158	463.69
476.377	447.69
476.596	429.69
476.814	488.69
477.033	482.69
477.252	474.69
477.471	461.69
477.69	455.69
477.908	483.69
478.127	459.69
478.346	449.69
478.564	469.69
478.783	489.69
479.002	487.69
479.22	500.69
479.439	516.69
479.658	517.69
479.876	538.69
480.095	534.69
480.313	578.69
480.532	565.69
480.751	533.69
480.969	523.69
481.188	538.69
481.406	549.69
481.624	523.69
481.843	534.69
482.061	514.69
482.28	495.69
482.498	493.69
482.717	512.69
482.935	515.69
483.153	501.69
483.372	517.69
483.59	508.69
483.808	529.69
484.027	507.69
484.245	517.69
484.463	526.69
484.681	522.69
484.9	515.69
485.118	521.69
485.336	528.69
485.554	526.69
485.772	511.69
485.99	535.69
486.209	549.69
486.427	544.69
486.645	555.69
486.863	596.69
487.081	585.69
487.299	570.69
487.517	567.69
487.735	572.69
487.953	578.69
488.171	557.69
488.389	566.69
488.607	556.69
488.825	578.69
489.043	570.69
489.261	586.69
489.479	569.69
489.696	572.69
489.914	579.69
490.132	599.69
490.35	582.69
490.568	606.69
490.786	599.69
491.003	621.69
491.221	598.69
491.439	639.69
491.657	633.69
491.874	626.69
492.092	664.69
492.31	641.69
492.527	639.69
492.745	638.69
492.963	669.69
493.18	662.69
493.398	674.69
493.615	667.69
493.833	672.69
494.05	708.69
494.268	659.69
494.485	666.69
494.703	676.69
494.92	691.69
495.138	679.69
495.355	690.69
495.573	709.69
495.79	679.69
496.008	688.69
496.225	705.69
496.442	664.69
496.66	657.69
496.877	640.69
497.094	703.69
497.312	679.69
497.529	686.69
497.746	685.69
497.963	723.69
498.181	732.69
498.398	736.69
498.615	718.69
498.832	720.69
499.049	746.69
499.267	737.69
499.484	745.69
499.701	755.69
499.918	795.69
500.135	783.69
500.352	795.69
500.569	802.69
500.786	777.69
501.003	792.69
501.22	806.69
501.437	802.69
501.654	823.69
501.871	794.69
