Data from 1987.PennyLincolnUp.Lamp.En5.5.200Scan.071819.P2_HRD10591_17-14-00-977.txt Node
Date: Thu Jul 18 17:14:00 EDT 2019
User: cochatt
Spectrometer: HR+D1059
Trigger mode: 1
Integration Time (sec): 1.000000E-1
Scans to average: 1
Electric dark correction enabled: true
Nonlinearity correction enabled: false
Boxcar width: 0
XAxis mode: Wavelengths
Number of Pixels in Spectrum: 2048
>>>>>Begin Spectral Data<<<<<
223.165	-3.5
223.4	-3.5
223.635	-3.5
223.869	-8.5
224.104	-32.5
224.338	-12.5
224.573	-14.5
224.808	-8.5
225.042	0.5
225.277	-9.5
225.511	-20.5
225.746	10.5
225.98	-1.5
226.215	23.5
226.449	14.5
226.683	13.5
226.918	20.5
227.152	28.5
227.387	21.5
227.621	36.5
227.856	46.5
228.09	43.5
228.324	43.5
228.559	54.5
228.793	70.5
229.027	97.5
229.262	99.5
229.496	115.5
229.73	120.5
229.964	152.5
230.199	125.5
230.433	107.5
230.667	98.5
230.901	115.5
231.136	108.5
231.37	105.5
231.604	92.5
231.838	103.5
232.072	95.5
232.306	97.5
232.541	107.5
232.775	103.5
233.009	93.5
233.243	109.5
233.477	102.5
233.711	103.5
233.945	114.5
234.179	96.5
234.413	103.5
234.647	120.5
234.881	91.5
235.115	102.5
235.349	112.5
235.583	112.5
235.817	117.5
236.051	116.5
236.285	111.5
236.519	108.5
236.753	117.5
236.987	142.5
237.221	166.5
237.455	216.5
237.689	169.5
237.922	121.5
238.156	127.5
238.39	117.5
238.624	112.5
238.858	114.5
239.091	103.5
239.325	108.5
239.559	111.5
239.793	126.5
240.027	106.5
240.26	126.5
240.494	137.5
240.728	139.5
240.961	123.5
241.195	137.5
241.429	127.5
241.662	108.5
241.896	115.5
242.13	112.5
242.363	112.5
242.597	130.5
242.83	122.5
243.064	112.5
243.298	121.5
243.531	108.5
243.765	112.5
243.998	106.5
244.232	114.5
244.465	120.5
244.699	113.5
244.932	123.5
245.166	115.5
245.399	134.5
245.633	119.5
245.866	120.5
246.099	114.5
246.333	120.5
246.566	138.5
246.8	139.5
247.033	119.5
247.266	134.5
247.5	145.5
247.733	137.5
247.966	146.5
248.2	163.5
248.433	151.5
248.666	134.5
248.899	156.5
249.133	174.5
249.366	182.5
249.599	178.5
249.832	165.5
250.066	146.5
250.299	168.5
250.532	165.5
250.765	169.5
250.998	178.5
251.231	184.5
251.465	169.5
251.698	169.5
251.931	165.5
252.164	176.5
252.397	182.5
252.63	172.5
252.863	174.5
253.096	187.5
253.329	182.5
253.562	196.5
253.795	170.5
254.028	177.5
254.261	194.5
254.494	200.5
254.727	194.5
254.96	237.5
255.193	225.5
255.426	227.5
255.659	185.5
255.892	187.5
256.124	168.5
256.357	188.5
256.59	195.5
256.823	175.5
257.056	186.5
257.289	167.5
257.521	178.5
257.754	166.5
257.987	164.5
258.22	176.5
258.452	176.5
258.685	192.5
258.918	168.5
259.151	163.5
259.383	178.5
259.616	180.5
259.849	183.5
260.081	195.5
260.314	203.5
260.547	207.5
260.779	221.5
261.012	202.5
261.244	180.5
261.477	185.5
261.71	210.5
261.942	194.5
262.175	195.5
262.407	190.5
262.64	181.5
262.872	168.5
263.105	174.5
263.337	183.5
263.57	164.5
263.802	164.5
264.035	169.5
264.267	168.5
264.499	152.5
264.732	169.5
264.964	142.5
265.197	166.5
265.429	159.5
265.661	168.5
265.894	163.5
266.126	166.5
266.358	167.5
266.591	168.5
266.823	185.5
267.055	161.5
267.287	174.5
267.52	176.5
267.752	173.5
267.984	167.5
268.216	186.5
268.448	178.5
268.681	169.5
268.913	167.5
269.145	200.5
269.377	208.5
269.609	214.5
269.841	194.5
270.073	218.5
270.306	226.5
270.538	248.5
270.77	251.5
271.002	231.5
271.234	248.5
271.466	230.5
271.698	228.5
271.93	235.5
272.162	257.5
272.394	251.5
272.626	239.5
272.858	239.5
273.09	226.5
273.322	227.5
273.553	208.5
273.785	210.5
274.017	212.5
274.249	197.5
274.481	209.5
274.713	195.5
274.945	195.5
275.176	191.5
275.408	205.5
275.64	207.5
275.872	192.5
276.104	217.5
276.335	190.5
276.567	208.5
276.799	218.5
277.031	231.5
277.262	255.5
277.494	244.5
277.726	227.5
277.957	222.5
278.189	212.5
278.421	209.5
278.652	211.5
278.884	197.5
279.115	202.5
279.347	204.5
279.579	194.5
279.81	204.5
280.042	204.5
280.273	204.5
280.505	198.5
280.736	188.5
280.968	190.5
281.199	189.5
281.431	194.5
281.662	198.5
281.894	203.5
282.125	204.5
282.356	212.5
282.588	240.5
282.819	243.5
283.051	202.5
283.282	200.5
283.513	209.5
283.745	194.5
283.976	187.5
284.207	200.5
284.439	197.5
284.67	197.5
284.901	206.5
285.132	203.5
285.364	191.5
285.595	200.5
285.826	186.5
286.057	207.5
286.288	203.5
286.52	209.5
286.751	199.5
286.982	192.5
287.213	200.5
287.444	196.5
287.675	201.5
287.906	205.5
288.138	212.5
288.369	226.5
288.6	217.5
288.831	210.5
289.062	203.5
289.293	206.5
289.524	199.5
289.755	187.5
289.986	205.5
290.217	204.5
290.448	202.5
290.679	196.5
290.91	207.5
291.141	210.5
291.371	199.5
291.602	205.5
291.833	211.5
292.064	212.5
292.295	198.5
292.526	207.5
292.757	200.5
292.987	189.5
293.218	211.5
293.449	217.5
293.68	208.5
293.91	212.5
294.141	194.5
294.372	200.5
294.603	208.5
294.833	203.5
295.064	179.5
295.295	214.5
295.525	203.5
295.756	222.5
295.987	240.5
296.217	232.5
296.448	254.5
296.679	219.5
296.909	202.5
297.14	199.5
297.37	216.5
297.601	197.5
297.831	190.5
298.062	216.5
298.292	219.5
298.523	231.5
298.753	217.5
298.984	224.5
299.214	221.5
299.445	198.5
299.675	213.5
299.905	217.5
300.136	216.5
300.366	207.5
300.597	203.5
300.827	207.5
301.057	244.5
301.288	243.5
301.518	242.5
301.748	219.5
301.979	209.5
302.209	225.5
302.439	212.5
302.669	227.5
302.9	224.5
303.13	221.5
303.36	224.5
303.59	239.5
303.82	240.5
304.051	238.5
304.281	233.5
304.511	224.5
304.741	225.5
304.971	224.5
305.201	237.5
305.431	222.5
305.661	224.5
305.891	221.5
306.121	214.5
306.352	228.5
306.582	228.5
306.812	243.5
307.042	234.5
307.272	243.5
307.502	230.5
307.731	241.5
307.961	228.5
308.191	225.5
308.421	247.5
308.651	234.5
308.881	245.5
309.111	233.5
309.341	254.5
309.571	238.5
309.8	252.5
310.03	269.5
310.26	262.5
310.49	274.5
310.72	306.5
310.949	284.5
311.179	294.5
311.409	302.5
311.639	273.5
311.868	278.5
312.098	284.5
312.328	285.5
312.557	264.5
312.787	284.5
313.017	294.5
313.246	288.5
313.476	288.5
313.706	286.5
313.935	285.5
314.165	299.5
314.394	300.5
314.624	292.5
314.853	272.5
315.083	281.5
315.312	280.5
315.542	263.5
315.771	250.5
316.001	262.5
316.23	272.5
316.46	290.5
316.689	266.5
316.919	286.5
317.148	269.5
317.377	268.5
317.607	277.5
317.836	276.5
318.065	278.5
318.295	268.5
318.524	276.5
318.753	273.5
318.983	278.5
319.212	246.5
319.441	269.5
319.67	272.5
319.9	285.5
320.129	263.5
320.358	278.5
320.587	278.5
320.816	288.5
321.046	285.5
321.275	292.5
321.504	285.5
321.733	302.5
321.962	299.5
322.191	314.5
322.42	320.5
322.649	348.5
322.878	359.5
323.108	358.5
323.337	377.5
323.566	418.5
323.795	420.5
324.024	480.5
324.253	583.5
324.482	828.5
324.71	1270.5
324.939	1787.5
325.168	1567.5
325.397	878.5
325.626	527.5
325.855	443.5
326.084	424.5
326.313	396.5
326.542	410.5
326.77	433.5
326.999	518.5
327.228	739.5
327.457	1090.5
327.686	1372.5
327.914	914.5
328.143	622.5
328.372	531.5
328.6	496.5
328.829	437.5
329.058	464.5
329.287	466.5
329.515	435.5
329.744	385.5
329.972	380.5
330.201	388.5
330.43	414.5
330.658	447.5
330.887	464.5
331.115	464.5
331.344	419.5
331.572	361.5
331.801	370.5
332.03	377.5
332.258	325.5
332.486	322.5
332.715	323.5
332.943	322.5
333.172	315.5
333.4	323.5
333.629	326.5
333.857	327.5
334.085	338.5
334.314	325.5
334.542	309.5
334.771	326.5
334.999	322.5
335.227	310.5
335.455	308.5
335.684	311.5
335.912	313.5
336.14	310.5
336.369	319.5
336.597	332.5
336.825	316.5
337.053	325.5
337.281	312.5
337.51	306.5
337.738	308.5
337.966	325.5
338.194	320.5
338.422	309.5
338.65	313.5
338.878	312.5
339.106	312.5
339.334	314.5
339.562	312.5
339.79	306.5
340.018	281.5
340.246	307.5
340.474	308.5
340.702	314.5
340.93	315.5
341.158	312.5
341.386	319.5
341.614	308.5
341.842	310.5
342.07	295.5
342.298	304.5
342.526	288.5
342.754	289.5
342.981	282.5
343.209	306.5
343.437	305.5
343.665	296.5
343.893	290.5
344.12	298.5
344.348	289.5
344.576	319.5
344.804	312.5
345.031	322.5
345.259	342.5
345.487	331.5
345.714	319.5
345.942	312.5
346.17	291.5
346.397	315.5
346.625	303.5
346.853	306.5
347.08	285.5
347.308	310.5
347.535	306.5
347.763	328.5
347.99	306.5
348.218	302.5
348.445	311.5
348.673	326.5
348.9	310.5
349.128	300.5
349.355	296.5
349.583	280.5
349.81	303.5
350.037	302.5
350.265	285.5
350.492	296.5
350.72	300.5
350.947	272.5
351.174	312.5
351.402	328.5
351.629	304.5
351.856	319.5
352.083	340.5
352.311	324.5
352.538	324.5
352.765	315.5
352.992	317.5
353.22	339.5
353.447	325.5
353.674	312.5
353.901	291.5
354.128	308.5
354.355	297.5
354.583	293.5
354.81	263.5
355.037	278.5
355.264	277.5
355.491	283.5
355.718	272.5
355.945	276.5
356.172	271.5
356.399	286.5
356.626	283.5
356.853	278.5
357.08	298.5
357.307	271.5
357.534	290.5
357.761	283.5
357.988	265.5
358.215	302.5
358.441	275.5
358.668	284.5
358.895	282.5
359.122	297.5
359.349	293.5
359.576	296.5
359.802	351.5
360.029	338.5
360.256	379.5
360.483	370.5
360.709	324.5
360.936	336.5
361.163	315.5
361.39	324.5
361.616	302.5
361.843	311.5
362.07	326.5
362.296	307.5
362.523	299.5
362.749	304.5
362.976	298.5
363.203	314.5
363.429	296.5
363.656	298.5
363.882	299.5
364.109	300.5
364.335	301.5
364.562	276.5
364.788	296.5
365.015	284.5
365.241	286.5
365.468	310.5
365.694	315.5
365.92	294.5
366.147	300.5
366.373	287.5
366.599	272.5
366.826	304.5
367.052	286.5
367.278	268.5
367.505	272.5
367.731	305.5
367.957	305.5
368.184	307.5
368.41	296.5
368.636	317.5
368.862	312.5
369.089	334.5
369.315	304.5
369.541	290.5
369.767	283.5
369.993	303.5
370.219	295.5
370.445	287.5
370.672	300.5
370.898	290.5
371.124	290.5
371.35	305.5
371.576	283.5
371.802	291.5
372.028	287.5
372.254	276.5
372.48	293.5
372.706	289.5
372.932	283.5
373.158	266.5
373.384	302.5
373.61	302.5
373.835	282.5
374.061	293.5
374.287	312.5
374.513	295.5
374.739	292.5
374.965	281.5
375.191	300.5
375.416	289.5
375.642	302.5
375.868	292.5
376.094	291.5
376.319	287.5
376.545	292.5
376.771	299.5
376.997	303.5
377.222	306.5
377.448	290.5
377.674	280.5
377.899	289.5
378.125	290.5
378.35	293.5
378.576	295.5
378.802	291.5
379.027	303.5
379.253	280.5
379.478	286.5
379.704	311.5
379.929	302.5
380.155	283.5
380.38	288.5
380.606	289.5
380.831	309.5
381.057	311.5
381.282	298.5
381.507	291.5
381.733	291.5
381.958	304.5
382.184	303.5
382.409	308.5
382.634	299.5
382.86	286.5
383.085	297.5
383.31	306.5
383.535	319.5
383.761	293.5
383.986	280.5
384.211	305.5
384.436	320.5
384.662	284.5
384.887	304.5
385.112	312.5
385.337	304.5
385.562	323.5
385.787	310.5
386.013	330.5
386.238	321.5
386.463	326.5
386.688	315.5
386.913	306.5
387.138	306.5
387.363	304.5
387.588	319.5
387.813	307.5
388.038	298.5
388.263	306.5
388.488	306.5
388.713	327.5
388.938	336.5
389.163	306.5
389.387	308.5
389.612	317.5
389.837	315.5
390.062	332.5
390.287	296.5
390.512	295.5
390.736	310.5
390.961	310.5
391.186	325.5
391.411	313.5
391.636	318.5
391.86	305.5
392.085	326.5
392.31	317.5
392.534	321.5
392.759	326.5
392.984	318.5
393.208	341.5
393.433	351.5
393.658	343.5
393.882	345.5
394.107	316.5
394.331	317.5
394.556	324.5
394.78	314.5
395.005	322.5
395.229	312.5
395.454	319.5
395.678	329.5
395.903	338.5
396.127	353.5
396.352	347.5
396.576	335.5
396.801	330.5
397.025	362.5
397.249	355.5
397.474	331.5
397.698	338.5
397.922	345.5
398.147	340.5
398.371	350.5
398.595	347.5
398.82	342.5
399.044	358.5
399.268	357.5
399.492	375.5
399.717	362.5
399.941	392.5
400.165	430.5
400.389	456.5
400.613	405.5
400.837	374.5
401.062	366.5
401.286	366.5
401.51	340.5
401.734	341.5
401.958	372.5
402.182	347.5
402.406	372.5
402.63	382.5
402.854	368.5
403.078	376.5
403.302	362.5
403.526	391.5
403.75	378.5
403.974	364.5
404.198	356.5
404.422	374.5
404.645	373.5
404.869	363.5
405.093	386.5
405.317	412.5
405.541	426.5
405.765	391.5
405.988	373.5
406.212	403.5
406.436	418.5
406.66	436.5
406.883	391.5
407.107	434.5
407.331	448.5
407.555	508.5
407.778	503.5
408.002	477.5
408.226	435.5
408.449	420.5
408.673	422.5
408.896	421.5
409.12	491.5
409.344	445.5
409.567	407.5
409.791	396.5
410.014	390.5
410.238	367.5
410.461	375.5
410.685	393.5
410.908	394.5
411.132	421.5
411.355	435.5
411.578	425.5
411.802	400.5
412.025	366.5
412.249	370.5
412.472	391.5
412.695	380.5
412.919	386.5
413.142	372.5
413.365	353.5
413.589	353.5
413.812	363.5
414.035	355.5
414.258	353.5
414.482	338.5
414.705	344.5
414.928	346.5
415.151	362.5
415.374	340.5
415.597	353.5
415.821	369.5
416.044	365.5
416.267	368.5
416.49	370.5
416.713	354.5
416.936	343.5
417.159	383.5
417.382	366.5
417.605	343.5
417.828	379.5
418.051	382.5
418.274	371.5
418.497	351.5
418.72	358.5
418.943	376.5
419.166	384.5
419.389	372.5
419.611	355.5
419.834	396.5
420.057	378.5
420.28	400.5
420.503	398.5
420.726	385.5
420.948	393.5
421.171	448.5
421.394	433.5
421.617	398.5
421.839	388.5
422.062	374.5
422.285	405.5
422.507	448.5
422.73	510.5
422.953	514.5
423.175	447.5
423.398	436.5
423.621	408.5
423.843	404.5
424.066	423.5
424.288	436.5
424.511	450.5
424.733	490.5
424.956	547.5
425.178	546.5
425.401	540.5
425.623	546.5
425.846	465.5
426.068	443.5
426.291	445.5
426.513	424.5
426.735	439.5
426.958	473.5
427.18	537.5
427.402	653.5
427.625	711.5
427.847	638.5
428.069	542.5
428.292	469.5
428.514	449.5
428.736	433.5
428.958	432.5
429.181	407.5
429.403	409.5
429.625	407.5
429.847	447.5
430.069	480.5
430.292	510.5
430.514	426.5
430.736	414.5
430.958	384.5
431.18	388.5
431.402	367.5
431.624	374.5
431.846	376.5
432.068	358.5
432.29	386.5
432.512	372.5
432.734	382.5
432.956	381.5
433.178	397.5
433.4	400.5
433.622	387.5
433.844	366.5
434.066	378.5
434.287	375.5
434.509	388.5
434.731	376.5
434.953	391.5
435.175	391.5
435.397	444.5
435.618	430.5
435.84	477.5
436.062	554.5
436.284	610.5
436.505	504.5
436.727	458.5
436.949	432.5
437.17	440.5
437.392	402.5
437.614	412.5
437.835	470.5
438.057	546.5
438.278	611.5
438.5	655.5
438.721	697.5
438.943	686.5
439.165	546.5
439.386	473.5
439.608	462.5
439.829	460.5
440.05	463.5
440.272	522.5
440.493	494.5
440.715	446.5
440.936	428.5
441.158	432.5
441.379	419.5
441.6	426.5
441.822	443.5
442.043	462.5
442.264	538.5
442.486	579.5
442.707	498.5
442.928	452.5
443.149	448.5
443.371	486.5
443.592	522.5
443.813	593.5
444.034	638.5
444.255	543.5
444.476	455.5
444.698	443.5
444.919	422.5
445.14	510.5
445.361	468.5
445.582	476.5
445.803	541.5
446.024	638.5
446.245	625.5
446.466	578.5
446.687	491.5
446.908	460.5
447.129	432.5
447.35	404.5
447.571	412.5
447.792	418.5
448.013	422.5
448.234	459.5
448.455	483.5
448.675	568.5
448.896	657.5
449.117	560.5
449.338	547.5
449.559	601.5
449.779	705.5
450	569.5
450.221	486.5
450.442	427.5
450.662	416.5
450.883	414.5
451.104	436.5
451.324	428.5
451.545	395.5
451.766	371.5
451.986	391.5
452.207	370.5
452.428	369.5
452.648	390.5
452.869	376.5
453.089	369.5
453.31	382.5
453.53	389.5
453.751	359.5
453.971	366.5
454.192	394.5
454.412	395.5
454.633	386.5
454.853	375.5
455.073	367.5
455.294	391.5
455.514	450.5
455.734	435.5
455.955	370.5
456.175	359.5
456.395	347.5
456.616	346.5
456.836	362.5
457.056	356.5
457.276	347.5
457.497	336.5
457.717	355.5
457.937	351.5
458.157	359.5
458.377	362.5
458.598	386.5
458.818	416.5
459.038	531.5
459.258	495.5
459.478	457.5
459.698	398.5
459.918	376.5
460.138	390.5
460.358	374.5
460.578	381.5
460.798	388.5
461.018	394.5
461.238	372.5
461.458	376.5
461.678	359.5
461.898	370.5
462.118	368.5
462.338	369.5
462.558	381.5
462.777	376.5
462.997	380.5
463.217	383.5
463.437	390.5
463.657	385.5
463.876	390.5
464.096	380.5
464.316	388.5
464.536	390.5
464.755	392.5
464.975	403.5
465.195	462.5
465.414	528.5
465.634	462.5
465.854	409.5
466.073	392.5
466.293	396.5
466.512	385.5
466.732	359.5
466.951	358.5
467.171	374.5
467.391	390.5
467.61	376.5
467.829	393.5
468.049	371.5
468.268	359.5
468.488	369.5
468.707	346.5
468.927	350.5
469.146	344.5
469.365	366.5
469.585	354.5
469.804	375.5
470.023	384.5
470.243	375.5
470.462	384.5
470.681	404.5
470.901	393.5
471.12	386.5
471.339	364.5
471.558	395.5
471.777	385.5
471.997	355.5
472.216	354.5
472.435	386.5
472.654	380.5
472.873	372.5
473.092	379.5
473.311	367.5
473.53	361.5
473.749	394.5
473.968	423.5
474.187	504.5
474.406	550.5
474.625	428.5
474.844	416.5
475.063	377.5
475.282	364.5
475.501	386.5
475.72	394.5
475.939	360.5
476.158	366.5
476.377	379.5
476.596	392.5
476.814	390.5
477.033	388.5
477.252	411.5
477.471	400.5
477.69	395.5
477.908	410.5
478.127	421.5
478.346	400.5
478.564	413.5
478.783	402.5
479.002	420.5
479.22	407.5
479.439	433.5
479.658	439.5
479.876	460.5
480.095	462.5
480.313	466.5
480.532	469.5
480.751	450.5
480.969	453.5
481.188	470.5
481.406	483.5
481.624	466.5
481.843	456.5
482.061	437.5
482.28	429.5
482.498	451.5
482.717	453.5
482.935	446.5
483.153	436.5
483.372	435.5
483.59	431.5
483.808	425.5
484.027	459.5
484.245	453.5
484.463	418.5
484.681	448.5
484.9	463.5
485.118	462.5
485.336	454.5
485.554	436.5
485.772	472.5
485.99	455.5
486.209	473.5
486.427	493.5
486.645	492.5
486.863	496.5
487.081	484.5
487.299	475.5
487.517	467.5
487.735	484.5
487.953	502.5
488.171	487.5
488.389	504.5
488.607	465.5
488.825	494.5
489.043	488.5
489.261	518.5
489.479	502.5
489.696	491.5
489.914	490.5
490.132	505.5
490.35	529.5
490.568	516.5
490.786	524.5
491.003	525.5
491.221	540.5
491.439	546.5
491.657	547.5
491.874	563.5
492.092	556.5
492.31	553.5
492.527	551.5
492.745	561.5
492.963	563.5
493.18	544.5
493.398	562.5
493.615	568.5
493.833	566.5
494.05	553.5
494.268	566.5
494.485	586.5
494.703	584.5
494.92	580.5
495.138	547.5
495.355	590.5
495.573	580.5
495.79	579.5
496.008	586.5
496.225	585.5
496.442	586.5
496.66	591.5
496.877	593.5
497.094	587.5
497.312	594.5
497.529	610.5
497.746	624.5
497.963	611.5
498.181	606.5
498.398	620.5
498.615	617.5
498.832	663.5
499.049	634.5
499.267	634.5
499.484	645.5
499.701	667.5
499.918	700.5
500.135	705.5
500.352	686.5
500.569	704.5
500.786	705.5
501.003	683.5
501.22	674.5
501.437	701.5
501.654	729.5
501.871	714.5
502.088	680.5
502.305	661.5
502.522	641.5
502.739	657.5
502.956	622.5
503.172	602.5
503.389	613.5
503.606	624.5
503.823	628.5
504.04	619.5
504.256	602.5
504.473	583.5
504.69	576.5
504.907	570.5
505.123	600.5
505.34	583.5
505.557	602.5
505.773	583.5
505.99	570.5
506.207	548.5
506.423	567.5
506.64	560.5
506.856	569.5
507.073	547.5
507.289	580.5
507.506	546.5
507.722	560.5
507.939	593.5
508.155	560.5
508.372	537.5
508.588	566.5
508.805	550.5
509.021	555.5
509.238	561.5
509.454	576.5
509.67	574.5
509.887	546.5
510.103	570.5
510.319	586.5
510.536	661.5
510.752	1100.5
510.968	914.5
511.184	618.5
511.401	569.5
511.617	566.5
511.833	557.5
512.049	513.5
512.265	508.5
512.481	517.5
512.698	530.5
512.914	531.5
513.13	504.5
513.346	531.5
513.562	539.5
513.778	518.5
513.994	538.5
514.21	561.5
514.426	590.5
514.642	614.5
514.858	639.5
515.074	650.5
515.29	817.5
515.506	1208.5
515.721	1030.5
515.937	677.5
516.153	584.5
516.369	577.5
516.585	554.5
516.801	564.5
517.016	556.5
517.232	541.5
517.448	497.5
517.664	528.5
517.879	519.5
518.095	504.5
518.311	520.5
518.527	543.5
518.742	543.5
518.958	542.5
519.173	533.5
519.389	534.5
519.605	550.5
519.82	515.5
520.036	539.5
