Data from 1987.PennyLincolnUp.Lamp.En5.5.200Scan.071819.P2_HRD10591_17-16-46-971.txt Node
Date: Thu Jul 18 17:16:46 EDT 2019
User: cochatt
Spectrometer: HR+D1059
Trigger mode: 1
Integration Time (sec): 1.000000E-1
Scans to average: 1
Electric dark correction enabled: true
Nonlinearity correction enabled: false
Boxcar width: 0
XAxis mode: Wavelengths
Number of Pixels in Spectrum: 2048
>>>>>Begin Spectral Data<<<<<
223.165	-13.38
223.4	-13.38
223.635	-13.38
223.869	-16.38
224.104	-30.38
224.338	-17.38
224.573	-26.38
224.808	-33.38
225.042	7.62
225.277	-11.38
225.511	-3.38
225.746	13.62
225.98	17.62
226.215	11.62
226.449	14.62
226.683	35.62
226.918	24.62
227.152	26.62
227.387	28.62
227.621	29.62
227.856	47.62
228.09	62.62
228.324	55.62
228.559	48.62
228.793	62.62
229.027	104.62
229.262	112.62
229.496	143.62
229.73	160.62
229.964	174.62
230.199	151.62
230.433	130.62
230.667	134.62
230.901	123.62
231.136	112.62
231.37	122.62
231.604	120.62
231.838	114.62
232.072	126.62
232.306	118.62
232.541	123.62
232.775	117.62
233.009	123.62
233.243	117.62
233.477	124.62
233.711	123.62
233.945	127.62
234.179	135.62
234.413	122.62
234.647	128.62
234.881	129.62
235.115	117.62
235.349	127.62
235.583	111.62
235.817	125.62
236.051	132.62
236.285	121.62
236.519	119.62
236.753	122.62
236.987	172.62
237.221	221.62
237.455	277.62
237.689	208.62
237.922	142.62
238.156	150.62
238.39	136.62
238.624	127.62
238.858	138.62
239.091	126.62
239.325	124.62
239.559	141.62
239.793	142.62
240.027	144.62
240.26	152.62
240.494	168.62
240.728	162.62
240.961	163.62
241.195	152.62
241.429	148.62
241.662	126.62
241.896	123.62
242.13	144.62
242.363	130.62
242.597	124.62
242.83	137.62
243.064	140.62
243.298	135.62
243.531	147.62
243.765	130.62
243.998	134.62
244.232	138.62
244.465	126.62
244.699	140.62
244.932	144.62
245.166	136.62
245.399	141.62
245.633	154.62
245.866	132.62
246.099	144.62
246.333	141.62
246.566	151.62
246.8	153.62
247.033	175.62
247.266	145.62
247.5	168.62
247.733	178.62
247.966	165.62
248.2	169.62
248.433	175.62
248.666	166.62
248.899	199.62
249.133	219.62
249.366	213.62
249.599	218.62
249.832	196.62
250.066	200.62
250.299	200.62
250.532	197.62
250.765	204.62
250.998	223.62
251.231	235.62
251.465	224.62
251.698	219.62
251.931	214.62
252.164	200.62
252.397	183.62
252.63	208.62
252.863	218.62
253.096	222.62
253.329	235.62
253.562	218.62
253.795	228.62
254.028	231.62
254.261	220.62
254.494	221.62
254.727	261.62
254.96	310.62
255.193	272.62
255.426	274.62
255.659	256.62
255.892	225.62
256.124	202.62
256.357	220.62
256.59	235.62
256.823	216.62
257.056	212.62
257.289	207.62
257.521	212.62
257.754	201.62
257.987	210.62
258.22	202.62
258.452	189.62
258.685	199.62
258.918	187.62
259.151	205.62
259.383	208.62
259.616	221.62
259.849	232.62
260.081	231.62
260.314	248.62
260.547	249.62
260.779	239.62
261.012	237.62
261.244	243.62
261.477	217.62
261.71	217.62
261.942	232.62
262.175	232.62
262.407	255.62
262.64	222.62
262.872	203.62
263.105	230.62
263.337	201.62
263.57	201.62
263.802	207.62
264.035	208.62
264.267	212.62
264.499	209.62
264.732	200.62
264.964	215.62
265.197	200.62
265.429	202.62
265.661	203.62
265.894	197.62
266.126	206.62
266.358	193.62
266.591	189.62
266.823	190.62
267.055	199.62
267.287	207.62
267.52	213.62
267.752	199.62
267.984	221.62
268.216	210.62
268.448	232.62
268.681	220.62
268.913	253.62
269.145	257.62
269.377	262.62
269.609	261.62
269.841	256.62
270.073	260.62
270.306	314.62
270.538	303.62
270.77	319.62
271.002	299.62
271.234	297.62
271.466	294.62
271.698	301.62
271.93	316.62
272.162	326.62
272.394	331.62
272.626	306.62
272.858	282.62
273.09	275.62
273.322	278.62
273.553	263.62
273.785	246.62
274.017	238.62
274.249	245.62
274.481	258.62
274.713	260.62
274.945	261.62
275.176	262.62
275.408	246.62
275.64	252.62
275.872	254.62
276.104	235.62
276.335	230.62
276.567	264.62
276.799	285.62
277.031	317.62
277.262	288.62
277.494	299.62
277.726	292.62
277.957	285.62
278.189	239.62
278.421	251.62
278.652	252.62
278.884	240.62
279.115	244.62
279.347	245.62
279.579	226.62
279.81	231.62
280.042	227.62
280.273	247.62
280.505	245.62
280.736	226.62
280.968	224.62
281.199	233.62
281.431	215.62
281.662	230.62
281.894	223.62
282.125	254.62
282.356	244.62
282.588	294.62
282.819	272.62
283.051	249.62
283.282	246.62
283.513	245.62
283.745	250.62
283.976	252.62
284.207	239.62
284.439	243.62
284.67	238.62
284.901	251.62
285.132	239.62
285.364	228.62
285.595	239.62
285.826	224.62
286.057	226.62
286.288	247.62
286.52	220.62
286.751	225.62
286.982	254.62
287.213	244.62
287.444	224.62
287.675	258.62
287.906	272.62
288.138	277.62
288.369	268.62
288.6	267.62
288.831	262.62
289.062	264.62
289.293	251.62
289.524	236.62
289.755	238.62
289.986	244.62
290.217	252.62
290.448	249.62
290.679	252.62
290.91	233.62
291.141	247.62
291.371	260.62
291.602	247.62
291.833	250.62
292.064	246.62
292.295	256.62
292.526	234.62
292.757	241.62
292.987	237.62
293.218	252.62
293.449	251.62
293.68	249.62
293.91	264.62
294.141	242.62
294.372	239.62
294.603	252.62
294.833	248.62
295.064	248.62
295.295	240.62
295.525	239.62
295.756	268.62
295.987	266.62
296.217	294.62
296.448	331.62
296.679	275.62
296.909	251.62
297.14	243.62
297.37	251.62
297.601	255.62
297.831	237.62
298.062	248.62
298.292	260.62
298.523	267.62
298.753	255.62
298.984	264.62
299.214	265.62
299.445	258.62
299.675	248.62
299.905	254.62
300.136	275.62
300.366	253.62
300.597	261.62
300.827	279.62
301.057	285.62
301.288	306.62
301.518	291.62
301.748	261.62
301.979	286.62
302.209	268.62
302.439	275.62
302.669	279.62
302.9	287.62
303.13	263.62
303.36	280.62
303.59	282.62
303.82	290.62
304.051	317.62
304.281	286.62
304.511	270.62
304.741	257.62
304.971	253.62
305.201	267.62
305.431	272.62
305.661	279.62
305.891	291.62
306.121	300.62
306.352	314.62
306.582	303.62
306.812	300.62
307.042	281.62
307.272	293.62
307.502	276.62
307.731	292.62
307.961	310.62
308.191	294.62
308.421	290.62
308.651	297.62
308.881	306.62
309.111	303.62
309.341	298.62
309.571	327.62
309.8	342.62
310.03	367.62
310.26	366.62
310.49	343.62
310.72	355.62
310.949	390.62
311.179	424.62
311.409	362.62
311.639	347.62
311.868	352.62
312.098	373.62
312.328	373.62
312.557	397.62
312.787	413.62
313.017	403.62
313.246	386.62
313.476	354.62
313.706	334.62
313.935	342.62
314.165	371.62
314.394	388.62
314.624	390.62
314.853	352.62
315.083	343.62
315.312	334.62
315.542	334.62
315.771	333.62
316.001	331.62
316.23	322.62
316.46	340.62
316.689	342.62
316.919	343.62
317.148	358.62
317.377	361.62
317.607	364.62
317.836	370.62
318.065	342.62
318.295	325.62
318.524	344.62
318.753	346.62
318.983	343.62
319.212	336.62
319.441	354.62
319.67	367.62
319.9	359.62
320.129	365.62
320.358	329.62
320.587	355.62
320.816	376.62
321.046	366.62
321.275	389.62
321.504	392.62
321.733	386.62
321.962	378.62
322.191	403.62
322.42	440.62
322.649	446.62
322.878	474.62
323.108	490.62
323.337	536.62
323.566	571.62
323.795	615.62
324.024	696.62
324.253	864.62
324.482	1277.62
324.71	2004.62
324.939	2756.62
325.168	2409.62
325.397	1306.62
325.626	845.62
325.855	664.62
326.084	580.62
326.313	583.62
326.542	566.62
326.77	647.62
326.999	770.62
327.228	1105.62
327.457	1739.62
327.686	2114.62
327.914	1461.62
328.143	951.62
328.372	735.62
328.6	692.62
328.829	653.62
329.058	692.62
329.287	700.62
329.515	616.62
329.744	552.62
329.972	523.62
330.201	544.62
330.43	568.62
330.658	639.62
330.887	738.62
331.115	683.62
331.344	564.62
331.572	509.62
331.801	515.62
332.03	493.62
332.258	470.62
332.486	435.62
332.715	423.62
332.943	402.62
333.172	374.62
333.4	432.62
333.629	416.62
333.857	417.62
334.085	413.62
334.314	410.62
334.542	405.62
334.771	420.62
334.999	432.62
335.227	407.62
335.455	394.62
335.684	398.62
335.912	369.62
336.14	380.62
336.369	393.62
336.597	388.62
336.825	406.62
337.053	394.62
337.281	383.62
337.51	372.62
337.738	410.62
337.966	398.62
338.194	408.62
338.422	391.62
338.65	366.62
338.878	378.62
339.106	370.62
339.334	388.62
339.562	359.62
339.79	382.62
340.018	373.62
340.246	383.62
340.474	409.62
340.702	383.62
340.93	397.62
341.158	388.62
341.386	380.62
341.614	379.62
341.842	393.62
342.07	389.62
342.298	385.62
342.526	363.62
342.754	364.62
342.981	361.62
343.209	355.62
343.437	334.62
343.665	365.62
343.893	361.62
344.12	371.62
344.348	360.62
344.576	364.62
344.804	404.62
345.031	407.62
345.259	414.62
345.487	404.62
345.714	428.62
345.942	400.62
346.17	379.62
346.397	372.62
346.625	366.62
346.853	397.62
347.08	394.62
347.308	378.62
347.535	407.62
347.763	418.62
347.99	399.62
348.218	396.62
348.445	426.62
348.673	408.62
348.9	382.62
349.128	383.62
349.355	355.62
349.583	352.62
349.81	359.62
350.037	372.62
350.265	365.62
350.492	362.62
350.72	384.62
350.947	377.62
351.174	393.62
351.402	416.62
351.629	421.62
351.856	397.62
352.083	413.62
352.311	418.62
352.538	419.62
352.765	427.62
352.992	404.62
353.22	411.62
353.447	398.62
353.674	370.62
353.901	361.62
354.128	350.62
354.355	351.62
354.583	354.62
354.81	335.62
355.037	356.62
355.264	336.62
355.491	335.62
355.718	339.62
355.945	342.62
356.172	324.62
356.399	332.62
356.626	332.62
356.853	349.62
357.08	353.62
357.307	334.62
357.534	345.62
357.761	347.62
357.988	334.62
358.215	354.62
358.441	343.62
358.668	354.62
358.895	352.62
359.122	382.62
359.349	363.62
359.576	412.62
359.802	448.62
360.029	462.62
360.256	501.62
360.483	464.62
360.709	404.62
360.936	374.62
361.163	395.62
361.39	405.62
361.616	415.62
361.843	381.62
362.07	390.62
362.296	412.62
362.523	399.62
362.749	386.62
362.976	376.62
363.203	368.62
363.429	348.62
363.656	356.62
363.882	350.62
364.109	352.62
364.335	345.62
364.562	373.62
364.788	336.62
365.015	356.62
365.241	368.62
365.468	349.62
365.694	355.62
365.92	372.62
366.147	350.62
366.373	360.62
366.599	364.62
366.826	342.62
367.052	346.62
367.278	347.62
367.505	352.62
367.731	342.62
367.957	348.62
368.184	352.62
368.41	355.62
368.636	374.62
368.862	375.62
369.089	370.62
369.315	346.62
369.541	354.62
369.767	357.62
369.993	350.62
370.219	334.62
370.445	338.62
370.672	352.62
370.898	349.62
371.124	349.62
371.35	333.62
371.576	350.62
371.802	333.62
372.028	347.62
372.254	359.62
372.48	320.62
372.706	330.62
372.932	352.62
373.158	359.62
373.384	342.62
373.61	348.62
373.835	335.62
374.061	341.62
374.287	334.62
374.513	339.62
374.739	342.62
374.965	361.62
375.191	366.62
375.416	347.62
375.642	345.62
375.868	333.62
376.094	336.62
376.319	330.62
376.545	340.62
376.771	345.62
376.997	332.62
377.222	349.62
377.448	330.62
377.674	346.62
377.899	330.62
378.125	351.62
378.35	328.62
378.576	329.62
378.802	299.62
379.027	299.62
379.253	326.62
379.478	341.62
379.704	330.62
379.929	343.62
380.155	344.62
380.38	321.62
380.606	353.62
380.831	336.62
381.057	335.62
381.282	340.62
381.507	340.62
381.733	330.62
381.958	356.62
382.184	367.62
382.409	344.62
382.634	330.62
382.86	336.62
383.085	335.62
383.31	344.62
383.535	335.62
383.761	340.62
383.986	351.62
384.211	348.62
384.436	328.62
384.662	343.62
384.887	346.62
385.112	376.62
385.337	352.62
385.562	352.62
385.787	354.62
386.013	376.62
386.238	359.62
386.463	376.62
386.688	362.62
386.913	352.62
387.138	343.62
387.363	359.62
387.588	347.62
387.813	362.62
388.038	355.62
388.263	353.62
388.488	351.62
388.713	346.62
388.938	361.62
389.163	358.62
389.387	373.62
389.612	351.62
389.837	363.62
390.062	368.62
390.287	352.62
390.512	350.62
390.736	341.62
390.961	336.62
391.186	352.62
391.411	358.62
391.636	359.62
391.86	376.62
392.085	350.62
392.31	351.62
392.534	349.62
392.759	342.62
392.984	360.62
393.208	370.62
393.433	346.62
393.658	350.62
393.882	356.62
394.107	353.62
394.331	343.62
394.556	335.62
394.78	352.62
395.005	353.62
395.229	361.62
395.454	355.62
395.678	374.62
395.903	361.62
396.127	396.62
396.352	412.62
396.576	387.62
396.801	371.62
397.025	361.62
397.249	394.62
397.474	356.62
397.698	372.62
397.922	374.62
398.147	400.62
398.371	413.62
398.595	402.62
398.82	386.62
399.044	387.62
399.268	390.62
399.492	408.62
399.717	429.62
399.941	469.62
400.165	485.62
400.389	525.62
400.613	464.62
400.837	440.62
401.062	422.62
401.286	417.62
401.51	416.62
401.734	412.62
401.958	420.62
402.182	419.62
402.406	436.62
402.63	434.62
402.854	403.62
403.078	424.62
403.302	436.62
403.526	441.62
403.75	430.62
403.974	428.62
404.198	426.62
404.422	425.62
404.645	432.62
404.869	424.62
405.093	443.62
405.317	468.62
405.541	505.62
405.765	474.62
405.988	446.62
406.212	481.62
406.436	494.62
406.66	517.62
406.883	510.62
407.107	519.62
407.331	538.62
407.555	615.62
407.778	603.62
408.002	567.62
408.226	483.62
408.449	500.62
408.673	496.62
408.896	502.62
409.12	554.62
409.344	527.62
409.567	470.62
409.791	442.62
410.014	447.62
410.238	422.62
410.461	428.62
410.685	445.62
410.908	473.62
411.132	493.62
411.355	530.62
411.578	504.62
411.802	447.62
412.025	435.62
412.249	425.62
412.472	436.62
412.695	463.62
412.919	450.62
413.142	424.62
413.365	429.62
413.589	418.62
413.812	411.62
414.035	398.62
414.258	392.62
414.482	388.62
414.705	407.62
414.928	398.62
415.151	393.62
415.374	398.62
415.597	392.62
415.821	409.62
416.044	427.62
416.267	421.62
416.49	402.62
416.713	398.62
416.936	415.62
417.159	401.62
417.382	415.62
417.605	428.62
417.828	438.62
418.051	448.62
418.274	441.62
418.497	398.62
418.72	428.62
418.943	399.62
419.166	439.62
419.389	454.62
419.611	434.62
419.834	447.62
420.057	438.62
420.28	440.62
420.503	453.62
420.726	428.62
420.948	451.62
421.171	493.62
421.394	535.62
421.617	478.62
421.839	442.62
422.062	457.62
422.285	471.62
422.507	527.62
422.73	598.62
422.953	572.62
423.175	527.62
423.398	490.62
423.621	471.62
423.843	493.62
424.066	508.62
424.288	496.62
424.511	506.62
424.733	574.62
424.956	652.62
425.178	662.62
425.401	626.62
425.623	638.62
425.846	565.62
426.068	506.62
426.291	529.62
426.513	528.62
426.735	528.62
426.958	587.62
427.18	672.62
427.402	771.62
427.625	862.62
427.847	820.62
428.069	690.62
428.292	582.62
428.514	530.62
428.736	532.62
428.958	505.62
429.181	487.62
429.403	482.62
429.625	503.62
429.847	524.62
430.069	616.62
430.292	592.62
430.514	510.62
430.736	506.62
430.958	461.62
431.18	454.62
431.402	461.62
431.624	437.62
431.846	439.62
432.068	430.62
432.29	436.62
432.512	447.62
432.734	442.62
432.956	434.62
433.178	459.62
433.4	482.62
433.622	438.62
433.844	471.62
434.066	442.62
434.287	454.62
434.509	441.62
434.731	457.62
434.953	447.62
435.175	484.62
435.397	507.62
435.618	500.62
435.84	555.62
436.062	666.62
436.284	686.62
436.505	616.62
436.727	557.62
436.949	518.62
437.17	476.62
437.392	483.62
437.614	499.62
437.835	571.62
438.057	677.62
438.278	764.62
438.5	750.62
438.721	802.62
438.943	762.62
439.165	638.62
439.386	581.62
439.608	562.62
439.829	572.62
440.05	610.62
440.272	653.62
440.493	600.62
440.715	529.62
440.936	518.62
441.158	484.62
441.379	488.62
441.6	502.62
441.822	527.62
442.043	594.62
442.264	682.62
442.486	718.62
442.707	594.62
442.928	557.62
443.149	562.62
443.371	586.62
443.592	622.62
443.813	696.62
444.034	762.62
444.255	629.62
444.476	572.62
444.698	516.62
444.919	524.62
445.14	638.62
445.361	576.62
445.582	548.62
445.803	668.62
446.024	766.62
446.245	772.62
446.466	709.62
446.687	618.62
446.908	550.62
447.129	531.62
447.35	512.62
447.571	494.62
447.792	499.62
448.013	518.62
448.234	541.62
448.455	599.62
448.675	734.62
448.896	783.62
449.117	685.62
449.338	655.62
449.559	723.62
449.779	811.62
450	689.62
450.221	571.62
450.442	530.62
450.662	514.62
450.883	533.62
451.104	544.62
451.324	545.62
451.545	499.62
451.766	465.62
451.986	445.62
452.207	460.62
452.428	434.62
452.648	437.62
452.869	454.62
453.089	452.62
453.31	480.62
453.53	455.62
453.751	443.62
453.971	445.62
454.192	532.62
454.412	503.62
454.633	478.62
454.853	455.62
455.073	427.62
455.294	484.62
455.514	537.62
455.734	540.62
455.955	463.62
456.175	438.62
456.395	411.62
456.616	405.62
456.836	435.62
457.056	414.62
457.276	393.62
457.497	393.62
457.717	412.62
457.937	414.62
458.157	415.62
458.377	423.62
458.598	459.62
458.818	542.62
459.038	630.62
459.258	654.62
459.478	552.62
459.698	471.62
459.918	460.62
460.138	447.62
460.358	440.62
460.578	412.62
460.798	410.62
461.018	433.62
461.238	410.62
461.458	424.62
461.678	424.62
461.898	426.62
462.118	424.62
462.338	430.62
462.558	421.62
462.777	415.62
462.997	449.62
463.217	431.62
463.437	431.62
463.657	437.62
463.876	433.62
464.096	456.62
464.316	463.62
464.536	471.62
464.755	460.62
464.975	498.62
465.195	577.62
465.414	723.62
465.634	609.62
465.854	528.62
466.073	477.62
466.293	471.62
466.512	454.62
466.732	444.62
466.951	426.62
467.171	435.62
467.391	448.62
467.61	482.62
467.829	474.62
468.049	452.62
468.268	423.62
468.488	434.62
468.707	408.62
468.927	429.62
469.146	405.62
469.365	411.62
469.585	398.62
469.804	435.62
470.023	446.62
470.243	464.62
470.462	460.62
470.681	479.62
470.901	471.62
471.12	466.62
471.339	434.62
471.558	459.62
471.777	443.62
471.997	418.62
472.216	425.62
472.435	442.62
472.654	436.62
472.873	408.62
473.092	437.62
473.311	421.62
473.53	452.62
473.749	465.62
473.968	506.62
474.187	638.62
474.406	648.62
474.625	508.62
474.844	456.62
475.063	442.62
475.282	453.62
475.501	442.62
475.72	449.62
475.939	459.62
476.158	446.62
476.377	450.62
476.596	455.62
476.814	460.62
477.033	491.62
477.252	476.62
477.471	470.62
477.69	459.62
477.908	469.62
478.127	498.62
478.346	475.62
478.564	468.62
478.783	464.62
479.002	492.62
479.22	495.62
479.439	527.62
479.658	546.62
479.876	532.62
480.095	544.62
480.313	585.62
480.532	557.62
480.751	522.62
480.969	543.62
481.188	557.62
481.406	549.62
481.624	549.62
481.843	508.62
482.061	510.62
482.28	517.62
482.498	539.62
482.717	516.62
482.935	525.62
483.153	516.62
483.372	539.62
483.59	505.62
483.808	542.62
484.027	527.62
484.245	540.62
484.463	554.62
484.681	548.62
484.9	535.62
485.118	564.62
485.336	547.62
485.554	540.62
485.772	536.62
485.99	537.62
486.209	556.62
486.427	547.62
486.645	583.62
486.863	617.62
487.081	600.62
487.299	612.62
487.517	589.62
487.735	566.62
487.953	601.62
488.171	577.62
488.389	552.62
488.607	581.62
488.825	575.62
489.043	569.62
489.261	573.62
489.479	586.62
489.696	596.62
489.914	585.62
490.132	612.62
490.35	598.62
490.568	594.62
490.786	621.62
491.003	625.62
491.221	654.62
491.439	642.62
491.657	653.62
491.874	649.62
492.092	654.62
492.31	659.62
492.527	668.62
492.745	662.62
492.963	676.62
493.18	663.62
493.398	664.62
493.615	687.62
493.833	685.62
494.05	690.62
494.268	691.62
494.485	705.62
494.703	678.62
494.92	686.62
495.138	678.62
495.355	691.62
495.573	693.62
495.79	704.62
496.008	706.62
496.225	695.62
496.442	708.62
496.66	704.62
496.877	698.62
497.094	707.62
497.312	702.62
497.529	701.62
497.746	706.62
497.963	706.62
498.181	757.62
498.398	709.62
498.615	737.62
498.832	734.62
499.049	717.62
499.267	746.62
499.484	742.62
499.701	745.62
499.918	765.62
500.135	788.62
500.352	786.62
500.569	807.62
500.786	806.62
501.003	810.62
501.22	789.62
501.437	808.62
501.654	785.62
501.871	828.62
