Data from 1987.PennyLincolnUp.Lamp.En5.5.200Scan.071819.P2_HRD10591_17-14-54-971.txt Node
Date: Thu Jul 18 17:14:54 EDT 2019
User: cochatt
Spectrometer: HR+D1059
Trigger mode: 1
Integration Time (sec): 1.000000E-1
Scans to average: 1
Electric dark correction enabled: true
Nonlinearity correction enabled: false
Boxcar width: 0
XAxis mode: Wavelengths
Number of Pixels in Spectrum: 2048
>>>>>Begin Spectral Data<<<<<
223.165	-12.44
223.4	-12.44
223.635	-12.44
223.869	-16.44
224.104	-18.44
224.338	-13.44
224.573	-30.44
224.808	-4.44
225.042	0.56
225.277	-10.44
225.511	-1.44
225.746	0.56
225.98	0.56
226.215	15.56
226.449	23.56
226.683	18.56
226.918	18.56
227.152	29.56
227.387	32.56
227.621	27.56
227.856	31.56
228.09	51.56
228.324	54.56
228.559	50.56
228.793	61.56
229.027	112.56
229.262	112.56
229.496	131.56
229.73	130.56
229.964	186.56
230.199	150.56
230.433	121.56
230.667	103.56
230.901	122.56
231.136	130.56
231.37	114.56
231.604	109.56
231.838	120.56
232.072	117.56
232.306	117.56
232.541	104.56
232.775	115.56
233.009	116.56
233.243	111.56
233.477	115.56
233.711	116.56
233.945	104.56
234.179	113.56
234.413	106.56
234.647	118.56
234.881	117.56
235.115	100.56
235.349	119.56
235.583	112.56
235.817	113.56
236.051	117.56
236.285	128.56
236.519	131.56
236.753	130.56
236.987	132.56
237.221	200.56
237.455	261.56
237.689	211.56
237.922	150.56
238.156	148.56
238.39	140.56
238.624	116.56
238.858	121.56
239.091	130.56
239.325	130.56
239.559	128.56
239.793	121.56
240.027	126.56
240.26	144.56
240.494	154.56
240.728	158.56
240.961	155.56
241.195	136.56
241.429	142.56
241.662	131.56
241.896	137.56
242.13	129.56
242.363	134.56
242.597	133.56
242.83	128.56
243.064	151.56
243.298	130.56
243.531	128.56
243.765	134.56
243.998	138.56
244.232	135.56
244.465	138.56
244.699	128.56
244.932	140.56
245.166	138.56
245.399	118.56
245.633	132.56
245.866	132.56
246.099	145.56
246.333	129.56
246.566	149.56
246.8	149.56
247.033	147.56
247.266	151.56
247.5	146.56
247.733	155.56
247.966	167.56
248.2	158.56
248.433	169.56
248.666	183.56
248.899	195.56
249.133	196.56
249.366	214.56
249.599	193.56
249.832	182.56
250.066	168.56
250.299	148.56
250.532	175.56
250.765	174.56
250.998	217.56
251.231	238.56
251.465	204.56
251.698	202.56
251.931	175.56
252.164	183.56
252.397	190.56
252.63	194.56
252.863	187.56
253.096	204.56
253.329	214.56
253.562	213.56
253.795	225.56
254.028	214.56
254.261	224.56
254.494	207.56
254.727	230.56
254.96	258.56
255.193	241.56
255.426	243.56
255.659	221.56
255.892	223.56
256.124	221.56
256.357	208.56
256.59	182.56
256.823	180.56
257.056	193.56
257.289	186.56
257.521	196.56
257.754	204.56
257.987	198.56
258.22	206.56
258.452	196.56
258.685	176.56
258.918	191.56
259.151	187.56
259.383	200.56
259.616	214.56
259.849	204.56
260.081	211.56
260.314	232.56
260.547	224.56
260.779	242.56
261.012	232.56
261.244	215.56
261.477	194.56
261.71	204.56
261.942	213.56
262.175	225.56
262.407	212.56
262.64	199.56
262.872	187.56
263.105	194.56
263.337	186.56
263.57	195.56
263.802	178.56
264.035	194.56
264.267	203.56
264.499	191.56
264.732	190.56
264.964	170.56
265.197	185.56
265.429	183.56
265.661	179.56
265.894	187.56
266.126	181.56
266.358	199.56
266.591	189.56
266.823	176.56
267.055	208.56
267.287	194.56
267.52	211.56
267.752	224.56
267.984	200.56
268.216	204.56
268.448	202.56
268.681	200.56
268.913	210.56
269.145	250.56
269.377	241.56
269.609	249.56
269.841	242.56
270.073	258.56
270.306	266.56
270.538	287.56
270.77	281.56
271.002	276.56
271.234	278.56
271.466	283.56
271.698	288.56
271.93	304.56
272.162	297.56
272.394	296.56
272.626	290.56
272.858	260.56
273.09	250.56
273.322	256.56
273.553	241.56
273.785	251.56
274.017	243.56
274.249	225.56
274.481	227.56
274.713	232.56
274.945	226.56
275.176	232.56
275.408	238.56
275.64	226.56
275.872	238.56
276.104	234.56
276.335	241.56
276.567	229.56
276.799	252.56
277.031	267.56
277.262	288.56
277.494	283.56
277.726	281.56
277.957	271.56
278.189	239.56
278.421	228.56
278.652	232.56
278.884	219.56
279.115	226.56
279.347	223.56
279.579	230.56
279.81	224.56
280.042	209.56
280.273	213.56
280.505	225.56
280.736	232.56
280.968	223.56
281.199	235.56
281.431	230.56
281.662	234.56
281.894	224.56
282.125	242.56
282.356	223.56
282.588	270.56
282.819	275.56
283.051	252.56
283.282	218.56
283.513	250.56
283.745	219.56
283.976	220.56
284.207	232.56
284.439	226.56
284.67	231.56
284.901	217.56
285.132	236.56
285.364	225.56
285.595	217.56
285.826	217.56
286.057	232.56
286.288	223.56
286.52	233.56
286.751	211.56
286.982	211.56
287.213	227.56
287.444	239.56
287.675	226.56
287.906	227.56
288.138	249.56
288.369	258.56
288.6	243.56
288.831	227.56
289.062	241.56
289.293	220.56
289.524	236.56
289.755	227.56
289.986	252.56
290.217	248.56
290.448	220.56
290.679	250.56
290.91	239.56
291.141	216.56
291.371	214.56
291.602	216.56
291.833	224.56
292.064	215.56
292.295	235.56
292.526	226.56
292.757	255.56
292.987	228.56
293.218	227.56
293.449	238.56
293.68	234.56
293.91	235.56
294.141	223.56
294.372	234.56
294.603	235.56
294.833	237.56
295.064	225.56
295.295	235.56
295.525	240.56
295.756	238.56
295.987	247.56
296.217	302.56
296.448	274.56
296.679	261.56
296.909	260.56
297.14	240.56
297.37	240.56
297.601	246.56
297.831	246.56
298.062	252.56
298.292	248.56
298.523	217.56
298.753	240.56
298.984	250.56
299.214	249.56
299.445	265.56
299.675	247.56
299.905	257.56
300.136	245.56
300.366	235.56
300.597	258.56
300.827	254.56
301.057	264.56
301.288	275.56
301.518	274.56
301.748	270.56
301.979	246.56
302.209	273.56
302.439	278.56
302.669	267.56
302.9	256.56
303.13	263.56
303.36	261.56
303.59	240.56
303.82	281.56
304.051	268.56
304.281	275.56
304.511	270.56
304.741	248.56
304.971	266.56
305.201	262.56
305.431	262.56
305.661	255.56
305.891	262.56
306.121	261.56
306.352	282.56
306.582	301.56
306.812	266.56
307.042	269.56
307.272	276.56
307.502	270.56
307.731	267.56
307.961	274.56
308.191	239.56
308.421	290.56
308.651	264.56
308.881	296.56
309.111	276.56
309.341	296.56
309.571	302.56
309.8	316.56
310.03	319.56
310.26	334.56
310.49	329.56
310.72	342.56
310.949	360.56
311.179	366.56
311.409	343.56
311.639	331.56
311.868	310.56
312.098	346.56
312.328	368.56
312.557	371.56
312.787	388.56
313.017	366.56
313.246	355.56
313.476	316.56
313.706	322.56
313.935	334.56
314.165	339.56
314.394	370.56
314.624	354.56
314.853	360.56
315.083	349.56
315.312	347.56
315.542	313.56
315.771	307.56
316.001	325.56
316.23	321.56
316.46	302.56
316.689	318.56
316.919	341.56
317.148	350.56
317.377	323.56
317.607	343.56
317.836	329.56
318.065	314.56
318.295	330.56
318.524	298.56
318.753	330.56
318.983	330.56
319.212	330.56
319.441	341.56
319.67	346.56
319.9	321.56
320.129	306.56
320.358	330.56
320.587	344.56
320.816	338.56
321.046	350.56
321.275	361.56
321.504	349.56
321.733	348.56
321.962	374.56
322.191	395.56
322.42	396.56
322.649	420.56
322.878	443.56
323.108	448.56
323.337	491.56
323.566	519.56
323.795	568.56
324.024	643.56
324.253	814.56
324.482	1166.56
324.71	1824.56
324.939	2522.56
325.168	2206.56
325.397	1206.56
325.626	790.56
325.855	629.56
326.084	540.56
326.313	522.56
326.542	513.56
326.77	598.56
326.999	711.56
327.228	1010.56
327.457	1567.56
327.686	1899.56
327.914	1314.56
328.143	844.56
328.372	698.56
328.6	638.56
328.829	593.56
329.058	606.56
329.287	659.56
329.515	574.56
329.744	512.56
329.972	495.56
330.201	499.56
330.43	529.56
330.658	584.56
330.887	664.56
331.115	648.56
331.344	522.56
331.572	495.56
331.801	454.56
332.03	467.56
332.258	409.56
332.486	394.56
332.715	380.56
332.943	384.56
333.172	371.56
333.4	376.56
333.629	371.56
333.857	395.56
334.085	385.56
334.314	374.56
334.542	386.56
334.771	392.56
334.999	377.56
335.227	397.56
335.455	363.56
335.684	359.56
335.912	352.56
336.14	367.56
336.369	360.56
336.597	357.56
336.825	368.56
337.053	354.56
337.281	346.56
337.51	351.56
337.738	390.56
337.966	376.56
338.194	371.56
338.422	364.56
338.65	353.56
338.878	372.56
339.106	358.56
339.334	353.56
339.562	347.56
339.79	354.56
340.018	370.56
340.246	382.56
340.474	376.56
340.702	352.56
340.93	360.56
341.158	348.56
341.386	360.56
341.614	382.56
341.842	378.56
342.07	354.56
342.298	336.56
342.526	344.56
342.754	333.56
342.981	326.56
343.209	336.56
343.437	338.56
343.665	342.56
343.893	346.56
344.12	341.56
344.348	353.56
344.576	359.56
344.804	373.56
345.031	394.56
345.259	389.56
345.487	396.56
345.714	372.56
345.942	356.56
346.17	376.56
346.397	340.56
346.625	343.56
346.853	367.56
347.08	346.56
347.308	359.56
347.535	382.56
347.763	377.56
347.99	384.56
348.218	388.56
348.445	380.56
348.673	389.56
348.9	362.56
349.128	362.56
349.355	348.56
349.583	340.56
349.81	346.56
350.037	342.56
350.265	340.56
350.492	327.56
350.72	335.56
350.947	347.56
351.174	372.56
351.402	380.56
351.629	374.56
351.856	375.56
352.083	370.56
352.311	379.56
352.538	383.56
352.765	397.56
352.992	376.56
353.22	389.56
353.447	370.56
353.674	357.56
353.901	348.56
354.128	343.56
354.355	342.56
354.583	317.56
354.81	308.56
355.037	320.56
355.264	327.56
355.491	320.56
355.718	307.56
355.945	322.56
356.172	316.56
356.399	326.56
356.626	311.56
356.853	319.56
357.08	299.56
357.307	310.56
357.534	326.56
357.761	322.56
357.988	338.56
358.215	334.56
358.441	329.56
358.668	345.56
358.895	326.56
359.122	331.56
359.349	361.56
359.576	391.56
359.802	404.56
360.029	455.56
360.256	458.56
360.483	420.56
360.709	398.56
360.936	388.56
361.163	384.56
361.39	368.56
361.616	381.56
361.843	358.56
362.07	372.56
362.296	374.56
362.523	370.56
362.749	368.56
362.976	374.56
363.203	343.56
363.429	327.56
363.656	334.56
363.882	352.56
364.109	344.56
364.335	326.56
364.562	345.56
364.788	334.56
365.015	341.56
365.241	352.56
365.468	362.56
365.694	343.56
365.92	373.56
366.147	341.56
366.373	328.56
366.599	341.56
366.826	332.56
367.052	346.56
367.278	339.56
367.505	331.56
367.731	328.56
367.957	351.56
368.184	323.56
368.41	335.56
368.636	354.56
368.862	346.56
369.089	333.56
369.315	336.56
369.541	347.56
369.767	342.56
369.993	337.56
370.219	340.56
370.445	352.56
370.672	328.56
370.898	323.56
371.124	328.56
371.35	328.56
371.576	315.56
371.802	317.56
372.028	314.56
372.254	310.56
372.48	323.56
372.706	292.56
372.932	314.56
373.158	316.56
373.384	332.56
373.61	344.56
373.835	333.56
374.061	322.56
374.287	314.56
374.513	329.56
374.739	314.56
374.965	331.56
375.191	320.56
375.416	331.56
375.642	326.56
375.868	324.56
376.094	317.56
376.319	330.56
376.545	342.56
376.771	327.56
376.997	314.56
377.222	329.56
377.448	340.56
377.674	336.56
377.899	316.56
378.125	324.56
378.35	327.56
378.576	314.56
378.802	327.56
379.027	320.56
379.253	324.56
379.478	326.56
379.704	337.56
379.929	313.56
380.155	327.56
380.38	320.56
380.606	332.56
380.831	313.56
381.057	325.56
381.282	323.56
381.507	325.56
381.733	335.56
381.958	334.56
382.184	302.56
382.409	345.56
382.634	328.56
382.86	302.56
383.085	323.56
383.31	331.56
383.535	342.56
383.761	310.56
383.986	330.56
384.211	345.56
384.436	327.56
384.662	327.56
384.887	339.56
385.112	349.56
385.337	338.56
385.562	328.56
385.787	336.56
386.013	344.56
386.238	370.56
386.463	353.56
386.688	320.56
386.913	333.56
387.138	317.56
387.363	343.56
387.588	349.56
387.813	338.56
388.038	346.56
388.263	352.56
388.488	349.56
388.713	346.56
388.938	348.56
389.163	346.56
389.387	342.56
389.612	353.56
389.837	344.56
390.062	345.56
390.287	334.56
390.512	332.56
390.736	336.56
390.961	320.56
391.186	341.56
391.411	351.56
391.636	342.56
391.86	363.56
392.085	344.56
392.31	346.56
392.534	343.56
392.759	366.56
392.984	346.56
393.208	342.56
393.433	356.56
393.658	371.56
393.882	374.56
394.107	345.56
394.331	329.56
394.556	334.56
394.78	359.56
395.005	334.56
395.229	351.56
395.454	351.56
395.678	366.56
395.903	358.56
396.127	360.56
396.352	401.56
396.576	363.56
396.801	346.56
397.025	363.56
397.249	360.56
397.474	357.56
397.698	388.56
397.922	370.56
398.147	378.56
398.371	393.56
398.595	374.56
398.82	378.56
399.044	385.56
399.268	386.56
399.492	391.56
399.717	408.56
399.941	441.56
400.165	458.56
400.389	488.56
400.613	471.56
400.837	432.56
401.062	402.56
401.286	406.56
401.51	388.56
401.734	398.56
401.958	394.56
402.182	398.56
402.406	418.56
402.63	406.56
402.854	394.56
403.078	386.56
403.302	407.56
403.526	422.56
403.75	419.56
403.974	390.56
404.198	404.56
404.422	410.56
404.645	395.56
404.869	413.56
405.093	408.56
405.317	459.56
405.541	476.56
405.765	441.56
405.988	419.56
406.212	449.56
406.436	492.56
406.66	481.56
406.883	479.56
407.107	493.56
407.331	506.56
407.555	591.56
407.778	584.56
408.002	554.56
408.226	498.56
408.449	468.56
408.673	468.56
408.896	499.56
409.12	535.56
409.344	504.56
409.567	476.56
409.791	421.56
410.014	413.56
410.238	411.56
410.461	417.56
410.685	422.56
410.908	458.56
411.132	486.56
411.355	519.56
411.578	471.56
411.802	435.56
412.025	406.56
412.249	411.56
412.472	430.56
412.695	432.56
412.919	412.56
413.142	410.56
413.365	389.56
413.589	402.56
413.812	398.56
414.035	392.56
414.258	387.56
414.482	374.56
414.705	384.56
414.928	387.56
415.151	387.56
415.374	386.56
415.597	362.56
415.821	379.56
416.044	394.56
416.267	404.56
416.49	400.56
416.713	397.56
416.936	397.56
417.159	411.56
417.382	413.56
417.605	415.56
417.828	420.56
418.051	434.56
418.274	437.56
418.497	402.56
418.72	401.56
418.943	419.56
419.166	398.56
419.389	418.56
419.611	414.56
419.834	419.56
420.057	441.56
420.28	426.56
420.503	404.56
420.726	423.56
420.948	441.56
421.171	476.56
421.394	534.56
421.617	460.56
421.839	430.56
422.062	424.56
422.285	459.56
422.507	525.56
422.73	593.56
422.953	566.56
423.175	509.56
423.398	476.56
423.621	442.56
423.843	484.56
424.066	469.56
424.288	467.56
424.511	509.56
424.733	577.56
424.956	630.56
425.178	624.56
425.401	583.56
425.623	619.56
425.846	541.56
426.068	512.56
426.291	504.56
426.513	510.56
426.735	520.56
426.958	558.56
427.18	650.56
427.402	730.56
427.625	831.56
427.847	788.56
428.069	642.56
428.292	566.56
428.514	521.56
428.736	485.56
428.958	494.56
429.181	465.56
429.403	458.56
429.625	473.56
429.847	509.56
430.069	579.56
430.292	585.56
430.514	482.56
430.736	442.56
430.958	453.56
431.18	442.56
431.402	434.56
431.624	410.56
431.846	425.56
432.068	440.56
432.29	407.56
432.512	416.56
432.734	429.56
432.956	420.56
433.178	439.56
433.4	472.56
433.622	419.56
433.844	442.56
434.066	423.56
434.287	432.56
434.509	433.56
434.731	423.56
434.953	428.56
435.175	453.56
435.397	481.56
435.618	494.56
435.84	542.56
436.062	640.56
436.284	681.56
436.505	578.56
436.727	546.56
436.949	479.56
437.17	466.56
437.392	491.56
437.614	466.56
437.835	524.56
438.057	648.56
438.278	746.56
438.5	730.56
438.721	776.56
438.943	726.56
439.165	612.56
439.386	562.56
439.608	537.56
439.829	542.56
440.05	583.56
440.272	595.56
440.493	574.56
440.715	520.56
440.936	502.56
441.158	487.56
441.379	463.56
441.6	468.56
441.822	520.56
442.043	557.56
442.264	634.56
442.486	685.56
442.707	576.56
442.928	560.56
443.149	532.56
443.371	546.56
443.592	612.56
443.813	668.56
444.034	722.56
444.255	601.56
444.476	533.56
444.698	496.56
444.919	482.56
445.14	581.56
445.361	564.56
445.582	544.56
445.803	592.56
446.024	742.56
446.245	724.56
446.466	638.56
446.687	565.56
446.908	537.56
447.129	521.56
447.35	490.56
447.571	458.56
447.792	446.56
448.013	496.56
448.234	510.56
448.455	573.56
448.675	674.56
448.896	745.56
449.117	658.56
449.338	618.56
449.559	706.56
449.779	809.56
450	665.56
450.221	571.56
450.442	483.56
450.662	506.56
450.883	488.56
451.104	518.56
451.324	497.56
451.545	491.56
451.766	460.56
451.986	413.56
452.207	441.56
452.428	416.56
452.648	438.56
452.869	417.56
453.089	434.56
453.31	474.56
453.53	442.56
453.751	455.56
453.971	431.56
454.192	467.56
454.412	453.56
454.633	453.56
454.853	415.56
455.073	434.56
455.294	462.56
455.514	529.56
455.734	508.56
455.955	442.56
456.175	378.56
456.395	407.56
456.616	377.56
456.836	393.56
457.056	411.56
457.276	391.56
457.497	366.56
457.717	380.56
457.937	380.56
458.157	411.56
458.377	411.56
458.598	446.56
458.818	526.56
459.038	642.56
459.258	654.56
459.478	516.56
459.698	467.56
459.918	425.56
460.138	422.56
460.358	405.56
460.578	418.56
460.798	418.56
461.018	397.56
461.238	414.56
461.458	408.56
461.678	420.56
461.898	406.56
462.118	410.56
462.338	388.56
462.558	416.56
462.777	419.56
462.997	426.56
463.217	424.56
463.437	423.56
463.657	402.56
463.876	414.56
464.096	415.56
464.316	442.56
464.536	437.56
464.755	447.56
464.975	458.56
465.195	522.56
465.414	671.56
465.634	570.56
465.854	475.56
466.073	471.56
466.293	424.56
466.512	417.56
466.732	420.56
466.951	411.56
467.171	408.56
467.391	412.56
467.61	421.56
467.829	446.56
468.049	452.56
468.268	402.56
468.488	423.56
468.707	410.56
468.927	410.56
469.146	406.56
469.365	391.56
469.585	402.56
469.804	414.56
470.023	427.56
470.243	436.56
470.462	443.56
470.681	475.56
470.901	465.56
471.12	447.56
471.339	450.56
471.558	412.56
471.777	417.56
471.997	412.56
472.216	390.56
472.435	429.56
472.654	404.56
472.873	419.56
473.092	416.56
473.311	407.56
473.53	445.56
473.749	436.56
473.968	456.56
474.187	566.56
474.406	626.56
474.625	490.56
474.844	435.56
475.063	447.56
475.282	422.56
475.501	425.56
475.72	419.56
475.939	432.56
476.158	448.56
476.377	448.56
476.596	441.56
476.814	443.56
477.033	447.56
477.252	458.56
477.471	434.56
477.69	446.56
477.908	440.56
478.127	443.56
478.346	462.56
478.564	472.56
478.783	457.56
479.002	486.56
479.22	486.56
479.439	487.56
479.658	518.56
479.876	530.56
480.095	513.56
480.313	553.56
480.532	523.56
480.751	501.56
480.969	494.56
481.188	521.56
481.406	541.56
481.624	534.56
481.843	492.56
482.061	507.56
482.28	506.56
482.498	489.56
482.717	501.56
482.935	497.56
483.153	496.56
483.372	473.56
483.59	514.56
483.808	508.56
484.027	484.56
484.245	514.56
484.463	492.56
484.681	498.56
484.9	476.56
485.118	514.56
485.336	517.56
485.554	539.56
485.772	522.56
485.99	523.56
486.209	518.56
486.427	534.56
486.645	547.56
486.863	574.56
487.081	568.56
487.299	548.56
487.517	539.56
487.735	537.56
487.953	563.56
488.171	555.56
488.389	552.56
488.607	542.56
488.825	553.56
489.043	572.56
489.261	566.56
489.479	544.56
489.696	560.56
489.914	583.56
490.132	568.56
490.35	573.56
490.568	572.56
490.786	583.56
491.003	572.56
491.221	599.56
491.439	604.56
491.657	614.56
491.874	610.56
492.092	623.56
492.31	623.56
492.527	644.56
492.745	615.56
492.963	628.56
493.18	642.56
493.398	650.56
493.615	644.56
493.833	673.56
494.05	632.56
494.268	653.56
494.485	655.56
494.703	669.56
494.92	682.56
495.138	678.56
495.355	666.56
495.573	660.56
495.79	651.56
496.008	678.56
496.225	667.56
496.442	652.56
496.66	643.56
496.877	646.56
497.094	670.56
497.312	666.56
497.529	678.56
497.746	676.56
497.963	704.56
498.181	719.56
498.398	732.56
498.615	708.56
498.832	733.56
499.049	712.56
499.267	736.56
499.484	715.56
499.701	741.56
499.918	736.56
500.135	764.56
500.352	798.56
500.569	766.56
500.786	752.56
501.003	788.56
501.22	744.56
501.437	762.56
501.654	791.56
501.871	816.56
