Data from 1987.PennyLincolnUp.Lamp.En5.5.200Scan.071819.P2_HRD10591_17-15-35-971.txt Node
Date: Thu Jul 18 17:15:35 EDT 2019
User: cochatt
Spectrometer: HR+D1059
Trigger mode: 1
Integration Time (sec): 1.000000E-1
Scans to average: 1
Electric dark correction enabled: true
Nonlinearity correction enabled: false
Boxcar width: 0
XAxis mode: Wavelengths
Number of Pixels in Spectrum: 2048
>>>>>Begin Spectral Data<<<<<
223.165	-11.25
223.4	-11.25
223.635	-11.25
223.869	4.75
224.104	-19.25
224.338	-15.25
224.573	-21.25
224.808	-15.25
225.042	-13.25
225.277	0.75
225.511	7.75
225.746	4.75
225.98	2.75
226.215	11.75
226.449	11.75
226.683	5.75
226.918	20.75
227.152	24.75
227.387	17.75
227.621	36.75
227.856	37.75
228.09	51.75
228.324	54.75
228.559	41.75
228.793	66.75
229.027	108.75
229.262	112.75
229.496	121.75
229.73	150.75
229.964	170.75
230.199	134.75
230.433	123.75
230.667	120.75
230.901	120.75
231.136	112.75
231.37	112.75
231.604	105.75
231.838	117.75
232.072	110.75
232.306	117.75
232.541	124.75
232.775	106.75
233.009	121.75
233.243	115.75
233.477	114.75
233.711	105.75
233.945	108.75
234.179	113.75
234.413	121.75
234.647	124.75
234.881	109.75
235.115	106.75
235.349	123.75
235.583	102.75
235.817	138.75
236.051	147.75
236.285	117.75
236.519	132.75
236.753	126.75
236.987	161.75
237.221	193.75
237.455	275.75
237.689	208.75
237.922	153.75
238.156	140.75
238.39	128.75
238.624	121.75
238.858	123.75
239.091	124.75
239.325	122.75
239.559	130.75
239.793	120.75
240.027	121.75
240.26	146.75
240.494	151.75
240.728	161.75
240.961	157.75
241.195	148.75
241.429	146.75
241.662	124.75
241.896	136.75
242.13	142.75
242.363	132.75
242.597	124.75
242.83	132.75
243.064	131.75
243.298	133.75
243.531	138.75
243.765	134.75
243.998	136.75
244.232	131.75
244.465	132.75
244.699	134.75
244.932	125.75
245.166	126.75
245.399	141.75
245.633	136.75
245.866	126.75
246.099	152.75
246.333	145.75
246.566	147.75
246.8	134.75
247.033	146.75
247.266	146.75
247.5	145.75
247.733	149.75
247.966	153.75
248.2	157.75
248.433	178.75
248.666	161.75
248.899	168.75
249.133	200.75
249.366	219.75
249.599	207.75
249.832	178.75
250.066	169.75
250.299	175.75
250.532	180.75
250.765	190.75
250.998	202.75
251.231	226.75
251.465	215.75
251.698	204.75
251.931	202.75
252.164	206.75
252.397	191.75
252.63	197.75
252.863	211.75
253.096	203.75
253.329	215.75
253.562	232.75
253.795	218.75
254.028	247.75
254.261	213.75
254.494	217.75
254.727	260.75
254.96	288.75
255.193	268.75
255.426	249.75
255.659	226.75
255.892	231.75
256.124	192.75
256.357	205.75
256.59	189.75
256.823	221.75
257.056	206.75
257.289	200.75
257.521	184.75
257.754	215.75
257.987	197.75
258.22	196.75
258.452	204.75
258.685	210.75
258.918	187.75
259.151	196.75
259.383	205.75
259.616	212.75
259.849	221.75
260.081	217.75
260.314	237.75
260.547	261.75
260.779	217.75
261.012	222.75
261.244	223.75
261.477	223.75
261.71	212.75
261.942	214.75
262.175	253.75
262.407	237.75
262.64	216.75
262.872	206.75
263.105	208.75
263.337	196.75
263.57	186.75
263.802	189.75
264.035	194.75
264.267	197.75
264.499	200.75
264.732	218.75
264.964	191.75
265.197	198.75
265.429	193.75
265.661	185.75
265.894	197.75
266.126	201.75
266.358	179.75
266.591	206.75
266.823	197.75
267.055	205.75
267.287	209.75
267.52	204.75
267.752	213.75
267.984	198.75
268.216	201.75
268.448	212.75
268.681	218.75
268.913	205.75
269.145	240.75
269.377	246.75
269.609	252.75
269.841	241.75
270.073	267.75
270.306	286.75
270.538	283.75
270.77	284.75
271.002	269.75
271.234	281.75
271.466	297.75
271.698	288.75
271.93	301.75
272.162	306.75
272.394	308.75
272.626	301.75
272.858	271.75
273.09	258.75
273.322	273.75
273.553	255.75
273.785	259.75
274.017	250.75
274.249	238.75
274.481	234.75
274.713	221.75
274.945	261.75
275.176	258.75
275.408	240.75
275.64	231.75
275.872	231.75
276.104	254.75
276.335	229.75
276.567	243.75
276.799	277.75
277.031	272.75
277.262	302.75
277.494	269.75
277.726	278.75
277.957	259.75
278.189	270.75
278.421	256.75
278.652	236.75
278.884	256.75
279.115	232.75
279.347	227.75
279.579	224.75
279.81	216.75
280.042	220.75
280.273	221.75
280.505	218.75
280.736	224.75
280.968	225.75
281.199	218.75
281.431	222.75
281.662	225.75
281.894	236.75
282.125	218.75
282.356	257.75
282.588	288.75
282.819	298.75
283.051	262.75
283.282	242.75
283.513	268.75
283.745	237.75
283.976	224.75
284.207	244.75
284.439	221.75
284.67	246.75
284.901	251.75
285.132	232.75
285.364	233.75
285.595	231.75
285.826	249.75
286.057	244.75
286.288	234.75
286.52	226.75
286.751	217.75
286.982	233.75
287.213	219.75
287.444	225.75
287.675	241.75
287.906	249.75
288.138	253.75
288.369	261.75
288.6	252.75
288.831	255.75
289.062	232.75
289.293	233.75
289.524	226.75
289.755	228.75
289.986	234.75
290.217	230.75
290.448	233.75
290.679	227.75
290.91	258.75
291.141	239.75
291.371	240.75
291.602	236.75
291.833	217.75
292.064	224.75
292.295	241.75
292.526	264.75
292.757	238.75
292.987	238.75
293.218	241.75
293.449	248.75
293.68	234.75
293.91	240.75
294.141	229.75
294.372	231.75
294.603	232.75
294.833	237.75
295.064	250.75
295.295	242.75
295.525	229.75
295.756	238.75
295.987	259.75
296.217	292.75
296.448	307.75
296.679	274.75
296.909	230.75
297.14	232.75
297.37	246.75
297.601	243.75
297.831	235.75
298.062	238.75
298.292	243.75
298.523	267.75
298.753	237.75
298.984	253.75
299.214	269.75
299.445	262.75
299.675	249.75
299.905	282.75
300.136	264.75
300.366	253.75
300.597	244.75
300.827	253.75
301.057	262.75
301.288	292.75
301.518	279.75
301.748	288.75
301.979	266.75
302.209	288.75
302.439	274.75
302.669	289.75
302.9	271.75
303.13	286.75
303.36	288.75
303.59	292.75
303.82	285.75
304.051	269.75
304.281	274.75
304.511	271.75
304.741	275.75
304.971	270.75
305.201	244.75
305.431	243.75
305.661	262.75
305.891	269.75
306.121	273.75
306.352	281.75
306.582	301.75
306.812	274.75
307.042	280.75
307.272	290.75
307.502	272.75
307.731	276.75
307.961	273.75
308.191	288.75
308.421	290.75
308.651	293.75
308.881	276.75
309.111	283.75
309.341	300.75
309.571	304.75
309.8	311.75
310.03	324.75
310.26	345.75
310.49	356.75
310.72	370.75
310.949	370.75
311.179	385.75
311.409	356.75
311.639	340.75
311.868	333.75
312.098	354.75
312.328	382.75
312.557	396.75
312.787	405.75
313.017	399.75
313.246	358.75
313.476	340.75
313.706	349.75
313.935	342.75
314.165	365.75
314.394	371.75
314.624	369.75
314.853	372.75
315.083	335.75
315.312	338.75
315.542	328.75
315.771	340.75
316.001	314.75
316.23	321.75
316.46	313.75
316.689	317.75
316.919	350.75
317.148	354.75
317.377	365.75
317.607	348.75
317.836	343.75
318.065	325.75
318.295	328.75
318.524	330.75
318.753	314.75
318.983	323.75
319.212	349.75
319.441	342.75
319.67	361.75
319.9	342.75
320.129	348.75
320.358	348.75
320.587	325.75
320.816	352.75
321.046	362.75
321.275	355.75
321.504	363.75
321.733	357.75
321.962	394.75
322.191	388.75
322.42	413.75
322.649	461.75
322.878	472.75
323.108	474.75
323.337	507.75
323.566	573.75
323.795	597.75
324.024	669.75
324.253	865.75
324.482	1266.75
324.71	1938.75
324.939	2680.75
325.168	2430.75
325.397	1279.75
325.626	826.75
325.855	646.75
326.084	566.75
326.313	539.75
326.542	527.75
326.77	611.75
326.999	745.75
327.228	1097.75
327.457	1666.75
327.686	2058.75
327.914	1386.75
328.143	874.75
328.372	730.75
328.6	675.75
328.829	638.75
329.058	662.75
329.287	670.75
329.515	611.75
329.744	536.75
329.972	503.75
330.201	517.75
330.43	560.75
330.658	598.75
330.887	707.75
331.115	683.75
331.344	556.75
331.572	489.75
331.801	484.75
332.03	470.75
332.258	438.75
332.486	406.75
332.715	396.75
332.943	392.75
333.172	392.75
333.4	388.75
333.629	388.75
333.857	403.75
334.085	399.75
334.314	392.75
334.542	389.75
334.771	393.75
334.999	394.75
335.227	379.75
335.455	384.75
335.684	359.75
335.912	380.75
336.14	379.75
336.369	385.75
336.597	381.75
336.825	400.75
337.053	366.75
337.281	374.75
337.51	359.75
337.738	363.75
337.966	403.75
338.194	381.75
338.422	408.75
338.65	365.75
338.878	378.75
339.106	375.75
339.334	363.75
339.562	368.75
339.79	374.75
340.018	380.75
340.246	389.75
340.474	396.75
340.702	380.75
340.93	361.75
341.158	370.75
341.386	380.75
341.614	379.75
341.842	377.75
342.07	364.75
342.298	375.75
342.526	337.75
342.754	356.75
342.981	328.75
343.209	346.75
343.437	369.75
343.665	348.75
343.893	348.75
344.12	352.75
344.348	353.75
344.576	358.75
344.804	372.75
345.031	386.75
345.259	433.75
345.487	396.75
345.714	392.75
345.942	364.75
346.17	365.75
346.397	378.75
346.625	356.75
346.853	374.75
347.08	373.75
347.308	370.75
347.535	394.75
347.763	386.75
347.99	412.75
348.218	417.75
348.445	390.75
348.673	396.75
348.9	380.75
349.128	369.75
349.355	376.75
349.583	366.75
349.81	338.75
350.037	360.75
350.265	344.75
350.492	341.75
350.72	373.75
350.947	378.75
351.174	380.75
351.402	388.75
351.629	388.75
351.856	407.75
352.083	397.75
352.311	423.75
352.538	389.75
352.765	399.75
352.992	391.75
353.22	398.75
353.447	376.75
353.674	372.75
353.901	362.75
354.128	352.75
354.355	301.75
354.583	332.75
354.81	323.75
355.037	362.75
355.264	339.75
355.491	316.75
355.718	339.75
355.945	334.75
356.172	342.75
356.399	318.75
356.626	311.75
356.853	329.75
357.08	326.75
357.307	332.75
357.534	337.75
357.761	313.75
357.988	324.75
358.215	327.75
358.441	325.75
358.668	341.75
358.895	356.75
359.122	354.75
359.349	352.75
359.576	397.75
359.802	416.75
360.029	470.75
360.256	494.75
360.483	460.75
360.709	405.75
360.936	406.75
361.163	377.75
361.39	388.75
361.616	396.75
361.843	373.75
362.07	374.75
362.296	403.75
362.523	395.75
362.749	370.75
362.976	388.75
363.203	361.75
363.429	350.75
363.656	364.75
363.882	345.75
364.109	373.75
364.335	370.75
364.562	367.75
364.788	362.75
365.015	344.75
365.241	342.75
365.468	348.75
365.694	358.75
365.92	346.75
366.147	360.75
366.373	341.75
366.599	321.75
366.826	345.75
367.052	328.75
367.278	338.75
367.505	332.75
367.731	353.75
367.957	352.75
368.184	337.75
368.41	356.75
368.636	362.75
368.862	394.75
369.089	352.75
369.315	328.75
369.541	332.75
369.767	329.75
369.993	334.75
370.219	333.75
370.445	326.75
370.672	332.75
370.898	324.75
371.124	332.75
371.35	324.75
371.576	324.75
371.802	309.75
372.028	324.75
372.254	339.75
372.48	318.75
372.706	328.75
372.932	327.75
373.158	329.75
373.384	340.75
373.61	322.75
373.835	345.75
374.061	332.75
374.287	347.75
374.513	332.75
374.739	338.75
374.965	332.75
375.191	332.75
375.416	334.75
375.642	310.75
375.868	341.75
376.094	317.75
376.319	343.75
376.545	327.75
376.771	334.75
376.997	312.75
377.222	335.75
377.448	341.75
377.674	305.75
377.899	333.75
378.125	324.75
378.35	344.75
378.576	305.75
378.802	325.75
379.027	334.75
379.253	340.75
379.478	317.75
379.704	314.75
379.929	312.75
380.155	346.75
380.38	347.75
380.606	353.75
380.831	340.75
381.057	326.75
381.282	339.75
381.507	336.75
381.733	320.75
381.958	324.75
382.184	313.75
382.409	318.75
382.634	352.75
382.86	356.75
383.085	340.75
383.31	336.75
383.535	334.75
383.761	328.75
383.986	325.75
384.211	344.75
384.436	324.75
384.662	339.75
384.887	352.75
385.112	332.75
385.337	349.75
385.562	342.75
385.787	342.75
386.013	371.75
386.238	386.75
386.463	349.75
386.688	358.75
386.913	351.75
387.138	343.75
387.363	343.75
387.588	353.75
387.813	341.75
388.038	350.75
388.263	345.75
388.488	337.75
388.713	355.75
388.938	340.75
389.163	355.75
389.387	364.75
389.612	345.75
389.837	350.75
390.062	341.75
390.287	353.75
390.512	345.75
390.736	328.75
390.961	344.75
391.186	337.75
391.411	340.75
391.636	357.75
391.86	362.75
392.085	364.75
392.31	338.75
392.534	370.75
392.759	354.75
392.984	384.75
393.208	355.75
393.433	365.75
393.658	372.75
393.882	340.75
394.107	346.75
394.331	354.75
394.556	349.75
394.78	364.75
395.005	353.75
395.229	338.75
395.454	362.75
395.678	357.75
395.903	378.75
396.127	396.75
396.352	410.75
396.576	386.75
396.801	366.75
397.025	380.75
397.249	362.75
397.474	370.75
397.698	363.75
397.922	390.75
398.147	401.75
398.371	404.75
398.595	397.75
398.82	387.75
399.044	412.75
399.268	403.75
399.492	404.75
399.717	442.75
399.941	452.75
400.165	494.75
400.389	505.75
400.613	457.75
400.837	428.75
401.062	442.75
401.286	392.75
401.51	407.75
401.734	390.75
401.958	374.75
402.182	419.75
402.406	424.75
402.63	420.75
402.854	435.75
403.078	419.75
403.302	448.75
403.526	428.75
403.75	418.75
403.974	414.75
404.198	412.75
404.422	421.75
404.645	423.75
404.869	425.75
405.093	442.75
405.317	470.75
405.541	478.75
405.765	474.75
405.988	440.75
406.212	470.75
406.436	499.75
406.66	502.75
406.883	479.75
407.107	508.75
407.331	544.75
407.555	607.75
407.778	586.75
408.002	527.75
408.226	512.75
408.449	487.75
408.673	469.75
408.896	519.75
409.12	548.75
409.344	523.75
409.567	441.75
409.791	439.75
410.014	455.75
410.238	434.75
410.461	428.75
410.685	453.75
410.908	461.75
411.132	496.75
411.355	548.75
411.578	520.75
411.802	450.75
412.025	429.75
412.249	423.75
412.472	412.75
412.695	451.75
412.919	440.75
413.142	420.75
413.365	414.75
413.589	413.75
413.812	417.75
414.035	393.75
414.258	405.75
414.482	392.75
414.705	403.75
414.928	390.75
415.151	387.75
415.374	372.75
415.597	387.75
415.821	406.75
416.044	404.75
416.267	402.75
416.49	397.75
416.713	397.75
416.936	383.75
417.159	397.75
417.382	406.75
417.605	409.75
417.828	422.75
418.051	436.75
418.274	428.75
418.497	402.75
418.72	423.75
418.943	419.75
419.166	425.75
419.389	432.75
419.611	441.75
419.834	441.75
420.057	437.75
420.28	411.75
420.503	433.75
420.726	436.75
420.948	472.75
421.171	503.75
421.394	536.75
421.617	481.75
421.839	458.75
422.062	444.75
422.285	473.75
422.507	532.75
422.73	600.75
422.953	565.75
423.175	517.75
423.398	494.75
423.621	489.75
423.843	494.75
424.066	496.75
424.288	508.75
424.511	520.75
424.733	553.75
424.956	658.75
425.178	631.75
425.401	628.75
425.623	636.75
425.846	560.75
426.068	492.75
426.291	498.75
426.513	515.75
426.735	521.75
426.958	568.75
427.18	626.75
427.402	754.75
427.625	876.75
427.847	823.75
428.069	689.75
428.292	578.75
428.514	536.75
428.736	496.75
428.958	487.75
429.181	497.75
429.403	473.75
429.625	488.75
429.847	532.75
430.069	590.75
430.292	596.75
430.514	484.75
430.736	478.75
430.958	460.75
431.18	442.75
431.402	445.75
431.624	425.75
431.846	425.75
432.068	447.75
432.29	429.75
432.512	445.75
432.734	430.75
432.956	462.75
433.178	452.75
433.4	470.75
433.622	445.75
433.844	437.75
434.066	430.75
434.287	442.75
434.509	444.75
434.731	438.75
434.953	438.75
435.175	448.75
435.397	507.75
435.618	518.75
435.84	555.75
436.062	642.75
436.284	698.75
436.505	603.75
436.727	553.75
436.949	500.75
437.17	502.75
437.392	476.75
437.614	492.75
437.835	547.75
438.057	658.75
438.278	762.75
438.5	764.75
438.721	813.75
438.943	771.75
439.165	613.75
439.386	550.75
439.608	565.75
439.829	552.75
440.05	568.75
440.272	605.75
440.493	576.75
440.715	536.75
440.936	519.75
441.158	513.75
441.379	485.75
441.6	492.75
441.822	533.75
442.043	570.75
442.264	652.75
442.486	670.75
442.707	594.75
442.928	550.75
443.149	552.75
443.371	564.75
443.592	615.75
443.813	702.75
444.034	737.75
444.255	605.75
444.476	563.75
444.698	524.75
444.919	514.75
445.14	613.75
445.361	592.75
445.582	579.75
445.803	631.75
446.024	739.75
446.245	759.75
446.466	706.75
446.687	601.75
446.908	555.75
447.129	515.75
447.35	480.75
447.571	495.75
447.792	469.75
448.013	497.75
448.234	538.75
448.455	585.75
448.675	686.75
448.896	762.75
449.117	677.75
449.338	658.75
449.559	736.75
449.779	806.75
450	653.75
450.221	539.75
450.442	521.75
450.662	498.75
450.883	490.75
451.104	549.75
451.324	538.75
451.545	478.75
451.766	472.75
451.986	436.75
452.207	445.75
452.428	437.75
452.648	446.75
452.869	435.75
453.089	461.75
453.31	475.75
453.53	461.75
453.751	455.75
453.971	459.75
454.192	484.75
454.412	479.75
454.633	441.75
454.853	417.75
455.073	421.75
455.294	456.75
455.514	547.75
455.734	532.75
455.955	449.75
456.175	432.75
456.395	423.75
456.616	393.75
456.836	406.75
457.056	394.75
457.276	388.75
457.497	394.75
457.717	392.75
457.937	407.75
458.157	405.75
458.377	414.75
458.598	472.75
458.818	548.75
459.038	644.75
459.258	646.75
459.478	551.75
459.698	478.75
459.918	427.75
460.138	403.75
460.358	457.75
460.578	448.75
460.798	435.75
461.018	433.75
461.238	403.75
461.458	427.75
461.678	412.75
461.898	425.75
462.118	396.75
462.338	426.75
462.558	412.75
462.777	423.75
462.997	440.75
463.217	424.75
463.437	449.75
463.657	422.75
463.876	435.75
464.096	425.75
464.316	448.75
464.536	461.75
464.755	480.75
464.975	489.75
465.195	564.75
465.414	717.75
465.634	588.75
465.854	533.75
466.073	498.75
466.293	438.75
466.512	430.75
466.732	443.75
466.951	448.75
467.171	429.75
467.391	419.75
467.61	442.75
467.829	472.75
468.049	437.75
468.268	430.75
468.488	417.75
468.707	430.75
468.927	382.75
469.146	418.75
469.365	401.75
469.585	410.75
469.804	436.75
470.023	460.75
470.243	446.75
470.462	433.75
470.681	480.75
470.901	483.75
471.12	454.75
471.339	449.75
471.558	477.75
471.777	436.75
471.997	412.75
472.216	426.75
472.435	430.75
472.654	434.75
472.873	423.75
473.092	440.75
473.311	429.75
473.53	429.75
473.749	451.75
473.968	477.75
474.187	585.75
474.406	637.75
474.625	510.75
474.844	435.75
475.063	457.75
475.282	474.75
475.501	444.75
475.72	426.75
475.939	442.75
476.158	454.75
476.377	459.75
476.596	454.75
476.814	461.75
477.033	479.75
477.252	459.75
477.471	461.75
477.69	468.75
477.908	464.75
478.127	468.75
478.346	464.75
478.564	462.75
478.783	479.75
479.002	466.75
479.22	473.75
479.439	524.75
479.658	521.75
479.876	546.75
480.095	546.75
480.313	564.75
480.532	552.75
480.751	510.75
480.969	516.75
481.188	539.75
481.406	542.75
481.624	498.75
481.843	530.75
482.061	540.75
482.28	486.75
482.498	509.75
482.717	505.75
482.935	522.75
483.153	508.75
483.372	509.75
483.59	496.75
483.808	502.75
484.027	502.75
484.245	498.75
484.463	517.75
484.681	516.75
484.9	533.75
485.118	503.75
485.336	523.75
485.554	534.75
485.772	513.75
485.99	544.75
486.209	520.75
486.427	538.75
486.645	565.75
486.863	580.75
487.081	582.75
487.299	585.75
487.517	568.75
487.735	556.75
487.953	580.75
488.171	563.75
488.389	564.75
488.607	565.75
488.825	562.75
489.043	577.75
489.261	581.75
489.479	556.75
489.696	575.75
489.914	569.75
490.132	576.75
490.35	579.75
490.568	597.75
490.786	605.75
491.003	608.75
491.221	626.75
491.439	621.75
491.657	632.75
491.874	640.75
492.092	639.75
492.31	649.75
492.527	642.75
492.745	656.75
492.963	647.75
493.18	675.75
493.398	670.75
493.615	643.75
493.833	677.75
494.05	664.75
494.268	674.75
494.485	670.75
494.703	678.75
494.92	664.75
495.138	672.75
495.355	677.75
495.573	668.75
495.79	649.75
496.008	668.75
496.225	656.75
496.442	659.75
496.66	650.75
496.877	667.75
497.094	691.75
497.312	666.75
497.529	677.75
497.746	704.75
497.963	722.75
498.181	739.75
498.398	733.75
498.615	730.75
498.832	723.75
499.049	722.75
499.267	744.75
499.484	748.75
499.701	760.75
499.918	743.75
500.135	768.75
500.352	786.75
500.569	790.75
500.786	811.75
501.003	786.75
501.22	781.75
501.437	772.75
501.654	799.75
501.871	803.75
