Data from 1987.PennyLincolnUp.Lamp.En5.5.200Scan.071819.P2_HRD10591_17-16-29-971.txt Node
Date: Thu Jul 18 17:16:29 EDT 2019
User: cochatt
Spectrometer: HR+D1059
Trigger mode: 1
Integration Time (sec): 1.000000E-1
Scans to average: 1
Electric dark correction enabled: true
Nonlinearity correction enabled: false
Boxcar width: 0
XAxis mode: Wavelengths
Number of Pixels in Spectrum: 2048
>>>>>Begin Spectral Data<<<<<
223.165	-25.31
223.4	-25.31
223.635	-25.31
223.869	-18.31
224.104	-21.31
224.338	5.69
224.573	-13.31
224.808	-9.31
225.042	-16.31
225.277	-10.31
225.511	0.69
225.746	-0.31
225.98	-0.31
226.215	12.69
226.449	17.69
226.683	20.69
226.918	23.69
227.152	33.69
227.387	26.69
227.621	30.69
227.856	28.69
228.09	35.69
228.324	47.69
228.559	40.69
228.793	69.69
229.027	88.69
229.262	104.69
229.496	125.69
229.73	147.69
229.964	171.69
230.199	146.69
230.433	127.69
230.667	105.69
230.901	123.69
231.136	133.69
231.37	125.69
231.604	115.69
231.838	111.69
232.072	97.69
232.306	117.69
232.541	117.69
232.775	95.69
233.009	116.69
233.243	119.69
233.477	104.69
233.711	98.69
233.945	110.69
234.179	105.69
234.413	125.69
234.647	99.69
234.881	117.69
235.115	125.69
235.349	129.69
235.583	128.69
235.817	118.69
236.051	121.69
236.285	137.69
236.519	117.69
236.753	118.69
236.987	149.69
237.221	208.69
237.455	254.69
237.689	205.69
237.922	149.69
238.156	143.69
238.39	123.69
238.624	120.69
238.858	124.69
239.091	120.69
239.325	134.69
239.559	103.69
239.793	119.69
240.027	117.69
240.26	139.69
240.494	178.69
240.728	154.69
240.961	154.69
241.195	140.69
241.429	127.69
241.662	137.69
241.896	117.69
242.13	142.69
242.363	129.69
242.597	122.69
242.83	119.69
243.064	150.69
243.298	135.69
243.531	135.69
243.765	142.69
243.998	129.69
244.232	132.69
244.465	124.69
244.699	147.69
244.932	146.69
245.166	140.69
245.399	147.69
245.633	154.69
245.866	136.69
246.099	139.69
246.333	157.69
246.566	135.69
246.8	136.69
247.033	139.69
247.266	168.69
247.5	152.69
247.733	165.69
247.966	168.69
248.2	168.69
248.433	142.69
248.666	171.69
248.899	198.69
249.133	196.69
249.366	208.69
249.599	195.69
249.832	181.69
250.066	179.69
250.299	179.69
250.532	183.69
250.765	189.69
250.998	229.69
251.231	233.69
251.465	218.69
251.698	209.69
251.931	195.69
252.164	206.69
252.397	193.69
252.63	193.69
252.863	202.69
253.096	205.69
253.329	224.69
253.562	215.69
253.795	219.69
254.028	209.69
254.261	195.69
254.494	229.69
254.727	263.69
254.96	282.69
255.193	278.69
255.426	253.69
255.659	244.69
255.892	216.69
256.124	215.69
256.357	206.69
256.59	196.69
256.823	192.69
257.056	207.69
257.289	197.69
257.521	192.69
257.754	199.69
257.987	189.69
258.22	187.69
258.452	192.69
258.685	206.69
258.918	186.69
259.151	201.69
259.383	209.69
259.616	209.69
259.849	194.69
260.081	235.69
260.314	237.69
260.547	257.69
260.779	245.69
261.012	226.69
261.244	222.69
261.477	231.69
261.71	223.69
261.942	230.69
262.175	231.69
262.407	229.69
262.64	210.69
262.872	204.69
263.105	202.69
263.337	203.69
263.57	190.69
263.802	181.69
264.035	200.69
264.267	195.69
264.499	188.69
264.732	198.69
264.964	201.69
265.197	199.69
265.429	201.69
265.661	183.69
265.894	198.69
266.126	199.69
266.358	207.69
266.591	216.69
266.823	204.69
267.055	197.69
267.287	203.69
267.52	183.69
267.752	194.69
267.984	211.69
268.216	210.69
268.448	221.69
268.681	208.69
268.913	212.69
269.145	249.69
269.377	239.69
269.609	251.69
269.841	257.69
270.073	259.69
270.306	295.69
270.538	298.69
270.77	330.69
271.002	318.69
271.234	288.69
271.466	292.69
271.698	317.69
271.93	334.69
272.162	322.69
272.394	323.69
272.626	303.69
272.858	269.69
273.09	260.69
273.322	260.69
273.553	256.69
273.785	259.69
274.017	241.69
274.249	251.69
274.481	247.69
274.713	248.69
274.945	231.69
275.176	242.69
275.408	243.69
275.64	224.69
275.872	230.69
276.104	239.69
276.335	219.69
276.567	253.69
276.799	250.69
277.031	297.69
277.262	309.69
277.494	286.69
277.726	289.69
277.957	260.69
278.189	246.69
278.421	257.69
278.652	230.69
278.884	244.69
279.115	242.69
279.347	224.69
279.579	224.69
279.81	229.69
280.042	233.69
280.273	227.69
280.505	226.69
280.736	230.69
280.968	223.69
281.199	221.69
281.431	217.69
281.662	237.69
281.894	219.69
282.125	234.69
282.356	281.69
282.588	275.69
282.819	284.69
283.051	249.69
283.282	227.69
283.513	237.69
283.745	249.69
283.976	243.69
284.207	219.69
284.439	227.69
284.67	236.69
284.901	218.69
285.132	239.69
285.364	234.69
285.595	243.69
285.826	227.69
286.057	229.69
286.288	236.69
286.52	221.69
286.751	247.69
286.982	242.69
287.213	245.69
287.444	263.69
287.675	232.69
287.906	248.69
288.138	255.69
288.369	259.69
288.6	277.69
288.831	241.69
289.062	250.69
289.293	237.69
289.524	243.69
289.755	241.69
289.986	250.69
290.217	243.69
290.448	225.69
290.679	242.69
290.91	245.69
291.141	243.69
291.371	245.69
291.602	229.69
291.833	254.69
292.064	237.69
292.295	229.69
292.526	239.69
292.757	242.69
292.987	251.69
293.218	240.69
293.449	230.69
293.68	238.69
293.91	225.69
294.141	231.69
294.372	233.69
294.603	238.69
294.833	247.69
295.064	247.69
295.295	238.69
295.525	234.69
295.756	257.69
295.987	261.69
296.217	291.69
296.448	287.69
296.679	269.69
296.909	253.69
297.14	257.69
297.37	246.69
297.601	239.69
297.831	227.69
298.062	232.69
298.292	238.69
298.523	251.69
298.753	246.69
298.984	260.69
299.214	245.69
299.445	255.69
299.675	256.69
299.905	266.69
300.136	254.69
300.366	238.69
300.597	251.69
300.827	259.69
301.057	272.69
301.288	273.69
301.518	286.69
301.748	281.69
301.979	249.69
302.209	278.69
302.439	277.69
302.669	265.69
302.9	266.69
303.13	269.69
303.36	277.69
303.59	287.69
303.82	302.69
304.051	307.69
304.281	274.69
304.511	275.69
304.741	263.69
304.971	255.69
305.201	284.69
305.431	259.69
305.661	267.69
305.891	267.69
306.121	276.69
306.352	275.69
306.582	293.69
306.812	264.69
307.042	282.69
307.272	287.69
307.502	258.69
307.731	289.69
307.961	287.69
308.191	304.69
308.421	279.69
308.651	289.69
308.881	291.69
309.111	295.69
309.341	306.69
309.571	329.69
309.8	336.69
310.03	355.69
310.26	349.69
310.49	350.69
310.72	365.69
310.949	385.69
311.179	397.69
311.409	352.69
311.639	354.69
311.868	335.69
312.098	361.69
312.328	366.69
312.557	378.69
312.787	399.69
313.017	378.69
313.246	363.69
313.476	351.69
313.706	333.69
313.935	358.69
314.165	360.69
314.394	387.69
314.624	385.69
314.853	355.69
315.083	355.69
315.312	348.69
315.542	327.69
315.771	320.69
316.001	330.69
316.23	317.69
316.46	341.69
316.689	326.69
316.919	340.69
317.148	358.69
317.377	360.69
317.607	344.69
317.836	341.69
318.065	345.69
318.295	343.69
318.524	342.69
318.753	318.69
318.983	341.69
319.212	352.69
319.441	359.69
319.67	358.69
319.9	349.69
320.129	352.69
320.358	335.69
320.587	357.69
320.816	349.69
321.046	358.69
321.275	389.69
321.504	369.69
321.733	373.69
321.962	366.69
322.191	417.69
322.42	452.69
322.649	471.69
322.878	484.69
323.108	475.69
323.337	485.69
323.566	534.69
323.795	610.69
324.024	699.69
324.253	863.69
324.482	1285.69
324.71	2017.69
324.939	2758.69
325.168	2393.69
325.397	1323.69
325.626	853.69
325.855	643.69
326.084	579.69
326.313	564.69
326.542	581.69
326.77	631.69
326.999	793.69
327.228	1077.69
327.457	1719.69
327.686	2083.69
327.914	1463.69
328.143	927.69
328.372	793.69
328.6	681.69
328.829	666.69
329.058	685.69
329.287	675.69
329.515	599.69
329.744	546.69
329.972	517.69
330.201	545.69
330.43	559.69
330.658	631.69
330.887	698.69
331.115	697.69
331.344	552.69
331.572	516.69
331.801	485.69
332.03	483.69
332.258	457.69
332.486	418.69
332.715	405.69
332.943	394.69
333.172	415.69
333.4	390.69
333.629	399.69
333.857	424.69
334.085	426.69
334.314	415.69
334.542	391.69
334.771	411.69
334.999	410.69
335.227	407.69
335.455	400.69
335.684	398.69
335.912	372.69
336.14	376.69
336.369	366.69
336.597	395.69
336.825	406.69
337.053	381.69
337.281	381.69
337.51	386.69
337.738	387.69
337.966	387.69
338.194	384.69
338.422	392.69
338.65	396.69
338.878	381.69
339.106	373.69
339.334	376.69
339.562	363.69
339.79	357.69
340.018	373.69
340.246	377.69
340.474	394.69
340.702	373.69
340.93	378.69
341.158	368.69
341.386	376.69
341.614	384.69
341.842	393.69
342.07	381.69
342.298	367.69
342.526	356.69
342.754	365.69
342.981	346.69
343.209	362.69
343.437	345.69
343.665	352.69
343.893	360.69
344.12	357.69
344.348	366.69
344.576	378.69
344.804	396.69
345.031	416.69
345.259	433.69
345.487	393.69
345.714	394.69
345.942	378.69
346.17	374.69
346.397	369.69
346.625	365.69
346.853	367.69
347.08	383.69
347.308	375.69
347.535	413.69
347.763	399.69
347.99	394.69
348.218	384.69
348.445	401.69
348.673	416.69
348.9	393.69
349.128	382.69
349.355	355.69
349.583	360.69
349.81	359.69
350.037	354.69
350.265	362.69
350.492	354.69
350.72	358.69
350.947	392.69
351.174	388.69
351.402	409.69
351.629	400.69
351.856	395.69
352.083	402.69
352.311	409.69
352.538	409.69
352.765	404.69
352.992	398.69
353.22	398.69
353.447	386.69
353.674	362.69
353.901	364.69
354.128	335.69
354.355	348.69
354.583	336.69
354.81	363.69
355.037	349.69
355.264	325.69
355.491	318.69
355.718	326.69
355.945	327.69
356.172	359.69
356.399	325.69
356.626	343.69
356.853	326.69
357.08	319.69
357.307	340.69
357.534	317.69
357.761	313.69
357.988	335.69
358.215	342.69
358.441	336.69
358.668	335.69
358.895	350.69
359.122	345.69
359.349	350.69
359.576	381.69
359.802	423.69
360.029	486.69
360.256	501.69
360.483	442.69
360.709	411.69
360.936	398.69
361.163	393.69
361.39	391.69
361.616	403.69
361.843	384.69
362.07	390.69
362.296	385.69
362.523	375.69
362.749	374.69
362.976	355.69
363.203	362.69
363.429	379.69
363.656	358.69
363.882	363.69
364.109	374.69
364.335	343.69
364.562	356.69
364.788	337.69
365.015	349.69
365.241	358.69
365.468	353.69
365.694	373.69
365.92	375.69
366.147	343.69
366.373	352.69
366.599	336.69
366.826	344.69
367.052	346.69
367.278	349.69
367.505	352.69
367.731	346.69
367.957	342.69
368.184	346.69
368.41	373.69
368.636	362.69
368.862	365.69
369.089	349.69
369.315	326.69
369.541	355.69
369.767	347.69
369.993	341.69
370.219	337.69
370.445	338.69
370.672	351.69
370.898	335.69
371.124	333.69
371.35	322.69
371.576	338.69
371.802	338.69
372.028	343.69
372.254	336.69
372.48	338.69
372.706	337.69
372.932	335.69
373.158	336.69
373.384	341.69
373.61	333.69
373.835	337.69
374.061	345.69
374.287	327.69
374.513	347.69
374.739	344.69
374.965	322.69
375.191	343.69
375.416	346.69
375.642	334.69
375.868	349.69
376.094	340.69
376.319	316.69
376.545	312.69
376.771	319.69
376.997	323.69
377.222	327.69
377.448	324.69
377.674	338.69
377.899	331.69
378.125	318.69
378.35	321.69
378.576	318.69
378.802	335.69
379.027	335.69
379.253	339.69
379.478	323.69
379.704	325.69
379.929	341.69
380.155	350.69
380.38	332.69
380.606	338.69
380.831	351.69
381.057	325.69
381.282	347.69
381.507	319.69
381.733	317.69
381.958	315.69
382.184	326.69
382.409	342.69
382.634	335.69
382.86	343.69
383.085	337.69
383.31	339.69
383.535	342.69
383.761	341.69
383.986	333.69
384.211	341.69
384.436	325.69
384.662	326.69
384.887	320.69
385.112	345.69
385.337	347.69
385.562	353.69
385.787	328.69
386.013	376.69
386.238	375.69
386.463	345.69
386.688	353.69
386.913	354.69
387.138	343.69
387.363	345.69
387.588	343.69
387.813	359.69
388.038	361.69
388.263	369.69
388.488	334.69
388.713	335.69
388.938	357.69
389.163	358.69
389.387	353.69
389.612	354.69
389.837	349.69
390.062	350.69
390.287	358.69
390.512	351.69
390.736	347.69
390.961	344.69
391.186	347.69
391.411	334.69
391.636	343.69
391.86	346.69
392.085	343.69
392.31	379.69
392.534	356.69
392.759	354.69
392.984	345.69
393.208	357.69
393.433	365.69
393.658	359.69
393.882	340.69
394.107	351.69
394.331	348.69
394.556	338.69
394.78	360.69
395.005	355.69
395.229	371.69
395.454	355.69
395.678	355.69
395.903	385.69
396.127	382.69
396.352	395.69
396.576	381.69
396.801	378.69
397.025	368.69
397.249	368.69
397.474	351.69
397.698	394.69
397.922	399.69
398.147	417.69
398.371	402.69
398.595	387.69
398.82	385.69
399.044	394.69
399.268	374.69
399.492	400.69
399.717	419.69
399.941	465.69
400.165	466.69
400.389	492.69
400.613	471.69
400.837	446.69
401.062	425.69
401.286	405.69
401.51	413.69
401.734	420.69
401.958	415.69
402.182	394.69
402.406	424.69
402.63	439.69
402.854	421.69
403.078	407.69
403.302	407.69
403.526	427.69
403.75	425.69
403.974	395.69
404.198	416.69
404.422	427.69
404.645	447.69
404.869	450.69
405.093	456.69
405.317	501.69
405.541	515.69
405.765	448.69
405.988	446.69
406.212	458.69
406.436	496.69
406.66	518.69
406.883	486.69
407.107	502.69
407.331	537.69
407.555	582.69
407.778	583.69
408.002	540.69
408.226	497.69
408.449	481.69
408.673	465.69
408.896	510.69
409.12	549.69
409.344	529.69
409.567	483.69
409.791	464.69
410.014	441.69
410.238	433.69
410.461	429.69
410.685	451.69
410.908	452.69
411.132	476.69
411.355	546.69
411.578	507.69
411.802	446.69
412.025	456.69
412.249	433.69
412.472	440.69
412.695	459.69
412.919	425.69
413.142	428.69
413.365	419.69
413.589	420.69
413.812	397.69
414.035	392.69
414.258	394.69
414.482	401.69
414.705	411.69
414.928	384.69
415.151	386.69
415.374	391.69
415.597	399.69
415.821	380.69
416.044	410.69
416.267	410.69
416.49	411.69
416.713	391.69
416.936	396.69
417.159	413.69
417.382	417.69
417.605	404.69
417.828	409.69
418.051	459.69
418.274	431.69
418.497	410.69
418.72	427.69
418.943	405.69
419.166	427.69
419.389	432.69
419.611	420.69
419.834	424.69
420.057	442.69
420.28	440.69
420.503	420.69
420.726	423.69
420.948	455.69
421.171	482.69
421.394	550.69
421.617	478.69
421.839	436.69
422.062	435.69
422.285	473.69
422.507	530.69
422.73	607.69
422.953	587.69
423.175	523.69
423.398	468.69
423.621	458.69
423.843	485.69
424.066	491.69
424.288	488.69
424.511	510.69
424.733	605.69
424.956	662.69
425.178	633.69
425.401	640.69
425.623	637.69
425.846	563.69
426.068	518.69
426.291	511.69
426.513	527.69
426.735	531.69
426.958	563.69
427.18	651.69
427.402	801.69
427.625	891.69
427.847	799.69
428.069	685.69
428.292	588.69
428.514	531.69
428.736	509.69
428.958	495.69
429.181	473.69
429.403	473.69
429.625	499.69
429.847	523.69
430.069	592.69
430.292	575.69
430.514	497.69
430.736	483.69
430.958	492.69
431.18	452.69
431.402	434.69
431.624	435.69
431.846	436.69
432.068	412.69
432.29	440.69
432.512	437.69
432.734	458.69
432.956	454.69
433.178	459.69
433.4	480.69
433.622	445.69
433.844	450.69
434.066	421.69
434.287	445.69
434.509	424.69
434.731	421.69
434.953	459.69
435.175	453.69
435.397	491.69
435.618	528.69
435.84	563.69
436.062	650.69
436.284	736.69
436.505	629.69
436.727	520.69
436.949	505.69
437.17	502.69
437.392	478.69
437.614	499.69
437.835	587.69
438.057	662.69
438.278	753.69
438.5	740.69
438.721	787.69
438.943	775.69
439.165	616.69
439.386	566.69
439.608	558.69
439.829	534.69
440.05	581.69
440.272	636.69
440.493	609.69
440.715	557.69
440.936	502.69
441.158	496.69
441.379	491.69
441.6	482.69
441.822	515.69
442.043	561.69
442.264	657.69
442.486	691.69
442.707	606.69
442.928	557.69
443.149	531.69
443.371	578.69
443.592	618.69
443.813	682.69
444.034	738.69
444.255	635.69
444.476	532.69
444.698	517.69
444.919	510.69
445.14	614.69
445.361	587.69
445.582	577.69
445.803	651.69
446.024	739.69
446.245	753.69
446.466	693.69
446.687	608.69
446.908	560.69
447.129	521.69
447.35	489.69
447.571	470.69
447.792	482.69
448.013	504.69
448.234	526.69
448.455	595.69
448.675	688.69
448.896	794.69
449.117	680.69
449.338	642.69
449.559	746.69
449.779	791.69
450	680.69
450.221	565.69
450.442	519.69
450.662	503.69
450.883	529.69
451.104	551.69
451.324	552.69
451.545	501.69
451.766	463.69
451.986	442.69
452.207	439.69
452.428	447.69
452.648	443.69
452.869	433.69
453.089	458.69
453.31	471.69
453.53	458.69
453.751	438.69
453.971	425.69
454.192	489.69
454.412	478.69
454.633	457.69
454.853	454.69
455.073	440.69
455.294	477.69
455.514	547.69
455.734	553.69
455.955	454.69
456.175	421.69
456.395	406.69
456.616	400.69
456.836	407.69
457.056	395.69
457.276	390.69
457.497	404.69
457.717	406.69
457.937	398.69
458.157	410.69
458.377	433.69
458.598	451.69
458.818	546.69
459.038	653.69
459.258	655.69
459.478	558.69
459.698	469.69
459.918	456.69
460.138	429.69
460.358	429.69
460.578	419.69
460.798	428.69
461.018	441.69
461.238	433.69
461.458	425.69
461.678	417.69
461.898	434.69
462.118	397.69
462.338	417.69
462.558	434.69
462.777	439.69
462.997	449.69
463.217	419.69
463.437	443.69
463.657	421.69
463.876	431.69
464.096	442.69
464.316	464.69
464.536	472.69
464.755	464.69
464.975	483.69
465.195	559.69
465.414	704.69
465.634	610.69
465.854	527.69
466.073	477.69
466.293	433.69
466.512	433.69
466.732	442.69
466.951	431.69
467.171	424.69
467.391	431.69
467.61	457.69
467.829	473.69
468.049	458.69
468.268	447.69
468.488	424.69
468.707	415.69
468.927	419.69
469.146	408.69
469.365	413.69
469.585	408.69
469.804	426.69
470.023	439.69
470.243	451.69
470.462	446.69
470.681	496.69
470.901	464.69
471.12	453.69
471.339	432.69
471.558	431.69
471.777	443.69
471.997	411.69
472.216	422.69
472.435	422.69
472.654	419.69
472.873	433.69
473.092	403.69
473.311	437.69
473.53	454.69
473.749	462.69
473.968	491.69
474.187	621.69
474.406	683.69
474.625	514.69
474.844	456.69
475.063	445.69
475.282	435.69
475.501	411.69
475.72	460.69
475.939	438.69
476.158	449.69
476.377	464.69
476.596	432.69
476.814	470.69
477.033	479.69
477.252	467.69
477.471	458.69
477.69	460.69
477.908	459.69
478.127	470.69
478.346	482.69
478.564	444.69
478.783	471.69
479.002	479.69
479.22	504.69
479.439	523.69
479.658	549.69
479.876	538.69
480.095	541.69
480.313	574.69
480.532	541.69
480.751	516.69
480.969	537.69
481.188	534.69
481.406	550.69
481.624	547.69
481.843	519.69
482.061	517.69
482.28	511.69
482.498	516.69
482.717	515.69
482.935	531.69
483.153	538.69
483.372	510.69
483.59	519.69
483.808	522.69
484.027	506.69
484.245	522.69
484.463	527.69
484.681	524.69
484.9	523.69
485.118	523.69
485.336	529.69
485.554	549.69
485.772	537.69
485.99	527.69
486.209	565.69
486.427	528.69
486.645	559.69
486.863	602.69
487.081	593.69
487.299	571.69
487.517	563.69
487.735	547.69
487.953	570.69
488.171	582.69
488.389	574.69
488.607	588.69
488.825	576.69
489.043	572.69
489.261	573.69
489.479	572.69
489.696	589.69
489.914	576.69
490.132	579.69
490.35	592.69
490.568	630.69
490.786	597.69
491.003	614.69
491.221	628.69
491.439	621.69
491.657	640.69
491.874	677.69
492.092	644.69
492.31	661.69
492.527	659.69
492.745	662.69
492.963	680.69
493.18	680.69
493.398	666.69
493.615	695.69
493.833	670.69
494.05	701.69
494.268	667.69
494.485	701.69
494.703	655.69
494.92	685.69
495.138	693.69
495.355	690.69
495.573	692.69
495.79	707.69
496.008	664.69
496.225	705.69
496.442	689.69
496.66	697.69
496.877	693.69
497.094	685.69
497.312	682.69
497.529	676.69
497.746	695.69
497.963	694.69
498.181	736.69
498.398	729.69
498.615	727.69
498.832	756.69
499.049	736.69
499.267	733.69
499.484	733.69
499.701	763.69
499.918	762.69
500.135	798.69
500.352	778.69
500.569	793.69
500.786	783.69
501.003	787.69
501.22	797.69
501.437	779.69
501.654	778.69
501.871	812.69
