Data from 1987.PennyLincolnUp.Lamp.En5.5.200Scan.071819.P2_HRD10591_17-14-23-971.txt Node
Date: Thu Jul 18 17:14:23 EDT 2019
User: cochatt
Spectrometer: HR+D1059
Trigger mode: 1
Integration Time (sec): 1.000000E-1
Scans to average: 1
Electric dark correction enabled: true
Nonlinearity correction enabled: false
Boxcar width: 0
XAxis mode: Wavelengths
Number of Pixels in Spectrum: 2048
>>>>>Begin Spectral Data<<<<<
223.165	-15.56
223.4	-15.56
223.635	-15.56
223.869	-13.56
224.104	-26.56
224.338	-11.56
224.573	-16.56
224.808	-10.56
225.042	-12.56
225.277	-7.56
225.511	-2.56
225.746	3.44
225.98	7.44
226.215	1.44
226.449	22.44
226.683	25.44
226.918	30.44
227.152	26.44
227.387	31.44
227.621	25.44
227.856	50.44
228.09	42.44
228.324	46.44
228.559	57.44
228.793	53.44
229.027	86.44
229.262	118.44
229.496	108.44
229.73	139.44
229.964	163.44
230.199	129.44
230.433	125.44
230.667	119.44
230.901	114.44
231.136	121.44
231.37	97.44
231.604	105.44
231.838	108.44
232.072	120.44
232.306	115.44
232.541	111.44
232.775	131.44
233.009	114.44
233.243	121.44
233.477	121.44
233.711	113.44
233.945	99.44
234.179	100.44
234.413	118.44
234.647	116.44
234.881	114.44
235.115	98.44
235.349	107.44
235.583	100.44
235.817	103.44
236.051	125.44
236.285	128.44
236.519	118.44
236.753	129.44
236.987	145.44
237.221	187.44
237.455	239.44
237.689	192.44
237.922	139.44
238.156	128.44
238.39	135.44
238.624	104.44
238.858	121.44
239.091	107.44
239.325	127.44
239.559	119.44
239.793	130.44
240.027	136.44
240.26	124.44
240.494	146.44
240.728	143.44
240.961	136.44
241.195	137.44
241.429	127.44
241.662	125.44
241.896	122.44
242.13	131.44
242.363	126.44
242.597	141.44
242.83	124.44
243.064	110.44
243.298	124.44
243.531	124.44
243.765	122.44
243.998	143.44
244.232	128.44
244.465	136.44
244.699	133.44
244.932	121.44
245.166	124.44
245.399	138.44
245.633	123.44
245.866	125.44
246.099	147.44
246.333	137.44
246.566	143.44
246.8	141.44
247.033	146.44
247.266	138.44
247.5	138.44
247.733	145.44
247.966	163.44
248.2	158.44
248.433	160.44
248.666	164.44
248.899	159.44
249.133	165.44
249.366	197.44
249.599	184.44
249.832	173.44
250.066	172.44
250.299	164.44
250.532	185.44
250.765	177.44
250.998	196.44
251.231	200.44
251.465	196.44
251.698	197.44
251.931	181.44
252.164	195.44
252.397	188.44
252.63	185.44
252.863	195.44
253.096	192.44
253.329	204.44
253.562	202.44
253.795	196.44
254.028	207.44
254.261	213.44
254.494	214.44
254.727	233.44
254.96	261.44
255.193	242.44
255.426	245.44
255.659	215.44
255.892	210.44
256.124	195.44
256.357	202.44
256.59	197.44
256.823	193.44
257.056	191.44
257.289	183.44
257.521	189.44
257.754	179.44
257.987	179.44
258.22	178.44
258.452	190.44
258.685	187.44
258.918	183.44
259.151	203.44
259.383	195.44
259.616	190.44
259.849	200.44
260.081	200.44
260.314	227.44
260.547	211.44
260.779	228.44
261.012	203.44
261.244	189.44
261.477	217.44
261.71	191.44
261.942	207.44
262.175	210.44
262.407	215.44
262.64	188.44
262.872	185.44
263.105	190.44
263.337	188.44
263.57	182.44
263.802	186.44
264.035	200.44
264.267	194.44
264.499	184.44
264.732	179.44
264.964	175.44
265.197	169.44
265.429	194.44
265.661	168.44
265.894	181.44
266.126	170.44
266.358	186.44
266.591	170.44
266.823	194.44
267.055	192.44
267.287	200.44
267.52	188.44
267.752	182.44
267.984	200.44
268.216	191.44
268.448	196.44
268.681	207.44
268.913	200.44
269.145	219.44
269.377	255.44
269.609	231.44
269.841	239.44
270.073	240.44
270.306	233.44
270.538	267.44
270.77	268.44
271.002	270.44
271.234	279.44
271.466	281.44
271.698	275.44
271.93	279.44
272.162	282.44
272.394	285.44
272.626	260.44
272.858	256.44
273.09	231.44
273.322	239.44
273.553	241.44
273.785	231.44
274.017	221.44
274.249	231.44
274.481	226.44
274.713	208.44
274.945	221.44
275.176	225.44
275.408	226.44
275.64	225.44
275.872	211.44
276.104	216.44
276.335	212.44
276.567	232.44
276.799	243.44
277.031	242.44
277.262	274.44
277.494	272.44
277.726	255.44
277.957	225.44
278.189	241.44
278.421	229.44
278.652	223.44
278.884	220.44
279.115	214.44
279.347	204.44
279.579	226.44
279.81	230.44
280.042	208.44
280.273	213.44
280.505	204.44
280.736	208.44
280.968	207.44
281.199	216.44
281.431	218.44
281.662	207.44
281.894	211.44
282.125	212.44
282.356	234.44
282.588	266.44
282.819	258.44
283.051	219.44
283.282	214.44
283.513	212.44
283.745	224.44
283.976	221.44
284.207	220.44
284.439	212.44
284.67	211.44
284.901	214.44
285.132	234.44
285.364	214.44
285.595	229.44
285.826	220.44
286.057	210.44
286.288	220.44
286.52	233.44
286.751	220.44
286.982	214.44
287.213	236.44
287.444	221.44
287.675	222.44
287.906	224.44
288.138	214.44
288.369	233.44
288.6	239.44
288.831	229.44
289.062	222.44
289.293	217.44
289.524	223.44
289.755	218.44
289.986	214.44
290.217	226.44
290.448	202.44
290.679	228.44
290.91	228.44
291.141	223.44
291.371	234.44
291.602	226.44
291.833	217.44
292.064	224.44
292.295	211.44
292.526	212.44
292.757	214.44
292.987	199.44
293.218	197.44
293.449	217.44
293.68	230.44
293.91	216.44
294.141	223.44
294.372	229.44
294.603	209.44
294.833	222.44
295.064	233.44
295.295	209.44
295.525	235.44
295.756	237.44
295.987	233.44
296.217	273.44
296.448	285.44
296.679	241.44
296.909	223.44
297.14	241.44
297.37	238.44
297.601	230.44
297.831	242.44
298.062	210.44
298.292	221.44
298.523	232.44
298.753	226.44
298.984	217.44
299.214	233.44
299.445	242.44
299.675	224.44
299.905	246.44
300.136	242.44
300.366	241.44
300.597	248.44
300.827	242.44
301.057	251.44
301.288	286.44
301.518	259.44
301.748	239.44
301.979	252.44
302.209	251.44
302.439	241.44
302.669	261.44
302.9	244.44
303.13	245.44
303.36	234.44
303.59	249.44
303.82	247.44
304.051	244.44
304.281	236.44
304.511	249.44
304.741	227.44
304.971	242.44
305.201	251.44
305.431	241.44
305.661	229.44
305.891	251.44
306.121	249.44
306.352	252.44
306.582	266.44
306.812	255.44
307.042	251.44
307.272	248.44
307.502	246.44
307.731	259.44
307.961	273.44
308.191	263.44
308.421	252.44
308.651	263.44
308.881	267.44
309.111	270.44
309.341	275.44
309.571	261.44
309.8	296.44
310.03	303.44
310.26	310.44
310.49	310.44
310.72	320.44
310.949	339.44
311.179	335.44
311.409	322.44
311.639	311.44
311.868	317.44
312.098	294.44
312.328	309.44
312.557	341.44
312.787	349.44
313.017	347.44
313.246	324.44
313.476	315.44
313.706	298.44
313.935	306.44
314.165	308.44
314.394	321.44
314.624	336.44
314.853	317.44
315.083	315.44
315.312	300.44
315.542	300.44
315.771	304.44
316.001	298.44
316.23	290.44
316.46	295.44
316.689	315.44
316.919	307.44
317.148	314.44
317.377	336.44
317.607	309.44
317.836	312.44
318.065	305.44
318.295	310.44
318.524	307.44
318.753	303.44
318.983	286.44
319.212	286.44
319.441	311.44
319.67	323.44
319.9	321.44
320.129	307.44
320.358	301.44
320.587	303.44
320.816	321.44
321.046	321.44
321.275	344.44
321.504	332.44
321.733	325.44
321.962	349.44
322.191	365.44
322.42	380.44
322.649	411.44
322.878	393.44
323.108	428.44
323.337	450.44
323.566	466.44
323.795	527.44
324.024	565.44
324.253	725.44
324.482	1040.44
324.71	1565.44
324.939	2175.44
325.168	1956.44
325.397	1071.44
325.626	699.44
325.855	565.44
326.084	497.44
326.313	487.44
326.542	474.44
326.77	533.44
326.999	625.44
327.228	867.44
327.457	1375.44
327.686	1666.44
327.914	1159.44
328.143	758.44
328.372	628.44
328.6	586.44
328.829	547.44
329.058	564.44
329.287	575.44
329.515	519.44
329.744	454.44
329.972	439.44
330.201	465.44
330.43	479.44
330.658	544.44
330.887	590.44
331.115	567.44
331.344	473.44
331.572	442.44
331.801	432.44
332.03	425.44
332.258	409.44
332.486	380.44
332.715	373.44
332.943	369.44
333.172	345.44
333.4	363.44
333.629	356.44
333.857	373.44
334.085	349.44
334.314	372.44
334.542	351.44
334.771	377.44
334.999	360.44
335.227	359.44
335.455	346.44
335.684	343.44
335.912	329.44
336.14	331.44
336.369	331.44
336.597	345.44
336.825	365.44
337.053	339.44
337.281	324.44
337.51	326.44
337.738	337.44
337.966	342.44
338.194	337.44
338.422	371.44
338.65	339.44
338.878	344.44
339.106	345.44
339.334	331.44
339.562	331.44
339.79	349.44
340.018	320.44
340.246	338.44
340.474	349.44
340.702	348.44
340.93	363.44
341.158	345.44
341.386	348.44
341.614	353.44
341.842	353.44
342.07	345.44
342.298	345.44
342.526	313.44
342.754	337.44
342.981	336.44
343.209	323.44
343.437	323.44
343.665	309.44
343.893	314.44
344.12	327.44
344.348	333.44
344.576	326.44
344.804	361.44
345.031	370.44
345.259	383.44
345.487	343.44
345.714	327.44
345.942	347.44
346.17	319.44
346.397	333.44
346.625	343.44
346.853	343.44
347.08	345.44
347.308	355.44
347.535	361.44
347.763	369.44
347.99	359.44
348.218	355.44
348.445	347.44
348.673	352.44
348.9	323.44
349.128	335.44
349.355	330.44
349.583	323.44
349.81	329.44
350.037	330.44
350.265	319.44
350.492	331.44
350.72	334.44
350.947	344.44
351.174	340.44
351.402	351.44
351.629	342.44
351.856	358.44
352.083	344.44
352.311	356.44
352.538	366.44
352.765	379.44
352.992	367.44
353.22	364.44
353.447	326.44
353.674	332.44
353.901	330.44
354.128	307.44
354.355	304.44
354.583	315.44
354.81	308.44
355.037	316.44
355.264	304.44
355.491	301.44
355.718	300.44
355.945	311.44
356.172	296.44
356.399	287.44
356.626	297.44
356.853	307.44
357.08	292.44
357.307	314.44
357.534	298.44
357.761	306.44
357.988	303.44
358.215	311.44
358.441	300.44
358.668	309.44
358.895	313.44
359.122	326.44
359.349	329.44
359.576	364.44
359.802	376.44
360.029	427.44
360.256	425.44
360.483	400.44
360.709	369.44
360.936	364.44
361.163	358.44
361.39	350.44
361.616	345.44
361.843	372.44
362.07	355.44
362.296	359.44
362.523	353.44
362.749	330.44
362.976	356.44
363.203	324.44
363.429	327.44
363.656	334.44
363.882	340.44
364.109	328.44
364.335	311.44
364.562	321.44
364.788	321.44
365.015	316.44
365.241	316.44
365.468	339.44
365.694	333.44
365.92	349.44
366.147	330.44
366.373	326.44
366.599	334.44
366.826	310.44
367.052	308.44
367.278	294.44
367.505	337.44
367.731	336.44
367.957	320.44
368.184	330.44
368.41	315.44
368.636	325.44
368.862	342.44
369.089	330.44
369.315	322.44
369.541	305.44
369.767	323.44
369.993	322.44
370.219	305.44
370.445	319.44
370.672	313.44
370.898	297.44
371.124	312.44
371.35	300.44
371.576	303.44
371.802	307.44
372.028	290.44
372.254	302.44
372.48	321.44
372.706	287.44
372.932	307.44
373.158	316.44
373.384	326.44
373.61	323.44
373.835	308.44
374.061	313.44
374.287	313.44
374.513	315.44
374.739	322.44
374.965	316.44
375.191	312.44
375.416	320.44
375.642	303.44
375.868	313.44
376.094	308.44
376.319	295.44
376.545	297.44
376.771	310.44
376.997	309.44
377.222	295.44
377.448	321.44
377.674	319.44
377.899	325.44
378.125	316.44
378.35	301.44
378.576	295.44
378.802	308.44
379.027	303.44
379.253	316.44
379.478	311.44
379.704	293.44
379.929	298.44
380.155	321.44
380.38	305.44
380.606	313.44
380.831	305.44
381.057	321.44
381.282	310.44
381.507	300.44
381.733	305.44
381.958	300.44
382.184	321.44
382.409	315.44
382.634	334.44
382.86	294.44
383.085	315.44
383.31	337.44
383.535	319.44
383.761	315.44
383.986	306.44
384.211	309.44
384.436	328.44
384.662	308.44
384.887	314.44
385.112	315.44
385.337	317.44
385.562	329.44
385.787	326.44
386.013	325.44
386.238	342.44
386.463	347.44
386.688	318.44
386.913	327.44
387.138	317.44
387.363	328.44
387.588	325.44
387.813	329.44
388.038	336.44
388.263	297.44
388.488	344.44
388.713	341.44
388.938	332.44
389.163	330.44
389.387	332.44
389.612	323.44
389.837	328.44
390.062	306.44
390.287	324.44
390.512	299.44
390.736	317.44
390.961	332.44
391.186	330.44
391.411	323.44
391.636	304.44
391.86	324.44
392.085	319.44
392.31	317.44
392.534	341.44
392.759	335.44
392.984	336.44
393.208	324.44
393.433	352.44
393.658	338.44
393.882	339.44
394.107	316.44
394.331	341.44
394.556	339.44
394.78	343.44
395.005	327.44
395.229	320.44
395.454	325.44
395.678	336.44
395.903	371.44
396.127	374.44
396.352	386.44
396.576	350.44
396.801	336.44
397.025	324.44
397.249	342.44
397.474	342.44
397.698	341.44
397.922	372.44
398.147	346.44
398.371	394.44
398.595	353.44
398.82	348.44
399.044	349.44
399.268	369.44
399.492	375.44
399.717	405.44
399.941	421.44
400.165	433.44
400.389	461.44
400.613	419.44
400.837	395.44
401.062	384.44
401.286	386.44
401.51	369.44
401.734	376.44
401.958	360.44
402.182	379.44
402.406	385.44
402.63	396.44
402.854	388.44
403.078	378.44
403.302	390.44
403.526	390.44
403.75	405.44
403.974	387.44
404.198	376.44
404.422	399.44
404.645	402.44
404.869	386.44
405.093	410.44
405.317	427.44
405.541	462.44
405.765	429.44
405.988	434.44
406.212	423.44
406.436	453.44
406.66	475.44
406.883	442.44
407.107	454.44
407.331	479.44
407.555	543.44
407.778	546.44
408.002	488.44
408.226	459.44
408.449	439.44
408.673	445.44
408.896	458.44
409.12	486.44
409.344	477.44
409.567	434.44
409.791	408.44
410.014	409.44
410.238	391.44
410.461	411.44
410.685	395.44
410.908	401.44
411.132	460.44
411.355	469.44
411.578	462.44
411.802	413.44
412.025	404.44
412.249	406.44
412.472	400.44
412.695	406.44
412.919	395.44
413.142	398.44
413.365	369.44
413.589	383.44
413.812	394.44
414.035	369.44
414.258	374.44
414.482	353.44
414.705	368.44
414.928	374.44
415.151	367.44
415.374	385.44
415.597	365.44
415.821	374.44
416.044	373.44
416.267	383.44
416.49	378.44
416.713	366.44
416.936	369.44
417.159	389.44
417.382	388.44
417.605	396.44
417.828	390.44
418.051	407.44
418.274	395.44
418.497	401.44
418.72	380.44
418.943	389.44
419.166	383.44
419.389	394.44
419.611	403.44
419.834	398.44
420.057	408.44
420.28	395.44
420.503	390.44
420.726	385.44
420.948	421.44
421.171	451.44
421.394	492.44
421.617	438.44
421.839	399.44
422.062	409.44
422.285	426.44
422.507	484.44
422.73	554.44
422.953	542.44
423.175	452.44
423.398	439.44
423.621	441.44
423.843	435.44
424.066	451.44
424.288	461.44
424.511	491.44
424.733	519.44
424.956	603.44
425.178	595.44
425.401	552.44
425.623	589.44
425.846	528.44
426.068	459.44
426.291	493.44
426.513	482.44
426.735	504.44
426.958	529.44
427.18	586.44
427.402	697.44
427.625	793.44
427.847	742.44
428.069	628.44
428.292	539.44
428.514	483.44
428.736	467.44
428.958	429.44
429.181	439.44
429.403	412.44
429.625	451.44
429.847	467.44
430.069	542.44
430.292	561.44
430.514	473.44
430.736	451.44
430.958	421.44
431.18	410.44
431.402	406.44
431.624	398.44
431.846	388.44
432.068	413.44
432.29	383.44
432.512	399.44
432.734	380.44
432.956	427.44
433.178	444.44
433.4	423.44
433.622	404.44
433.844	405.44
434.066	406.44
434.287	421.44
434.509	393.44
434.731	418.44
434.953	427.44
435.175	449.44
435.397	459.44
435.618	479.44
435.84	514.44
436.062	620.44
436.284	637.44
436.505	567.44
436.727	512.44
436.949	456.44
437.17	458.44
437.392	435.44
437.614	445.44
437.835	517.44
438.057	580.44
438.278	669.44
438.5	673.44
438.721	736.44
438.943	704.44
439.165	586.44
439.386	502.44
439.608	505.44
439.829	509.44
440.05	504.44
440.272	577.44
440.493	520.44
440.715	480.44
440.936	476.44
441.158	457.44
441.379	443.44
441.6	459.44
441.822	474.44
442.043	535.44
442.264	605.44
442.486	625.44
442.707	554.44
442.928	485.44
443.149	497.44
443.371	512.44
443.592	541.44
443.813	645.44
444.034	681.44
444.255	574.44
444.476	489.44
444.698	474.44
444.919	471.44
445.14	553.44
445.361	525.44
445.582	504.44
445.803	584.44
446.024	667.44
446.245	697.44
446.466	619.44
446.687	549.44
446.908	503.44
447.129	487.44
447.35	468.44
447.571	476.44
447.792	443.44
448.013	462.44
448.234	473.44
448.455	525.44
448.675	613.44
448.896	710.44
449.117	629.44
449.338	580.44
449.559	667.44
449.779	731.44
450	640.44
450.221	526.44
450.442	489.44
450.662	458.44
450.883	464.44
451.104	490.44
451.324	469.44
451.545	449.44
451.766	436.44
451.986	414.44
452.207	397.44
452.428	393.44
452.648	399.44
452.869	393.44
453.089	419.44
453.31	407.44
453.53	398.44
453.751	411.44
453.971	428.44
454.192	439.44
454.412	448.44
454.633	410.44
454.853	415.44
455.073	383.44
455.294	424.44
455.514	499.44
455.734	506.44
455.955	410.44
456.175	367.44
456.395	377.44
456.616	371.44
456.836	365.44
457.056	355.44
457.276	353.44
457.497	378.44
457.717	359.44
457.937	361.44
458.157	371.44
458.377	382.44
458.598	427.44
458.818	474.44
459.038	550.44
459.258	574.44
459.478	504.44
459.698	416.44
459.918	419.44
460.138	403.44
460.358	392.44
460.578	389.44
460.798	391.44
461.018	408.44
461.238	399.44
461.458	404.44
461.678	398.44
461.898	417.44
462.118	385.44
462.338	379.44
462.558	401.44
462.777	401.44
462.997	384.44
463.217	405.44
463.437	379.44
463.657	419.44
463.876	397.44
464.096	405.44
464.316	405.44
464.536	412.44
464.755	437.44
464.975	458.44
465.195	505.44
465.414	643.44
465.634	535.44
465.854	469.44
466.073	426.44
466.293	407.44
466.512	417.44
466.732	386.44
466.951	416.44
467.171	411.44
467.391	407.44
467.61	426.44
467.829	422.44
468.049	435.44
468.268	408.44
468.488	383.44
468.707	383.44
468.927	376.44
469.146	372.44
469.365	388.44
469.585	388.44
469.804	388.44
470.023	421.44
470.243	415.44
470.462	425.44
470.681	451.44
470.901	423.44
471.12	405.44
471.339	393.44
471.558	394.44
471.777	397.44
471.997	377.44
472.216	386.44
472.435	398.44
472.654	381.44
472.873	393.44
473.092	402.44
473.311	393.44
473.53	409.44
473.749	429.44
473.968	440.44
474.187	561.44
474.406	581.44
474.625	502.44
474.844	433.44
475.063	407.44
475.282	403.44
475.501	400.44
475.72	391.44
475.939	397.44
476.158	425.44
476.377	425.44
476.596	409.44
476.814	405.44
477.033	439.44
477.252	453.44
477.471	436.44
477.69	423.44
477.908	439.44
478.127	429.44
478.346	424.44
478.564	418.44
478.783	438.44
479.002	449.44
479.22	465.44
479.439	472.44
479.658	480.44
479.876	479.44
480.095	500.44
480.313	519.44
480.532	514.44
480.751	487.44
480.969	490.44
481.188	489.44
481.406	521.44
481.624	491.44
481.843	481.44
482.061	500.44
482.28	487.44
482.498	474.44
482.717	468.44
482.935	470.44
483.153	475.44
483.372	474.44
483.59	464.44
483.808	481.44
484.027	491.44
484.245	500.44
484.463	480.44
484.681	493.44
484.9	484.44
485.118	481.44
485.336	503.44
485.554	502.44
485.772	513.44
485.99	473.44
486.209	513.44
486.427	503.44
486.645	517.44
486.863	552.44
487.081	539.44
487.299	524.44
487.517	526.44
487.735	527.44
487.953	498.44
488.171	525.44
488.389	518.44
488.607	520.44
488.825	536.44
489.043	533.44
489.261	525.44
489.479	532.44
489.696	530.44
489.914	525.44
490.132	531.44
490.35	554.44
490.568	564.44
490.786	545.44
491.003	561.44
491.221	571.44
491.439	586.44
491.657	589.44
491.874	597.44
492.092	577.44
492.31	588.44
492.527	603.44
492.745	590.44
492.963	600.44
493.18	612.44
493.398	593.44
493.615	621.44
493.833	635.44
494.05	630.44
494.268	620.44
494.485	612.44
494.703	625.44
494.92	631.44
495.138	636.44
495.355	609.44
495.573	635.44
495.79	649.44
496.008	638.44
496.225	623.44
496.442	611.44
496.66	627.44
496.877	648.44
497.094	625.44
497.312	642.44
497.529	652.44
497.746	652.44
497.963	651.44
498.181	668.44
498.398	666.44
498.615	681.44
498.832	668.44
499.049	661.44
499.267	671.44
499.484	699.44
499.701	714.44
499.918	724.44
500.135	737.44
500.352	736.44
500.569	744.44
500.786	746.44
501.003	711.44
501.22	729.44
501.437	725.44
501.654	744.44
501.871	756.44
