Data from 1987.PennyLincolnUp.Lamp.En5.5.200Scan.071819.P2_HRD10591_17-13-52-971.txt Node
Date: Thu Jul 18 17:13:52 EDT 2019
User: cochatt
Spectrometer: HR+D1059
Trigger mode: 1
Integration Time (sec): 1.000000E-1
Scans to average: 1
Electric dark correction enabled: true
Nonlinearity correction enabled: false
Boxcar width: 0
XAxis mode: Wavelengths
Number of Pixels in Spectrum: 2048
>>>>>Begin Spectral Data<<<<<
223.165	-15.44
223.4	-15.44
223.635	-15.44
223.869	-2.44
224.104	-24.44
224.338	-3.44
224.573	-10.44
224.808	-18.44
225.042	-0.44
225.277	-10.44
225.511	-11.44
225.746	7.56
225.98	16.56
226.215	4.56
226.449	10.56
226.683	14.56
226.918	23.56
227.152	19.56
227.387	45.56
227.621	43.56
227.856	52.56
228.09	35.56
228.324	55.56
228.559	41.56
228.793	67.56
229.027	77.56
229.262	106.56
229.496	101.56
229.73	123.56
229.964	127.56
230.199	111.56
230.433	123.56
230.667	104.56
230.901	105.56
231.136	92.56
231.37	95.56
231.604	96.56
231.838	96.56
232.072	112.56
232.306	99.56
232.541	110.56
232.775	98.56
233.009	121.56
233.243	87.56
233.477	104.56
233.711	119.56
233.945	105.56
234.179	102.56
234.413	111.56
234.647	98.56
234.881	92.56
235.115	112.56
235.349	102.56
235.583	118.56
235.817	121.56
236.051	115.56
236.285	110.56
236.519	105.56
236.753	103.56
236.987	129.56
237.221	156.56
237.455	189.56
237.689	152.56
237.922	121.56
238.156	117.56
238.39	112.56
238.624	104.56
238.858	114.56
239.091	115.56
239.325	103.56
239.559	111.56
239.793	106.56
240.027	112.56
240.26	113.56
240.494	138.56
240.728	132.56
240.961	134.56
241.195	121.56
241.429	127.56
241.662	128.56
241.896	121.56
242.13	108.56
242.363	122.56
242.597	115.56
242.83	103.56
243.064	114.56
243.298	127.56
243.531	127.56
243.765	127.56
243.998	118.56
244.232	125.56
244.465	118.56
244.699	124.56
244.932	120.56
245.166	120.56
245.399	128.56
245.633	122.56
245.866	135.56
246.099	122.56
246.333	128.56
246.566	123.56
246.8	124.56
247.033	136.56
247.266	135.56
247.5	127.56
247.733	137.56
247.966	133.56
248.2	141.56
248.433	146.56
248.666	146.56
248.899	154.56
249.133	166.56
249.366	165.56
249.599	166.56
249.832	152.56
250.066	150.56
250.299	139.56
250.532	155.56
250.765	156.56
250.998	171.56
251.231	175.56
251.465	174.56
251.698	167.56
251.931	153.56
252.164	173.56
252.397	171.56
252.63	184.56
252.863	173.56
253.096	173.56
253.329	170.56
253.562	171.56
253.795	173.56
254.028	168.56
254.261	195.56
254.494	173.56
254.727	185.56
254.96	203.56
255.193	205.56
255.426	199.56
255.659	173.56
255.892	183.56
256.124	184.56
256.357	187.56
256.59	187.56
256.823	163.56
257.056	180.56
257.289	166.56
257.521	166.56
257.754	168.56
257.987	156.56
258.22	157.56
258.452	172.56
258.685	148.56
258.918	158.56
259.151	164.56
259.383	184.56
259.616	173.56
259.849	187.56
260.081	171.56
260.314	193.56
260.547	203.56
260.779	192.56
261.012	165.56
261.244	177.56
261.477	166.56
261.71	173.56
261.942	169.56
262.175	179.56
262.407	183.56
262.64	160.56
262.872	144.56
263.105	157.56
263.337	161.56
263.57	148.56
263.802	155.56
264.035	149.56
264.267	159.56
264.499	153.56
264.732	154.56
264.964	168.56
265.197	167.56
265.429	152.56
265.661	171.56
265.894	179.56
266.126	174.56
266.358	164.56
266.591	159.56
266.823	161.56
267.055	160.56
267.287	181.56
267.52	165.56
267.752	160.56
267.984	157.56
268.216	158.56
268.448	173.56
268.681	180.56
268.913	171.56
269.145	183.56
269.377	208.56
269.609	191.56
269.841	196.56
270.073	188.56
270.306	200.56
270.538	216.56
270.77	227.56
271.002	227.56
271.234	230.56
271.466	233.56
271.698	223.56
271.93	213.56
272.162	212.56
272.394	212.56
272.626	207.56
272.858	213.56
273.09	218.56
273.322	193.56
273.553	182.56
273.785	204.56
274.017	197.56
274.249	189.56
274.481	188.56
274.713	176.56
274.945	188.56
275.176	205.56
275.408	187.56
275.64	190.56
275.872	175.56
276.104	183.56
276.335	169.56
276.567	184.56
276.799	183.56
277.031	209.56
277.262	199.56
277.494	211.56
277.726	212.56
277.957	212.56
278.189	199.56
278.421	195.56
278.652	211.56
278.884	192.56
279.115	187.56
279.347	193.56
279.579	193.56
279.81	189.56
280.042	200.56
280.273	193.56
280.505	193.56
280.736	193.56
280.968	197.56
281.199	182.56
281.431	199.56
281.662	192.56
281.894	193.56
282.125	188.56
282.356	197.56
282.588	210.56
282.819	219.56
283.051	184.56
283.282	167.56
283.513	197.56
283.745	179.56
283.976	181.56
284.207	180.56
284.439	192.56
284.67	206.56
284.901	201.56
285.132	185.56
285.364	161.56
285.595	182.56
285.826	191.56
286.057	166.56
286.288	177.56
286.52	184.56
286.751	172.56
286.982	187.56
287.213	188.56
287.444	189.56
287.675	187.56
287.906	198.56
288.138	193.56
288.369	200.56
288.6	191.56
288.831	186.56
289.062	199.56
289.293	185.56
289.524	185.56
289.755	175.56
289.986	184.56
290.217	187.56
290.448	193.56
290.679	191.56
290.91	209.56
291.141	201.56
291.371	190.56
291.602	187.56
291.833	188.56
292.064	190.56
292.295	188.56
292.526	187.56
292.757	188.56
292.987	197.56
293.218	214.56
293.449	194.56
293.68	191.56
293.91	176.56
294.141	197.56
294.372	179.56
294.603	187.56
294.833	189.56
295.064	190.56
295.295	185.56
295.525	203.56
295.756	206.56
295.987	197.56
296.217	208.56
296.448	210.56
296.679	186.56
296.909	203.56
297.14	186.56
297.37	203.56
297.601	199.56
297.831	198.56
298.062	167.56
298.292	200.56
298.523	180.56
298.753	197.56
298.984	187.56
299.214	179.56
299.445	208.56
299.675	200.56
299.905	194.56
300.136	188.56
300.366	185.56
300.597	204.56
300.827	208.56
301.057	219.56
301.288	206.56
301.518	209.56
301.748	213.56
301.979	195.56
302.209	203.56
302.439	199.56
302.669	204.56
302.9	206.56
303.13	218.56
303.36	211.56
303.59	210.56
303.82	223.56
304.051	216.56
304.281	220.56
304.511	218.56
304.741	210.56
304.971	202.56
305.201	231.56
305.431	216.56
305.661	199.56
305.891	208.56
306.121	201.56
306.352	215.56
306.582	224.56
306.812	211.56
307.042	215.56
307.272	226.56
307.502	201.56
307.731	209.56
307.961	214.56
308.191	218.56
308.421	209.56
308.651	217.56
308.881	208.56
309.111	221.56
309.341	210.56
309.571	234.56
309.8	261.56
310.03	230.56
310.26	258.56
310.49	252.56
310.72	245.56
310.949	269.56
311.179	257.56
311.409	252.56
311.639	240.56
311.868	246.56
312.098	247.56
312.328	258.56
312.557	265.56
312.787	268.56
313.017	262.56
313.246	260.56
313.476	239.56
313.706	235.56
313.935	260.56
314.165	251.56
314.394	263.56
314.624	264.56
314.853	253.56
315.083	254.56
315.312	244.56
315.542	235.56
315.771	245.56
316.001	248.56
316.23	239.56
316.46	239.56
316.689	238.56
316.919	243.56
317.148	241.56
317.377	260.56
317.607	247.56
317.836	233.56
318.065	248.56
318.295	237.56
318.524	241.56
318.753	256.56
318.983	236.56
319.212	253.56
319.441	263.56
319.67	259.56
319.9	236.56
320.129	234.56
320.358	243.56
320.587	225.56
320.816	252.56
321.046	253.56
321.275	261.56
321.504	264.56
321.733	258.56
321.962	283.56
322.191	265.56
322.42	294.56
322.649	285.56
322.878	288.56
323.108	317.56
323.337	329.56
323.566	343.56
323.795	364.56
324.024	399.56
324.253	492.56
324.482	685.56
324.71	985.56
324.939	1451.56
325.168	1311.56
325.397	717.56
325.626	465.56
325.855	396.56
326.084	363.56
326.313	334.56
326.542	341.56
326.77	387.56
326.999	460.56
327.228	614.56
327.457	893.56
327.686	1111.56
327.914	793.56
328.143	515.56
328.372	423.56
328.6	412.56
328.829	389.56
329.058	406.56
329.287	410.56
329.515	384.56
329.744	349.56
329.972	339.56
330.201	329.56
330.43	357.56
330.658	386.56
330.887	408.56
331.115	419.56
331.344	365.56
331.572	334.56
331.801	323.56
332.03	334.56
332.258	298.56
332.486	295.56
332.715	294.56
332.943	294.56
333.172	291.56
333.4	294.56
333.629	283.56
333.857	284.56
334.085	279.56
334.314	290.56
334.542	293.56
334.771	292.56
334.999	287.56
335.227	288.56
335.455	299.56
335.684	285.56
335.912	289.56
336.14	278.56
336.369	268.56
336.597	292.56
336.825	287.56
337.053	276.56
337.281	288.56
337.51	289.56
337.738	284.56
337.966	289.56
338.194	282.56
338.422	316.56
338.65	293.56
338.878	275.56
339.106	276.56
339.334	269.56
339.562	266.56
339.79	283.56
340.018	273.56
340.246	284.56
340.474	271.56
340.702	291.56
340.93	286.56
341.158	289.56
341.386	251.56
341.614	290.56
341.842	296.56
342.07	277.56
342.298	266.56
342.526	270.56
342.754	257.56
342.981	281.56
343.209	266.56
343.437	269.56
343.665	256.56
343.893	284.56
344.12	271.56
344.348	272.56
344.576	265.56
344.804	294.56
345.031	301.56
345.259	302.56
345.487	281.56
345.714	276.56
345.942	288.56
346.17	285.56
346.397	280.56
346.625	270.56
346.853	273.56
347.08	279.56
347.308	263.56
347.535	295.56
347.763	278.56
347.99	285.56
348.218	286.56
348.445	305.56
348.673	303.56
348.9	275.56
349.128	259.56
349.355	266.56
349.583	260.56
349.81	264.56
350.037	270.56
350.265	267.56
350.492	277.56
350.72	270.56
350.947	288.56
351.174	280.56
351.402	282.56
351.629	298.56
351.856	280.56
352.083	289.56
352.311	300.56
352.538	291.56
352.765	290.56
352.992	294.56
353.22	283.56
353.447	296.56
353.674	271.56
353.901	274.56
354.128	261.56
354.355	265.56
354.583	265.56
354.81	268.56
355.037	276.56
355.264	253.56
355.491	267.56
355.718	248.56
355.945	247.56
356.172	255.56
356.399	260.56
356.626	259.56
356.853	259.56
357.08	240.56
357.307	259.56
357.534	259.56
357.761	256.56
357.988	264.56
358.215	263.56
358.441	252.56
358.668	261.56
358.895	245.56
359.122	261.56
359.349	266.56
359.576	273.56
359.802	307.56
360.029	320.56
360.256	329.56
360.483	312.56
360.709	279.56
360.936	294.56
361.163	283.56
361.39	285.56
361.616	280.56
361.843	300.56
362.07	277.56
362.296	266.56
362.523	294.56
362.749	298.56
362.976	289.56
363.203	280.56
363.429	267.56
363.656	258.56
363.882	264.56
364.109	277.56
364.335	277.56
364.562	262.56
364.788	266.56
365.015	259.56
365.241	292.56
365.468	268.56
365.694	267.56
365.92	271.56
366.147	260.56
366.373	270.56
366.599	273.56
366.826	275.56
367.052	262.56
367.278	269.56
367.505	256.56
367.731	268.56
367.957	246.56
368.184	262.56
368.41	283.56
368.636	274.56
368.862	286.56
369.089	276.56
369.315	265.56
369.541	261.56
369.767	276.56
369.993	279.56
370.219	261.56
370.445	278.56
370.672	286.56
370.898	263.56
371.124	283.56
371.35	275.56
371.576	265.56
371.802	284.56
372.028	266.56
372.254	276.56
372.48	261.56
372.706	263.56
372.932	265.56
373.158	274.56
373.384	277.56
373.61	271.56
373.835	263.56
374.061	258.56
374.287	270.56
374.513	258.56
374.739	276.56
374.965	272.56
375.191	266.56
375.416	263.56
375.642	261.56
375.868	281.56
376.094	281.56
376.319	271.56
376.545	253.56
376.771	270.56
376.997	255.56
377.222	264.56
377.448	283.56
377.674	279.56
377.899	273.56
378.125	273.56
378.35	271.56
378.576	255.56
378.802	270.56
379.027	273.56
379.253	280.56
379.478	293.56
379.704	275.56
379.929	276.56
380.155	263.56
380.38	283.56
380.606	266.56
380.831	260.56
381.057	285.56
381.282	273.56
381.507	270.56
381.733	276.56
381.958	276.56
382.184	276.56
382.409	268.56
382.634	279.56
382.86	283.56
383.085	268.56
383.31	269.56
383.535	263.56
383.761	284.56
383.986	273.56
384.211	281.56
384.436	276.56
384.662	288.56
384.887	297.56
385.112	276.56
385.337	281.56
385.562	292.56
385.787	287.56
386.013	293.56
386.238	318.56
386.463	286.56
386.688	281.56
386.913	275.56
387.138	289.56
387.363	282.56
387.588	299.56
387.813	280.56
388.038	276.56
388.263	302.56
388.488	292.56
388.713	281.56
388.938	285.56
389.163	298.56
389.387	293.56
389.612	305.56
389.837	277.56
390.062	296.56
390.287	286.56
390.512	294.56
390.736	279.56
390.961	277.56
391.186	292.56
391.411	284.56
391.636	273.56
391.86	300.56
392.085	307.56
392.31	288.56
392.534	300.56
392.759	291.56
392.984	295.56
393.208	329.56
393.433	361.56
393.658	374.56
393.882	303.56
394.107	293.56
394.331	288.56
394.556	287.56
394.78	293.56
395.005	294.56
395.229	284.56
395.454	288.56
395.678	298.56
395.903	316.56
396.127	320.56
396.352	317.56
396.576	307.56
396.801	320.56
397.025	361.56
397.249	326.56
397.474	306.56
397.698	303.56
397.922	301.56
398.147	318.56
398.371	327.56
398.595	310.56
398.82	315.56
399.044	304.56
399.268	354.56
399.492	341.56
399.717	363.56
399.941	370.56
400.165	395.56
400.389	411.56
400.613	382.56
400.837	339.56
401.062	327.56
401.286	341.56
401.51	347.56
401.734	332.56
401.958	330.56
402.182	321.56
402.406	331.56
402.63	323.56
402.854	341.56
403.078	329.56
403.302	349.56
403.526	339.56
403.75	321.56
403.974	342.56
404.198	333.56
404.422	320.56
404.645	320.56
404.869	329.56
405.093	332.56
405.317	367.56
405.541	389.56
405.765	357.56
405.988	345.56
406.212	358.56
406.436	373.56
406.66	396.56
406.883	374.56
407.107	395.56
407.331	431.56
407.555	450.56
407.778	453.56
408.002	414.56
408.226	378.56
408.449	389.56
408.673	392.56
408.896	395.56
409.12	415.56
409.344	415.56
409.567	366.56
409.791	345.56
410.014	354.56
410.238	349.56
410.461	355.56
410.685	342.56
410.908	358.56
411.132	389.56
411.355	418.56
411.578	413.56
411.802	359.56
412.025	350.56
412.249	365.56
412.472	361.56
412.695	348.56
412.919	340.56
413.142	323.56
413.365	319.56
413.589	341.56
413.812	345.56
414.035	318.56
414.258	333.56
414.482	337.56
414.705	332.56
414.928	329.56
415.151	331.56
415.374	322.56
415.597	316.56
415.821	312.56
416.044	321.56
416.267	335.56
416.49	317.56
416.713	300.56
416.936	316.56
417.159	323.56
417.382	333.56
417.605	337.56
417.828	336.56
418.051	360.56
418.274	342.56
418.497	320.56
418.72	339.56
418.943	336.56
419.166	325.56
419.389	349.56
419.611	355.56
419.834	354.56
420.057	366.56
420.28	349.56
420.503	335.56
420.726	339.56
420.948	345.56
421.171	407.56
421.394	410.56
421.617	381.56
421.839	355.56
422.062	341.56
422.285	371.56
422.507	406.56
422.73	481.56
422.953	461.56
423.175	389.56
423.398	373.56
423.621	385.56
423.843	375.56
424.066	388.56
424.288	363.56
424.511	416.56
424.733	443.56
424.956	515.56
425.178	495.56
425.401	467.56
425.623	476.56
425.846	431.56
426.068	416.56
426.291	393.56
426.513	375.56
426.735	407.56
426.958	441.56
427.18	497.56
427.402	570.56
427.625	643.56
427.847	578.56
428.069	501.56
428.292	433.56
428.514	409.56
428.736	405.56
428.958	374.56
429.181	366.56
429.403	385.56
429.625	379.56
429.847	410.56
430.069	442.56
430.292	450.56
430.514	389.56
430.736	380.56
430.958	375.56
431.18	356.56
431.402	349.56
431.624	327.56
431.846	340.56
432.068	343.56
432.29	341.56
432.512	332.56
432.734	357.56
432.956	334.56
433.178	344.56
433.4	334.56
433.622	365.56
433.844	340.56
434.066	329.56
434.287	346.56
434.509	336.56
434.731	349.56
434.953	358.56
435.175	359.56
435.397	412.56
435.618	411.56
435.84	431.56
436.062	507.56
436.284	523.56
436.505	462.56
436.727	418.56
436.949	383.56
437.17	379.56
437.392	384.56
437.614	385.56
437.835	415.56
438.057	466.56
438.278	547.56
438.5	553.56
438.721	595.56
438.943	581.56
439.165	482.56
439.386	417.56
439.608	405.56
439.829	398.56
440.05	441.56
440.272	447.56
440.493	448.56
440.715	396.56
440.936	382.56
441.158	365.56
441.379	377.56
441.6	381.56
441.822	409.56
442.043	418.56
442.264	488.56
442.486	516.56
442.707	443.56
442.928	404.56
443.149	420.56
443.371	434.56
443.592	453.56
443.813	536.56
444.034	567.56
444.255	476.56
444.476	428.56
444.698	404.56
444.919	406.56
445.14	465.56
445.361	445.56
445.582	421.56
445.803	466.56
446.024	521.56
446.245	575.56
446.466	505.56
446.687	433.56
446.908	404.56
447.129	383.56
447.35	362.56
447.571	368.56
447.792	379.56
448.013	366.56
448.234	393.56
448.455	431.56
448.675	522.56
448.896	577.56
449.117	504.56
449.338	486.56
449.559	557.56
449.779	607.56
450	517.56
450.221	448.56
450.442	382.56
450.662	393.56
450.883	379.56
451.104	391.56
451.324	383.56
451.545	366.56
451.766	343.56
451.986	355.56
452.207	320.56
452.428	343.56
452.648	328.56
452.869	351.56
453.089	350.56
453.31	344.56
453.53	327.56
453.751	336.56
453.971	314.56
454.192	354.56
454.412	344.56
454.633	323.56
454.853	332.56
455.073	322.56
455.294	342.56
455.514	437.56
455.734	377.56
455.955	334.56
456.175	313.56
456.395	307.56
456.616	295.56
456.836	331.56
457.056	313.56
457.276	299.56
457.497	296.56
457.717	314.56
457.937	307.56
458.157	326.56
458.377	324.56
458.598	325.56
458.818	394.56
459.038	439.56
459.258	451.56
459.478	385.56
459.698	356.56
459.918	339.56
460.138	345.56
460.358	372.56
460.578	341.56
460.798	359.56
461.018	353.56
461.238	341.56
461.458	349.56
461.678	341.56
461.898	355.56
462.118	348.56
462.338	336.56
462.558	340.56
462.777	343.56
462.997	332.56
463.217	351.56
463.437	350.56
463.657	342.56
463.876	340.56
464.096	345.56
464.316	358.56
464.536	352.56
464.755	359.56
464.975	371.56
465.195	409.56
465.414	491.56
465.634	417.56
465.854	378.56
466.073	362.56
466.293	344.56
466.512	329.56
466.732	344.56
466.951	343.56
467.171	333.56
467.391	331.56
467.61	337.56
467.829	367.56
468.049	355.56
468.268	342.56
468.488	343.56
468.707	323.56
468.927	347.56
469.146	319.56
469.365	349.56
469.585	355.56
469.804	327.56
470.023	341.56
470.243	343.56
470.462	347.56
470.681	371.56
470.901	348.56
471.12	336.56
471.339	349.56
471.558	346.56
471.777	350.56
471.997	324.56
472.216	331.56
472.435	336.56
472.654	346.56
472.873	324.56
473.092	325.56
473.311	331.56
473.53	358.56
473.749	345.56
473.968	385.56
474.187	443.56
474.406	469.56
474.625	415.56
474.844	364.56
475.063	364.56
475.282	333.56
475.501	363.56
475.72	353.56
475.939	359.56
476.158	355.56
476.377	347.56
476.596	345.56
476.814	342.56
477.033	353.56
477.252	358.56
477.471	357.56
477.69	368.56
477.908	356.56
478.127	376.56
478.346	368.56
478.564	375.56
478.783	357.56
479.002	381.56
479.22	379.56
479.439	381.56
479.658	415.56
479.876	406.56
480.095	410.56
480.313	427.56
480.532	427.56
480.751	406.56
480.969	410.56
481.188	439.56
481.406	423.56
481.624	412.56
481.843	419.56
482.061	393.56
482.28	400.56
482.498	402.56
482.717	401.56
482.935	412.56
483.153	406.56
483.372	392.56
483.59	381.56
483.808	393.56
484.027	417.56
484.245	403.56
484.463	396.56
484.681	431.56
484.9	427.56
485.118	416.56
485.336	419.56
485.554	440.56
485.772	411.56
485.99	430.56
486.209	437.56
486.427	420.56
486.645	423.56
486.863	457.56
487.081	445.56
487.299	421.56
487.517	451.56
487.735	439.56
487.953	427.56
488.171	448.56
488.389	431.56
488.607	435.56
488.825	432.56
489.043	447.56
489.261	438.56
489.479	454.56
489.696	453.56
489.914	464.56
490.132	454.56
490.35	459.56
490.568	446.56
490.786	483.56
491.003	462.56
491.221	473.56
491.439	500.56
491.657	484.56
491.874	492.56
492.092	496.56
492.31	495.56
492.527	474.56
492.745	506.56
492.963	499.56
493.18	503.56
493.398	516.56
493.615	499.56
493.833	505.56
494.05	512.56
494.268	518.56
494.485	517.56
494.703	495.56
494.92	519.56
495.138	517.56
495.355	503.56
495.573	532.56
495.79	505.56
496.008	522.56
496.225	505.56
496.442	544.56
496.66	527.56
496.877	513.56
497.094	546.56
497.312	539.56
497.529	538.56
497.746	524.56
497.963	553.56
498.181	560.56
498.398	561.56
498.615	591.56
498.832	579.56
499.049	592.56
499.267	586.56
499.484	576.56
499.701	614.56
499.918	624.56
500.135	637.56
500.352	630.56
500.569	633.56
500.786	633.56
501.003	640.56
501.22	638.56
501.437	643.56
501.654	639.56
501.871	622.56
502.088	635.56
