Data from 1987.PennyLincolnUp.Lamp.En5.5.200Scan.071819.P2_HRD10591_17-14-22-971.txt Node
Date: Thu Jul 18 17:14:22 EDT 2019
User: cochatt
Spectrometer: HR+D1059
Trigger mode: 1
Integration Time (sec): 1.000000E-1
Scans to average: 1
Electric dark correction enabled: true
Nonlinearity correction enabled: false
Boxcar width: 0
XAxis mode: Wavelengths
Number of Pixels in Spectrum: 2048
>>>>>Begin Spectral Data<<<<<
223.165	-17.88
223.4	-17.88
223.635	-17.88
223.869	-24.88
224.104	-35.88
224.338	-12.88
224.573	-12.88
224.808	-7.88
225.042	-1.88
225.277	-2.88
225.511	-2.88
225.746	12.12
225.98	-10.88
226.215	20.12
226.449	23.12
226.683	23.12
226.918	19.12
227.152	33.12
227.387	34.12
227.621	42.12
227.856	51.12
228.09	28.12
228.324	42.12
228.559	53.12
228.793	72.12
229.027	90.12
229.262	113.12
229.496	113.12
229.73	137.12
229.964	153.12
230.199	155.12
230.433	117.12
230.667	125.12
230.901	99.12
231.136	110.12
231.37	129.12
231.604	112.12
231.838	127.12
232.072	119.12
232.306	94.12
232.541	109.12
232.775	105.12
233.009	110.12
233.243	92.12
233.477	101.12
233.711	107.12
233.945	108.12
234.179	116.12
234.413	104.12
234.647	112.12
234.881	106.12
235.115	101.12
235.349	105.12
235.583	105.12
235.817	110.12
236.051	115.12
236.285	115.12
236.519	125.12
236.753	132.12
236.987	148.12
237.221	198.12
237.455	246.12
237.689	189.12
237.922	137.12
238.156	140.12
238.39	130.12
238.624	113.12
238.858	121.12
239.091	128.12
239.325	97.12
239.559	128.12
239.793	135.12
240.027	108.12
240.26	132.12
240.494	160.12
240.728	140.12
240.961	150.12
241.195	139.12
241.429	130.12
241.662	130.12
241.896	128.12
242.13	117.12
242.363	109.12
242.597	135.12
242.83	131.12
243.064	115.12
243.298	138.12
243.531	133.12
243.765	137.12
243.998	131.12
244.232	130.12
244.465	138.12
244.699	137.12
244.932	126.12
245.166	139.12
245.399	136.12
245.633	127.12
245.866	135.12
246.099	136.12
246.333	139.12
246.566	143.12
246.8	140.12
247.033	132.12
247.266	134.12
247.5	144.12
247.733	158.12
247.966	163.12
248.2	150.12
248.433	162.12
248.666	136.12
248.899	176.12
249.133	200.12
249.366	193.12
249.599	182.12
249.832	186.12
250.066	173.12
250.299	171.12
250.532	182.12
250.765	171.12
250.998	197.12
251.231	209.12
251.465	200.12
251.698	187.12
251.931	193.12
252.164	178.12
252.397	191.12
252.63	182.12
252.863	185.12
253.096	188.12
253.329	216.12
253.562	213.12
253.795	200.12
254.028	202.12
254.261	189.12
254.494	227.12
254.727	235.12
254.96	261.12
255.193	253.12
255.426	231.12
255.659	212.12
255.892	195.12
256.124	204.12
256.357	192.12
256.59	194.12
256.823	205.12
257.056	192.12
257.289	184.12
257.521	190.12
257.754	195.12
257.987	178.12
258.22	196.12
258.452	194.12
258.685	196.12
258.918	181.12
259.151	201.12
259.383	184.12
259.616	186.12
259.849	207.12
260.081	209.12
260.314	235.12
260.547	231.12
260.779	211.12
261.012	216.12
261.244	196.12
261.477	200.12
261.71	212.12
261.942	218.12
262.175	232.12
262.407	210.12
262.64	189.12
262.872	205.12
263.105	193.12
263.337	184.12
263.57	177.12
263.802	182.12
264.035	186.12
264.267	187.12
264.499	178.12
264.732	187.12
264.964	192.12
265.197	199.12
265.429	197.12
265.661	169.12
265.894	171.12
266.126	178.12
266.358	182.12
266.591	182.12
266.823	179.12
267.055	184.12
267.287	199.12
267.52	187.12
267.752	196.12
267.984	200.12
268.216	185.12
268.448	195.12
268.681	196.12
268.913	216.12
269.145	217.12
269.377	216.12
269.609	222.12
269.841	232.12
270.073	255.12
270.306	249.12
270.538	274.12
270.77	274.12
271.002	258.12
271.234	262.12
271.466	250.12
271.698	267.12
271.93	264.12
272.162	286.12
272.394	294.12
272.626	277.12
272.858	246.12
273.09	231.12
273.322	248.12
273.553	240.12
273.785	235.12
274.017	216.12
274.249	206.12
274.481	233.12
274.713	221.12
274.945	231.12
275.176	213.12
275.408	223.12
275.64	213.12
275.872	218.12
276.104	233.12
276.335	247.12
276.567	215.12
276.799	229.12
277.031	256.12
277.262	272.12
277.494	269.12
277.726	256.12
277.957	248.12
278.189	237.12
278.421	227.12
278.652	219.12
278.884	213.12
279.115	243.12
279.347	232.12
279.579	223.12
279.81	220.12
280.042	213.12
280.273	220.12
280.505	211.12
280.736	234.12
280.968	213.12
281.199	220.12
281.431	236.12
281.662	218.12
281.894	207.12
282.125	220.12
282.356	230.12
282.588	260.12
282.819	267.12
283.051	237.12
283.282	208.12
283.513	225.12
283.745	216.12
283.976	229.12
284.207	243.12
284.439	226.12
284.67	238.12
284.901	217.12
285.132	223.12
285.364	216.12
285.595	205.12
285.826	216.12
286.057	233.12
286.288	207.12
286.52	218.12
286.751	213.12
286.982	216.12
287.213	228.12
287.444	220.12
287.675	231.12
287.906	218.12
288.138	227.12
288.369	228.12
288.6	243.12
288.831	230.12
289.062	226.12
289.293	232.12
289.524	217.12
289.755	219.12
289.986	231.12
290.217	216.12
290.448	205.12
290.679	233.12
290.91	207.12
291.141	237.12
291.371	224.12
291.602	227.12
291.833	210.12
292.064	213.12
292.295	225.12
292.526	215.12
292.757	220.12
292.987	227.12
293.218	216.12
293.449	195.12
293.68	228.12
293.91	229.12
294.141	233.12
294.372	223.12
294.603	232.12
294.833	216.12
295.064	222.12
295.295	228.12
295.525	222.12
295.756	219.12
295.987	242.12
296.217	253.12
296.448	276.12
296.679	236.12
296.909	225.12
297.14	241.12
297.37	224.12
297.601	229.12
297.831	234.12
298.062	230.12
298.292	247.12
298.523	244.12
298.753	223.12
298.984	225.12
299.214	241.12
299.445	234.12
299.675	224.12
299.905	249.12
300.136	226.12
300.366	245.12
300.597	238.12
300.827	252.12
301.057	248.12
301.288	260.12
301.518	246.12
301.748	261.12
301.979	267.12
302.209	232.12
302.439	251.12
302.669	229.12
302.9	256.12
303.13	266.12
303.36	244.12
303.59	271.12
303.82	271.12
304.051	251.12
304.281	252.12
304.511	245.12
304.741	246.12
304.971	244.12
305.201	259.12
305.431	241.12
305.661	244.12
305.891	228.12
306.121	262.12
306.352	275.12
306.582	282.12
306.812	246.12
307.042	241.12
307.272	260.12
307.502	254.12
307.731	259.12
307.961	235.12
308.191	249.12
308.421	262.12
308.651	243.12
308.881	257.12
309.111	269.12
309.341	287.12
309.571	291.12
309.8	274.12
310.03	300.12
310.26	309.12
310.49	316.12
310.72	309.12
310.949	328.12
311.179	336.12
311.409	328.12
311.639	305.12
311.868	322.12
312.098	305.12
312.328	345.12
312.557	327.12
312.787	353.12
313.017	349.12
313.246	328.12
313.476	294.12
313.706	306.12
313.935	304.12
314.165	332.12
314.394	328.12
314.624	330.12
314.853	300.12
315.083	315.12
315.312	332.12
315.542	302.12
315.771	296.12
316.001	271.12
316.23	290.12
316.46	295.12
316.689	313.12
316.919	294.12
317.148	315.12
317.377	312.12
317.607	304.12
317.836	323.12
318.065	320.12
318.295	314.12
318.524	306.12
318.753	304.12
318.983	280.12
319.212	301.12
319.441	324.12
319.67	317.12
319.9	327.12
320.129	319.12
320.358	299.12
320.587	325.12
320.816	323.12
321.046	340.12
321.275	341.12
321.504	307.12
321.733	329.12
321.962	345.12
322.191	346.12
322.42	376.12
322.649	404.12
322.878	404.12
323.108	408.12
323.337	441.12
323.566	461.12
323.795	508.12
324.024	559.12
324.253	718.12
324.482	1044.12
324.71	1588.12
324.939	2214.12
325.168	2007.12
325.397	1088.12
325.626	706.12
325.855	564.12
326.084	497.12
326.313	492.12
326.542	469.12
326.77	525.12
326.999	645.12
327.228	894.12
327.457	1369.12
327.686	1713.12
327.914	1167.12
328.143	786.12
328.372	636.12
328.6	577.12
328.829	558.12
329.058	550.12
329.287	564.12
329.515	526.12
329.744	454.12
329.972	446.12
330.201	450.12
330.43	484.12
330.658	540.12
330.887	605.12
331.115	576.12
331.344	488.12
331.572	407.12
331.801	408.12
332.03	437.12
332.258	386.12
332.486	380.12
332.715	361.12
332.943	366.12
333.172	365.12
333.4	362.12
333.629	373.12
333.857	348.12
334.085	368.12
334.314	363.12
334.542	360.12
334.771	360.12
334.999	337.12
335.227	362.12
335.455	352.12
335.684	347.12
335.912	340.12
336.14	315.12
336.369	361.12
336.597	366.12
336.825	366.12
337.053	348.12
337.281	317.12
337.51	343.12
337.738	341.12
337.966	358.12
338.194	339.12
338.422	361.12
338.65	340.12
338.878	317.12
339.106	339.12
339.334	333.12
339.562	335.12
339.79	347.12
340.018	354.12
340.246	339.12
340.474	338.12
340.702	351.12
340.93	350.12
341.158	332.12
341.386	335.12
341.614	352.12
341.842	360.12
342.07	352.12
342.298	325.12
342.526	317.12
342.754	335.12
342.981	312.12
343.209	316.12
343.437	324.12
343.665	305.12
343.893	330.12
344.12	315.12
344.348	347.12
344.576	335.12
344.804	344.12
345.031	371.12
345.259	375.12
345.487	381.12
345.714	345.12
345.942	346.12
346.17	349.12
346.397	349.12
346.625	344.12
346.853	327.12
347.08	342.12
347.308	331.12
347.535	356.12
347.763	344.12
347.99	376.12
348.218	362.12
348.445	373.12
348.673	343.12
348.9	345.12
349.128	330.12
349.355	333.12
349.583	332.12
349.81	338.12
350.037	340.12
350.265	309.12
350.492	334.12
350.72	313.12
350.947	336.12
351.174	363.12
351.402	372.12
351.629	362.12
351.856	359.12
352.083	370.12
352.311	370.12
352.538	406.12
352.765	358.12
352.992	368.12
353.22	363.12
353.447	354.12
353.674	334.12
353.901	327.12
354.128	339.12
354.355	313.12
354.583	314.12
354.81	318.12
355.037	306.12
355.264	308.12
355.491	293.12
355.718	311.12
355.945	288.12
356.172	297.12
356.399	309.12
356.626	285.12
356.853	299.12
357.08	291.12
357.307	307.12
357.534	311.12
357.761	306.12
357.988	302.12
358.215	331.12
358.441	300.12
358.668	315.12
358.895	305.12
359.122	328.12
359.349	334.12
359.576	349.12
359.802	378.12
360.029	434.12
360.256	443.12
360.483	397.12
360.709	354.12
360.936	371.12
361.163	340.12
361.39	338.12
361.616	353.12
361.843	332.12
362.07	344.12
362.296	352.12
362.523	373.12
362.749	353.12
362.976	357.12
363.203	333.12
363.429	333.12
363.656	323.12
363.882	328.12
364.109	326.12
364.335	325.12
364.562	328.12
364.788	330.12
365.015	338.12
365.241	331.12
365.468	346.12
365.694	324.12
365.92	334.12
366.147	333.12
366.373	331.12
366.599	330.12
366.826	331.12
367.052	325.12
367.278	330.12
367.505	319.12
367.731	320.12
367.957	321.12
368.184	320.12
368.41	318.12
368.636	353.12
368.862	346.12
369.089	317.12
369.315	312.12
369.541	321.12
369.767	329.12
369.993	314.12
370.219	317.12
370.445	300.12
370.672	316.12
370.898	293.12
371.124	319.12
371.35	315.12
371.576	322.12
371.802	308.12
372.028	303.12
372.254	309.12
372.48	325.12
372.706	305.12
372.932	318.12
373.158	299.12
373.384	307.12
373.61	314.12
373.835	317.12
374.061	318.12
374.287	316.12
374.513	297.12
374.739	307.12
374.965	317.12
375.191	315.12
375.416	318.12
375.642	312.12
375.868	329.12
376.094	312.12
376.319	312.12
376.545	311.12
376.771	280.12
376.997	334.12
377.222	332.12
377.448	319.12
377.674	320.12
377.899	312.12
378.125	294.12
378.35	319.12
378.576	306.12
378.802	310.12
379.027	296.12
379.253	317.12
379.478	306.12
379.704	315.12
379.929	315.12
380.155	302.12
380.38	324.12
380.606	320.12
380.831	328.12
381.057	328.12
381.282	282.12
381.507	295.12
381.733	314.12
381.958	326.12
382.184	317.12
382.409	315.12
382.634	313.12
382.86	331.12
383.085	310.12
383.31	309.12
383.535	321.12
383.761	322.12
383.986	319.12
384.211	323.12
384.436	318.12
384.662	328.12
384.887	318.12
385.112	304.12
385.337	341.12
385.562	307.12
385.787	315.12
386.013	347.12
386.238	324.12
386.463	320.12
386.688	324.12
386.913	328.12
387.138	337.12
387.363	323.12
387.588	344.12
387.813	338.12
388.038	335.12
388.263	350.12
388.488	333.12
388.713	331.12
388.938	338.12
389.163	342.12
389.387	324.12
389.612	330.12
389.837	338.12
390.062	329.12
390.287	311.12
390.512	314.12
390.736	334.12
390.961	345.12
391.186	336.12
391.411	332.12
391.636	335.12
391.86	341.12
392.085	330.12
392.31	337.12
392.534	340.12
392.759	347.12
392.984	327.12
393.208	338.12
393.433	361.12
393.658	355.12
393.882	354.12
394.107	318.12
394.331	317.12
394.556	325.12
394.78	325.12
395.005	339.12
395.229	339.12
395.454	342.12
395.678	345.12
395.903	368.12
396.127	371.12
396.352	368.12
396.576	352.12
396.801	348.12
397.025	357.12
397.249	374.12
397.474	354.12
397.698	357.12
397.922	372.12
398.147	371.12
398.371	368.12
398.595	372.12
398.82	375.12
399.044	363.12
399.268	361.12
399.492	390.12
399.717	420.12
399.941	434.12
400.165	443.12
400.389	449.12
400.613	440.12
400.837	402.12
401.062	399.12
401.286	393.12
401.51	379.12
401.734	357.12
401.958	377.12
402.182	388.12
402.406	390.12
402.63	420.12
402.854	385.12
403.078	390.12
403.302	395.12
403.526	380.12
403.75	390.12
403.974	396.12
404.198	397.12
404.422	389.12
404.645	397.12
404.869	391.12
405.093	425.12
405.317	426.12
405.541	448.12
405.765	430.12
405.988	412.12
406.212	425.12
406.436	450.12
406.66	449.12
406.883	453.12
407.107	465.12
407.331	509.12
407.555	553.12
407.778	570.12
408.002	517.12
408.226	458.12
408.449	445.12
408.673	468.12
408.896	498.12
409.12	518.12
409.344	494.12
409.567	433.12
409.791	418.12
410.014	396.12
410.238	416.12
410.461	400.12
410.685	424.12
410.908	438.12
411.132	458.12
411.355	479.12
411.578	480.12
411.802	418.12
412.025	404.12
412.249	382.12
412.472	410.12
412.695	417.12
412.919	399.12
413.142	390.12
413.365	393.12
413.589	377.12
413.812	371.12
414.035	378.12
414.258	359.12
414.482	376.12
414.705	386.12
414.928	365.12
415.151	374.12
415.374	376.12
415.597	381.12
415.821	370.12
416.044	400.12
416.267	375.12
416.49	381.12
416.713	391.12
416.936	386.12
417.159	390.12
417.382	394.12
417.605	391.12
417.828	395.12
418.051	407.12
418.274	397.12
418.497	396.12
418.72	389.12
418.943	376.12
419.166	388.12
419.389	417.12
419.611	389.12
419.834	401.12
420.057	409.12
420.28	414.12
420.503	417.12
420.726	408.12
420.948	440.12
421.171	446.12
421.394	501.12
421.617	464.12
421.839	411.12
422.062	425.12
422.285	432.12
422.507	470.12
422.73	531.12
422.953	529.12
423.175	486.12
423.398	468.12
423.621	447.12
423.843	466.12
424.066	464.12
424.288	453.12
424.511	502.12
424.733	570.12
424.956	613.12
425.178	590.12
425.401	597.12
425.623	613.12
425.846	500.12
426.068	480.12
426.291	477.12
426.513	472.12
426.735	486.12
426.958	519.12
427.18	607.12
427.402	691.12
427.625	804.12
427.847	747.12
428.069	603.12
428.292	558.12
428.514	506.12
428.736	476.12
428.958	456.12
429.181	436.12
429.403	455.12
429.625	445.12
429.847	491.12
430.069	548.12
430.292	544.12
430.514	462.12
430.736	435.12
430.958	428.12
431.18	432.12
431.402	412.12
431.624	405.12
431.846	418.12
432.068	412.12
432.29	420.12
432.512	402.12
432.734	419.12
432.956	411.12
433.178	418.12
433.4	425.12
433.622	401.12
433.844	401.12
434.066	412.12
434.287	398.12
434.509	408.12
434.731	394.12
434.953	415.12
435.175	452.12
435.397	478.12
435.618	486.12
435.84	529.12
436.062	596.12
436.284	662.12
436.505	553.12
436.727	509.12
436.949	460.12
437.17	434.12
437.392	466.12
437.614	470.12
437.835	499.12
438.057	602.12
438.278	709.12
438.5	681.12
438.721	752.12
438.943	696.12
439.165	585.12
439.386	548.12
439.608	514.12
439.829	496.12
440.05	548.12
440.272	574.12
440.493	575.12
440.715	484.12
440.936	478.12
441.158	457.12
441.379	454.12
441.6	451.12
441.822	469.12
442.043	528.12
442.264	603.12
442.486	618.12
442.707	539.12
442.928	489.12
443.149	519.12
443.371	541.12
443.592	564.12
443.813	618.12
444.034	682.12
444.255	565.12
444.476	543.12
444.698	493.12
444.919	460.12
445.14	583.12
445.361	524.12
445.582	542.12
445.803	601.12
446.024	660.12
446.245	678.12
446.466	636.12
446.687	547.12
446.908	486.12
447.129	468.12
447.35	460.12
447.571	436.12
447.792	453.12
448.013	432.12
448.234	467.12
448.455	518.12
448.675	627.12
448.896	710.12
449.117	616.12
449.338	585.12
449.559	676.12
449.779	746.12
450	645.12
450.221	528.12
450.442	491.12
450.662	456.12
450.883	483.12
451.104	489.12
451.324	476.12
451.545	453.12
451.766	420.12
451.986	408.12
452.207	400.12
452.428	408.12
452.648	413.12
452.869	407.12
453.089	421.12
453.31	424.12
453.53	425.12
453.751	416.12
453.971	420.12
454.192	451.12
454.412	445.12
454.633	409.12
454.853	408.12
455.073	394.12
455.294	440.12
455.514	490.12
455.734	518.12
455.955	406.12
456.175	395.12
456.395	375.12
456.616	367.12
456.836	369.12
457.056	381.12
457.276	354.12
457.497	366.12
457.717	357.12
457.937	378.12
458.157	371.12
458.377	380.12
458.598	408.12
458.818	497.12
459.038	587.12
459.258	570.12
459.478	496.12
459.698	427.12
459.918	416.12
460.138	391.12
460.358	390.12
460.578	365.12
460.798	420.12
461.018	406.12
461.238	406.12
461.458	407.12
461.678	392.12
461.898	381.12
462.118	378.12
462.338	389.12
462.558	391.12
462.777	388.12
462.997	408.12
463.217	395.12
463.437	418.12
463.657	384.12
463.876	396.12
464.096	414.12
464.316	420.12
464.536	420.12
464.755	405.12
464.975	429.12
465.195	518.12
465.414	610.12
465.634	545.12
465.854	472.12
466.073	459.12
466.293	418.12
466.512	425.12
466.732	419.12
466.951	382.12
467.171	410.12
467.391	411.12
467.61	413.12
467.829	434.12
468.049	409.12
468.268	381.12
468.488	406.12
468.707	394.12
468.927	377.12
469.146	381.12
469.365	385.12
469.585	394.12
469.804	405.12
470.023	420.12
470.243	408.12
470.462	432.12
470.681	440.12
470.901	437.12
471.12	421.12
471.339	403.12
471.558	390.12
471.777	409.12
471.997	408.12
472.216	403.12
472.435	402.12
472.654	413.12
472.873	407.12
473.092	377.12
473.311	392.12
473.53	406.12
473.749	413.12
473.968	452.12
474.187	560.12
474.406	593.12
474.625	474.12
474.844	440.12
475.063	432.12
475.282	398.12
475.501	416.12
475.72	428.12
475.939	421.12
476.158	420.12
476.377	427.12
476.596	425.12
476.814	415.12
477.033	437.12
477.252	439.12
477.471	445.12
477.69	449.12
477.908	437.12
478.127	418.12
478.346	428.12
478.564	446.12
478.783	415.12
479.002	440.12
479.22	446.12
479.439	484.12
479.658	482.12
479.876	508.12
480.095	483.12
480.313	525.12
480.532	507.12
480.751	492.12
480.969	494.12
481.188	494.12
481.406	519.12
481.624	476.12
481.843	494.12
482.061	498.12
482.28	478.12
482.498	461.12
482.717	482.12
482.935	479.12
483.153	475.12
483.372	484.12
483.59	496.12
483.808	473.12
484.027	478.12
484.245	476.12
484.463	472.12
484.681	487.12
484.9	480.12
485.118	474.12
485.336	493.12
485.554	502.12
485.772	492.12
485.99	497.12
486.209	496.12
486.427	510.12
486.645	502.12
486.863	540.12
487.081	534.12
487.299	534.12
487.517	518.12
487.735	532.12
487.953	502.12
488.171	525.12
488.389	534.12
488.607	512.12
488.825	536.12
489.043	549.12
489.261	550.12
489.479	532.12
489.696	534.12
489.914	537.12
490.132	557.12
490.35	526.12
490.568	560.12
490.786	569.12
491.003	585.12
491.221	591.12
491.439	590.12
491.657	571.12
491.874	599.12
492.092	577.12
492.31	605.12
492.527	618.12
492.745	618.12
492.963	612.12
493.18	613.12
493.398	614.12
493.615	609.12
493.833	638.12
494.05	613.12
494.268	617.12
494.485	642.12
494.703	600.12
494.92	635.12
495.138	629.12
495.355	640.12
495.573	625.12
495.79	633.12
496.008	636.12
496.225	629.12
496.442	614.12
496.66	641.12
496.877	642.12
497.094	628.12
497.312	632.12
497.529	643.12
497.746	643.12
497.963	645.12
498.181	680.12
498.398	698.12
498.615	669.12
498.832	670.12
499.049	690.12
499.267	690.12
499.484	680.12
499.701	719.12
499.918	729.12
500.135	737.12
500.352	737.12
500.569	729.12
500.786	748.12
501.003	762.12
501.22	761.12
501.437	752.12
501.654	780.12
501.871	750.12
