Data from 1987.PennyLincolnUp.Lamp.En5.5.200Scan.071819.P2_HRD10591_17-17-00-971.txt Node
Date: Thu Jul 18 17:17:00 EDT 2019
User: cochatt
Spectrometer: HR+D1059
Trigger mode: 1
Integration Time (sec): 1.000000E-1
Scans to average: 1
Electric dark correction enabled: true
Nonlinearity correction enabled: false
Boxcar width: 0
XAxis mode: Wavelengths
Number of Pixels in Spectrum: 2048
>>>>>Begin Spectral Data<<<<<
223.165	-7.5
223.4	-7.5
223.635	-7.5
223.869	-13.5
224.104	-16.5
224.338	-16.5
224.573	-12.5
224.808	-8.5
225.042	-8.5
225.277	-4.5
225.511	8.5
225.746	-10.5
225.98	11.5
226.215	9.5
226.449	2.5
226.683	12.5
226.918	21.5
227.152	32.5
227.387	33.5
227.621	40.5
227.856	36.5
228.09	53.5
228.324	41.5
228.559	44.5
228.793	80.5
229.027	107.5
229.262	123.5
229.496	116.5
229.73	140.5
229.964	175.5
230.199	124.5
230.433	130.5
230.667	119.5
230.901	100.5
231.136	112.5
231.37	112.5
231.604	119.5
231.838	107.5
232.072	104.5
232.306	120.5
232.541	104.5
232.775	128.5
233.009	106.5
233.243	107.5
233.477	115.5
233.711	106.5
233.945	118.5
234.179	118.5
234.413	132.5
234.647	116.5
234.881	120.5
235.115	110.5
235.349	128.5
235.583	129.5
235.817	126.5
236.051	130.5
236.285	126.5
236.519	129.5
236.753	135.5
236.987	137.5
237.221	199.5
237.455	267.5
237.689	198.5
237.922	153.5
238.156	148.5
238.39	131.5
238.624	116.5
238.858	124.5
239.091	134.5
239.325	119.5
239.559	124.5
239.793	131.5
240.027	130.5
240.26	139.5
240.494	146.5
240.728	156.5
240.961	139.5
241.195	141.5
241.429	142.5
241.662	138.5
241.896	130.5
242.13	139.5
242.363	132.5
242.597	138.5
242.83	131.5
243.064	136.5
243.298	136.5
243.531	126.5
243.765	132.5
243.998	123.5
244.232	133.5
244.465	138.5
244.699	134.5
244.932	128.5
245.166	155.5
245.399	136.5
245.633	141.5
245.866	147.5
246.099	132.5
246.333	145.5
246.566	146.5
246.8	153.5
247.033	161.5
247.266	156.5
247.5	149.5
247.733	157.5
247.966	166.5
248.2	157.5
248.433	170.5
248.666	170.5
248.899	186.5
249.133	203.5
249.366	212.5
249.599	207.5
249.832	183.5
250.066	190.5
250.299	167.5
250.532	188.5
250.765	185.5
250.998	210.5
251.231	231.5
251.465	223.5
251.698	195.5
251.931	203.5
252.164	198.5
252.397	186.5
252.63	180.5
252.863	190.5
253.096	211.5
253.329	230.5
253.562	250.5
253.795	213.5
254.028	213.5
254.261	203.5
254.494	246.5
254.727	251.5
254.96	290.5
255.193	284.5
255.426	254.5
255.659	240.5
255.892	239.5
256.124	228.5
256.357	215.5
256.59	203.5
256.823	204.5
257.056	210.5
257.289	203.5
257.521	193.5
257.754	190.5
257.987	190.5
258.22	193.5
258.452	200.5
258.685	185.5
258.918	193.5
259.151	211.5
259.383	209.5
259.616	220.5
259.849	211.5
260.081	231.5
260.314	231.5
260.547	275.5
260.779	234.5
261.012	232.5
261.244	227.5
261.477	232.5
261.71	218.5
261.942	219.5
262.175	261.5
262.407	234.5
262.64	206.5
262.872	201.5
263.105	198.5
263.337	203.5
263.57	187.5
263.802	198.5
264.035	193.5
264.267	185.5
264.499	203.5
264.732	192.5
264.964	192.5
265.197	196.5
265.429	184.5
265.661	185.5
265.894	178.5
266.126	195.5
266.358	184.5
266.591	203.5
266.823	210.5
267.055	203.5
267.287	207.5
267.52	210.5
267.752	191.5
267.984	188.5
268.216	200.5
268.448	202.5
268.681	216.5
268.913	216.5
269.145	230.5
269.377	248.5
269.609	275.5
269.841	268.5
270.073	276.5
270.306	283.5
270.538	309.5
270.77	314.5
271.002	300.5
271.234	286.5
271.466	287.5
271.698	300.5
271.93	310.5
272.162	299.5
272.394	313.5
272.626	294.5
272.858	289.5
273.09	259.5
273.322	244.5
273.553	246.5
273.785	236.5
274.017	253.5
274.249	250.5
274.481	230.5
274.713	243.5
274.945	244.5
275.176	236.5
275.408	260.5
275.64	230.5
275.872	232.5
276.104	251.5
276.335	243.5
276.567	245.5
276.799	256.5
277.031	283.5
277.262	305.5
277.494	312.5
277.726	279.5
277.957	266.5
278.189	271.5
278.421	249.5
278.652	255.5
278.884	242.5
279.115	243.5
279.347	242.5
279.579	214.5
279.81	209.5
280.042	211.5
280.273	246.5
280.505	232.5
280.736	230.5
280.968	212.5
281.199	206.5
281.431	221.5
281.662	217.5
281.894	226.5
282.125	240.5
282.356	258.5
282.588	272.5
282.819	308.5
283.051	239.5
283.282	223.5
283.513	215.5
283.745	224.5
283.976	210.5
284.207	238.5
284.439	240.5
284.67	245.5
284.901	229.5
285.132	239.5
285.364	227.5
285.595	232.5
285.826	226.5
286.057	225.5
286.288	225.5
286.52	225.5
286.751	224.5
286.982	217.5
287.213	246.5
287.444	243.5
287.675	245.5
287.906	243.5
288.138	256.5
288.369	250.5
288.6	252.5
288.831	245.5
289.062	248.5
289.293	211.5
289.524	227.5
289.755	220.5
289.986	238.5
290.217	242.5
290.448	231.5
290.679	245.5
290.91	231.5
291.141	233.5
291.371	232.5
291.602	236.5
291.833	229.5
292.064	235.5
292.295	225.5
292.526	233.5
292.757	227.5
292.987	234.5
293.218	218.5
293.449	246.5
293.68	232.5
293.91	240.5
294.141	232.5
294.372	240.5
294.603	260.5
294.833	234.5
295.064	243.5
295.295	222.5
295.525	231.5
295.756	246.5
295.987	256.5
296.217	275.5
296.448	308.5
296.679	279.5
296.909	242.5
297.14	242.5
297.37	243.5
297.601	238.5
297.831	227.5
298.062	232.5
298.292	246.5
298.523	235.5
298.753	232.5
298.984	257.5
299.214	262.5
299.445	250.5
299.675	263.5
299.905	265.5
300.136	259.5
300.366	246.5
300.597	250.5
300.827	258.5
301.057	280.5
301.288	273.5
301.518	276.5
301.748	264.5
301.979	261.5
302.209	282.5
302.439	278.5
302.669	280.5
302.9	267.5
303.13	268.5
303.36	258.5
303.59	286.5
303.82	282.5
304.051	289.5
304.281	276.5
304.511	257.5
304.741	277.5
304.971	236.5
305.201	258.5
305.431	254.5
305.661	268.5
305.891	265.5
306.121	267.5
306.352	268.5
306.582	298.5
306.812	288.5
307.042	274.5
307.272	283.5
307.502	283.5
307.731	275.5
307.961	267.5
308.191	265.5
308.421	269.5
308.651	292.5
308.881	298.5
309.111	310.5
309.341	287.5
309.571	314.5
309.8	329.5
310.03	327.5
310.26	332.5
310.49	334.5
310.72	368.5
310.949	376.5
311.179	385.5
311.409	371.5
311.639	342.5
311.868	354.5
312.098	345.5
312.328	363.5
312.557	394.5
312.787	409.5
313.017	392.5
313.246	384.5
313.476	329.5
313.706	331.5
313.935	351.5
314.165	362.5
314.394	369.5
314.624	384.5
314.853	363.5
315.083	331.5
315.312	319.5
315.542	322.5
315.771	326.5
316.001	327.5
316.23	318.5
316.46	309.5
316.689	321.5
316.919	334.5
317.148	350.5
317.377	355.5
317.607	343.5
317.836	342.5
318.065	322.5
318.295	338.5
318.524	311.5
318.753	314.5
318.983	326.5
319.212	342.5
319.441	344.5
319.67	358.5
319.9	342.5
320.129	343.5
320.358	342.5
320.587	345.5
320.816	352.5
321.046	354.5
321.275	374.5
321.504	373.5
321.733	379.5
321.962	376.5
322.191	401.5
322.42	428.5
322.649	467.5
322.878	472.5
323.108	474.5
323.337	496.5
323.566	548.5
323.795	612.5
324.024	672.5
324.253	866.5
324.482	1294.5
324.71	1981.5
324.939	2720.5
325.168	2406.5
325.397	1314.5
325.626	850.5
325.855	662.5
326.084	577.5
326.313	560.5
326.542	569.5
326.77	624.5
326.999	800.5
327.228	1126.5
327.457	1693.5
327.686	2083.5
327.914	1446.5
328.143	914.5
328.372	763.5
328.6	699.5
328.829	642.5
329.058	658.5
329.287	675.5
329.515	615.5
329.744	535.5
329.972	498.5
330.201	517.5
330.43	548.5
330.658	604.5
330.887	665.5
331.115	680.5
331.344	551.5
331.572	498.5
331.801	478.5
332.03	450.5
332.258	426.5
332.486	401.5
332.715	403.5
332.943	401.5
333.172	410.5
333.4	397.5
333.629	389.5
333.857	414.5
334.085	392.5
334.314	395.5
334.542	396.5
334.771	410.5
334.999	406.5
335.227	393.5
335.455	386.5
335.684	371.5
335.912	363.5
336.14	383.5
336.369	376.5
336.597	403.5
336.825	396.5
337.053	398.5
337.281	378.5
337.51	358.5
337.738	383.5
337.966	368.5
338.194	386.5
338.422	410.5
338.65	387.5
338.878	380.5
339.106	359.5
339.334	356.5
339.562	371.5
339.79	366.5
340.018	364.5
340.246	374.5
340.474	403.5
340.702	390.5
340.93	355.5
341.158	363.5
341.386	382.5
341.614	360.5
341.842	364.5
342.07	371.5
342.298	372.5
342.526	357.5
342.754	343.5
342.981	344.5
343.209	330.5
343.437	362.5
343.665	356.5
343.893	365.5
344.12	353.5
344.348	354.5
344.576	373.5
344.804	392.5
345.031	415.5
345.259	416.5
345.487	390.5
345.714	394.5
345.942	377.5
346.17	364.5
346.397	361.5
346.625	353.5
346.853	376.5
347.08	359.5
347.308	358.5
347.535	370.5
347.763	399.5
347.99	392.5
348.218	384.5
348.445	385.5
348.673	399.5
348.9	372.5
349.128	376.5
349.355	338.5
349.583	350.5
349.81	351.5
350.037	371.5
350.265	362.5
350.492	363.5
350.72	338.5
350.947	360.5
351.174	387.5
351.402	408.5
351.629	395.5
351.856	376.5
352.083	394.5
352.311	405.5
352.538	422.5
352.765	386.5
352.992	408.5
353.22	405.5
353.447	372.5
353.674	370.5
353.901	351.5
354.128	338.5
354.355	321.5
354.583	331.5
354.81	339.5
355.037	326.5
355.264	331.5
355.491	314.5
355.718	310.5
355.945	325.5
356.172	321.5
356.399	331.5
356.626	313.5
356.853	308.5
357.08	329.5
357.307	343.5
357.534	327.5
357.761	323.5
357.988	330.5
358.215	331.5
358.441	329.5
358.668	323.5
358.895	326.5
359.122	344.5
359.349	354.5
359.576	374.5
359.802	418.5
360.029	483.5
360.256	507.5
360.483	473.5
360.709	396.5
360.936	394.5
361.163	388.5
361.39	406.5
361.616	375.5
361.843	390.5
362.07	384.5
362.296	386.5
362.523	402.5
362.749	372.5
362.976	355.5
363.203	350.5
363.429	369.5
363.656	376.5
363.882	358.5
364.109	355.5
364.335	344.5
364.562	338.5
364.788	372.5
365.015	347.5
365.241	336.5
365.468	367.5
365.694	362.5
365.92	360.5
366.147	359.5
366.373	371.5
366.599	343.5
366.826	338.5
367.052	343.5
367.278	367.5
367.505	347.5
367.731	335.5
367.957	333.5
368.184	339.5
368.41	367.5
368.636	366.5
368.862	370.5
369.089	351.5
369.315	336.5
369.541	338.5
369.767	340.5
369.993	340.5
370.219	347.5
370.445	328.5
370.672	336.5
370.898	322.5
371.124	349.5
371.35	324.5
371.576	311.5
371.802	328.5
372.028	327.5
372.254	337.5
372.48	319.5
372.706	324.5
372.932	321.5
373.158	326.5
373.384	338.5
373.61	336.5
373.835	330.5
374.061	325.5
374.287	341.5
374.513	336.5
374.739	324.5
374.965	344.5
375.191	330.5
375.416	306.5
375.642	334.5
375.868	329.5
376.094	346.5
376.319	323.5
376.545	322.5
376.771	322.5
376.997	326.5
377.222	319.5
377.448	312.5
377.674	332.5
377.899	322.5
378.125	323.5
378.35	319.5
378.576	342.5
378.802	329.5
379.027	306.5
379.253	334.5
379.478	333.5
379.704	325.5
379.929	333.5
380.155	336.5
380.38	325.5
380.606	324.5
380.831	327.5
381.057	333.5
381.282	325.5
381.507	315.5
381.733	336.5
381.958	333.5
382.184	330.5
382.409	338.5
382.634	342.5
382.86	366.5
383.085	342.5
383.31	320.5
383.535	323.5
383.761	334.5
383.986	344.5
384.211	339.5
384.436	328.5
384.662	314.5
384.887	337.5
385.112	345.5
385.337	327.5
385.562	350.5
385.787	344.5
386.013	366.5
386.238	360.5
386.463	358.5
386.688	330.5
386.913	336.5
387.138	345.5
387.363	337.5
387.588	334.5
387.813	339.5
388.038	332.5
388.263	337.5
388.488	342.5
388.713	330.5
388.938	342.5
389.163	347.5
389.387	353.5
389.612	336.5
389.837	352.5
390.062	362.5
390.287	344.5
390.512	339.5
390.736	349.5
390.961	339.5
391.186	339.5
391.411	334.5
391.636	350.5
391.86	340.5
392.085	340.5
392.31	348.5
392.534	334.5
392.759	330.5
392.984	357.5
393.208	363.5
393.433	350.5
393.658	352.5
393.882	323.5
394.107	335.5
394.331	356.5
394.556	343.5
394.78	356.5
395.005	347.5
395.229	348.5
395.454	366.5
395.678	358.5
395.903	374.5
396.127	392.5
396.352	400.5
396.576	377.5
396.801	380.5
397.025	360.5
397.249	366.5
397.474	367.5
397.698	372.5
397.922	382.5
398.147	400.5
398.371	369.5
398.595	395.5
398.82	383.5
399.044	369.5
399.268	390.5
399.492	404.5
399.717	404.5
399.941	452.5
400.165	472.5
400.389	478.5
400.613	458.5
400.837	404.5
401.062	403.5
401.286	412.5
401.51	404.5
401.734	387.5
401.958	394.5
402.182	415.5
402.406	422.5
402.63	430.5
402.854	411.5
403.078	423.5
403.302	395.5
403.526	418.5
403.75	415.5
403.974	410.5
404.198	412.5
404.422	420.5
404.645	421.5
404.869	444.5
405.093	451.5
405.317	478.5
405.541	473.5
405.765	467.5
405.988	446.5
406.212	452.5
406.436	500.5
406.66	526.5
406.883	485.5
407.107	518.5
407.331	525.5
407.555	579.5
407.778	600.5
408.002	512.5
408.226	490.5
408.449	494.5
408.673	483.5
408.896	502.5
409.12	535.5
409.344	518.5
409.567	454.5
409.791	410.5
410.014	422.5
410.238	415.5
410.461	439.5
410.685	434.5
410.908	437.5
411.132	477.5
411.355	521.5
411.578	483.5
411.802	426.5
412.025	410.5
412.249	446.5
412.472	427.5
412.695	443.5
412.919	439.5
413.142	423.5
413.365	397.5
413.589	411.5
413.812	395.5
414.035	388.5
414.258	396.5
414.482	408.5
414.705	384.5
414.928	398.5
415.151	411.5
415.374	401.5
415.597	394.5
415.821	409.5
416.044	396.5
416.267	407.5
416.49	396.5
416.713	393.5
416.936	392.5
417.159	397.5
417.382	402.5
417.605	418.5
417.828	422.5
418.051	433.5
418.274	429.5
418.497	405.5
418.72	409.5
418.943	409.5
419.166	421.5
419.389	426.5
419.611	415.5
419.834	419.5
420.057	447.5
420.28	430.5
420.503	425.5
420.726	418.5
420.948	455.5
421.171	473.5
421.394	514.5
421.617	480.5
421.839	423.5
422.062	437.5
422.285	452.5
422.507	534.5
422.73	578.5
422.953	601.5
423.175	496.5
423.398	462.5
423.621	470.5
423.843	464.5
424.066	496.5
424.288	480.5
424.511	507.5
424.733	562.5
424.956	668.5
425.178	620.5
425.401	637.5
425.623	648.5
425.846	532.5
426.068	508.5
426.291	529.5
426.513	516.5
426.735	511.5
426.958	579.5
427.18	644.5
427.402	770.5
427.625	846.5
427.847	794.5
428.069	668.5
428.292	571.5
428.514	523.5
428.736	484.5
428.958	498.5
429.181	478.5
429.403	470.5
429.625	486.5
429.847	503.5
430.069	577.5
430.292	574.5
430.514	501.5
430.736	476.5
430.958	464.5
431.18	454.5
431.402	437.5
431.624	418.5
431.846	403.5
432.068	422.5
432.29	400.5
432.512	412.5
432.734	427.5
432.956	462.5
433.178	448.5
433.4	467.5
433.622	439.5
433.844	444.5
434.066	420.5
434.287	426.5
434.509	436.5
434.731	449.5
434.953	425.5
435.175	467.5
435.397	502.5
435.618	500.5
435.84	554.5
436.062	643.5
436.284	695.5
436.505	608.5
436.727	523.5
436.949	499.5
437.17	488.5
437.392	468.5
437.614	495.5
437.835	535.5
438.057	672.5
438.278	739.5
438.5	744.5
438.721	758.5
438.943	731.5
439.165	640.5
439.386	555.5
439.608	556.5
439.829	534.5
440.05	601.5
440.272	630.5
440.493	600.5
440.715	518.5
440.936	496.5
441.158	484.5
441.379	466.5
441.6	488.5
441.822	527.5
442.043	546.5
442.264	656.5
442.486	690.5
442.707	561.5
442.928	566.5
443.149	536.5
443.371	574.5
443.592	601.5
443.813	679.5
444.034	708.5
444.255	638.5
444.476	520.5
444.698	516.5
444.919	488.5
445.14	584.5
445.361	578.5
445.582	573.5
445.803	628.5
446.024	742.5
446.245	762.5
446.466	678.5
446.687	570.5
446.908	533.5
447.129	514.5
447.35	487.5
447.571	468.5
447.792	479.5
448.013	488.5
448.234	524.5
448.455	576.5
448.675	683.5
448.896	754.5
449.117	672.5
449.338	624.5
449.559	721.5
449.779	783.5
450	659.5
450.221	579.5
450.442	505.5
450.662	507.5
450.883	536.5
451.104	538.5
451.324	530.5
451.545	467.5
451.766	460.5
451.986	448.5
452.207	433.5
452.428	426.5
452.648	455.5
452.869	427.5
453.089	460.5
453.31	468.5
453.53	442.5
453.751	421.5
453.971	446.5
454.192	487.5
454.412	464.5
454.633	454.5
454.853	440.5
455.073	450.5
455.294	463.5
455.514	544.5
455.734	534.5
455.955	440.5
456.175	426.5
456.395	400.5
456.616	402.5
456.836	397.5
457.056	388.5
457.276	379.5
457.497	396.5
457.717	389.5
457.937	389.5
458.157	414.5
458.377	415.5
458.598	454.5
458.818	532.5
459.038	614.5
459.258	633.5
459.478	511.5
459.698	484.5
459.918	440.5
460.138	431.5
460.358	403.5
460.578	415.5
460.798	432.5
461.018	405.5
461.238	432.5
461.458	412.5
461.678	413.5
461.898	420.5
462.118	411.5
462.338	415.5
462.558	411.5
462.777	404.5
462.997	420.5
463.217	435.5
463.437	421.5
463.657	417.5
463.876	430.5
464.096	438.5
464.316	447.5
464.536	442.5
464.755	459.5
464.975	475.5
465.195	556.5
465.414	708.5
465.634	602.5
465.854	500.5
466.073	460.5
466.293	444.5
466.512	434.5
466.732	431.5
466.951	430.5
467.171	419.5
467.391	430.5
467.61	448.5
467.829	473.5
468.049	428.5
468.268	423.5
468.488	419.5
468.707	395.5
468.927	415.5
469.146	393.5
469.365	400.5
469.585	402.5
469.804	432.5
470.023	458.5
470.243	412.5
470.462	446.5
470.681	463.5
470.901	467.5
471.12	443.5
471.339	431.5
471.558	446.5
471.777	437.5
471.997	409.5
472.216	417.5
472.435	424.5
472.654	428.5
472.873	420.5
473.092	416.5
473.311	441.5
473.53	434.5
473.749	458.5
473.968	497.5
474.187	614.5
474.406	641.5
474.625	525.5
474.844	450.5
475.063	459.5
475.282	440.5
475.501	427.5
475.72	446.5
475.939	447.5
476.158	453.5
476.377	444.5
476.596	450.5
476.814	432.5
477.033	454.5
477.252	466.5
477.471	456.5
477.69	460.5
477.908	453.5
478.127	476.5
478.346	466.5
478.564	458.5
478.783	466.5
479.002	447.5
479.22	472.5
479.439	495.5
479.658	528.5
479.876	516.5
480.095	547.5
480.313	562.5
480.532	528.5
480.751	514.5
480.969	517.5
481.188	522.5
481.406	543.5
481.624	548.5
481.843	514.5
482.061	510.5
482.28	502.5
482.498	487.5
482.717	506.5
482.935	496.5
483.153	483.5
483.372	520.5
483.59	504.5
483.808	516.5
484.027	502.5
484.245	524.5
484.463	495.5
484.681	512.5
484.9	503.5
485.118	531.5
485.336	500.5
485.554	531.5
485.772	526.5
485.99	496.5
486.209	521.5
486.427	536.5
486.645	513.5
486.863	566.5
487.081	555.5
487.299	563.5
487.517	552.5
487.735	548.5
487.953	561.5
488.171	556.5
488.389	533.5
488.607	563.5
488.825	570.5
489.043	553.5
489.261	563.5
489.479	565.5
489.696	595.5
489.914	551.5
490.132	553.5
490.35	586.5
490.568	576.5
490.786	596.5
491.003	602.5
491.221	619.5
491.439	647.5
491.657	598.5
491.874	628.5
492.092	650.5
492.31	644.5
492.527	659.5
492.745	637.5
492.963	632.5
493.18	662.5
493.398	663.5
493.615	664.5
493.833	674.5
494.05	670.5
494.268	662.5
494.485	664.5
494.703	669.5
494.92	640.5
495.138	648.5
495.355	679.5
495.573	683.5
495.79	662.5
496.008	655.5
496.225	698.5
496.442	686.5
496.66	676.5
496.877	678.5
497.094	642.5
497.312	675.5
497.529	645.5
497.746	699.5
497.963	716.5
498.181	724.5
498.398	731.5
498.615	722.5
498.832	731.5
499.049	717.5
499.267	723.5
499.484	733.5
499.701	750.5
499.918	744.5
500.135	754.5
500.352	774.5
500.569	761.5
500.786	786.5
501.003	794.5
501.22	781.5
501.437	781.5
501.654	797.5
501.871	809.5
502.088	798.5
502.305	765.5
502.522	720.5
502.739	713.5
502.956	695.5
503.172	688.5
503.389	688.5
503.606	706.5
503.823	741.5
504.04	697.5
504.256	666.5
504.473	680.5
504.69	689.5
504.907	688.5
505.123	684.5
505.34	644.5
505.557	650.5
505.773	670.5
505.99	657.5
506.207	660.5
506.423	674.5
506.64	674.5
506.856	652.5
507.073	674.5
507.289	656.5
507.506	658.5
507.722	694.5
507.939	722.5
508.155	696.5
508.372	674.5
508.588	662.5
508.805	680.5
509.021	666.5
509.238	663.5
509.454	670.5
509.67	684.5
509.887	647.5
510.103	672.5
510.319	697.5
510.536	847.5
510.752	1586.5
510.968	1307.5
511.184	768.5
511.401	660.5
511.617	659.5
511.833	641.5
512.049	643.5
512.265	635.5
512.481	632.5
512.698	613.5
512.914	617.5
513.13	638.5
513.346	630.5
513.562	649.5
513.778	659.5
513.994	664.5
514.21	690.5
514.426	738.5
514.642	834.5
514.858	873.5
515.074	945.5
515.29	1213.5
515.506	1867.5
515.721	1488.5
515.937	914.5
516.153	772.5
516.369	737.5
516.585	681.5
516.801	693.5
517.016	657.5
517.232	675.5
517.448	636.5
517.664	643.5
517.879	617.5
518.095	627.5
518.311	650.5
518.527	622.5
518.742	623.5
518.958	628.5
519.173	632.5
519.389	639.5
519.605	676.5
519.82	676.5
