Data from 1987.PennyLincolnUp.Lamp.En5.5.200Scan.071819.P2_HRD10591_17-15-37-970.txt Node
Date: Thu Jul 18 17:15:37 EDT 2019
User: cochatt
Spectrometer: HR+D1059
Trigger mode: 1
Integration Time (sec): 1.000000E-1
Scans to average: 1
Electric dark correction enabled: true
Nonlinearity correction enabled: false
Boxcar width: 0
XAxis mode: Wavelengths
Number of Pixels in Spectrum: 2048
>>>>>Begin Spectral Data<<<<<
223.165	-14.31
223.4	-14.31
223.635	-14.31
223.869	-13.31
224.104	-29.31
224.338	-19.31
224.573	-7.31
224.808	-8.31
225.042	13.69
225.277	-23.31
225.511	10.69
225.746	4.69
225.98	-3.31
226.215	5.69
226.449	2.69
226.683	7.69
226.918	34.69
227.152	38.69
227.387	36.69
227.621	40.69
227.856	46.69
228.09	61.69
228.324	43.69
228.559	44.69
228.793	71.69
229.027	106.69
229.262	131.69
229.496	114.69
229.73	160.69
229.964	179.69
230.199	133.69
230.433	122.69
230.667	125.69
230.901	133.69
231.136	130.69
231.37	122.69
231.604	122.69
231.838	122.69
232.072	118.69
232.306	118.69
232.541	108.69
232.775	131.69
233.009	113.69
233.243	120.69
233.477	114.69
233.711	129.69
233.945	122.69
234.179	108.69
234.413	117.69
234.647	111.69
234.881	122.69
235.115	122.69
235.349	119.69
235.583	125.69
235.817	126.69
236.051	130.69
236.285	122.69
236.519	142.69
236.753	142.69
236.987	144.69
237.221	190.69
237.455	261.69
237.689	230.69
237.922	169.69
238.156	138.69
238.39	132.69
238.624	130.69
238.858	127.69
239.091	127.69
239.325	118.69
239.559	136.69
239.793	121.69
240.027	123.69
240.26	143.69
240.494	167.69
240.728	141.69
240.961	149.69
241.195	151.69
241.429	125.69
241.662	137.69
241.896	123.69
242.13	137.69
242.363	151.69
242.597	130.69
242.83	122.69
243.064	132.69
243.298	143.69
243.531	133.69
243.765	135.69
243.998	145.69
244.232	140.69
244.465	149.69
244.699	154.69
244.932	142.69
245.166	138.69
245.399	146.69
245.633	147.69
245.866	128.69
246.099	142.69
246.333	143.69
246.566	148.69
246.8	149.69
247.033	150.69
247.266	138.69
247.5	153.69
247.733	157.69
247.966	175.69
248.2	181.69
248.433	170.69
248.666	187.69
248.899	179.69
249.133	200.69
249.366	220.69
249.599	199.69
249.832	207.69
250.066	187.69
250.299	177.69
250.532	193.69
250.765	192.69
250.998	204.69
251.231	234.69
251.465	233.69
251.698	198.69
251.931	193.69
252.164	212.69
252.397	200.69
252.63	190.69
252.863	190.69
253.096	215.69
253.329	218.69
253.562	228.69
253.795	217.69
254.028	204.69
254.261	222.69
254.494	224.69
254.727	253.69
254.96	293.69
255.193	266.69
255.426	257.69
255.659	220.69
255.892	218.69
256.124	239.69
256.357	223.69
256.59	187.69
256.823	198.69
257.056	206.69
257.289	210.69
257.521	191.69
257.754	194.69
257.987	189.69
258.22	205.69
258.452	190.69
258.685	196.69
258.918	202.69
259.151	201.69
259.383	208.69
259.616	218.69
259.849	208.69
260.081	214.69
260.314	246.69
260.547	249.69
260.779	228.69
261.012	224.69
261.244	234.69
261.477	229.69
261.71	228.69
261.942	242.69
262.175	238.69
262.407	222.69
262.64	222.69
262.872	205.69
263.105	211.69
263.337	196.69
263.57	203.69
263.802	217.69
264.035	195.69
264.267	191.69
264.499	203.69
264.732	194.69
264.964	194.69
265.197	193.69
265.429	178.69
265.661	188.69
265.894	201.69
266.126	201.69
266.358	184.69
266.591	190.69
266.823	196.69
267.055	197.69
267.287	213.69
267.52	194.69
267.752	213.69
267.984	203.69
268.216	199.69
268.448	204.69
268.681	219.69
268.913	202.69
269.145	241.69
269.377	249.69
269.609	265.69
269.841	255.69
270.073	245.69
270.306	281.69
270.538	322.69
270.77	294.69
271.002	295.69
271.234	296.69
271.466	281.69
271.698	296.69
271.93	300.69
272.162	303.69
272.394	324.69
272.626	334.69
272.858	299.69
273.09	272.69
273.322	249.69
273.553	245.69
273.785	268.69
274.017	254.69
274.249	237.69
274.481	245.69
274.713	232.69
274.945	239.69
275.176	236.69
275.408	245.69
275.64	261.69
275.872	220.69
276.104	230.69
276.335	229.69
276.567	258.69
276.799	275.69
277.031	290.69
277.262	271.69
277.494	297.69
277.726	300.69
277.957	269.69
278.189	259.69
278.421	231.69
278.652	230.69
278.884	235.69
279.115	237.69
279.347	243.69
279.579	245.69
279.81	229.69
280.042	229.69
280.273	229.69
280.505	231.69
280.736	228.69
280.968	242.69
281.199	226.69
281.431	211.69
281.662	223.69
281.894	227.69
282.125	240.69
282.356	253.69
282.588	288.69
282.819	303.69
283.051	259.69
283.282	243.69
283.513	220.69
283.745	227.69
283.976	237.69
284.207	227.69
284.439	224.69
284.67	232.69
284.901	235.69
285.132	250.69
285.364	217.69
285.595	239.69
285.826	235.69
286.057	248.69
286.288	227.69
286.52	238.69
286.751	236.69
286.982	239.69
287.213	225.69
287.444	243.69
287.675	241.69
287.906	238.69
288.138	259.69
288.369	251.69
288.6	248.69
288.831	271.69
289.062	243.69
289.293	253.69
289.524	239.69
289.755	248.69
289.986	241.69
290.217	233.69
290.448	245.69
290.679	232.69
290.91	231.69
291.141	240.69
291.371	255.69
291.602	236.69
291.833	222.69
292.064	215.69
292.295	240.69
292.526	241.69
292.757	236.69
292.987	245.69
293.218	243.69
293.449	227.69
293.68	223.69
293.91	241.69
294.141	260.69
294.372	239.69
294.603	250.69
294.833	227.69
295.064	249.69
295.295	242.69
295.525	258.69
295.756	253.69
295.987	244.69
296.217	280.69
296.448	301.69
296.679	246.69
296.909	234.69
297.14	229.69
297.37	241.69
297.601	249.69
297.831	256.69
298.062	259.69
298.292	233.69
298.523	246.69
298.753	241.69
298.984	252.69
299.214	242.69
299.445	257.69
299.675	244.69
299.905	247.69
300.136	268.69
300.366	236.69
300.597	250.69
300.827	259.69
301.057	286.69
301.288	277.69
301.518	276.69
301.748	267.69
301.979	270.69
302.209	275.69
302.439	285.69
302.669	271.69
302.9	294.69
303.13	262.69
303.36	276.69
303.59	274.69
303.82	304.69
304.051	290.69
304.281	269.69
304.511	263.69
304.741	270.69
304.971	271.69
305.201	252.69
305.431	250.69
305.661	265.69
305.891	266.69
306.121	279.69
306.352	267.69
306.582	285.69
306.812	282.69
307.042	291.69
307.272	266.69
307.502	280.69
307.731	258.69
307.961	275.69
308.191	284.69
308.421	295.69
308.651	298.69
308.881	303.69
309.111	301.69
309.341	314.69
309.571	310.69
309.8	326.69
310.03	325.69
310.26	341.69
310.49	355.69
310.72	348.69
310.949	383.69
311.179	392.69
311.409	358.69
311.639	344.69
311.868	319.69
312.098	359.69
312.328	377.69
312.557	363.69
312.787	403.69
313.017	379.69
313.246	377.69
313.476	353.69
313.706	349.69
313.935	350.69
314.165	361.69
314.394	383.69
314.624	381.69
314.853	378.69
315.083	353.69
315.312	339.69
315.542	319.69
315.771	321.69
316.001	314.69
316.23	322.69
316.46	336.69
316.689	325.69
316.919	340.69
317.148	339.69
317.377	343.69
317.607	343.69
317.836	351.69
318.065	324.69
318.295	328.69
318.524	320.69
318.753	321.69
318.983	319.69
319.212	326.69
319.441	364.69
319.67	335.69
319.9	346.69
320.129	334.69
320.358	343.69
320.587	353.69
320.816	345.69
321.046	357.69
321.275	361.69
321.504	391.69
321.733	375.69
321.962	380.69
322.191	380.69
322.42	414.69
322.649	452.69
322.878	466.69
323.108	460.69
323.337	513.69
323.566	546.69
323.795	586.69
324.024	650.69
324.253	853.69
324.482	1275.69
324.71	1942.69
324.939	2691.69
325.168	2390.69
325.397	1245.69
325.626	826.69
325.855	638.69
326.084	573.69
326.313	531.69
326.542	553.69
326.77	608.69
326.999	737.69
327.228	1069.69
327.457	1671.69
327.686	2010.69
327.914	1408.69
328.143	896.69
328.372	741.69
328.6	691.69
328.829	602.69
329.058	655.69
329.287	671.69
329.515	605.69
329.744	537.69
329.972	492.69
330.201	502.69
330.43	539.69
330.658	607.69
330.887	696.69
331.115	641.69
331.344	519.69
331.572	476.69
331.801	488.69
332.03	477.69
332.258	454.69
332.486	426.69
332.715	381.69
332.943	384.69
333.172	401.69
333.4	397.69
333.629	406.69
333.857	409.69
334.085	417.69
334.314	407.69
334.542	406.69
334.771	400.69
334.999	404.69
335.227	407.69
335.455	374.69
335.684	366.69
335.912	373.69
336.14	369.69
336.369	378.69
336.597	388.69
336.825	405.69
337.053	392.69
337.281	387.69
337.51	377.69
337.738	383.69
337.966	385.69
338.194	379.69
338.422	373.69
338.65	365.69
338.878	361.69
339.106	374.69
339.334	359.69
339.562	355.69
339.79	364.69
340.018	375.69
340.246	389.69
340.474	370.69
340.702	390.69
340.93	374.69
341.158	377.69
341.386	381.69
341.614	379.69
341.842	394.69
342.07	347.69
342.298	363.69
342.526	341.69
342.754	348.69
342.981	350.69
343.209	318.69
343.437	342.69
343.665	363.69
343.893	359.69
344.12	364.69
344.348	371.69
344.576	358.69
344.804	391.69
345.031	411.69
345.259	398.69
345.487	406.69
345.714	398.69
345.942	386.69
346.17	367.69
346.397	369.69
346.625	373.69
346.853	386.69
347.08	364.69
347.308	391.69
347.535	399.69
347.763	390.69
347.99	385.69
348.218	407.69
348.445	419.69
348.673	424.69
348.9	395.69
349.128	360.69
349.355	373.69
349.583	355.69
349.81	356.69
350.037	355.69
350.265	351.69
350.492	358.69
350.72	355.69
350.947	374.69
351.174	365.69
351.402	415.69
351.629	397.69
351.856	398.69
352.083	398.69
352.311	383.69
352.538	410.69
352.765	415.69
352.992	397.69
353.22	390.69
353.447	384.69
353.674	390.69
353.901	361.69
354.128	339.69
354.355	315.69
354.583	323.69
354.81	332.69
355.037	334.69
355.264	337.69
355.491	320.69
355.718	319.69
355.945	335.69
356.172	332.69
356.399	317.69
356.626	331.69
356.853	310.69
357.08	321.69
357.307	332.69
357.534	334.69
357.761	321.69
357.988	344.69
358.215	319.69
358.441	340.69
358.668	345.69
358.895	342.69
359.122	341.69
359.349	377.69
359.576	391.69
359.802	401.69
360.029	476.69
360.256	473.69
360.483	448.69
360.709	415.69
360.936	393.69
361.163	374.69
361.39	391.69
361.616	404.69
361.843	376.69
362.07	377.69
362.296	407.69
362.523	381.69
362.749	388.69
362.976	376.69
363.203	367.69
363.429	354.69
363.656	355.69
363.882	357.69
364.109	337.69
364.335	356.69
364.562	350.69
364.788	359.69
365.015	356.69
365.241	363.69
365.468	357.69
365.694	364.69
365.92	362.69
366.147	351.69
366.373	326.69
366.599	363.69
366.826	347.69
367.052	355.69
367.278	354.69
367.505	360.69
367.731	350.69
367.957	354.69
368.184	356.69
368.41	364.69
368.636	372.69
368.862	375.69
369.089	353.69
369.315	329.69
369.541	339.69
369.767	347.69
369.993	344.69
370.219	339.69
370.445	339.69
370.672	323.69
370.898	314.69
371.124	325.69
371.35	330.69
371.576	335.69
371.802	340.69
372.028	309.69
372.254	325.69
372.48	321.69
372.706	329.69
372.932	331.69
373.158	336.69
373.384	329.69
373.61	345.69
373.835	330.69
374.061	329.69
374.287	333.69
374.513	342.69
374.739	344.69
374.965	331.69
375.191	329.69
375.416	326.69
375.642	324.69
375.868	316.69
376.094	347.69
376.319	308.69
376.545	321.69
376.771	318.69
376.997	332.69
377.222	327.69
377.448	318.69
377.674	346.69
377.899	326.69
378.125	343.69
378.35	340.69
378.576	330.69
378.802	329.69
379.027	326.69
379.253	327.69
379.478	319.69
379.704	313.69
379.929	340.69
380.155	339.69
380.38	346.69
380.606	344.69
380.831	328.69
381.057	351.69
381.282	318.69
381.507	337.69
381.733	337.69
381.958	342.69
382.184	337.69
382.409	327.69
382.634	327.69
382.86	321.69
383.085	330.69
383.31	339.69
383.535	339.69
383.761	338.69
383.986	326.69
384.211	334.69
384.436	358.69
384.662	333.69
384.887	342.69
385.112	337.69
385.337	344.69
385.562	337.69
385.787	356.69
386.013	369.69
386.238	373.69
386.463	345.69
386.688	356.69
386.913	329.69
387.138	340.69
387.363	349.69
387.588	342.69
387.813	348.69
388.038	361.69
388.263	329.69
388.488	360.69
388.713	343.69
388.938	328.69
389.163	347.69
389.387	379.69
389.612	315.69
389.837	351.69
390.062	345.69
390.287	339.69
390.512	363.69
390.736	355.69
390.961	345.69
391.186	360.69
391.411	354.69
391.636	353.69
391.86	358.69
392.085	361.69
392.31	333.69
392.534	364.69
392.759	373.69
392.984	329.69
393.208	338.69
393.433	361.69
393.658	340.69
393.882	347.69
394.107	347.69
394.331	341.69
394.556	342.69
394.78	343.69
395.005	360.69
395.229	353.69
395.454	354.69
395.678	347.69
395.903	393.69
396.127	403.69
396.352	411.69
396.576	379.69
396.801	377.69
397.025	364.69
397.249	362.69
397.474	386.69
397.698	385.69
397.922	380.69
398.147	393.69
398.371	399.69
398.595	369.69
398.82	380.69
399.044	380.69
399.268	400.69
399.492	405.69
399.717	428.69
399.941	469.69
400.165	466.69
400.389	507.69
400.613	455.69
400.837	410.69
401.062	413.69
401.286	412.69
401.51	393.69
401.734	397.69
401.958	409.69
402.182	399.69
402.406	426.69
402.63	425.69
402.854	407.69
403.078	412.69
403.302	425.69
403.526	431.69
403.75	444.69
403.974	437.69
404.198	425.69
404.422	421.69
404.645	413.69
404.869	424.69
405.093	463.69
405.317	495.69
405.541	508.69
405.765	451.69
405.988	449.69
406.212	456.69
406.436	484.69
406.66	507.69
406.883	467.69
407.107	499.69
407.331	536.69
407.555	592.69
407.778	595.69
408.002	535.69
408.226	461.69
408.449	488.69
408.673	483.69
408.896	502.69
409.12	538.69
409.344	517.69
409.567	453.69
409.791	459.69
410.014	442.69
410.238	443.69
410.461	413.69
410.685	429.69
410.908	426.69
411.132	477.69
411.355	531.69
411.578	495.69
411.802	455.69
412.025	429.69
412.249	428.69
412.472	425.69
412.695	429.69
412.919	424.69
413.142	411.69
413.365	393.69
413.589	386.69
413.812	405.69
414.035	397.69
414.258	399.69
414.482	397.69
414.705	405.69
414.928	418.69
415.151	395.69
415.374	387.69
415.597	398.69
415.821	400.69
416.044	401.69
416.267	408.69
416.49	388.69
416.713	402.69
416.936	407.69
417.159	396.69
417.382	425.69
417.605	435.69
417.828	429.69
418.051	454.69
418.274	454.69
418.497	372.69
418.72	421.69
418.943	411.69
419.166	418.69
419.389	446.69
419.611	423.69
419.834	423.69
420.057	441.69
420.28	429.69
420.503	433.69
420.726	430.69
420.948	459.69
421.171	493.69
421.394	549.69
421.617	469.69
421.839	465.69
422.062	442.69
422.285	455.69
422.507	507.69
422.73	602.69
422.953	556.69
423.175	489.69
423.398	500.69
423.621	467.69
423.843	492.69
424.066	469.69
424.288	479.69
424.511	518.69
424.733	585.69
424.956	654.69
425.178	637.69
425.401	629.69
425.623	650.69
425.846	541.69
426.068	527.69
426.291	523.69
426.513	515.69
426.735	518.69
426.958	577.69
427.18	653.69
427.402	775.69
427.625	868.69
427.847	799.69
428.069	683.69
428.292	580.69
428.514	525.69
428.736	524.69
428.958	517.69
429.181	477.69
429.403	449.69
429.625	489.69
429.847	507.69
430.069	587.69
430.292	598.69
430.514	504.69
430.736	479.69
430.958	456.69
431.18	439.69
431.402	448.69
431.624	429.69
431.846	421.69
432.068	411.69
432.29	417.69
432.512	426.69
432.734	445.69
432.956	451.69
433.178	449.69
433.4	461.69
433.622	437.69
433.844	428.69
434.066	409.69
434.287	429.69
434.509	451.69
434.731	434.69
434.953	456.69
435.175	471.69
435.397	485.69
435.618	517.69
435.84	547.69
436.062	638.69
436.284	713.69
436.505	609.69
436.727	560.69
436.949	508.69
437.17	476.69
437.392	499.69
437.614	497.69
437.835	536.69
438.057	663.69
438.278	770.69
438.5	739.69
438.721	772.69
438.943	770.69
439.165	621.69
439.386	569.69
439.608	558.69
439.829	563.69
440.05	577.69
440.272	620.69
440.493	590.69
440.715	543.69
440.936	502.69
441.158	485.69
441.379	487.69
441.6	498.69
441.822	567.69
442.043	566.69
442.264	675.69
442.486	675.69
442.707	575.69
442.928	550.69
443.149	571.69
443.371	561.69
443.592	614.69
443.813	705.69
444.034	740.69
444.255	605.69
444.476	571.69
444.698	552.69
444.919	489.69
445.14	623.69
445.361	586.69
445.582	575.69
445.803	626.69
446.024	741.69
446.245	733.69
446.466	683.69
446.687	588.69
446.908	525.69
447.129	482.69
447.35	519.69
447.571	507.69
447.792	476.69
448.013	493.69
448.234	518.69
448.455	567.69
448.675	697.69
448.896	781.69
449.117	671.69
449.338	639.69
449.559	733.69
449.779	818.69
450	656.69
450.221	582.69
450.442	518.69
450.662	500.69
450.883	510.69
451.104	528.69
451.324	522.69
451.545	514.69
451.766	463.69
451.986	437.69
452.207	431.69
452.428	431.69
452.648	425.69
452.869	450.69
453.089	460.69
453.31	478.69
453.53	460.69
453.751	438.69
453.971	448.69
454.192	488.69
454.412	475.69
454.633	452.69
454.853	441.69
455.073	420.69
455.294	465.69
455.514	546.69
455.734	518.69
455.955	451.69
456.175	411.69
456.395	417.69
456.616	403.69
456.836	403.69
457.056	397.69
457.276	375.69
457.497	396.69
457.717	399.69
457.937	405.69
458.157	415.69
458.377	406.69
458.598	463.69
458.818	536.69
459.038	631.69
459.258	647.69
459.478	530.69
459.698	492.69
459.918	446.69
460.138	438.69
460.358	428.69
460.578	423.69
460.798	429.69
461.018	443.69
461.238	417.69
461.458	423.69
461.678	409.69
461.898	399.69
462.118	420.69
462.338	414.69
462.558	431.69
462.777	427.69
462.997	427.69
463.217	440.69
463.437	425.69
463.657	443.69
463.876	450.69
464.096	440.69
464.316	438.69
464.536	450.69
464.755	451.69
464.975	481.69
465.195	568.69
465.414	694.69
465.634	592.69
465.854	520.69
466.073	473.69
466.293	455.69
466.512	441.69
466.732	441.69
466.951	436.69
467.171	437.69
467.391	447.69
467.61	456.69
467.829	466.69
468.049	436.69
468.268	436.69
468.488	418.69
468.707	415.69
468.927	412.69
469.146	378.69
469.365	414.69
469.585	409.69
469.804	434.69
470.023	442.69
470.243	461.69
470.462	431.69
470.681	486.69
470.901	480.69
471.12	435.69
471.339	429.69
471.558	441.69
471.777	439.69
471.997	420.69
472.216	410.69
472.435	420.69
472.654	422.69
472.873	418.69
473.092	436.69
473.311	413.69
473.53	413.69
473.749	461.69
473.968	491.69
474.187	587.69
474.406	632.69
474.625	523.69
474.844	468.69
475.063	434.69
475.282	446.69
475.501	453.69
475.72	439.69
475.939	445.69
476.158	426.69
476.377	443.69
476.596	458.69
476.814	469.69
477.033	467.69
477.252	437.69
477.471	458.69
477.69	467.69
477.908	443.69
478.127	468.69
478.346	495.69
478.564	460.69
478.783	468.69
479.002	495.69
479.22	484.69
479.439	499.69
479.658	544.69
479.876	519.69
480.095	538.69
480.313	565.69
480.532	543.69
480.751	536.69
480.969	535.69
481.188	542.69
481.406	559.69
481.624	525.69
481.843	502.69
482.061	539.69
482.28	532.69
482.498	520.69
482.717	520.69
482.935	514.69
483.153	500.69
483.372	504.69
483.59	506.69
483.808	495.69
484.027	512.69
484.245	503.69
484.463	502.69
484.681	538.69
484.9	525.69
485.118	524.69
485.336	489.69
485.554	525.69
485.772	534.69
485.99	534.69
486.209	549.69
486.427	553.69
486.645	562.69
486.863	588.69
487.081	582.69
487.299	565.69
487.517	578.69
487.735	553.69
487.953	553.69
488.171	541.69
488.389	563.69
488.607	578.69
488.825	564.69
489.043	581.69
489.261	551.69
489.479	571.69
489.696	571.69
489.914	570.69
490.132	581.69
490.35	583.69
490.568	596.69
490.786	582.69
491.003	620.69
491.221	613.69
491.439	636.69
491.657	651.69
491.874	640.69
492.092	643.69
492.31	605.69
492.527	662.69
492.745	635.69
492.963	678.69
493.18	669.69
493.398	642.69
493.615	659.69
493.833	676.69
494.05	654.69
494.268	666.69
494.485	686.69
494.703	685.69
494.92	657.69
495.138	652.69
495.355	659.69
495.573	659.69
495.79	660.69
496.008	661.69
496.225	665.69
496.442	668.69
496.66	702.69
496.877	682.69
497.094	674.69
497.312	686.69
497.529	696.69
497.746	698.69
497.963	695.69
498.181	724.69
498.398	715.69
498.615	742.69
498.832	734.69
499.049	723.69
499.267	728.69
499.484	732.69
499.701	755.69
499.918	759.69
500.135	775.69
500.352	791.69
500.569	765.69
500.786	792.69
501.003	777.69
501.22	778.69
501.437	786.69
501.654	779.69
501.871	813.69
