Data from 1987.PennyLincolnUp.Lamp.En5.5.200Scan.071819.P2_HRD10591_17-17-03-970.txt Node
Date: Thu Jul 18 17:17:03 EDT 2019
User: cochatt
Spectrometer: HR+D1059
Trigger mode: 1
Integration Time (sec): 1.000000E-1
Scans to average: 1
Electric dark correction enabled: true
Nonlinearity correction enabled: false
Boxcar width: 0
XAxis mode: Wavelengths
Number of Pixels in Spectrum: 2048
>>>>>Begin Spectral Data<<<<<
223.165	-16
223.4	-16
223.635	-16
223.869	-18
224.104	-15
224.338	-20
224.573	-15
224.808	4
225.042	-10
225.277	5
225.511	-9
225.746	-3
225.98	0
226.215	-2
226.449	21
226.683	17
226.918	29
227.152	32
227.387	25
227.621	30
227.856	58
228.09	49
228.324	51
228.559	48
228.793	71
229.027	109
229.262	132
229.496	126
229.73	144
229.964	185
230.199	153
230.433	116
230.667	118
230.901	122
231.136	125
231.37	111
231.604	116
231.838	113
232.072	115
232.306	107
232.541	102
232.775	124
233.009	120
233.243	104
233.477	122
233.711	115
233.945	107
234.179	114
234.413	110
234.647	118
234.881	124
235.115	113
235.349	120
235.583	125
235.817	125
236.051	125
236.285	122
236.519	133
236.753	126
236.987	157
237.221	211
237.455	287
237.689	214
237.922	142
238.156	152
238.39	142
238.624	128
238.858	117
239.091	128
239.325	122
239.559	123
239.793	127
240.027	150
240.26	143
240.494	164
240.728	158
240.961	139
241.195	137
241.429	151
241.662	135
241.896	128
242.13	147
242.363	127
242.597	123
242.83	136
243.064	132
243.298	138
243.531	126
243.765	128
243.998	133
244.232	136
244.465	132
244.699	121
244.932	133
245.166	133
245.399	143
245.633	142
245.866	140
246.099	133
246.333	136
246.566	143
246.8	144
247.033	161
247.266	156
247.5	164
247.733	172
247.966	167
248.2	168
248.433	169
248.666	173
248.899	198
249.133	227
249.366	224
249.599	215
249.832	184
250.066	185
250.299	184
250.532	185
250.765	199
250.998	213
251.231	226
251.465	209
251.698	204
251.931	209
252.164	198
252.397	198
252.63	210
252.863	219
253.096	211
253.329	232
253.562	216
253.795	240
254.028	226
254.261	222
254.494	223
254.727	265
254.96	284
255.193	278
255.426	247
255.659	229
255.892	228
256.124	206
256.357	217
256.59	208
256.823	204
257.056	202
257.289	192
257.521	205
257.754	214
257.987	199
258.22	203
258.452	210
258.685	197
258.918	222
259.151	183
259.383	201
259.616	210
259.849	210
260.081	242
260.314	265
260.547	266
260.779	261
261.012	248
261.244	224
261.477	219
261.71	207
261.942	232
262.175	238
262.407	223
262.64	210
262.872	205
263.105	210
263.337	219
263.57	194
263.802	200
264.035	201
264.267	208
264.499	201
264.732	190
264.964	211
265.197	190
265.429	212
265.661	201
265.894	187
266.126	194
266.358	202
266.591	202
266.823	199
267.055	217
267.287	210
267.52	190
267.752	205
267.984	216
268.216	216
268.448	206
268.681	208
268.913	220
269.145	258
269.377	276
269.609	275
269.841	268
270.073	259
270.306	268
270.538	299
270.77	324
271.002	306
271.234	285
271.466	292
271.698	317
271.93	324
272.162	313
272.394	315
272.626	317
272.858	284
273.09	263
273.322	264
273.553	264
273.785	254
274.017	251
274.249	249
274.481	246
274.713	244
274.945	279
275.176	246
275.408	241
275.64	241
275.872	248
276.104	259
276.335	239
276.567	262
276.799	255
277.031	302
277.262	310
277.494	300
277.726	280
277.957	257
278.189	267
278.421	248
278.652	242
278.884	242
279.115	229
279.347	225
279.579	226
279.81	220
280.042	237
280.273	227
280.505	231
280.736	240
280.968	237
281.199	237
281.431	226
281.662	227
281.894	230
282.125	240
282.356	256
282.588	291
282.819	312
283.051	252
283.282	250
283.513	232
283.745	227
283.976	238
284.207	255
284.439	246
284.67	247
284.901	232
285.132	235
285.364	228
285.595	246
285.826	245
286.057	234
286.288	232
286.52	245
286.751	234
286.982	242
287.213	250
287.444	241
287.675	254
287.906	274
288.138	272
288.369	290
288.6	267
288.831	265
289.062	256
289.293	237
289.524	239
289.755	232
289.986	246
290.217	251
290.448	226
290.679	245
290.91	256
291.141	231
291.371	255
291.602	234
291.833	240
292.064	248
292.295	237
292.526	245
292.757	236
292.987	240
293.218	248
293.449	245
293.68	249
293.91	227
294.141	235
294.372	229
294.603	247
294.833	259
295.064	222
295.295	236
295.525	257
295.756	251
295.987	260
296.217	304
296.448	324
296.679	268
296.909	236
297.14	251
297.37	228
297.601	260
297.831	231
298.062	247
298.292	244
298.523	251
298.753	251
298.984	255
299.214	262
299.445	261
299.675	262
299.905	258
300.136	245
300.366	269
300.597	238
300.827	260
301.057	264
301.288	278
301.518	270
301.748	272
301.979	266
302.209	278
302.439	280
302.669	273
302.9	278
303.13	258
303.36	272
303.59	280
303.82	299
304.051	276
304.281	274
304.511	262
304.741	280
304.971	272
305.201	260
305.431	276
305.661	267
305.891	263
306.121	262
306.352	286
306.582	302
306.812	274
307.042	280
307.272	257
307.502	265
307.731	294
307.961	278
308.191	283
308.421	274
308.651	278
308.881	293
309.111	310
309.341	320
309.571	314
309.8	327
310.03	349
310.26	341
310.49	349
310.72	356
310.949	388
311.179	386
311.409	338
311.639	346
311.868	364
312.098	363
312.328	358
312.557	384
312.787	396
313.017	408
313.246	370
313.476	342
313.706	353
313.935	346
314.165	361
314.394	402
314.624	408
314.853	379
315.083	357
315.312	346
315.542	330
315.771	319
316.001	323
316.23	316
316.46	332
316.689	339
316.919	354
317.148	348
317.377	365
317.607	359
317.836	351
318.065	337
318.295	316
318.524	332
318.753	331
318.983	344
319.212	328
319.441	346
319.67	346
319.9	345
320.129	324
320.358	343
320.587	343
320.816	338
321.046	397
321.275	392
321.504	390
321.733	375
321.962	398
322.191	401
322.42	411
322.649	452
322.878	442
323.108	483
323.337	517
323.566	569
323.795	610
324.024	698
324.253	896
324.482	1336
324.71	2058
324.939	2828
325.168	2427
325.397	1357
325.626	873
325.855	667
326.084	602
326.313	588
326.542	564
326.77	659
326.999	774
327.228	1137
327.457	1758
327.686	2088
327.914	1460
328.143	930
328.372	790
328.6	685
328.829	685
329.058	694
329.287	708
329.515	640
329.744	535
329.972	530
330.201	566
330.43	564
330.658	638
330.887	725
331.115	732
331.344	568
331.572	504
331.801	525
332.03	499
332.258	439
332.486	434
332.715	432
332.943	426
333.172	412
333.4	404
333.629	425
333.857	396
334.085	421
334.314	414
334.542	405
334.771	401
334.999	414
335.227	405
335.455	405
335.684	380
335.912	368
336.14	370
336.369	390
336.597	409
336.825	406
337.053	367
337.281	390
337.51	355
337.738	393
337.966	386
338.194	405
338.422	390
338.65	384
338.878	377
339.106	370
339.334	376
339.562	369
339.79	397
340.018	360
340.246	400
340.474	398
340.702	389
340.93	371
341.158	383
341.386	382
341.614	401
341.842	390
342.07	368
342.298	364
342.526	364
342.754	341
342.981	359
343.209	361
343.437	344
343.665	350
343.893	352
344.12	355
344.348	346
344.576	372
344.804	381
345.031	406
345.259	399
345.487	405
345.714	386
345.942	396
346.17	362
346.397	366
346.625	370
346.853	378
347.08	370
347.308	389
347.535	390
347.763	414
347.99	406
348.218	394
348.445	427
348.673	431
348.9	399
349.128	374
349.355	358
349.583	333
349.81	327
350.037	347
350.265	373
350.492	359
350.72	364
350.947	360
351.174	377
351.402	403
351.629	386
351.856	404
352.083	399
352.311	413
352.538	400
352.765	422
352.992	418
353.22	393
353.447	396
353.674	376
353.901	357
354.128	364
354.355	344
354.583	332
354.81	341
355.037	338
355.264	335
355.491	350
355.718	335
355.945	342
356.172	346
356.399	323
356.626	322
356.853	325
357.08	338
357.307	311
357.534	333
357.761	345
357.988	325
358.215	330
358.441	307
358.668	322
358.895	349
359.122	345
359.349	371
359.576	397
359.802	438
360.029	476
360.256	510
360.483	469
360.709	432
360.936	382
361.163	387
361.39	389
361.616	396
361.843	409
362.07	378
362.296	379
362.523	376
362.749	391
362.976	379
363.203	352
363.429	352
363.656	360
363.882	364
364.109	360
364.335	354
364.562	344
364.788	337
365.015	355
365.241	370
365.468	362
365.694	359
365.92	364
366.147	374
366.373	363
366.599	352
366.826	353
367.052	331
367.278	343
367.505	352
367.731	334
367.957	327
368.184	350
368.41	361
368.636	376
368.862	376
369.089	350
369.315	341
369.541	334
369.767	344
369.993	355
370.219	353
370.445	337
370.672	333
370.898	342
371.124	332
371.35	334
371.576	341
371.802	344
372.028	325
372.254	342
372.48	319
372.706	322
372.932	306
373.158	313
373.384	329
373.61	347
373.835	329
374.061	323
374.287	349
374.513	344
374.739	334
374.965	331
375.191	342
375.416	326
375.642	318
375.868	338
376.094	329
376.319	327
376.545	334
376.771	324
376.997	341
377.222	334
377.448	331
377.674	331
377.899	328
378.125	316
378.35	327
378.576	336
378.802	328
379.027	325
379.253	320
379.478	326
379.704	329
379.929	321
380.155	347
380.38	340
380.606	352
380.831	331
381.057	296
381.282	332
381.507	330
381.733	334
381.958	336
382.184	358
382.409	344
382.634	344
382.86	332
383.085	327
383.31	343
383.535	324
383.761	325
383.986	338
384.211	331
384.436	346
384.662	350
384.887	339
385.112	332
385.337	351
385.562	336
385.787	356
386.013	371
386.238	340
386.463	344
386.688	357
386.913	345
387.138	333
387.363	356
387.588	339
387.813	352
388.038	337
388.263	342
388.488	331
388.713	354
388.938	357
389.163	358
389.387	365
389.612	345
389.837	358
390.062	344
390.287	350
390.512	332
390.736	341
390.961	340
391.186	341
391.411	344
391.636	341
391.86	345
392.085	344
392.31	356
392.534	348
392.759	340
392.984	334
393.208	346
393.433	346
393.658	359
393.882	350
394.107	352
394.331	350
394.556	359
394.78	340
395.005	349
395.229	353
395.454	360
395.678	379
395.903	360
396.127	396
396.352	389
396.576	377
396.801	342
397.025	348
397.249	362
397.474	372
397.698	386
397.922	379
398.147	388
398.371	391
398.595	363
398.82	394
399.044	387
399.268	406
399.492	421
399.717	435
399.941	440
400.165	486
400.389	487
400.613	446
400.837	435
401.062	402
401.286	407
401.51	402
401.734	418
401.958	404
402.182	398
402.406	412
402.63	433
402.854	409
403.078	405
403.302	412
403.526	436
403.75	427
403.974	405
404.198	391
404.422	438
404.645	436
404.869	417
405.093	468
405.317	471
405.541	520
405.765	466
405.988	456
406.212	464
406.436	481
406.66	506
406.883	502
407.107	506
407.331	536
407.555	604
407.778	599
408.002	521
408.226	488
408.449	485
408.673	482
408.896	508
409.12	556
409.344	513
409.567	461
409.791	458
410.014	428
410.238	420
410.461	432
410.685	453
410.908	436
411.132	496
411.355	524
411.578	504
411.802	452
412.025	418
412.249	420
412.472	437
412.695	460
412.919	453
413.142	436
413.365	409
413.589	412
413.812	395
414.035	407
414.258	399
414.482	398
414.705	379
414.928	364
415.151	380
415.374	370
415.597	380
415.821	398
416.044	397
416.267	425
416.49	412
416.713	390
416.936	397
417.159	405
417.382	420
417.605	415
417.828	436
418.051	447
418.274	452
418.497	430
418.72	398
418.943	419
419.166	428
419.389	439
419.611	423
419.834	440
420.057	456
420.28	444
420.503	418
420.726	440
420.948	457
421.171	491
421.394	554
421.617	466
421.839	461
422.062	454
422.285	474
422.507	527
422.73	606
422.953	588
423.175	506
423.398	504
423.621	473
423.843	477
424.066	520
424.288	504
424.511	530
424.733	574
424.956	662
425.178	633
425.401	617
425.623	628
425.846	550
426.068	516
426.291	523
426.513	525
426.735	532
426.958	601
427.18	688
427.402	761
427.625	861
427.847	836
428.069	668
428.292	603
428.514	545
428.736	528
428.958	520
429.181	491
429.403	459
429.625	486
429.847	534
430.069	596
430.292	574
430.514	512
430.736	464
430.958	483
431.18	460
431.402	432
431.624	419
431.846	414
432.068	421
432.29	423
432.512	454
432.734	436
432.956	449
433.178	456
433.4	458
433.622	452
433.844	452
434.066	427
434.287	432
434.509	422
434.731	452
434.953	452
435.175	475
435.397	498
435.618	510
435.84	574
436.062	660
436.284	705
436.505	582
436.727	542
436.949	524
437.17	491
437.392	481
437.614	512
437.835	573
438.057	671
438.278	770
438.5	750
438.721	801
438.943	772
439.165	628
439.386	561
439.608	550
439.829	562
440.05	588
440.272	634
440.493	613
440.715	558
440.936	526
441.158	468
441.379	483
441.6	500
441.822	531
442.043	552
442.264	669
442.486	685
442.707	589
442.928	565
443.149	552
443.371	572
443.592	614
443.813	688
444.034	767
444.255	634
444.476	550
444.698	506
444.919	506
445.14	617
445.361	562
445.582	574
445.803	653
446.024	768
446.245	777
446.466	708
446.687	594
446.908	552
447.129	515
447.35	494
447.571	494
447.792	473
448.013	491
448.234	518
448.455	596
448.675	697
448.896	789
449.117	701
449.338	648
449.559	745
449.779	812
450	692
450.221	576
450.442	516
450.662	499
450.883	519
451.104	548
451.324	542
451.545	522
451.766	488
451.986	446
452.207	427
452.428	440
452.648	449
452.869	444
453.089	429
453.31	474
453.53	420
453.751	441
453.971	460
454.192	493
454.412	492
454.633	474
454.853	445
455.073	435
455.294	470
455.514	555
455.734	555
455.955	450
456.175	422
456.395	394
456.616	417
456.836	414
457.056	403
457.276	374
457.497	392
457.717	394
457.937	417
458.157	421
458.377	420
458.598	451
458.818	528
459.038	684
459.258	673
459.478	537
459.698	460
459.918	454
460.138	435
460.358	420
460.578	428
460.798	422
461.018	418
461.238	426
461.458	445
461.678	411
461.898	409
462.118	407
462.338	387
462.558	421
462.777	416
462.997	408
463.217	429
463.437	431
463.657	456
463.876	434
464.096	420
464.316	439
464.536	458
464.755	460
464.975	475
465.195	561
465.414	701
465.634	612
465.854	526
466.073	488
466.293	437
466.512	426
466.732	453
466.951	426
467.171	414
467.391	419
467.61	424
467.829	473
468.049	464
468.268	435
468.488	422
468.707	394
468.927	428
469.146	383
469.365	418
469.585	416
469.804	421
470.023	450
470.243	455
470.462	452
470.681	473
470.901	470
471.12	449
471.339	454
471.558	449
471.777	456
471.997	444
472.216	411
472.435	444
472.654	441
472.873	408
473.092	422
473.311	416
473.53	440
473.749	453
473.968	501
474.187	610
474.406	649
474.625	528
474.844	470
475.063	435
475.282	433
475.501	443
475.72	437
475.939	477
476.158	449
476.377	428
476.596	454
476.814	480
477.033	472
477.252	463
477.471	452
477.69	452
477.908	468
478.127	484
478.346	469
478.564	464
478.783	458
479.002	482
479.22	480
479.439	509
479.658	539
479.876	526
480.095	534
480.313	584
480.532	557
480.751	529
480.969	550
481.188	552
481.406	554
481.624	517
481.843	496
482.061	514
482.28	513
482.498	530
482.717	507
482.935	504
483.153	528
483.372	515
483.59	509
483.808	477
484.027	502
484.245	523
484.463	501
484.681	521
484.9	516
485.118	510
485.336	552
485.554	538
485.772	535
485.99	553
486.209	546
486.427	566
486.645	578
486.863	570
487.081	593
487.299	580
487.517	550
487.735	548
487.953	567
488.171	574
488.389	549
488.607	552
488.825	565
489.043	556
489.261	556
489.479	581
489.696	593
489.914	588
490.132	584
490.35	583
490.568	593
490.786	615
491.003	601
491.221	621
491.439	633
491.657	645
491.874	628
492.092	636
492.31	645
492.527	638
492.745	634
492.963	683
493.18	674
493.398	671
493.615	689
493.833	675
494.05	668
494.268	685
494.485	669
494.703	669
494.92	683
495.138	698
495.355	688
495.573	693
495.79	662
496.008	686
496.225	665
496.442	672
496.66	675
496.877	682
497.094	686
497.312	692
497.529	691
497.746	716
497.963	712
498.181	706
498.398	737
498.615	736
498.832	737
499.049	738
499.267	727
499.484	740
499.701	745
499.918	747
500.135	760
500.352	806
500.569	777
500.786	796
501.003	806
501.22	781
501.437	766
501.654	793
501.871	820
502.088	806
502.305	788
502.522	749
502.739	733
502.956	723
503.172	713
503.389	724
503.606	728
503.823	735
504.04	726
504.256	700
504.473	678
504.69	684
504.907	690
505.123	678
505.34	684
505.557	684
505.773	685
505.99	667
506.207	676
506.423	681
506.64	672
506.856	672
507.073	683
507.289	684
507.506	669
507.722	715
507.939	745
508.155	722
508.372	698
508.588	680
508.805	678
509.021	678
509.238	697
509.454	701
509.67	699
509.887	689
510.103	667
510.319	694
510.536	871
510.752	1641
510.968	1316
511.184	745
511.401	675
511.617	681
511.833	665
512.049	657
512.265	638
512.481	674
512.698	650
512.914	632
513.13	652
513.346	655
513.562	656
513.778	662
513.994	674
514.21	708
514.426	757
514.642	848
514.858	896
515.074	980
515.29	1257
515.506	1959
515.721	1538
515.937	937
516.153	816
516.369	758
516.585	697
516.801	694
517.016	662
517.232	664
517.448	662
517.664	676
517.879	631
518.095	613
518.311	638
518.527	652
518.742	660
518.958	634
519.173	652
519.389	671
519.605	676
519.82	668
520.036	716
520.251	740
520.467	803
520.682	796
520.898	810
521.113	862
521.329	982
521.544	1148
521.76	1568
521.975	2717
522.19	2594
522.406	1306
522.621	961
522.836	772
523.052	724
523.267	671
523.482	644
523.698	634
523.913	640
524.128	619
524.343	600
524.559	580
524.774	567
524.989	586
525.204	570
525.419	589
525.634	592
525.849	563
526.064	542
526.28	537
526.495	528
526.71	528
526.925	526
527.14	529
527.355	498
527.57	503
527.785	492
527.999	489
528.214	491
528.429	518
528.644	486
528.859	514
529.074	518
529.289	542
529.503	716
529.718	683
529.933	592
530.148	542
530.363	530
530.577	505
530.792	502
531.007	488
531.221	488
531.436	490
531.651	461
531.865	471
532.08	485
532.295	455
532.509	484
532.724	474
532.938	472
533.153	464
533.367	432
533.582	450
533.796	481
534.011	442
534.225	445
534.44	447
534.654	438
534.868	456
535.083	441
535.297	470
535.511	475
535.726	479
535.94	483
536.154	481
536.369	462
536.583	454
536.797	448
537.011	446
537.225	444
537.44	424
537.654	435
537.868	440
538.082	434
538.296	442
538.51	455
538.724	446
538.938	442
539.153	444
539.367	483
539.581	472
539.795	454
540.009	444
540.222	426
540.436	436
540.65	455
540.864	437
541.078	455
541.292	452
541.506	430
541.72	448
541.934	434
542.147	445
542.361	452
542.575	438
542.789	436
543.002	444
543.216	437
543.43	467
543.644	437
543.857	438
544.071	428
544.285	428
544.498	427
544.712	433
544.925	422
545.139	443
545.352	402
545.566	413
545.779	423
545.993	432
546.206	440
546.42	423
546.633	412
546.847	412
547.06	405
547.274	408
547.487	395
547.7	399
547.914	427
548.127	404
548.34	399
548.554	381
548.767	408
548.98	392
549.193	388
549.407	394
549.62	403
549.833	379
550.046	385
550.259	386
550.473	405
550.686	397
550.899	395
551.112	406
551.325	384
551.538	397
551.751	380
551.964	384
552.177	376
552.39	404
552.603	410
552.816	413
553.029	390
553.242	388
553.455	402
553.667	421
553.88	424
554.093	410
554.306	389
554.519	388
554.732	408
554.944	388
555.157	375
555.37	394
555.583	390
555.795	372
556.008	374
556.221	370
556.433	368
556.646	378
556.859	383
557.071	372
557.284	374
557.496	361
557.709	354
557.921	335
558.134	348
558.346	361
558.559	350
558.771	343
558.984	362
559.196	341
559.409	364
559.621	337
559.833	348
560.046	341
560.258	350
560.47	348
560.683	334
560.895	345
561.107	355
561.32	365
561.532	362
561.744	345
561.956	346
562.168	361
562.381	347
562.593	350
562.805	357
563.017	352
563.229	363
563.441	345
