Data from 1987.PennyLincolnUp.Lamp.En5.5.200Scan.071819.P2_HRD10591_17-15-25-973.txt Node
Date: Thu Jul 18 17:15:25 EDT 2019
User: cochatt
Spectrometer: HR+D1059
Trigger mode: 1
Integration Time (sec): 1.000000E-1
Scans to average: 1
Electric dark correction enabled: true
Nonlinearity correction enabled: false
Boxcar width: 0
XAxis mode: Wavelengths
Number of Pixels in Spectrum: 2048
>>>>>Begin Spectral Data<<<<<
223.165	-23.88
223.4	-23.88
223.635	-23.88
223.869	-23.88
224.104	-10.88
224.338	-30.88
224.573	-16.88
224.808	-2.88
225.042	-14.88
225.277	-8.88
225.511	4.12
225.746	7.12
225.98	9.12
226.215	14.12
226.449	12.12
226.683	19.12
226.918	25.12
227.152	42.12
227.387	50.12
227.621	33.12
227.856	37.12
228.09	53.12
228.324	37.12
228.559	50.12
228.793	64.12
229.027	114.12
229.262	105.12
229.496	130.12
229.73	147.12
229.964	190.12
230.199	150.12
230.433	121.12
230.667	115.12
230.901	115.12
231.136	118.12
231.37	106.12
231.604	119.12
231.838	123.12
232.072	108.12
232.306	123.12
232.541	127.12
232.775	125.12
233.009	114.12
233.243	120.12
233.477	122.12
233.711	127.12
233.945	114.12
234.179	103.12
234.413	121.12
234.647	120.12
234.881	124.12
235.115	115.12
235.349	127.12
235.583	127.12
235.817	126.12
236.051	124.12
236.285	125.12
236.519	121.12
236.753	135.12
236.987	148.12
237.221	185.12
237.455	253.12
237.689	221.12
237.922	144.12
238.156	137.12
238.39	133.12
238.624	129.12
238.858	123.12
239.091	133.12
239.325	122.12
239.559	144.12
239.793	131.12
240.027	124.12
240.26	142.12
240.494	158.12
240.728	163.12
240.961	169.12
241.195	143.12
241.429	151.12
241.662	129.12
241.896	116.12
242.13	125.12
242.363	116.12
242.597	129.12
242.83	141.12
243.064	138.12
243.298	144.12
243.531	139.12
243.765	139.12
243.998	127.12
244.232	146.12
244.465	148.12
244.699	149.12
244.932	135.12
245.166	133.12
245.399	149.12
245.633	137.12
245.866	141.12
246.099	141.12
246.333	156.12
246.566	140.12
246.8	133.12
247.033	149.12
247.266	158.12
247.5	157.12
247.733	164.12
247.966	143.12
248.2	159.12
248.433	162.12
248.666	173.12
248.899	177.12
249.133	202.12
249.366	221.12
249.599	231.12
249.832	188.12
250.066	173.12
250.299	177.12
250.532	187.12
250.765	197.12
250.998	206.12
251.231	223.12
251.465	204.12
251.698	190.12
251.931	203.12
252.164	195.12
252.397	197.12
252.63	184.12
252.863	203.12
253.096	218.12
253.329	213.12
253.562	222.12
253.795	225.12
254.028	230.12
254.261	222.12
254.494	216.12
254.727	254.12
254.96	279.12
255.193	271.12
255.426	255.12
255.659	240.12
255.892	214.12
256.124	197.12
256.357	196.12
256.59	201.12
256.823	202.12
257.056	202.12
257.289	194.12
257.521	213.12
257.754	205.12
257.987	195.12
258.22	206.12
258.452	217.12
258.685	208.12
258.918	200.12
259.151	206.12
259.383	218.12
259.616	222.12
259.849	220.12
260.081	225.12
260.314	261.12
260.547	245.12
260.779	245.12
261.012	221.12
261.244	219.12
261.477	208.12
261.71	215.12
261.942	217.12
262.175	244.12
262.407	241.12
262.64	209.12
262.872	198.12
263.105	202.12
263.337	211.12
263.57	203.12
263.802	195.12
264.035	197.12
264.267	185.12
264.499	193.12
264.732	194.12
264.964	202.12
265.197	170.12
265.429	196.12
265.661	201.12
265.894	195.12
266.126	201.12
266.358	185.12
266.591	205.12
266.823	198.12
267.055	197.12
267.287	216.12
267.52	218.12
267.752	202.12
267.984	205.12
268.216	199.12
268.448	209.12
268.681	210.12
268.913	222.12
269.145	238.12
269.377	261.12
269.609	259.12
269.841	255.12
270.073	256.12
270.306	273.12
270.538	300.12
270.77	303.12
271.002	287.12
271.234	284.12
271.466	279.12
271.698	293.12
271.93	308.12
272.162	311.12
272.394	326.12
272.626	306.12
272.858	284.12
273.09	273.12
273.322	263.12
273.553	246.12
273.785	244.12
274.017	251.12
274.249	245.12
274.481	244.12
274.713	234.12
274.945	246.12
275.176	241.12
275.408	241.12
275.64	235.12
275.872	239.12
276.104	249.12
276.335	225.12
276.567	234.12
276.799	258.12
277.031	284.12
277.262	287.12
277.494	299.12
277.726	297.12
277.957	258.12
278.189	245.12
278.421	241.12
278.652	243.12
278.884	243.12
279.115	261.12
279.347	237.12
279.579	238.12
279.81	234.12
280.042	241.12
280.273	246.12
280.505	230.12
280.736	249.12
280.968	233.12
281.199	229.12
281.431	228.12
281.662	225.12
281.894	227.12
282.125	245.12
282.356	254.12
282.588	293.12
282.819	287.12
283.051	257.12
283.282	240.12
283.513	223.12
283.745	251.12
283.976	240.12
284.207	236.12
284.439	234.12
284.67	219.12
284.901	246.12
285.132	218.12
285.364	219.12
285.595	252.12
285.826	235.12
286.057	237.12
286.288	231.12
286.52	216.12
286.751	245.12
286.982	233.12
287.213	238.12
287.444	254.12
287.675	249.12
287.906	265.12
288.138	248.12
288.369	253.12
288.6	252.12
288.831	247.12
289.062	240.12
289.293	237.12
289.524	258.12
289.755	243.12
289.986	249.12
290.217	257.12
290.448	250.12
290.679	231.12
290.91	241.12
291.141	221.12
291.371	227.12
291.602	250.12
291.833	230.12
292.064	241.12
292.295	238.12
292.526	224.12
292.757	229.12
292.987	229.12
293.218	226.12
293.449	241.12
293.68	237.12
293.91	260.12
294.141	245.12
294.372	234.12
294.603	245.12
294.833	245.12
295.064	247.12
295.295	242.12
295.525	252.12
295.756	255.12
295.987	247.12
296.217	297.12
296.448	296.12
296.679	265.12
296.909	238.12
297.14	244.12
297.37	243.12
297.601	231.12
297.831	243.12
298.062	248.12
298.292	226.12
298.523	266.12
298.753	254.12
298.984	271.12
299.214	254.12
299.445	261.12
299.675	244.12
299.905	275.12
300.136	263.12
300.366	239.12
300.597	242.12
300.827	266.12
301.057	243.12
301.288	277.12
301.518	273.12
301.748	254.12
301.979	239.12
302.209	257.12
302.439	253.12
302.669	257.12
302.9	249.12
303.13	268.12
303.36	266.12
303.59	275.12
303.82	307.12
304.051	279.12
304.281	258.12
304.511	281.12
304.741	273.12
304.971	265.12
305.201	260.12
305.431	270.12
305.661	283.12
305.891	278.12
306.121	260.12
306.352	290.12
306.582	296.12
306.812	279.12
307.042	279.12
307.272	264.12
307.502	264.12
307.731	275.12
307.961	286.12
308.191	278.12
308.421	281.12
308.651	294.12
308.881	295.12
309.111	298.12
309.341	293.12
309.571	315.12
309.8	317.12
310.03	317.12
310.26	335.12
310.49	372.12
310.72	353.12
310.949	372.12
311.179	395.12
311.409	346.12
311.639	340.12
311.868	329.12
312.098	347.12
312.328	368.12
312.557	389.12
312.787	399.12
313.017	411.12
313.246	334.12
313.476	323.12
313.706	343.12
313.935	346.12
314.165	342.12
314.394	367.12
314.624	379.12
314.853	364.12
315.083	348.12
315.312	347.12
315.542	337.12
315.771	313.12
316.001	318.12
316.23	323.12
316.46	323.12
316.689	340.12
316.919	343.12
317.148	335.12
317.377	366.12
317.607	341.12
317.836	346.12
318.065	336.12
318.295	330.12
318.524	314.12
318.753	334.12
318.983	325.12
319.212	329.12
319.441	374.12
319.67	354.12
319.9	330.12
320.129	338.12
320.358	347.12
320.587	351.12
320.816	353.12
321.046	357.12
321.275	367.12
321.504	380.12
321.733	376.12
321.962	356.12
322.191	387.12
322.42	428.12
322.649	458.12
322.878	439.12
323.108	489.12
323.337	499.12
323.566	545.12
323.795	589.12
324.024	647.12
324.253	826.12
324.482	1222.12
324.71	1885.12
324.939	2629.12
325.168	2301.12
325.397	1269.12
325.626	793.12
325.855	629.12
326.084	596.12
326.313	548.12
326.542	545.12
326.77	619.12
326.999	738.12
327.228	1037.12
327.457	1649.12
327.686	1976.12
327.914	1388.12
328.143	891.12
328.372	738.12
328.6	660.12
328.829	638.12
329.058	642.12
329.287	689.12
329.515	594.12
329.744	508.12
329.972	493.12
330.201	498.12
330.43	549.12
330.658	605.12
330.887	669.12
331.115	649.12
331.344	529.12
331.572	511.12
331.801	482.12
332.03	480.12
332.258	461.12
332.486	403.12
332.715	403.12
332.943	367.12
333.172	398.12
333.4	375.12
333.629	401.12
333.857	420.12
334.085	414.12
334.314	385.12
334.542	378.12
334.771	391.12
334.999	396.12
335.227	396.12
335.455	375.12
335.684	358.12
335.912	369.12
336.14	372.12
336.369	382.12
336.597	376.12
336.825	388.12
337.053	374.12
337.281	381.12
337.51	388.12
337.738	367.12
337.966	381.12
338.194	397.12
338.422	409.12
338.65	379.12
338.878	373.12
339.106	373.12
339.334	353.12
339.562	369.12
339.79	385.12
340.018	385.12
340.246	380.12
340.474	369.12
340.702	372.12
340.93	367.12
341.158	370.12
341.386	384.12
341.614	381.12
341.842	387.12
342.07	371.12
342.298	384.12
342.526	356.12
342.754	357.12
342.981	340.12
343.209	344.12
343.437	350.12
343.665	348.12
343.893	342.12
344.12	363.12
344.348	342.12
344.576	383.12
344.804	387.12
345.031	403.12
345.259	434.12
345.487	393.12
345.714	379.12
345.942	379.12
346.17	391.12
346.397	361.12
346.625	361.12
346.853	373.12
347.08	370.12
347.308	383.12
347.535	385.12
347.763	405.12
347.99	394.12
348.218	398.12
348.445	402.12
348.673	404.12
348.9	371.12
349.128	365.12
349.355	347.12
349.583	353.12
349.81	349.12
350.037	366.12
350.265	339.12
350.492	352.12
350.72	374.12
350.947	351.12
351.174	371.12
351.402	396.12
351.629	389.12
351.856	375.12
352.083	395.12
352.311	396.12
352.538	408.12
352.765	415.12
352.992	390.12
353.22	389.12
353.447	400.12
353.674	354.12
353.901	356.12
354.128	364.12
354.355	361.12
354.583	346.12
354.81	335.12
355.037	329.12
355.264	321.12
355.491	334.12
355.718	307.12
355.945	322.12
356.172	331.12
356.399	323.12
356.626	334.12
356.853	335.12
357.08	306.12
357.307	317.12
357.534	302.12
357.761	341.12
357.988	337.12
358.215	355.12
358.441	321.12
358.668	350.12
358.895	338.12
359.122	355.12
359.349	378.12
359.576	373.12
359.802	426.12
360.029	489.12
360.256	470.12
360.483	464.12
360.709	397.12
360.936	376.12
361.163	381.12
361.39	383.12
361.616	397.12
361.843	377.12
362.07	396.12
362.296	383.12
362.523	356.12
362.749	358.12
362.976	382.12
363.203	371.12
363.429	369.12
363.656	365.12
363.882	357.12
364.109	346.12
364.335	333.12
364.562	366.12
364.788	347.12
365.015	357.12
365.241	336.12
365.468	377.12
365.694	377.12
365.92	366.12
366.147	358.12
366.373	349.12
366.599	348.12
366.826	353.12
367.052	357.12
367.278	347.12
367.505	340.12
367.731	351.12
367.957	353.12
368.184	344.12
368.41	358.12
368.636	356.12
368.862	362.12
369.089	371.12
369.315	327.12
369.541	353.12
369.767	358.12
369.993	330.12
370.219	342.12
370.445	339.12
370.672	321.12
370.898	331.12
371.124	357.12
371.35	332.12
371.576	339.12
371.802	328.12
372.028	343.12
372.254	335.12
372.48	317.12
372.706	324.12
372.932	337.12
373.158	325.12
373.384	340.12
373.61	321.12
373.835	331.12
374.061	322.12
374.287	350.12
374.513	321.12
374.739	343.12
374.965	339.12
375.191	349.12
375.416	334.12
375.642	348.12
375.868	341.12
376.094	334.12
376.319	323.12
376.545	337.12
376.771	338.12
376.997	333.12
377.222	331.12
377.448	325.12
377.674	327.12
377.899	318.12
378.125	332.12
378.35	347.12
378.576	335.12
378.802	308.12
379.027	323.12
379.253	317.12
379.478	330.12
379.704	331.12
379.929	331.12
380.155	318.12
380.38	329.12
380.606	321.12
380.831	329.12
381.057	337.12
381.282	329.12
381.507	332.12
381.733	335.12
381.958	355.12
382.184	348.12
382.409	332.12
382.634	328.12
382.86	317.12
383.085	330.12
383.31	347.12
383.535	333.12
383.761	333.12
383.986	342.12
384.211	353.12
384.436	355.12
384.662	342.12
384.887	344.12
385.112	343.12
385.337	350.12
385.562	341.12
385.787	361.12
386.013	362.12
386.238	374.12
386.463	377.12
386.688	337.12
386.913	338.12
387.138	333.12
387.363	360.12
387.588	353.12
387.813	376.12
388.038	335.12
388.263	365.12
388.488	374.12
388.713	337.12
388.938	346.12
389.163	356.12
389.387	347.12
389.612	352.12
389.837	335.12
390.062	345.12
390.287	345.12
390.512	345.12
390.736	345.12
390.961	367.12
391.186	343.12
391.411	355.12
391.636	350.12
391.86	347.12
392.085	353.12
392.31	366.12
392.534	364.12
392.759	333.12
392.984	367.12
393.208	347.12
393.433	359.12
393.658	359.12
393.882	358.12
394.107	351.12
394.331	355.12
394.556	354.12
394.78	354.12
395.005	358.12
395.229	356.12
395.454	338.12
395.678	364.12
395.903	373.12
396.127	381.12
396.352	393.12
396.576	384.12
396.801	373.12
397.025	357.12
397.249	373.12
397.474	373.12
397.698	386.12
397.922	397.12
398.147	408.12
398.371	430.12
398.595	384.12
398.82	378.12
399.044	405.12
399.268	399.12
399.492	412.12
399.717	426.12
399.941	451.12
400.165	492.12
400.389	469.12
400.613	475.12
400.837	434.12
401.062	415.12
401.286	421.12
401.51	410.12
401.734	398.12
401.958	395.12
402.182	404.12
402.406	424.12
402.63	448.12
402.854	412.12
403.078	425.12
403.302	429.12
403.526	439.12
403.75	434.12
403.974	408.12
404.198	413.12
404.422	409.12
404.645	417.12
404.869	431.12
405.093	459.12
405.317	476.12
405.541	492.12
405.765	468.12
405.988	434.12
406.212	468.12
406.436	507.12
406.66	533.12
406.883	485.12
407.107	493.12
407.331	535.12
407.555	609.12
407.778	598.12
408.002	536.12
408.226	488.12
408.449	480.12
408.673	455.12
408.896	491.12
409.12	550.12
409.344	511.12
409.567	461.12
409.791	444.12
410.014	426.12
410.238	445.12
410.461	434.12
410.685	422.12
410.908	463.12
411.132	491.12
411.355	511.12
411.578	502.12
411.802	428.12
412.025	450.12
412.249	422.12
412.472	422.12
412.695	450.12
412.919	445.12
413.142	425.12
413.365	404.12
413.589	404.12
413.812	408.12
414.035	429.12
414.258	406.12
414.482	388.12
414.705	396.12
414.928	389.12
415.151	401.12
415.374	409.12
415.597	383.12
415.821	378.12
416.044	397.12
416.267	425.12
416.49	389.12
416.713	414.12
416.936	409.12
417.159	387.12
417.382	414.12
417.605	422.12
417.828	430.12
418.051	442.12
418.274	419.12
418.497	416.12
418.72	421.12
418.943	417.12
419.166	433.12
419.389	436.12
419.611	440.12
419.834	442.12
420.057	426.12
420.28	443.12
420.503	436.12
420.726	427.12
420.948	451.12
421.171	508.12
421.394	527.12
421.617	475.12
421.839	442.12
422.062	449.12
422.285	476.12
422.507	536.12
422.73	597.12
422.953	587.12
423.175	511.12
423.398	478.12
423.621	468.12
423.843	517.12
424.066	493.12
424.288	472.12
424.511	519.12
424.733	574.12
424.956	674.12
425.178	635.12
425.401	631.12
425.623	646.12
425.846	558.12
426.068	492.12
426.291	515.12
426.513	516.12
426.735	515.12
426.958	565.12
427.18	629.12
427.402	773.12
427.625	860.12
427.847	809.12
428.069	691.12
428.292	581.12
428.514	518.12
428.736	518.12
428.958	482.12
429.181	467.12
429.403	488.12
429.625	498.12
429.847	527.12
430.069	582.12
430.292	587.12
430.514	500.12
430.736	481.12
430.958	445.12
431.18	441.12
431.402	443.12
431.624	414.12
431.846	410.12
432.068	433.12
432.29	413.12
432.512	430.12
432.734	450.12
432.956	460.12
433.178	463.12
433.4	456.12
433.622	434.12
433.844	434.12
434.066	433.12
434.287	414.12
434.509	441.12
434.731	462.12
434.953	454.12
435.175	472.12
435.397	513.12
435.618	530.12
435.84	573.12
436.062	643.12
436.284	704.12
436.505	608.12
436.727	547.12
436.949	501.12
437.17	497.12
437.392	514.12
437.614	494.12
437.835	554.12
438.057	684.12
438.278	748.12
438.5	760.12
438.721	747.12
438.943	725.12
439.165	599.12
439.386	590.12
439.608	565.12
439.829	536.12
440.05	612.12
440.272	625.12
440.493	592.12
440.715	536.12
440.936	478.12
441.158	480.12
441.379	491.12
441.6	468.12
441.822	506.12
442.043	573.12
442.264	638.12
442.486	687.12
442.707	595.12
442.928	548.12
443.149	547.12
443.371	587.12
443.592	619.12
443.813	693.12
444.034	742.12
444.255	626.12
444.476	545.12
444.698	525.12
444.919	492.12
445.14	612.12
445.361	588.12
445.582	596.12
445.803	643.12
446.024	744.12
446.245	761.12
446.466	687.12
446.687	638.12
446.908	520.12
447.129	499.12
447.35	488.12
447.571	482.12
447.792	460.12
448.013	492.12
448.234	501.12
448.455	590.12
448.675	681.12
448.896	758.12
449.117	678.12
449.338	630.12
449.559	722.12
449.779	790.12
450	669.12
450.221	535.12
450.442	517.12
450.662	520.12
450.883	510.12
451.104	546.12
451.324	527.12
451.545	492.12
451.766	463.12
451.986	479.12
452.207	438.12
452.428	454.12
452.648	421.12
452.869	425.12
453.089	452.12
453.31	459.12
453.53	441.12
453.751	434.12
453.971	456.12
454.192	471.12
454.412	461.12
454.633	457.12
454.853	442.12
455.073	442.12
455.294	458.12
455.514	557.12
455.734	492.12
455.955	446.12
456.175	440.12
456.395	395.12
456.616	408.12
456.836	398.12
457.056	385.12
457.276	391.12
457.497	410.12
457.717	406.12
457.937	430.12
458.157	405.12
458.377	420.12
458.598	440.12
458.818	535.12
459.038	635.12
459.258	649.12
459.478	525.12
459.698	482.12
459.918	426.12
460.138	434.12
460.358	427.12
460.578	437.12
460.798	421.12
461.018	435.12
461.238	426.12
461.458	430.12
461.678	405.12
461.898	433.12
462.118	408.12
462.338	425.12
462.558	422.12
462.777	409.12
462.997	439.12
463.217	439.12
463.437	444.12
463.657	427.12
463.876	456.12
464.096	443.12
464.316	427.12
464.536	460.12
464.755	470.12
464.975	505.12
465.195	543.12
465.414	684.12
465.634	598.12
465.854	524.12
466.073	499.12
466.293	467.12
466.512	452.12
466.732	425.12
466.951	443.12
467.171	414.12
467.391	434.12
467.61	448.12
467.829	471.12
468.049	417.12
468.268	409.12
468.488	419.12
468.707	424.12
468.927	427.12
469.146	408.12
469.365	427.12
469.585	423.12
469.804	426.12
470.023	462.12
470.243	451.12
470.462	456.12
470.681	478.12
470.901	471.12
471.12	445.12
471.339	451.12
471.558	428.12
471.777	438.12
471.997	417.12
472.216	427.12
472.435	438.12
472.654	443.12
472.873	428.12
473.092	439.12
473.311	433.12
473.53	420.12
473.749	458.12
473.968	490.12
474.187	587.12
474.406	625.12
474.625	503.12
474.844	483.12
475.063	434.12
475.282	450.12
475.501	436.12
475.72	455.12
475.939	435.12
476.158	457.12
476.377	439.12
476.596	449.12
476.814	466.12
477.033	468.12
477.252	473.12
477.471	459.12
477.69	466.12
477.908	458.12
478.127	473.12
478.346	466.12
478.564	477.12
478.783	477.12
479.002	503.12
479.22	489.12
479.439	505.12
479.658	546.12
479.876	533.12
480.095	537.12
480.313	569.12
480.532	542.12
480.751	540.12
480.969	552.12
481.188	548.12
481.406	545.12
481.624	526.12
481.843	523.12
482.061	518.12
482.28	523.12
482.498	529.12
482.717	496.12
482.935	502.12
483.153	518.12
483.372	515.12
483.59	539.12
483.808	534.12
484.027	498.12
484.245	521.12
484.463	519.12
484.681	517.12
484.9	532.12
485.118	522.12
485.336	531.12
485.554	526.12
485.772	529.12
485.99	561.12
486.209	550.12
486.427	543.12
486.645	564.12
486.863	601.12
487.081	589.12
487.299	577.12
487.517	547.12
487.735	551.12
487.953	553.12
488.171	551.12
488.389	540.12
488.607	555.12
488.825	567.12
489.043	558.12
489.261	546.12
489.479	564.12
489.696	565.12
489.914	574.12
490.132	604.12
490.35	566.12
490.568	584.12
490.786	620.12
491.003	592.12
491.221	628.12
491.439	632.12
491.657	629.12
491.874	642.12
492.092	644.12
492.31	673.12
492.527	643.12
492.745	645.12
492.963	644.12
493.18	649.12
493.398	627.12
493.615	671.12
493.833	637.12
494.05	677.12
494.268	653.12
494.485	665.12
494.703	669.12
494.92	677.12
495.138	693.12
495.355	680.12
495.573	669.12
495.79	680.12
496.008	695.12
496.225	695.12
496.442	666.12
496.66	676.12
496.877	702.12
497.094	695.12
497.312	683.12
497.529	691.12
497.746	703.12
497.963	694.12
498.181	729.12
498.398	715.12
498.615	732.12
498.832	737.12
499.049	715.12
499.267	730.12
499.484	773.12
499.701	783.12
499.918	789.12
500.135	775.12
500.352	793.12
500.569	786.12
500.786	809.12
501.003	820.12
501.22	811.12
501.437	779.12
501.654	792.12
501.871	814.12
