Data from 1987.PennyLincolnUp.Lamp.En5.5.200Scan.071819.P2_HRD10591_17-16-14-972.txt Node
Date: Thu Jul 18 17:16:14 EDT 2019
User: cochatt
Spectrometer: HR+D1059
Trigger mode: 1
Integration Time (sec): 1.000000E-1
Scans to average: 1
Electric dark correction enabled: true
Nonlinearity correction enabled: false
Boxcar width: 0
XAxis mode: Wavelengths
Number of Pixels in Spectrum: 2048
>>>>>Begin Spectral Data<<<<<
223.165	-16.31
223.4	-16.31
223.635	-16.31
223.869	-11.31
224.104	-16.31
224.338	-19.31
224.573	-12.31
224.808	-11.31
225.042	-2.31
225.277	-3.31
225.511	2.69
225.746	1.69
225.98	-1.31
226.215	7.69
226.449	22.69
226.683	13.69
226.918	20.69
227.152	24.69
227.387	29.69
227.621	37.69
227.856	32.69
228.09	44.69
228.324	52.69
228.559	69.69
228.793	66.69
229.027	107.69
229.262	115.69
229.496	132.69
229.73	165.69
229.964	184.69
230.199	137.69
230.433	137.69
230.667	128.69
230.901	123.69
231.136	105.69
231.37	125.69
231.604	122.69
231.838	112.69
232.072	123.69
232.306	128.69
232.541	115.69
232.775	115.69
233.009	98.69
233.243	125.69
233.477	130.69
233.711	134.69
233.945	120.69
234.179	117.69
234.413	137.69
234.647	123.69
234.881	131.69
235.115	119.69
235.349	122.69
235.583	117.69
235.817	124.69
236.051	120.69
236.285	133.69
236.519	123.69
236.753	150.69
236.987	170.69
237.221	212.69
237.455	271.69
237.689	218.69
237.922	160.69
238.156	147.69
238.39	128.69
238.624	132.69
238.858	124.69
239.091	128.69
239.325	136.69
239.559	128.69
239.793	121.69
240.027	136.69
240.26	160.69
240.494	170.69
240.728	179.69
240.961	150.69
241.195	152.69
241.429	157.69
241.662	159.69
241.896	127.69
242.13	139.69
242.363	140.69
242.597	137.69
242.83	131.69
243.064	132.69
243.298	132.69
243.531	147.69
243.765	143.69
243.998	136.69
244.232	142.69
244.465	143.69
244.699	146.69
244.932	143.69
245.166	144.69
245.399	153.69
245.633	144.69
245.866	134.69
246.099	153.69
246.333	150.69
246.566	136.69
246.8	155.69
247.033	143.69
247.266	132.69
247.5	167.69
247.733	171.69
247.966	173.69
248.2	169.69
248.433	156.69
248.666	170.69
248.899	173.69
249.133	210.69
249.366	237.69
249.599	209.69
249.832	178.69
250.066	186.69
250.299	164.69
250.532	187.69
250.765	195.69
250.998	231.69
251.231	218.69
251.465	222.69
251.698	219.69
251.931	204.69
252.164	208.69
252.397	206.69
252.63	190.69
252.863	203.69
253.096	202.69
253.329	235.69
253.562	227.69
253.795	230.69
254.028	222.69
254.261	231.69
254.494	243.69
254.727	245.69
254.96	284.69
255.193	278.69
255.426	267.69
255.659	237.69
255.892	229.69
256.124	219.69
256.357	224.69
256.59	206.69
256.823	204.69
257.056	191.69
257.289	205.69
257.521	228.69
257.754	200.69
257.987	203.69
258.22	198.69
258.452	201.69
258.685	215.69
258.918	183.69
259.151	202.69
259.383	210.69
259.616	224.69
259.849	233.69
260.081	226.69
260.314	257.69
260.547	249.69
260.779	240.69
261.012	248.69
261.244	218.69
261.477	206.69
261.71	213.69
261.942	239.69
262.175	267.69
262.407	234.69
262.64	224.69
262.872	212.69
263.105	205.69
263.337	191.69
263.57	210.69
263.802	190.69
264.035	191.69
264.267	202.69
264.499	210.69
264.732	186.69
264.964	194.69
265.197	188.69
265.429	206.69
265.661	197.69
265.894	200.69
266.126	189.69
266.358	202.69
266.591	193.69
266.823	213.69
267.055	205.69
267.287	208.69
267.52	195.69
267.752	219.69
267.984	202.69
268.216	207.69
268.448	224.69
268.681	217.69
268.913	229.69
269.145	242.69
269.377	272.69
269.609	274.69
269.841	257.69
270.073	271.69
270.306	291.69
270.538	312.69
270.77	325.69
271.002	306.69
271.234	291.69
271.466	296.69
271.698	321.69
271.93	313.69
272.162	320.69
272.394	317.69
272.626	300.69
272.858	296.69
273.09	269.69
273.322	258.69
273.553	264.69
273.785	261.69
274.017	242.69
274.249	259.69
274.481	255.69
274.713	256.69
274.945	248.69
275.176	240.69
275.408	238.69
275.64	255.69
275.872	250.69
276.104	244.69
276.335	249.69
276.567	266.69
276.799	276.69
277.031	294.69
277.262	322.69
277.494	323.69
277.726	299.69
277.957	257.69
278.189	253.69
278.421	255.69
278.652	248.69
278.884	261.69
279.115	244.69
279.347	235.69
279.579	236.69
279.81	232.69
280.042	232.69
280.273	240.69
280.505	246.69
280.736	218.69
280.968	225.69
281.199	257.69
281.431	232.69
281.662	245.69
281.894	246.69
282.125	244.69
282.356	255.69
282.588	299.69
282.819	304.69
283.051	250.69
283.282	243.69
283.513	239.69
283.745	239.69
283.976	253.69
284.207	237.69
284.439	246.69
284.67	231.69
284.901	258.69
285.132	249.69
285.364	251.69
285.595	233.69
285.826	244.69
286.057	254.69
286.288	250.69
286.52	240.69
286.751	247.69
286.982	242.69
287.213	240.69
287.444	238.69
287.675	243.69
287.906	260.69
288.138	263.69
288.369	260.69
288.6	270.69
288.831	245.69
289.062	242.69
289.293	259.69
289.524	258.69
289.755	259.69
289.986	246.69
290.217	248.69
290.448	236.69
290.679	239.69
290.91	247.69
291.141	253.69
291.371	240.69
291.602	246.69
291.833	244.69
292.064	257.69
292.295	244.69
292.526	242.69
292.757	249.69
292.987	232.69
293.218	248.69
293.449	256.69
293.68	256.69
293.91	220.69
294.141	245.69
294.372	246.69
294.603	257.69
294.833	238.69
295.064	242.69
295.295	235.69
295.525	266.69
295.756	265.69
295.987	267.69
296.217	300.69
296.448	317.69
296.679	291.69
296.909	250.69
297.14	244.69
297.37	246.69
297.601	260.69
297.831	238.69
298.062	263.69
298.292	255.69
298.523	257.69
298.753	260.69
298.984	252.69
299.214	247.69
299.445	266.69
299.675	268.69
299.905	274.69
300.136	266.69
300.366	252.69
300.597	251.69
300.827	292.69
301.057	273.69
301.288	295.69
301.518	306.69
301.748	266.69
301.979	273.69
302.209	274.69
302.439	279.69
302.669	290.69
302.9	268.69
303.13	262.69
303.36	278.69
303.59	284.69
303.82	293.69
304.051	302.69
304.281	278.69
304.511	272.69
304.741	272.69
304.971	272.69
305.201	273.69
305.431	275.69
305.661	272.69
305.891	258.69
306.121	273.69
306.352	285.69
306.582	285.69
306.812	286.69
307.042	283.69
307.272	285.69
307.502	267.69
307.731	286.69
307.961	267.69
308.191	276.69
308.421	290.69
308.651	295.69
308.881	309.69
309.111	299.69
309.341	302.69
309.571	310.69
309.8	327.69
310.03	340.69
310.26	370.69
310.49	354.69
310.72	382.69
310.949	398.69
311.179	376.69
311.409	363.69
311.639	343.69
311.868	348.69
312.098	362.69
312.328	342.69
312.557	400.69
312.787	404.69
313.017	417.69
313.246	374.69
313.476	351.69
313.706	332.69
313.935	360.69
314.165	379.69
314.394	393.69
314.624	388.69
314.853	347.69
315.083	363.69
315.312	356.69
315.542	334.69
315.771	321.69
316.001	342.69
316.23	330.69
316.46	336.69
316.689	352.69
316.919	356.69
317.148	369.69
317.377	357.69
317.607	337.69
317.836	361.69
318.065	345.69
318.295	343.69
318.524	339.69
318.753	323.69
318.983	345.69
319.212	344.69
319.441	349.69
319.67	365.69
319.9	357.69
320.129	332.69
320.358	346.69
320.587	377.69
320.816	353.69
321.046	382.69
321.275	376.69
321.504	382.69
321.733	386.69
321.962	380.69
322.191	406.69
322.42	428.69
322.649	472.69
322.878	456.69
323.108	496.69
323.337	526.69
323.566	558.69
323.795	620.69
324.024	696.69
324.253	892.69
324.482	1286.69
324.71	2032.69
324.939	2805.69
325.168	2494.69
325.397	1345.69
325.626	856.69
325.855	677.69
326.084	606.69
326.313	569.69
326.542	584.69
326.77	628.69
326.999	792.69
327.228	1122.69
327.457	1769.69
327.686	2141.69
327.914	1396.69
328.143	907.69
328.372	759.69
328.6	732.69
328.829	689.69
329.058	715.69
329.287	681.69
329.515	626.69
329.744	527.69
329.972	527.69
330.201	505.69
330.43	585.69
330.658	640.69
330.887	735.69
331.115	702.69
331.344	572.69
331.572	504.69
331.801	491.69
332.03	493.69
332.258	449.69
332.486	438.69
332.715	426.69
332.943	438.69
333.172	395.69
333.4	408.69
333.629	394.69
333.857	430.69
334.085	400.69
334.314	428.69
334.542	402.69
334.771	398.69
334.999	387.69
335.227	423.69
335.455	405.69
335.684	389.69
335.912	387.69
336.14	374.69
336.369	370.69
336.597	396.69
336.825	422.69
337.053	410.69
337.281	367.69
337.51	380.69
337.738	382.69
337.966	399.69
338.194	407.69
338.422	394.69
338.65	377.69
338.878	380.69
339.106	358.69
339.334	378.69
339.562	385.69
339.79	378.69
340.018	386.69
340.246	390.69
340.474	408.69
340.702	390.69
340.93	371.69
341.158	376.69
341.386	402.69
341.614	390.69
341.842	410.69
342.07	364.69
342.298	362.69
342.526	369.69
342.754	355.69
342.981	352.69
343.209	354.69
343.437	354.69
343.665	363.69
343.893	363.69
344.12	360.69
344.348	365.69
344.576	374.69
344.804	390.69
345.031	391.69
345.259	430.69
345.487	405.69
345.714	394.69
345.942	397.69
346.17	371.69
346.397	367.69
346.625	380.69
346.853	359.69
347.08	386.69
347.308	380.69
347.535	385.69
347.763	426.69
347.99	409.69
348.218	384.69
348.445	426.69
348.673	410.69
348.9	398.69
349.128	360.69
349.355	370.69
349.583	372.69
349.81	368.69
350.037	355.69
350.265	372.69
350.492	363.69
350.72	375.69
350.947	374.69
351.174	398.69
351.402	419.69
351.629	382.69
351.856	394.69
352.083	398.69
352.311	446.69
352.538	437.69
352.765	424.69
352.992	416.69
353.22	395.69
353.447	390.69
353.674	382.69
353.901	375.69
354.128	328.69
354.355	340.69
354.583	352.69
354.81	347.69
355.037	350.69
355.264	332.69
355.491	344.69
355.718	339.69
355.945	359.69
356.172	343.69
356.399	340.69
356.626	350.69
356.853	329.69
357.08	324.69
357.307	338.69
357.534	331.69
357.761	337.69
357.988	327.69
358.215	337.69
358.441	332.69
358.668	333.69
358.895	354.69
359.122	370.69
359.349	379.69
359.576	385.69
359.802	437.69
360.029	462.69
360.256	512.69
360.483	470.69
360.709	406.69
360.936	378.69
361.163	378.69
361.39	415.69
361.616	400.69
361.843	402.69
362.07	399.69
362.296	386.69
362.523	405.69
362.749	412.69
362.976	384.69
363.203	376.69
363.429	377.69
363.656	365.69
363.882	353.69
364.109	372.69
364.335	367.69
364.562	374.69
364.788	365.69
365.015	374.69
365.241	367.69
365.468	358.69
365.694	379.69
365.92	401.69
366.147	363.69
366.373	347.69
366.599	363.69
366.826	376.69
367.052	346.69
367.278	347.69
367.505	349.69
367.731	341.69
367.957	361.69
368.184	356.69
368.41	368.69
368.636	375.69
368.862	358.69
369.089	362.69
369.315	355.69
369.541	356.69
369.767	331.69
369.993	346.69
370.219	366.69
370.445	342.69
370.672	355.69
370.898	343.69
371.124	343.69
371.35	328.69
371.576	342.69
371.802	332.69
372.028	336.69
372.254	320.69
372.48	322.69
372.706	345.69
372.932	335.69
373.158	335.69
373.384	343.69
373.61	351.69
373.835	339.69
374.061	353.69
374.287	340.69
374.513	351.69
374.739	349.69
374.965	359.69
375.191	347.69
375.416	335.69
375.642	341.69
375.868	347.69
376.094	340.69
376.319	335.69
376.545	323.69
376.771	339.69
376.997	333.69
377.222	326.69
377.448	318.69
377.674	349.69
377.899	326.69
378.125	336.69
378.35	325.69
378.576	330.69
378.802	320.69
379.027	337.69
379.253	329.69
379.478	334.69
379.704	334.69
379.929	346.69
380.155	333.69
380.38	340.69
380.606	335.69
380.831	334.69
381.057	339.69
381.282	341.69
381.507	354.69
381.733	331.69
381.958	346.69
382.184	338.69
382.409	345.69
382.634	339.69
382.86	333.69
383.085	328.69
383.31	329.69
383.535	336.69
383.761	347.69
383.986	351.69
384.211	349.69
384.436	329.69
384.662	327.69
384.887	363.69
385.112	356.69
385.337	357.69
385.562	347.69
385.787	336.69
386.013	370.69
386.238	369.69
386.463	371.69
386.688	359.69
386.913	342.69
387.138	350.69
387.363	376.69
387.588	335.69
387.813	344.69
388.038	361.69
388.263	352.69
388.488	332.69
388.713	367.69
388.938	356.69
389.163	367.69
389.387	357.69
389.612	355.69
389.837	353.69
390.062	340.69
390.287	360.69
390.512	343.69
390.736	354.69
390.961	370.69
391.186	331.69
391.411	348.69
391.636	351.69
391.86	371.69
392.085	369.69
392.31	359.69
392.534	366.69
392.759	359.69
392.984	352.69
393.208	339.69
393.433	350.69
393.658	333.69
393.882	365.69
394.107	345.69
394.331	358.69
394.556	357.69
394.78	349.69
395.005	349.69
395.229	358.69
395.454	365.69
395.678	357.69
395.903	388.69
396.127	407.69
396.352	400.69
396.576	381.69
396.801	387.69
397.025	388.69
397.249	343.69
397.474	382.69
397.698	392.69
397.922	408.69
398.147	406.69
398.371	422.69
398.595	375.69
398.82	397.69
399.044	387.69
399.268	416.69
399.492	438.69
399.717	440.69
399.941	474.69
400.165	479.69
400.389	526.69
400.613	475.69
400.837	454.69
401.062	428.69
401.286	418.69
401.51	421.69
401.734	414.69
401.958	431.69
402.182	405.69
402.406	448.69
402.63	461.69
402.854	426.69
403.078	426.69
403.302	402.69
403.526	414.69
403.75	449.69
403.974	423.69
404.198	435.69
404.422	426.69
404.645	447.69
404.869	461.69
405.093	458.69
405.317	480.69
405.541	506.69
405.765	495.69
405.988	500.69
406.212	485.69
406.436	511.69
406.66	525.69
406.883	478.69
407.107	525.69
407.331	558.69
407.555	619.69
407.778	586.69
408.002	539.69
408.226	488.69
408.449	487.69
408.673	492.69
408.896	520.69
409.12	544.69
409.344	506.69
409.567	462.69
409.791	455.69
410.014	431.69
410.238	431.69
410.461	422.69
410.685	449.69
410.908	450.69
411.132	489.69
411.355	535.69
411.578	509.69
411.802	455.69
412.025	438.69
412.249	455.69
412.472	432.69
412.695	466.69
412.919	434.69
413.142	430.69
413.365	406.69
413.589	410.69
413.812	416.69
414.035	396.69
414.258	421.69
414.482	379.69
414.705	424.69
414.928	404.69
415.151	402.69
415.374	379.69
415.597	401.69
415.821	392.69
416.044	420.69
416.267	422.69
416.49	389.69
416.713	411.69
416.936	415.69
417.159	413.69
417.382	445.69
417.605	443.69
417.828	451.69
418.051	449.69
418.274	447.69
418.497	418.69
418.72	419.69
418.943	420.69
419.166	421.69
419.389	440.69
419.611	444.69
419.834	451.69
420.057	440.69
420.28	428.69
420.503	427.69
420.726	441.69
420.948	446.69
421.171	499.69
421.394	562.69
421.617	485.69
421.839	450.69
422.062	464.69
422.285	452.69
422.507	534.69
422.73	602.69
422.953	589.69
423.175	511.69
423.398	474.69
423.621	477.69
423.843	486.69
424.066	498.69
424.288	495.69
424.511	535.69
424.733	579.69
424.956	685.69
425.178	652.69
425.401	639.69
425.623	667.69
425.846	570.69
426.068	515.69
426.291	518.69
426.513	519.69
426.735	547.69
426.958	595.69
427.18	637.69
427.402	758.69
427.625	867.69
427.847	828.69
428.069	708.69
428.292	595.69
428.514	544.69
428.736	519.69
428.958	510.69
429.181	478.69
429.403	474.69
429.625	495.69
429.847	527.69
430.069	596.69
430.292	610.69
430.514	477.69
430.736	480.69
430.958	466.69
431.18	466.69
431.402	451.69
431.624	446.69
431.846	429.69
432.068	448.69
432.29	432.69
432.512	437.69
432.734	446.69
432.956	457.69
433.178	488.69
433.4	479.69
433.622	439.69
433.844	436.69
434.066	429.69
434.287	444.69
434.509	445.69
434.731	457.69
434.953	454.69
435.175	472.69
435.397	506.69
435.618	529.69
435.84	587.69
436.062	643.69
436.284	740.69
436.505	602.69
436.727	534.69
436.949	512.69
437.17	499.69
437.392	493.69
437.614	522.69
437.835	564.69
438.057	714.69
438.278	792.69
438.5	746.69
438.721	810.69
438.943	784.69
439.165	642.69
439.386	566.69
439.608	560.69
439.829	565.69
440.05	580.69
440.272	649.69
440.493	608.69
440.715	541.69
440.936	519.69
441.158	499.69
441.379	483.69
441.6	502.69
441.822	538.69
442.043	578.69
442.264	677.69
442.486	711.69
442.707	591.69
442.928	571.69
443.149	538.69
443.371	588.69
443.592	627.69
443.813	725.69
444.034	749.69
444.255	626.69
444.476	572.69
444.698	526.69
444.919	504.69
445.14	589.69
445.361	591.69
445.582	604.69
445.803	659.69
446.024	747.69
446.245	778.69
446.466	714.69
446.687	596.69
446.908	562.69
447.129	532.69
447.35	489.69
447.571	506.69
447.792	485.69
448.013	511.69
448.234	527.69
448.455	566.69
448.675	679.69
448.896	756.69
449.117	675.69
449.338	668.69
449.559	760.69
449.779	827.69
450	683.69
450.221	586.69
450.442	534.69
450.662	504.69
450.883	516.69
451.104	556.69
451.324	512.69
451.545	502.69
451.766	471.69
451.986	438.69
452.207	438.69
452.428	438.69
452.648	440.69
452.869	464.69
453.089	460.69
453.31	491.69
453.53	476.69
453.751	443.69
453.971	472.69
454.192	499.69
454.412	483.69
454.633	463.69
454.853	442.69
455.073	452.69
455.294	465.69
455.514	535.69
455.734	529.69
455.955	447.69
456.175	418.69
456.395	395.69
456.616	409.69
456.836	400.69
457.056	402.69
457.276	398.69
457.497	411.69
457.717	404.69
457.937	404.69
458.157	443.69
458.377	434.69
458.598	464.69
458.818	538.69
459.038	652.69
459.258	655.69
459.478	537.69
459.698	494.69
459.918	455.69
460.138	433.69
460.358	452.69
460.578	440.69
460.798	451.69
461.018	420.69
461.238	434.69
461.458	416.69
461.678	414.69
461.898	425.69
462.118	446.69
462.338	415.69
462.558	422.69
462.777	420.69
462.997	420.69
463.217	462.69
463.437	457.69
463.657	450.69
463.876	448.69
464.096	452.69
464.316	454.69
464.536	465.69
464.755	464.69
464.975	497.69
465.195	578.69
465.414	698.69
465.634	616.69
465.854	525.69
466.073	484.69
466.293	461.69
466.512	441.69
466.732	444.69
466.951	431.69
467.171	420.69
467.391	439.69
467.61	458.69
467.829	477.69
468.049	452.69
468.268	450.69
468.488	431.69
468.707	418.69
468.927	424.69
469.146	423.69
469.365	434.69
469.585	424.69
469.804	423.69
470.023	459.69
470.243	459.69
470.462	458.69
470.681	486.69
470.901	487.69
471.12	444.69
471.339	456.69
471.558	412.69
471.777	452.69
471.997	418.69
472.216	450.69
472.435	436.69
472.654	439.69
472.873	436.69
473.092	436.69
473.311	436.69
473.53	415.69
473.749	474.69
473.968	501.69
474.187	623.69
474.406	674.69
474.625	546.69
474.844	490.69
475.063	450.69
475.282	454.69
475.501	439.69
475.72	456.69
475.939	460.69
476.158	442.69
476.377	469.69
476.596	452.69
476.814	470.69
477.033	468.69
477.252	471.69
477.471	468.69
477.69	460.69
477.908	464.69
478.127	475.69
478.346	483.69
478.564	487.69
478.783	486.69
479.002	480.69
479.22	522.69
479.439	516.69
479.658	528.69
479.876	562.69
480.095	553.69
480.313	578.69
480.532	552.69
480.751	548.69
480.969	519.69
481.188	530.69
481.406	584.69
481.624	526.69
481.843	548.69
482.061	514.69
482.28	514.69
482.498	490.69
482.717	503.69
482.935	516.69
483.153	514.69
483.372	519.69
483.59	530.69
483.808	542.69
484.027	525.69
484.245	550.69
484.463	514.69
484.681	517.69
484.9	528.69
485.118	547.69
485.336	514.69
485.554	552.69
485.772	558.69
485.99	542.69
486.209	543.69
486.427	562.69
486.645	558.69
486.863	575.69
487.081	607.69
487.299	577.69
487.517	561.69
487.735	557.69
487.953	591.69
488.171	578.69
488.389	570.69
488.607	578.69
488.825	567.69
489.043	572.69
489.261	582.69
489.479	573.69
489.696	584.69
489.914	575.69
490.132	600.69
490.35	598.69
490.568	587.69
490.786	613.69
491.003	614.69
491.221	637.69
491.439	637.69
491.657	664.69
491.874	648.69
492.092	656.69
492.31	651.69
492.527	648.69
492.745	645.69
492.963	656.69
493.18	665.69
493.398	672.69
493.615	708.69
493.833	700.69
494.05	668.69
494.268	699.69
494.485	685.69
494.703	692.69
494.92	683.69
495.138	684.69
495.355	679.69
495.573	685.69
495.79	675.69
496.008	683.69
496.225	704.69
496.442	706.69
496.66	688.69
496.877	679.69
497.094	678.69
497.312	708.69
497.529	719.69
497.746	730.69
497.963	715.69
498.181	746.69
498.398	733.69
498.615	735.69
498.832	751.69
499.049	756.69
499.267	755.69
499.484	754.69
499.701	772.69
499.918	766.69
500.135	796.69
500.352	811.69
500.569	817.69
500.786	794.69
501.003	810.69
501.22	799.69
501.437	803.69
501.654	812.69
501.871	852.69
