Data from 1988.PennyLincolnUp.Lamp.En5.5.200Scan.071819.P2_HRD10591_17-19-31-971.txt Node
Date: Thu Jul 18 17:19:31 EDT 2019
User: cochatt
Spectrometer: HR+D1059
Trigger mode: 1
Integration Time (sec): 1.000000E-1
Scans to average: 1
Electric dark correction enabled: true
Nonlinearity correction enabled: false
Boxcar width: 0
XAxis mode: Wavelengths
Number of Pixels in Spectrum: 2048
>>>>>Begin Spectral Data<<<<<
223.165	-12.38
223.4	-12.38
223.635	-12.38
223.869	-31.38
224.104	-10.38
224.338	-6.38
224.573	-14.38
224.808	-8.38
225.042	-12.38
225.277	-13.38
225.511	0.62
225.746	4.62
225.98	6.62
226.215	3.62
226.449	23.62
226.683	21.62
226.918	30.62
227.152	17.62
227.387	40.62
227.621	42.62
227.856	46.62
228.09	40.62
228.324	63.62
228.559	61.62
228.793	66.62
229.027	93.62
229.262	113.62
229.496	114.62
229.73	140.62
229.964	168.62
230.199	131.62
230.433	117.62
230.667	109.62
230.901	107.62
231.136	113.62
231.37	116.62
231.604	113.62
231.838	112.62
232.072	122.62
232.306	126.62
232.541	117.62
232.775	113.62
233.009	104.62
233.243	110.62
233.477	113.62
233.711	107.62
233.945	113.62
234.179	123.62
234.413	120.62
234.647	131.62
234.881	123.62
235.115	109.62
235.349	114.62
235.583	117.62
235.817	129.62
236.051	125.62
236.285	133.62
236.519	127.62
236.753	129.62
236.987	153.62
237.221	182.62
237.455	260.62
237.689	203.62
237.922	146.62
238.156	135.62
238.39	145.62
238.624	118.62
238.858	131.62
239.091	129.62
239.325	137.62
239.559	119.62
239.793	129.62
240.027	122.62
240.26	130.62
240.494	169.62
240.728	152.62
240.961	164.62
241.195	143.62
241.429	152.62
241.662	125.62
241.896	135.62
242.13	128.62
242.363	138.62
242.597	133.62
242.83	133.62
243.064	141.62
243.298	133.62
243.531	152.62
243.765	143.62
243.998	143.62
244.232	151.62
244.465	149.62
244.699	148.62
244.932	150.62
245.166	149.62
245.399	142.62
245.633	143.62
245.866	149.62
246.099	141.62
246.333	151.62
246.566	143.62
246.8	152.62
247.033	163.62
247.266	158.62
247.5	150.62
247.733	182.62
247.966	177.62
248.2	166.62
248.433	175.62
248.666	177.62
248.899	186.62
249.133	208.62
249.366	202.62
249.599	193.62
249.832	182.62
250.066	191.62
250.299	186.62
250.532	189.62
250.765	204.62
250.998	214.62
251.231	219.62
251.465	226.62
251.698	210.62
251.931	203.62
252.164	216.62
252.397	194.62
252.63	199.62
252.863	199.62
253.096	233.62
253.329	239.62
253.562	226.62
253.795	234.62
254.028	222.62
254.261	217.62
254.494	242.62
254.727	264.62
254.96	286.62
255.193	270.62
255.426	258.62
255.659	229.62
255.892	229.62
256.124	221.62
256.357	226.62
256.59	218.62
256.823	208.62
257.056	227.62
257.289	207.62
257.521	209.62
257.754	220.62
257.987	213.62
258.22	209.62
258.452	224.62
258.685	214.62
258.918	208.62
259.151	213.62
259.383	229.62
259.616	227.62
259.849	229.62
260.081	247.62
260.314	255.62
260.547	264.62
260.779	262.62
261.012	234.62
261.244	259.62
261.477	223.62
261.71	238.62
261.942	234.62
262.175	266.62
262.407	240.62
262.64	232.62
262.872	219.62
263.105	225.62
263.337	226.62
263.57	216.62
263.802	223.62
264.035	193.62
264.267	230.62
264.499	213.62
264.732	210.62
264.964	219.62
265.197	221.62
265.429	224.62
265.661	224.62
265.894	222.62
266.126	222.62
266.358	218.62
266.591	226.62
266.823	228.62
267.055	235.62
267.287	243.62
267.52	230.62
267.752	243.62
267.984	230.62
268.216	234.62
268.448	248.62
268.681	242.62
268.913	250.62
269.145	264.62
269.377	296.62
269.609	282.62
269.841	290.62
270.073	296.62
270.306	306.62
270.538	335.62
270.77	317.62
271.002	306.62
271.234	316.62
271.466	311.62
271.698	323.62
271.93	331.62
272.162	334.62
272.394	324.62
272.626	323.62
272.858	310.62
273.09	290.62
273.322	281.62
273.553	289.62
273.785	279.62
274.017	275.62
274.249	271.62
274.481	270.62
274.713	271.62
274.945	285.62
275.176	289.62
275.408	280.62
275.64	272.62
275.872	267.62
276.104	275.62
276.335	262.62
276.567	288.62
276.799	279.62
277.031	303.62
277.262	328.62
277.494	312.62
277.726	328.62
277.957	312.62
278.189	290.62
278.421	285.62
278.652	287.62
278.884	295.62
279.115	278.62
279.347	267.62
279.579	289.62
279.81	284.62
280.042	281.62
280.273	271.62
280.505	275.62
280.736	285.62
280.968	280.62
281.199	271.62
281.431	280.62
281.662	280.62
281.894	289.62
282.125	275.62
282.356	294.62
282.588	325.62
282.819	319.62
283.051	303.62
283.282	293.62
283.513	310.62
283.745	283.62
283.976	305.62
284.207	281.62
284.439	303.62
284.67	303.62
284.901	294.62
285.132	294.62
285.364	285.62
285.595	290.62
285.826	287.62
286.057	288.62
286.288	297.62
286.52	281.62
286.751	301.62
286.982	295.62
287.213	309.62
287.444	275.62
287.675	313.62
287.906	323.62
288.138	331.62
288.369	337.62
288.6	321.62
288.831	310.62
289.062	314.62
289.293	306.62
289.524	325.62
289.755	315.62
289.986	307.62
290.217	321.62
290.448	306.62
290.679	309.62
290.91	323.62
291.141	290.62
291.371	316.62
291.602	303.62
291.833	312.62
292.064	296.62
292.295	315.62
292.526	308.62
292.757	314.62
292.987	307.62
293.218	320.62
293.449	306.62
293.68	312.62
293.91	293.62
294.141	297.62
294.372	315.62
294.603	311.62
294.833	314.62
295.064	312.62
295.295	305.62
295.525	284.62
295.756	309.62
295.987	303.62
296.217	356.62
296.448	371.62
296.679	334.62
296.909	307.62
297.14	297.62
297.37	319.62
297.601	327.62
297.831	321.62
298.062	319.62
298.292	327.62
298.523	349.62
298.753	329.62
298.984	322.62
299.214	329.62
299.445	317.62
299.675	320.62
299.905	341.62
300.136	350.62
300.366	335.62
300.597	340.62
300.827	344.62
301.057	346.62
301.288	354.62
301.518	360.62
301.748	346.62
301.979	352.62
302.209	362.62
302.439	365.62
302.669	360.62
302.9	336.62
303.13	347.62
303.36	347.62
303.59	366.62
303.82	371.62
304.051	366.62
304.281	357.62
304.511	357.62
304.741	357.62
304.971	349.62
305.201	353.62
305.431	352.62
305.661	357.62
305.891	354.62
306.121	330.62
306.352	384.62
306.582	358.62
306.812	355.62
307.042	362.62
307.272	359.62
307.502	371.62
307.731	362.62
307.961	353.62
308.191	347.62
308.421	356.62
308.651	354.62
308.881	357.62
309.111	382.62
309.341	370.62
309.571	379.62
309.8	396.62
310.03	381.62
310.26	421.62
310.49	390.62
310.72	419.62
310.949	426.62
311.179	437.62
311.409	409.62
311.639	402.62
311.868	389.62
312.098	412.62
312.328	420.62
312.557	422.62
312.787	443.62
313.017	443.62
313.246	425.62
313.476	411.62
313.706	410.62
313.935	410.62
314.165	452.62
314.394	432.62
314.624	459.62
314.853	428.62
315.083	407.62
315.312	401.62
315.542	403.62
315.771	422.62
316.001	425.62
316.23	405.62
316.46	403.62
316.689	413.62
316.919	406.62
317.148	409.62
317.377	413.62
317.607	443.62
317.836	411.62
318.065	432.62
318.295	399.62
318.524	392.62
318.753	413.62
318.983	395.62
319.212	424.62
319.441	438.62
319.67	433.62
319.9	417.62
320.129	405.62
320.358	425.62
320.587	426.62
320.816	430.62
321.046	425.62
321.275	445.62
321.504	433.62
321.733	435.62
321.962	453.62
322.191	457.62
322.42	482.62
322.649	470.62
322.878	499.62
323.108	509.62
323.337	528.62
323.566	572.62
323.795	594.62
324.024	637.62
324.253	767.62
324.482	1099.62
324.71	1705.62
324.939	2467.62
325.168	2199.62
325.397	1133.62
325.626	776.62
325.855	635.62
326.084	587.62
326.313	587.62
326.542	587.62
326.77	618.62
326.999	735.62
327.228	975.62
327.457	1529.62
327.686	1869.62
327.914	1237.62
328.143	853.62
328.372	701.62
328.6	639.62
328.829	609.62
329.058	652.62
329.287	633.62
329.515	633.62
329.744	553.62
329.972	543.62
330.201	536.62
330.43	586.62
330.658	611.62
330.887	674.62
331.115	646.62
331.344	591.62
331.572	546.62
331.801	531.62
332.03	536.62
332.258	526.62
332.486	483.62
332.715	510.62
332.943	520.62
333.172	486.62
333.4	479.62
333.629	502.62
333.857	532.62
334.085	512.62
334.314	511.62
334.542	502.62
334.771	523.62
334.999	536.62
335.227	500.62
335.455	495.62
335.684	506.62
335.912	504.62
336.14	472.62
336.369	489.62
336.597	515.62
336.825	507.62
337.053	480.62
337.281	489.62
337.51	486.62
337.738	491.62
337.966	513.62
338.194	495.62
338.422	475.62
338.65	463.62
338.878	479.62
339.106	473.62
339.334	472.62
339.562	458.62
339.79	469.62
340.018	485.62
340.246	489.62
340.474	501.62
340.702	482.62
340.93	477.62
341.158	467.62
341.386	477.62
341.614	502.62
341.842	458.62
342.07	460.62
342.298	463.62
342.526	469.62
342.754	466.62
342.981	452.62
343.209	455.62
343.437	469.62
343.665	485.62
343.893	483.62
344.12	505.62
344.348	483.62
344.576	501.62
344.804	516.62
345.031	495.62
345.259	500.62
345.487	509.62
345.714	470.62
345.942	453.62
346.17	465.62
346.397	464.62
346.625	455.62
346.853	457.62
347.08	462.62
347.308	474.62
347.535	479.62
347.763	483.62
347.99	464.62
348.218	482.62
348.445	495.62
348.673	490.62
348.9	469.62
349.128	460.62
349.355	432.62
349.583	467.62
349.81	456.62
350.037	433.62
350.265	450.62
350.492	429.62
350.72	457.62
350.947	457.62
351.174	455.62
351.402	477.62
351.629	463.62
351.856	476.62
352.083	477.62
352.311	483.62
352.538	451.62
352.765	490.62
352.992	476.62
353.22	469.62
353.447	464.62
353.674	463.62
353.901	447.62
354.128	454.62
354.355	430.62
354.583	467.62
354.81	415.62
355.037	431.62
355.264	433.62
355.491	414.62
355.718	405.62
355.945	436.62
356.172	436.62
356.399	444.62
356.626	437.62
356.853	445.62
357.08	440.62
357.307	426.62
357.534	449.62
357.761	426.62
357.988	431.62
358.215	426.62
358.441	445.62
358.668	442.62
358.895	433.62
359.122	456.62
359.349	461.62
359.576	480.62
359.802	482.62
360.029	521.62
360.256	535.62
360.483	503.62
360.709	490.62
360.936	486.62
361.163	466.62
361.39	488.62
361.616	485.62
361.843	483.62
362.07	461.62
362.296	477.62
362.523	468.62
362.749	468.62
362.976	467.62
363.203	458.62
363.429	443.62
363.656	459.62
363.882	453.62
364.109	451.62
364.335	449.62
364.562	446.62
364.788	462.62
365.015	440.62
365.241	449.62
365.468	451.62
365.694	467.62
365.92	469.62
366.147	427.62
366.373	439.62
366.599	429.62
366.826	440.62
367.052	441.62
367.278	443.62
367.505	453.62
367.731	477.62
367.957	433.62
368.184	432.62
368.41	460.62
368.636	459.62
368.862	455.62
369.089	464.62
369.315	435.62
369.541	445.62
369.767	443.62
369.993	452.62
370.219	430.62
370.445	455.62
370.672	458.62
370.898	424.62
371.124	465.62
371.35	452.62
371.576	446.62
371.802	469.62
372.028	449.62
372.254	460.62
372.48	461.62
372.706	440.62
372.932	466.62
373.158	459.62
373.384	442.62
373.61	455.62
373.835	464.62
374.061	438.62
374.287	458.62
374.513	465.62
374.739	485.62
374.965	455.62
375.191	456.62
375.416	472.62
375.642	474.62
375.868	459.62
376.094	470.62
376.319	451.62
376.545	439.62
376.771	438.62
376.997	452.62
377.222	457.62
377.448	433.62
377.674	427.62
377.899	421.62
378.125	451.62
378.35	445.62
378.576	446.62
378.802	446.62
379.027	445.62
379.253	427.62
379.478	437.62
379.704	442.62
379.929	461.62
380.155	451.62
380.38	466.62
380.606	459.62
380.831	450.62
381.057	447.62
381.282	466.62
381.507	445.62
381.733	455.62
381.958	442.62
382.184	450.62
382.409	463.62
382.634	467.62
382.86	461.62
383.085	455.62
383.31	487.62
383.535	477.62
383.761	464.62
383.986	471.62
384.211	481.62
384.436	463.62
384.662	466.62
384.887	494.62
385.112	467.62
385.337	503.62
385.562	497.62
385.787	464.62
386.013	517.62
386.238	495.62
386.463	509.62
386.688	505.62
386.913	503.62
387.138	481.62
387.363	507.62
387.588	488.62
387.813	487.62
388.038	501.62
388.263	511.62
388.488	487.62
388.713	501.62
388.938	485.62
389.163	493.62
389.387	505.62
389.612	509.62
389.837	507.62
390.062	499.62
390.287	490.62
390.512	499.62
390.736	509.62
390.961	490.62
391.186	508.62
391.411	498.62
391.636	510.62
391.86	526.62
392.085	527.62
392.31	527.62
392.534	506.62
392.759	513.62
392.984	512.62
393.208	513.62
393.433	519.62
393.658	542.62
393.882	517.62
394.107	498.62
394.331	490.62
394.556	517.62
394.78	508.62
395.005	524.62
395.229	523.62
395.454	515.62
395.678	532.62
395.903	552.62
396.127	569.62
396.352	570.62
396.576	523.62
396.801	519.62
397.025	514.62
397.249	527.62
397.474	539.62
397.698	564.62
397.922	547.62
398.147	567.62
398.371	591.62
398.595	565.62
398.82	572.62
399.044	571.62
399.268	619.62
399.492	627.62
399.717	687.62
399.941	680.62
400.165	721.62
400.389	722.62
400.613	674.62
400.837	636.62
401.062	611.62
401.286	573.62
401.51	576.62
401.734	585.62
401.958	576.62
402.182	578.62
402.406	607.62
402.63	597.62
402.854	602.62
403.078	603.62
403.302	613.62
403.526	616.62
403.75	607.62
403.974	586.62
404.198	591.62
404.422	609.62
404.645	609.62
404.869	591.62
405.093	621.62
405.317	678.62
405.541	699.62
405.765	662.62
405.988	645.62
406.212	639.62
406.436	661.62
406.66	697.62
406.883	667.62
407.107	699.62
407.331	731.62
407.555	802.62
407.778	799.62
408.002	746.62
408.226	683.62
408.449	679.62
408.673	663.62
408.896	687.62
409.12	769.62
409.344	714.62
409.567	626.62
409.791	626.62
410.014	632.62
410.238	603.62
410.461	659.62
410.685	626.62
410.908	639.62
411.132	656.62
411.355	688.62
411.578	665.62
411.802	626.62
412.025	600.62
412.249	592.62
412.472	636.62
412.695	626.62
412.919	616.62
413.142	585.62
413.365	575.62
413.589	593.62
413.812	566.62
414.035	573.62
414.258	599.62
414.482	588.62
414.705	565.62
414.928	581.62
415.151	587.62
415.374	550.62
415.597	551.62
415.821	569.62
416.044	559.62
416.267	554.62
416.49	552.62
416.713	549.62
416.936	573.62
417.159	564.62
417.382	576.62
417.605	561.62
417.828	590.62
418.051	592.62
418.274	596.62
418.497	576.62
418.72	582.62
418.943	558.62
419.166	568.62
419.389	618.62
419.611	603.62
419.834	610.62
420.057	588.62
420.28	581.62
420.503	579.62
420.726	593.62
420.948	587.62
421.171	662.62
421.394	686.62
421.617	610.62
421.839	610.62
422.062	620.62
422.285	623.62
422.507	689.62
422.73	759.62
422.953	734.62
423.175	633.62
423.398	644.62
423.621	614.62
423.843	637.62
424.066	663.62
424.288	639.62
424.511	671.62
424.733	707.62
424.956	828.62
425.178	754.62
425.401	770.62
425.623	801.62
425.846	709.62
426.068	639.62
426.291	631.62
426.513	655.62
426.735	660.62
426.958	705.62
427.18	780.62
427.402	921.62
427.625	1028.62
427.847	914.62
428.069	757.62
428.292	653.62
428.514	653.62
428.736	628.62
428.958	616.62
429.181	596.62
429.403	587.62
429.625	613.62
429.847	646.62
430.069	726.62
430.292	735.62
430.514	631.62
430.736	597.62
430.958	588.62
431.18	589.62
431.402	584.62
431.624	561.62
431.846	534.62
432.068	551.62
432.29	587.62
432.512	560.62
432.734	586.62
432.956	575.62
433.178	582.62
433.4	584.62
433.622	579.62
433.844	569.62
434.066	570.62
434.287	573.62
434.509	562.62
434.731	593.62
434.953	600.62
435.175	599.62
435.397	633.62
435.618	656.62
435.84	699.62
436.062	809.62
436.284	865.62
436.505	733.62
436.727	678.62
436.949	626.62
437.17	595.62
437.392	596.62
437.614	617.62
437.835	656.62
438.057	771.62
438.278	870.62
438.5	882.62
438.721	953.62
438.943	906.62
439.165	738.62
439.386	686.62
439.608	658.62
439.829	660.62
440.05	682.62
440.272	737.62
440.493	669.62
440.715	655.62
440.936	624.62
441.158	614.62
441.379	621.62
441.6	634.62
441.822	642.62
442.043	691.62
442.264	794.62
442.486	842.62
442.707	707.62
442.928	659.62
443.149	658.62
443.371	690.62
443.592	754.62
443.813	877.62
444.034	927.62
444.255	782.62
444.476	679.62
444.698	665.62
444.919	657.62
445.14	788.62
445.361	719.62
445.582	700.62
445.803	768.62
446.024	876.62
446.245	904.62
446.466	817.62
446.687	711.62
446.908	639.62
447.129	623.62
447.35	610.62
447.571	602.62
447.792	614.62
448.013	605.62
448.234	647.62
448.455	675.62
448.675	798.62
448.896	967.62
449.117	788.62
449.338	761.62
449.559	873.62
449.779	986.62
450	794.62
450.221	654.62
450.442	617.62
450.662	594.62
450.883	618.62
451.104	617.62
451.324	624.62
451.545	577.62
451.766	550.62
451.986	561.62
452.207	541.62
452.428	527.62
452.648	551.62
452.869	559.62
453.089	547.62
453.31	591.62
453.53	554.62
453.751	543.62
453.971	527.62
454.192	573.62
454.412	554.62
454.633	551.62
454.853	548.62
455.073	544.62
455.294	601.62
455.514	658.62
455.734	612.62
455.955	541.62
456.175	495.62
456.395	517.62
456.616	489.62
456.836	481.62
457.056	521.62
457.276	491.62
457.497	515.62
457.717	514.62
457.937	515.62
458.157	527.62
458.377	529.62
458.598	562.62
458.818	614.62
459.038	693.62
459.258	723.62
459.478	633.62
459.698	582.62
459.918	571.62
460.138	573.62
460.358	573.62
460.578	560.62
460.798	600.62
461.018	578.62
461.238	591.62
461.458	585.62
461.678	578.62
461.898	583.62
462.118	568.62
462.338	584.62
462.558	591.62
462.777	609.62
462.997	632.62
463.217	636.62
463.437	648.62
463.657	641.62
463.876	637.62
464.096	626.62
464.316	651.62
464.536	633.62
464.755	625.62
464.975	628.62
465.195	665.62
465.414	763.62
465.634	677.62
465.854	629.62
466.073	595.62
466.293	577.62
466.512	569.62
466.732	553.62
466.951	546.62
467.171	573.62
467.391	569.62
467.61	565.62
467.829	567.62
468.049	560.62
468.268	540.62
468.488	533.62
468.707	522.62
468.927	519.62
469.146	553.62
469.365	537.62
469.585	561.62
469.804	545.62
470.023	573.62
470.243	566.62
470.462	560.62
470.681	587.62
470.901	576.62
471.12	568.62
471.339	570.62
471.558	574.62
471.777	565.62
471.997	542.62
472.216	542.62
472.435	540.62
472.654	577.62
472.873	566.62
473.092	561.62
473.311	558.62
473.53	551.62
473.749	554.62
473.968	613.62
474.187	714.62
474.406	736.62
474.625	639.62
474.844	581.62
475.063	552.62
475.282	555.62
475.501	588.62
475.72	577.62
475.939	574.62
476.158	566.62
476.377	589.62
476.596	583.62
476.814	581.62
477.033	581.62
477.252	606.62
477.471	599.62
477.69	594.62
477.908	609.62
478.127	606.62
478.346	613.62
478.564	626.62
478.783	619.62
479.002	626.62
479.22	632.62
479.439	668.62
479.658	673.62
479.876	661.62
480.095	671.62
480.313	694.62
480.532	708.62
480.751	692.62
480.969	698.62
481.188	689.62
481.406	687.62
481.624	657.62
481.843	658.62
482.061	656.62
482.28	662.62
482.498	638.62
482.717	641.62
482.935	659.62
483.153	641.62
483.372	621.62
483.59	654.62
483.808	644.62
484.027	627.62
484.245	659.62
484.463	661.62
484.681	664.62
484.9	669.62
485.118	680.62
485.336	678.62
485.554	690.62
485.772	661.62
485.99	658.62
486.209	657.62
486.427	689.62
486.645	696.62
486.863	714.62
487.081	716.62
487.299	721.62
487.517	664.62
487.735	709.62
487.953	683.62
488.171	701.62
488.389	727.62
488.607	703.62
488.825	703.62
489.043	720.62
489.261	719.62
489.479	720.62
489.696	703.62
489.914	711.62
490.132	752.62
490.35	747.62
490.568	741.62
490.786	719.62
491.003	737.62
491.221	777.62
491.439	780.62
491.657	759.62
491.874	784.62
492.092	776.62
492.31	783.62
492.527	787.62
492.745	798.62
492.963	790.62
493.18	799.62
493.398	817.62
493.615	810.62
493.833	807.62
494.05	835.62
494.268	808.62
494.485	816.62
494.703	808.62
494.92	779.62
495.138	839.62
495.355	830.62
495.573	803.62
495.79	821.62
496.008	841.62
496.225	832.62
496.442	838.62
496.66	846.62
496.877	871.62
497.094	864.62
497.312	840.62
497.529	841.62
497.746	868.62
497.963	866.62
498.181	906.62
498.398	929.62
498.615	931.62
498.832	950.62
499.049	953.62
499.267	1034.62
499.484	1021.62
499.701	1063.62
499.918	1075.62
500.135	1161.62
500.352	1204.62
500.569	1213.62
500.786	1219.62
501.003	1211.62
501.22	1163.62
501.437	1152.62
501.654	1099.62
