Data from 1988.PennyLincolnUp.Lamp.En5.5.200Scan.071819.P2_HRD10591_17-18-30-971.txt Node
Date: Thu Jul 18 17:18:30 EDT 2019
User: cochatt
Spectrometer: HR+D1059
Trigger mode: 1
Integration Time (sec): 1.000000E-1
Scans to average: 1
Electric dark correction enabled: true
Nonlinearity correction enabled: false
Boxcar width: 0
XAxis mode: Wavelengths
Number of Pixels in Spectrum: 2048
>>>>>Begin Spectral Data<<<<<
223.165	-7.75
223.4	-7.75
223.635	-7.75
223.869	-7.75
224.104	-5.75
224.338	-22.75
224.573	-18.75
224.808	-17.75
225.042	-14.75
225.277	-26.75
225.511	2.25
225.746	5.25
225.98	13.25
226.215	7.25
226.449	23.25
226.683	26.25
226.918	10.25
227.152	34.25
227.387	28.25
227.621	31.25
227.856	47.25
228.09	41.25
228.324	44.25
228.559	55.25
228.793	63.25
229.027	86.25
229.262	99.25
229.496	121.25
229.73	127.25
229.964	125.25
230.199	111.25
230.433	96.25
230.667	113.25
230.901	97.25
231.136	112.25
231.37	96.25
231.604	99.25
231.838	107.25
232.072	109.25
232.306	104.25
232.541	120.25
232.775	107.25
233.009	102.25
233.243	104.25
233.477	102.25
233.711	113.25
233.945	117.25
234.179	114.25
234.413	118.25
234.647	110.25
234.881	111.25
235.115	126.25
235.349	119.25
235.583	93.25
235.817	117.25
236.051	117.25
236.285	121.25
236.519	119.25
236.753	131.25
236.987	127.25
237.221	172.25
237.455	203.25
237.689	159.25
237.922	126.25
238.156	129.25
238.39	126.25
238.624	112.25
238.858	119.25
239.091	137.25
239.325	126.25
239.559	115.25
239.793	121.25
240.027	112.25
240.26	124.25
240.494	141.25
240.728	139.25
240.961	126.25
241.195	131.25
241.429	125.25
241.662	112.25
241.896	117.25
242.13	127.25
242.363	123.25
242.597	126.25
242.83	131.25
243.064	135.25
243.298	146.25
243.531	130.25
243.765	151.25
243.998	147.25
244.232	145.25
244.465	140.25
244.699	127.25
244.932	124.25
245.166	125.25
245.399	136.25
245.633	140.25
245.866	141.25
246.099	145.25
246.333	131.25
246.566	151.25
246.8	137.25
247.033	155.25
247.266	153.25
247.5	149.25
247.733	165.25
247.966	149.25
248.2	154.25
248.433	158.25
248.666	156.25
248.899	165.25
249.133	158.25
249.366	177.25
249.599	175.25
249.832	185.25
250.066	166.25
250.299	155.25
250.532	169.25
250.765	177.25
250.998	179.25
251.231	190.25
251.465	182.25
251.698	180.25
251.931	172.25
252.164	170.25
252.397	170.25
252.63	197.25
252.863	183.25
253.096	208.25
253.329	189.25
253.562	193.25
253.795	196.25
254.028	197.25
254.261	193.25
254.494	186.25
254.727	207.25
254.96	226.25
255.193	227.25
255.426	219.25
255.659	202.25
255.892	201.25
256.124	207.25
256.357	197.25
256.59	189.25
256.823	182.25
257.056	185.25
257.289	179.25
257.521	188.25
257.754	172.25
257.987	196.25
258.22	191.25
258.452	193.25
258.685	199.25
258.918	200.25
259.151	197.25
259.383	199.25
259.616	190.25
259.849	201.25
260.081	205.25
260.314	221.25
260.547	224.25
260.779	204.25
261.012	190.25
261.244	205.25
261.477	213.25
261.71	215.25
261.942	205.25
262.175	207.25
262.407	201.25
262.64	189.25
262.872	217.25
263.105	177.25
263.337	211.25
263.57	183.25
263.802	194.25
264.035	187.25
264.267	185.25
264.499	176.25
264.732	197.25
264.964	199.25
265.197	196.25
265.429	204.25
265.661	198.25
265.894	191.25
266.126	212.25
266.358	199.25
266.591	200.25
266.823	210.25
267.055	218.25
267.287	196.25
267.52	197.25
267.752	186.25
267.984	210.25
268.216	200.25
268.448	201.25
268.681	207.25
268.913	222.25
269.145	241.25
269.377	249.25
269.609	227.25
269.841	253.25
270.073	238.25
270.306	236.25
270.538	275.25
270.77	268.25
271.002	261.25
271.234	245.25
271.466	254.25
271.698	274.25
271.93	271.25
272.162	273.25
272.394	259.25
272.626	256.25
272.858	250.25
273.09	240.25
273.322	237.25
273.553	246.25
273.785	235.25
274.017	217.25
274.249	254.25
274.481	251.25
274.713	252.25
274.945	234.25
275.176	239.25
275.408	239.25
275.64	233.25
275.872	234.25
276.104	258.25
276.335	244.25
276.567	245.25
276.799	242.25
277.031	260.25
277.262	271.25
277.494	268.25
277.726	262.25
277.957	263.25
278.189	264.25
278.421	253.25
278.652	250.25
278.884	233.25
279.115	234.25
279.347	259.25
279.579	230.25
279.81	236.25
280.042	237.25
280.273	253.25
280.505	244.25
280.736	258.25
280.968	247.25
281.199	248.25
281.431	255.25
281.662	269.25
281.894	262.25
282.125	248.25
282.356	267.25
282.588	269.25
282.819	266.25
283.051	273.25
283.282	239.25
283.513	246.25
283.745	248.25
283.976	276.25
284.207	253.25
284.439	272.25
284.67	267.25
284.901	245.25
285.132	257.25
285.364	271.25
285.595	259.25
285.826	266.25
286.057	243.25
286.288	242.25
286.52	258.25
286.751	253.25
286.982	277.25
287.213	259.25
287.444	270.25
287.675	269.25
287.906	289.25
288.138	289.25
288.369	290.25
288.6	271.25
288.831	269.25
289.062	269.25
289.293	259.25
289.524	268.25
289.755	279.25
289.986	299.25
290.217	288.25
290.448	255.25
290.679	265.25
290.91	286.25
291.141	268.25
291.371	277.25
291.602	268.25
291.833	271.25
292.064	250.25
292.295	282.25
292.526	285.25
292.757	288.25
292.987	271.25
293.218	258.25
293.449	270.25
293.68	299.25
293.91	291.25
294.141	273.25
294.372	281.25
294.603	290.25
294.833	255.25
295.064	308.25
295.295	283.25
295.525	278.25
295.756	277.25
295.987	300.25
296.217	298.25
296.448	305.25
296.679	297.25
296.909	270.25
297.14	288.25
297.37	272.25
297.601	278.25
297.831	276.25
298.062	270.25
298.292	283.25
298.523	293.25
298.753	306.25
298.984	286.25
299.214	291.25
299.445	279.25
299.675	287.25
299.905	307.25
300.136	300.25
300.366	306.25
300.597	277.25
300.827	311.25
301.057	300.25
301.288	312.25
301.518	296.25
301.748	323.25
301.979	303.25
302.209	297.25
302.439	289.25
302.669	307.25
302.9	300.25
303.13	323.25
303.36	321.25
303.59	307.25
303.82	304.25
304.051	298.25
304.281	305.25
304.511	303.25
304.741	305.25
304.971	310.25
305.201	298.25
305.431	319.25
305.661	296.25
305.891	313.25
306.121	320.25
306.352	303.25
306.582	328.25
306.812	311.25
307.042	310.25
307.272	315.25
307.502	301.25
307.731	324.25
307.961	319.25
308.191	291.25
308.421	308.25
308.651	303.25
308.881	303.25
309.111	324.25
309.341	338.25
309.571	334.25
309.8	340.25
310.03	330.25
310.26	341.25
310.49	348.25
310.72	344.25
310.949	367.25
311.179	362.25
311.409	331.25
311.639	355.25
311.868	348.25
312.098	357.25
312.328	335.25
312.557	355.25
312.787	369.25
313.017	369.25
313.246	368.25
313.476	345.25
313.706	345.25
313.935	350.25
314.165	344.25
314.394	374.25
314.624	364.25
314.853	362.25
315.083	368.25
315.312	359.25
315.542	349.25
315.771	356.25
316.001	361.25
316.23	346.25
316.46	348.25
316.689	343.25
316.919	352.25
317.148	371.25
317.377	361.25
317.607	360.25
317.836	368.25
318.065	357.25
318.295	343.25
318.524	341.25
318.753	355.25
318.983	341.25
319.212	374.25
319.441	371.25
319.67	358.25
319.9	369.25
320.129	367.25
320.358	363.25
320.587	354.25
320.816	397.25
321.046	372.25
321.275	363.25
321.504	361.25
321.733	370.25
321.962	377.25
322.191	389.25
322.42	376.25
322.649	420.25
322.878	379.25
323.108	421.25
323.337	428.25
323.566	445.25
323.795	472.25
324.024	468.25
324.253	548.25
324.482	756.25
324.71	1154.25
324.939	1658.25
325.168	1407.25
325.397	739.25
325.626	546.25
325.855	479.25
326.084	443.25
326.313	454.25
326.542	443.25
326.77	467.25
326.999	527.25
327.228	693.25
327.457	1037.25
327.686	1240.25
327.914	836.25
328.143	594.25
328.372	515.25
328.6	487.25
328.829	478.25
329.058	486.25
329.287	480.25
329.515	453.25
329.744	424.25
329.972	410.25
330.201	429.25
330.43	448.25
330.658	477.25
330.887	502.25
331.115	507.25
331.344	439.25
331.572	438.25
331.801	405.25
332.03	438.25
332.258	416.25
332.486	417.25
332.715	425.25
332.943	421.25
333.172	406.25
333.4	418.25
333.629	429.25
333.857	412.25
334.085	437.25
334.314	439.25
334.542	429.25
334.771	427.25
334.999	441.25
335.227	424.25
335.455	441.25
335.684	426.25
335.912	412.25
336.14	428.25
336.369	410.25
336.597	406.25
336.825	419.25
337.053	426.25
337.281	424.25
337.51	399.25
337.738	423.25
337.966	405.25
338.194	419.25
338.422	413.25
338.65	408.25
338.878	415.25
339.106	400.25
339.334	427.25
339.562	426.25
339.79	418.25
340.018	397.25
340.246	413.25
340.474	400.25
340.702	396.25
340.93	405.25
341.158	388.25
341.386	409.25
341.614	421.25
341.842	377.25
342.07	380.25
342.298	417.25
342.526	413.25
342.754	385.25
342.981	395.25
343.209	400.25
343.437	403.25
343.665	399.25
343.893	400.25
344.12	436.25
344.348	418.25
344.576	398.25
344.804	420.25
345.031	432.25
345.259	392.25
345.487	418.25
345.714	421.25
345.942	412.25
346.17	411.25
346.397	388.25
346.625	385.25
346.853	394.25
347.08	380.25
347.308	401.25
347.535	405.25
347.763	413.25
347.99	397.25
348.218	400.25
348.445	398.25
348.673	401.25
348.9	398.25
349.128	397.25
349.355	385.25
349.583	373.25
349.81	391.25
350.037	370.25
350.265	373.25
350.492	387.25
350.72	373.25
350.947	386.25
351.174	412.25
351.402	405.25
351.629	382.25
351.856	393.25
352.083	395.25
352.311	389.25
352.538	401.25
352.765	369.25
352.992	382.25
353.22	369.25
353.447	388.25
353.674	389.25
353.901	387.25
354.128	361.25
354.355	365.25
354.583	370.25
354.81	353.25
355.037	375.25
355.264	381.25
355.491	373.25
355.718	370.25
355.945	362.25
356.172	379.25
356.399	369.25
356.626	391.25
356.853	362.25
357.08	387.25
357.307	358.25
357.534	379.25
357.761	397.25
357.988	376.25
358.215	372.25
358.441	381.25
358.668	396.25
358.895	383.25
359.122	362.25
359.349	383.25
359.576	381.25
359.802	412.25
360.029	409.25
360.256	424.25
360.483	419.25
360.709	379.25
360.936	379.25
361.163	396.25
361.39	391.25
361.616	382.25
361.843	384.25
362.07	396.25
362.296	389.25
362.523	392.25
362.749	383.25
362.976	395.25
363.203	380.25
363.429	385.25
363.656	387.25
363.882	391.25
364.109	380.25
364.335	388.25
364.562	384.25
364.788	370.25
365.015	383.25
365.241	385.25
365.468	370.25
365.694	389.25
365.92	391.25
366.147	385.25
366.373	379.25
366.599	376.25
366.826	404.25
367.052	372.25
367.278	373.25
367.505	376.25
367.731	391.25
367.957	379.25
368.184	377.25
368.41	376.25
368.636	402.25
368.862	380.25
369.089	371.25
369.315	381.25
369.541	384.25
369.767	376.25
369.993	408.25
370.219	371.25
370.445	398.25
370.672	398.25
370.898	378.25
371.124	381.25
371.35	405.25
371.576	390.25
371.802	376.25
372.028	389.25
372.254	385.25
372.48	396.25
372.706	405.25
372.932	408.25
373.158	400.25
373.384	398.25
373.61	371.25
373.835	359.25
374.061	375.25
374.287	375.25
374.513	395.25
374.739	389.25
374.965	399.25
375.191	378.25
375.416	394.25
375.642	395.25
375.868	395.25
376.094	392.25
376.319	373.25
376.545	383.25
376.771	390.25
376.997	379.25
377.222	403.25
377.448	401.25
377.674	411.25
377.899	403.25
378.125	387.25
378.35	384.25
378.576	388.25
378.802	375.25
379.027	387.25
379.253	373.25
379.478	376.25
379.704	406.25
379.929	383.25
380.155	391.25
380.38	384.25
380.606	390.25
380.831	401.25
381.057	392.25
381.282	381.25
381.507	375.25
381.733	402.25
381.958	382.25
382.184	390.25
382.409	394.25
382.634	410.25
382.86	409.25
383.085	389.25
383.31	405.25
383.535	421.25
383.761	401.25
383.986	405.25
384.211	412.25
384.436	424.25
384.662	416.25
384.887	420.25
385.112	420.25
385.337	418.25
385.562	437.25
385.787	412.25
386.013	457.25
386.238	451.25
386.463	440.25
386.688	437.25
386.913	433.25
387.138	415.25
387.363	418.25
387.588	427.25
387.813	433.25
388.038	439.25
388.263	447.25
388.488	424.25
388.713	452.25
388.938	435.25
389.163	433.25
389.387	421.25
389.612	429.25
389.837	420.25
390.062	419.25
390.287	427.25
390.512	420.25
390.736	432.25
390.961	424.25
391.186	442.25
391.411	428.25
391.636	427.25
391.86	436.25
392.085	449.25
392.31	439.25
392.534	439.25
392.759	437.25
392.984	443.25
393.208	439.25
393.433	451.25
393.658	445.25
393.882	426.25
394.107	410.25
394.331	431.25
394.556	449.25
394.78	453.25
395.005	424.25
395.229	437.25
395.454	449.25
395.678	457.25
395.903	444.25
396.127	448.25
396.352	459.25
396.576	449.25
396.801	470.25
397.025	467.25
397.249	451.25
397.474	451.25
397.698	457.25
397.922	471.25
398.147	504.25
398.371	491.25
398.595	477.25
398.82	473.25
399.044	484.25
399.268	499.25
399.492	565.25
399.717	563.25
399.941	585.25
400.165	610.25
400.389	624.25
400.613	559.25
400.837	539.25
401.062	529.25
401.286	518.25
401.51	499.25
401.734	506.25
401.958	497.25
402.182	483.25
402.406	501.25
402.63	486.25
402.854	484.25
403.078	492.25
403.302	507.25
403.526	488.25
403.75	511.25
403.974	522.25
404.198	501.25
404.422	493.25
404.645	509.25
404.869	507.25
405.093	525.25
405.317	543.25
405.541	571.25
405.765	537.25
405.988	499.25
406.212	521.25
406.436	527.25
406.66	541.25
406.883	547.25
407.107	542.25
407.331	604.25
407.555	648.25
407.778	655.25
408.002	607.25
408.226	563.25
408.449	562.25
408.673	561.25
408.896	572.25
409.12	629.25
409.344	590.25
409.567	537.25
409.791	527.25
410.014	513.25
410.238	515.25
410.461	536.25
410.685	512.25
410.908	552.25
411.132	563.25
411.355	575.25
411.578	557.25
411.802	525.25
412.025	507.25
412.249	514.25
412.472	499.25
412.695	503.25
412.919	525.25
413.142	504.25
413.365	482.25
413.589	488.25
413.812	464.25
414.035	466.25
414.258	478.25
414.482	482.25
414.705	459.25
414.928	473.25
415.151	473.25
415.374	477.25
415.597	468.25
415.821	469.25
416.044	469.25
416.267	483.25
416.49	483.25
416.713	469.25
416.936	463.25
417.159	490.25
417.382	471.25
417.605	488.25
417.828	487.25
418.051	493.25
418.274	492.25
418.497	483.25
418.72	466.25
418.943	455.25
419.166	489.25
419.389	518.25
419.611	501.25
419.834	515.25
420.057	482.25
420.28	490.25
420.503	480.25
420.726	480.25
420.948	512.25
421.171	533.25
421.394	567.25
421.617	507.25
421.839	496.25
422.062	481.25
422.285	505.25
422.507	551.25
422.73	601.25
422.953	584.25
423.175	526.25
423.398	531.25
423.621	490.25
423.843	526.25
424.066	529.25
424.288	533.25
424.511	534.25
424.733	588.25
424.956	651.25
425.178	649.25
425.401	628.25
425.623	666.25
425.846	577.25
426.068	523.25
426.291	529.25
426.513	520.25
426.735	523.25
426.958	579.25
427.18	626.25
427.402	730.25
427.625	795.25
427.847	678.25
428.069	600.25
428.292	541.25
428.514	515.25
428.736	508.25
428.958	521.25
429.181	463.25
429.403	495.25
429.625	487.25
429.847	523.25
430.069	561.25
430.292	574.25
430.514	513.25
430.736	499.25
430.958	488.25
431.18	470.25
431.402	479.25
431.624	464.25
431.846	453.25
432.068	457.25
432.29	473.25
432.512	473.25
432.734	481.25
432.956	475.25
433.178	481.25
433.4	474.25
433.622	480.25
433.844	474.25
434.066	452.25
434.287	459.25
434.509	479.25
434.731	502.25
434.953	499.25
435.175	489.25
435.397	525.25
435.618	487.25
435.84	539.25
436.062	628.25
436.284	687.25
436.505	591.25
436.727	528.25
436.949	512.25
437.17	492.25
437.392	476.25
437.614	520.25
437.835	542.25
438.057	599.25
438.278	697.25
438.5	684.25
438.721	730.25
438.943	721.25
439.165	552.25
439.386	515.25
439.608	520.25
439.829	525.25
440.05	547.25
440.272	584.25
440.493	548.25
440.715	520.25
440.936	518.25
441.158	498.25
441.379	491.25
441.6	500.25
441.822	504.25
442.043	548.25
442.264	609.25
442.486	658.25
442.707	593.25
442.928	522.25
443.149	535.25
443.371	538.25
443.592	576.25
443.813	693.25
444.034	739.25
444.255	636.25
444.476	561.25
444.698	559.25
444.919	536.25
445.14	621.25
445.361	580.25
445.582	563.25
445.803	618.25
446.024	695.25
446.245	707.25
446.466	636.25
446.687	547.25
446.908	507.25
447.129	509.25
447.35	521.25
447.571	491.25
447.792	469.25
448.013	481.25
448.234	483.25
448.455	532.25
448.675	646.25
448.896	729.25
449.117	641.25
449.338	608.25
449.559	716.25
449.779	801.25
450	636.25
450.221	529.25
450.442	455.25
450.662	443.25
450.883	470.25
451.104	497.25
451.324	469.25
451.545	444.25
451.766	444.25
451.986	453.25
452.207	439.25
452.428	423.25
452.648	443.25
452.869	425.25
453.089	434.25
453.31	467.25
453.53	448.25
453.751	447.25
453.971	444.25
454.192	439.25
454.412	463.25
454.633	436.25
454.853	459.25
455.073	422.25
455.294	444.25
455.514	481.25
455.734	490.25
455.955	435.25
456.175	428.25
456.395	393.25
456.616	429.25
456.836	436.25
457.056	421.25
457.276	409.25
457.497	443.25
457.717	428.25
457.937	428.25
458.157	436.25
458.377	451.25
458.598	428.25
458.818	490.25
459.038	554.25
459.258	588.25
459.478	508.25
459.698	486.25
459.918	464.25
460.138	471.25
460.358	474.25
460.578	468.25
460.798	495.25
461.018	517.25
461.238	485.25
461.458	478.25
461.678	490.25
461.898	508.25
462.118	495.25
462.338	512.25
462.558	534.25
462.777	522.25
462.997	521.25
463.217	559.25
463.437	546.25
463.657	553.25
463.876	524.25
464.096	513.25
464.316	529.25
464.536	520.25
464.755	519.25
464.975	512.25
465.195	542.25
465.414	588.25
465.634	533.25
465.854	497.25
466.073	471.25
466.293	465.25
466.512	470.25
466.732	484.25
466.951	469.25
467.171	442.25
467.391	445.25
467.61	468.25
467.829	464.25
468.049	461.25
468.268	451.25
468.488	449.25
468.707	450.25
468.927	460.25
469.146	441.25
469.365	433.25
469.585	467.25
469.804	465.25
470.023	450.25
470.243	456.25
470.462	465.25
470.681	467.25
470.901	477.25
471.12	453.25
471.339	469.25
471.558	470.25
471.777	467.25
471.997	446.25
472.216	441.25
472.435	456.25
472.654	456.25
472.873	485.25
473.092	464.25
473.311	444.25
473.53	471.25
473.749	467.25
473.968	505.25
474.187	570.25
474.406	588.25
474.625	508.25
474.844	470.25
475.063	471.25
475.282	497.25
475.501	465.25
475.72	475.25
475.939	484.25
476.158	468.25
476.377	491.25
476.596	470.25
476.814	482.25
477.033	485.25
477.252	493.25
477.471	530.25
477.69	500.25
477.908	516.25
478.127	518.25
478.346	519.25
478.564	537.25
478.783	516.25
479.002	531.25
479.22	532.25
479.439	548.25
479.658	557.25
479.876	549.25
480.095	562.25
480.313	595.25
480.532	582.25
480.751	571.25
480.969	540.25
481.188	595.25
481.406	573.25
481.624	557.25
481.843	556.25
482.061	540.25
482.28	550.25
482.498	550.25
482.717	539.25
482.935	562.25
483.153	543.25
483.372	551.25
483.59	546.25
483.808	547.25
484.027	535.25
484.245	551.25
484.463	555.25
484.681	566.25
484.9	559.25
485.118	578.25
485.336	551.25
485.554	554.25
485.772	557.25
485.99	536.25
486.209	555.25
486.427	543.25
486.645	566.25
486.863	595.25
487.081	582.25
487.299	556.25
487.517	582.25
487.735	575.25
487.953	574.25
488.171	596.25
488.389	581.25
488.607	571.25
488.825	569.25
489.043	584.25
489.261	575.25
489.479	587.25
489.696	598.25
489.914	600.25
490.132	582.25
490.35	585.25
490.568	603.25
490.786	633.25
491.003	627.25
491.221	616.25
491.439	627.25
491.657	632.25
491.874	652.25
492.092	671.25
492.31	670.25
492.527	646.25
492.745	647.25
492.963	640.25
493.18	637.25
493.398	652.25
493.615	645.25
493.833	661.25
494.05	679.25
494.268	657.25
494.485	661.25
494.703	665.25
494.92	679.25
495.138	714.25
495.355	680.25
495.573	694.25
495.79	678.25
496.008	682.25
496.225	662.25
496.442	683.25
496.66	712.25
496.877	687.25
497.094	676.25
497.312	709.25
497.529	720.25
497.746	722.25
497.963	715.25
498.181	717.25
498.398	773.25
498.615	744.25
498.832	793.25
499.049	781.25
499.267	848.25
499.484	828.25
499.701	891.25
499.918	915.25
500.135	955.25
500.352	989.25
500.569	982.25
500.786	1008.25
501.003	999.25
501.22	963.25
501.437	924.25
501.654	880.25
501.871	900.25
502.088	846.25
