Data from 1988.PennyLincolnUp.Lamp.En5.5.200Scan.071819.P2_HRD10591_17-20-14-971.txt Node
Date: Thu Jul 18 17:20:14 EDT 2019
User: cochatt
Spectrometer: HR+D1059
Trigger mode: 1
Integration Time (sec): 1.000000E-1
Scans to average: 1
Electric dark correction enabled: true
Nonlinearity correction enabled: false
Boxcar width: 0
XAxis mode: Wavelengths
Number of Pixels in Spectrum: 2048
>>>>>Begin Spectral Data<<<<<
223.165	4.12
223.4	4.12
223.635	4.12
223.869	-18.88
224.104	-26.88
224.338	-29.88
224.573	-8.88
224.808	-15.88
225.042	-10.88
225.277	6.12
225.511	1.12
225.746	1.12
225.98	5.12
226.215	16.12
226.449	15.12
226.683	19.12
226.918	6.12
227.152	37.12
227.387	36.12
227.621	34.12
227.856	37.12
228.09	46.12
228.324	43.12
228.559	58.12
228.793	65.12
229.027	100.12
229.262	110.12
229.496	126.12
229.73	144.12
229.964	153.12
230.199	135.12
230.433	116.12
230.667	121.12
230.901	115.12
231.136	119.12
231.37	122.12
231.604	123.12
231.838	108.12
232.072	113.12
232.306	115.12
232.541	122.12
232.775	125.12
233.009	125.12
233.243	109.12
233.477	113.12
233.711	114.12
233.945	121.12
234.179	125.12
234.413	121.12
234.647	104.12
234.881	115.12
235.115	139.12
235.349	121.12
235.583	119.12
235.817	137.12
236.051	119.12
236.285	134.12
236.519	130.12
236.753	131.12
236.987	162.12
237.221	196.12
237.455	235.12
237.689	197.12
237.922	147.12
238.156	142.12
238.39	143.12
238.624	132.12
238.858	143.12
239.091	127.12
239.325	141.12
239.559	137.12
239.793	138.12
240.027	136.12
240.26	141.12
240.494	162.12
240.728	155.12
240.961	158.12
241.195	154.12
241.429	149.12
241.662	142.12
241.896	139.12
242.13	136.12
242.363	142.12
242.597	145.12
242.83	155.12
243.064	143.12
243.298	148.12
243.531	140.12
243.765	141.12
243.998	164.12
244.232	141.12
244.465	151.12
244.699	139.12
244.932	147.12
245.166	157.12
245.399	153.12
245.633	160.12
245.866	162.12
246.099	142.12
246.333	150.12
246.566	155.12
246.8	159.12
247.033	160.12
247.266	161.12
247.5	177.12
247.733	178.12
247.966	162.12
248.2	173.12
248.433	181.12
248.666	177.12
248.899	179.12
249.133	199.12
249.366	217.12
249.599	200.12
249.832	186.12
250.066	197.12
250.299	194.12
250.532	183.12
250.765	202.12
250.998	207.12
251.231	238.12
251.465	228.12
251.698	198.12
251.931	214.12
252.164	215.12
252.397	200.12
252.63	210.12
252.863	229.12
253.096	219.12
253.329	241.12
253.562	227.12
253.795	217.12
254.028	222.12
254.261	232.12
254.494	234.12
254.727	252.12
254.96	295.12
255.193	297.12
255.426	258.12
255.659	241.12
255.892	234.12
256.124	222.12
256.357	210.12
256.59	217.12
256.823	233.12
257.056	228.12
257.289	227.12
257.521	233.12
257.754	222.12
257.987	217.12
258.22	205.12
258.452	225.12
258.685	208.12
258.918	211.12
259.151	227.12
259.383	215.12
259.616	232.12
259.849	234.12
260.081	230.12
260.314	265.12
260.547	260.12
260.779	261.12
261.012	262.12
261.244	238.12
261.477	232.12
261.71	238.12
261.942	254.12
262.175	252.12
262.407	252.12
262.64	227.12
262.872	222.12
263.105	222.12
263.337	239.12
263.57	226.12
263.802	215.12
264.035	222.12
264.267	214.12
264.499	205.12
264.732	236.12
264.964	229.12
265.197	228.12
265.429	218.12
265.661	225.12
265.894	236.12
266.126	225.12
266.358	239.12
266.591	237.12
266.823	234.12
267.055	229.12
267.287	245.12
267.52	247.12
267.752	239.12
267.984	235.12
268.216	245.12
268.448	233.12
268.681	264.12
268.913	249.12
269.145	272.12
269.377	276.12
269.609	297.12
269.841	270.12
270.073	278.12
270.306	300.12
270.538	324.12
270.77	325.12
271.002	342.12
271.234	312.12
271.466	331.12
271.698	340.12
271.93	323.12
272.162	335.12
272.394	334.12
272.626	311.12
272.858	315.12
273.09	285.12
273.322	287.12
273.553	275.12
273.785	277.12
274.017	270.12
274.249	266.12
274.481	288.12
274.713	270.12
274.945	279.12
275.176	279.12
275.408	285.12
275.64	283.12
275.872	286.12
276.104	301.12
276.335	261.12
276.567	298.12
276.799	297.12
277.031	318.12
277.262	325.12
277.494	326.12
277.726	329.12
277.957	311.12
278.189	300.12
278.421	289.12
278.652	295.12
278.884	286.12
279.115	282.12
279.347	278.12
279.579	270.12
279.81	293.12
280.042	269.12
280.273	281.12
280.505	295.12
280.736	292.12
280.968	285.12
281.199	277.12
281.431	289.12
281.662	310.12
281.894	289.12
282.125	285.12
282.356	301.12
282.588	333.12
282.819	322.12
283.051	309.12
283.282	293.12
283.513	275.12
283.745	289.12
283.976	277.12
284.207	311.12
284.439	286.12
284.67	317.12
284.901	278.12
285.132	296.12
285.364	295.12
285.595	301.12
285.826	306.12
286.057	299.12
286.288	300.12
286.52	312.12
286.751	293.12
286.982	309.12
287.213	315.12
287.444	313.12
287.675	296.12
287.906	318.12
288.138	325.12
288.369	326.12
288.6	302.12
288.831	303.12
289.062	317.12
289.293	303.12
289.524	278.12
289.755	307.12
289.986	315.12
290.217	314.12
290.448	303.12
290.679	310.12
290.91	308.12
291.141	314.12
291.371	302.12
291.602	301.12
291.833	312.12
292.064	307.12
292.295	321.12
292.526	329.12
292.757	322.12
292.987	301.12
293.218	301.12
293.449	309.12
293.68	316.12
293.91	301.12
294.141	323.12
294.372	325.12
294.603	309.12
294.833	309.12
295.064	311.12
295.295	322.12
295.525	329.12
295.756	337.12
295.987	316.12
296.217	353.12
296.448	362.12
296.679	325.12
296.909	316.12
297.14	317.12
297.37	334.12
297.601	335.12
297.831	318.12
298.062	313.12
298.292	330.12
298.523	319.12
298.753	335.12
298.984	331.12
299.214	326.12
299.445	334.12
299.675	346.12
299.905	342.12
300.136	332.12
300.366	355.12
300.597	347.12
300.827	331.12
301.057	341.12
301.288	350.12
301.518	358.12
301.748	362.12
301.979	371.12
302.209	346.12
302.439	354.12
302.669	338.12
302.9	331.12
303.13	355.12
303.36	346.12
303.59	361.12
303.82	360.12
304.051	362.12
304.281	358.12
304.511	370.12
304.741	345.12
304.971	355.12
305.201	337.12
305.431	356.12
305.661	354.12
305.891	347.12
306.121	372.12
306.352	367.12
306.582	351.12
306.812	359.12
307.042	348.12
307.272	354.12
307.502	358.12
307.731	366.12
307.961	361.12
308.191	357.12
308.421	365.12
308.651	372.12
308.881	382.12
309.111	361.12
309.341	358.12
309.571	391.12
309.8	377.12
310.03	384.12
310.26	404.12
310.49	398.12
310.72	410.12
310.949	433.12
311.179	432.12
311.409	411.12
311.639	419.12
311.868	415.12
312.098	407.12
312.328	417.12
312.557	438.12
312.787	437.12
313.017	459.12
313.246	445.12
313.476	397.12
313.706	404.12
313.935	419.12
314.165	417.12
314.394	434.12
314.624	433.12
314.853	411.12
315.083	408.12
315.312	405.12
315.542	421.12
315.771	407.12
316.001	386.12
316.23	402.12
316.46	405.12
316.689	420.12
316.919	403.12
317.148	426.12
317.377	438.12
317.607	426.12
317.836	402.12
318.065	408.12
318.295	409.12
318.524	414.12
318.753	400.12
318.983	408.12
319.212	413.12
319.441	418.12
319.67	435.12
319.9	420.12
320.129	410.12
320.358	425.12
320.587	423.12
320.816	440.12
321.046	449.12
321.275	427.12
321.504	426.12
321.733	439.12
321.962	443.12
322.191	457.12
322.42	467.12
322.649	483.12
322.878	504.12
323.108	511.12
323.337	516.12
323.566	558.12
323.795	572.12
324.024	641.12
324.253	771.12
324.482	1090.12
324.71	1653.12
324.939	2425.12
325.168	2097.12
325.397	1077.12
325.626	720.12
325.855	639.12
326.084	564.12
326.313	554.12
326.542	548.12
326.77	587.12
326.999	703.12
327.228	950.12
327.457	1461.12
327.686	1819.12
327.914	1215.12
328.143	799.12
328.372	666.12
328.6	631.12
328.829	596.12
329.058	627.12
329.287	636.12
329.515	605.12
329.744	555.12
329.972	523.12
330.201	561.12
330.43	569.12
330.658	591.12
330.887	656.12
331.115	633.12
331.344	582.12
331.572	522.12
331.801	533.12
332.03	541.12
332.258	509.12
332.486	507.12
332.715	493.12
332.943	479.12
333.172	494.12
333.4	484.12
333.629	511.12
333.857	519.12
334.085	501.12
334.314	482.12
334.542	518.12
334.771	526.12
334.999	506.12
335.227	520.12
335.455	501.12
335.684	498.12
335.912	478.12
336.14	501.12
336.369	503.12
336.597	487.12
336.825	506.12
337.053	501.12
337.281	474.12
337.51	461.12
337.738	499.12
337.966	477.12
338.194	492.12
338.422	486.12
338.65	481.12
338.878	460.12
339.106	474.12
339.334	471.12
339.562	482.12
339.79	482.12
340.018	462.12
340.246	487.12
340.474	484.12
340.702	477.12
340.93	475.12
341.158	454.12
341.386	469.12
341.614	475.12
341.842	478.12
342.07	481.12
342.298	472.12
342.526	480.12
342.754	470.12
342.981	452.12
343.209	462.12
343.437	475.12
343.665	473.12
343.893	485.12
344.12	474.12
344.348	515.12
344.576	484.12
344.804	486.12
345.031	482.12
345.259	520.12
345.487	483.12
345.714	468.12
345.942	482.12
346.17	465.12
346.397	448.12
346.625	463.12
346.853	467.12
347.08	471.12
347.308	464.12
347.535	483.12
347.763	466.12
347.99	476.12
348.218	487.12
348.445	472.12
348.673	476.12
348.9	474.12
349.128	472.12
349.355	435.12
349.583	449.12
349.81	438.12
350.037	437.12
350.265	443.12
350.492	440.12
350.72	452.12
350.947	467.12
351.174	450.12
351.402	478.12
351.629	466.12
351.856	471.12
352.083	473.12
352.311	464.12
352.538	476.12
352.765	494.12
352.992	505.12
353.22	475.12
353.447	446.12
353.674	473.12
353.901	450.12
354.128	426.12
354.355	410.12
354.583	444.12
354.81	457.12
355.037	426.12
355.264	428.12
355.491	425.12
355.718	426.12
355.945	442.12
356.172	443.12
356.399	438.12
356.626	436.12
356.853	436.12
357.08	439.12
357.307	441.12
357.534	436.12
357.761	436.12
357.988	439.12
358.215	434.12
358.441	423.12
358.668	441.12
358.895	434.12
359.122	454.12
359.349	471.12
359.576	452.12
359.802	488.12
360.029	521.12
360.256	519.12
360.483	523.12
360.709	475.12
360.936	470.12
361.163	469.12
361.39	458.12
361.616	455.12
361.843	491.12
362.07	460.12
362.296	479.12
362.523	480.12
362.749	470.12
362.976	484.12
363.203	450.12
363.429	477.12
363.656	451.12
363.882	444.12
364.109	445.12
364.335	458.12
364.562	451.12
364.788	471.12
365.015	453.12
365.241	453.12
365.468	464.12
365.694	474.12
365.92	446.12
366.147	445.12
366.373	442.12
366.599	457.12
366.826	439.12
367.052	466.12
367.278	462.12
367.505	451.12
367.731	445.12
367.957	437.12
368.184	457.12
368.41	462.12
368.636	477.12
368.862	484.12
369.089	465.12
369.315	465.12
369.541	456.12
369.767	436.12
369.993	449.12
370.219	466.12
370.445	465.12
370.672	451.12
370.898	451.12
371.124	463.12
371.35	468.12
371.576	457.12
371.802	448.12
372.028	445.12
372.254	430.12
372.48	451.12
372.706	456.12
372.932	446.12
373.158	462.12
373.384	439.12
373.61	444.12
373.835	458.12
374.061	428.12
374.287	468.12
374.513	463.12
374.739	456.12
374.965	466.12
375.191	455.12
375.416	460.12
375.642	478.12
375.868	488.12
376.094	456.12
376.319	459.12
376.545	466.12
376.771	454.12
376.997	442.12
377.222	454.12
377.448	444.12
377.674	450.12
377.899	459.12
378.125	458.12
378.35	452.12
378.576	441.12
378.802	435.12
379.027	450.12
379.253	456.12
379.478	456.12
379.704	456.12
379.929	446.12
380.155	451.12
380.38	455.12
380.606	458.12
380.831	433.12
381.057	445.12
381.282	457.12
381.507	442.12
381.733	466.12
381.958	473.12
382.184	451.12
382.409	442.12
382.634	463.12
382.86	480.12
383.085	480.12
383.31	472.12
383.535	463.12
383.761	454.12
383.986	486.12
384.211	486.12
384.436	483.12
384.662	499.12
384.887	494.12
385.112	469.12
385.337	497.12
385.562	499.12
385.787	498.12
386.013	503.12
386.238	508.12
386.463	500.12
386.688	515.12
386.913	504.12
387.138	493.12
387.363	509.12
387.588	495.12
387.813	508.12
388.038	494.12
388.263	511.12
388.488	511.12
388.713	500.12
388.938	500.12
389.163	516.12
389.387	513.12
389.612	502.12
389.837	481.12
390.062	476.12
390.287	510.12
390.512	470.12
390.736	486.12
390.961	517.12
391.186	502.12
391.411	485.12
391.636	501.12
391.86	527.12
392.085	537.12
392.31	539.12
392.534	505.12
392.759	522.12
392.984	541.12
393.208	518.12
393.433	483.12
393.658	523.12
393.882	483.12
394.107	512.12
394.331	521.12
394.556	523.12
394.78	525.12
395.005	542.12
395.229	533.12
395.454	549.12
395.678	541.12
395.903	525.12
396.127	550.12
396.352	551.12
396.576	538.12
396.801	527.12
397.025	533.12
397.249	537.12
397.474	535.12
397.698	535.12
397.922	561.12
398.147	577.12
398.371	584.12
398.595	549.12
398.82	603.12
399.044	592.12
399.268	604.12
399.492	641.12
399.717	677.12
399.941	698.12
400.165	710.12
400.389	714.12
400.613	679.12
400.837	635.12
401.062	602.12
401.286	608.12
401.51	589.12
401.734	603.12
401.958	579.12
402.182	587.12
402.406	597.12
402.63	615.12
402.854	605.12
403.078	599.12
403.302	599.12
403.526	609.12
403.75	603.12
403.974	611.12
404.198	614.12
404.422	625.12
404.645	613.12
404.869	620.12
405.093	645.12
405.317	658.12
405.541	681.12
405.765	651.12
405.988	638.12
406.212	649.12
406.436	670.12
406.66	669.12
406.883	674.12
407.107	684.12
407.331	737.12
407.555	797.12
407.778	824.12
408.002	751.12
408.226	675.12
408.449	684.12
408.673	665.12
408.896	701.12
409.12	768.12
409.344	704.12
409.567	639.12
409.791	653.12
410.014	617.12
410.238	609.12
410.461	585.12
410.685	602.12
410.908	625.12
411.132	678.12
411.355	738.12
411.578	685.12
411.802	637.12
412.025	584.12
412.249	626.12
412.472	607.12
412.695	621.12
412.919	617.12
413.142	585.12
413.365	582.12
413.589	581.12
413.812	577.12
414.035	562.12
414.258	594.12
414.482	581.12
414.705	582.12
414.928	570.12
415.151	595.12
415.374	565.12
415.597	581.12
415.821	587.12
416.044	559.12
416.267	580.12
416.49	581.12
416.713	553.12
416.936	582.12
417.159	570.12
417.382	594.12
417.605	617.12
417.828	583.12
418.051	616.12
418.274	590.12
418.497	598.12
418.72	571.12
418.943	591.12
419.166	619.12
419.389	642.12
419.611	625.12
419.834	589.12
420.057	585.12
420.28	604.12
420.503	588.12
420.726	577.12
420.948	606.12
421.171	657.12
421.394	695.12
421.617	621.12
421.839	599.12
422.062	605.12
422.285	598.12
422.507	695.12
422.73	757.12
422.953	732.12
423.175	659.12
423.398	633.12
423.621	630.12
423.843	643.12
424.066	645.12
424.288	643.12
424.511	651.12
424.733	720.12
424.956	831.12
425.178	789.12
425.401	778.12
425.623	829.12
425.846	718.12
426.068	687.12
426.291	663.12
426.513	648.12
426.735	664.12
426.958	688.12
427.18	788.12
427.402	946.12
427.625	1065.12
427.847	928.12
428.069	755.12
428.292	689.12
428.514	638.12
428.736	606.12
428.958	618.12
429.181	592.12
429.403	625.12
429.625	638.12
429.847	645.12
430.069	728.12
430.292	715.12
430.514	615.12
430.736	580.12
430.958	585.12
431.18	575.12
431.402	570.12
431.624	555.12
431.846	563.12
432.068	578.12
432.29	576.12
432.512	558.12
432.734	585.12
432.956	583.12
433.178	587.12
433.4	587.12
433.622	555.12
433.844	574.12
434.066	571.12
434.287	563.12
434.509	575.12
434.731	590.12
434.953	598.12
435.175	604.12
435.397	668.12
435.618	629.12
435.84	702.12
436.062	792.12
436.284	885.12
436.505	744.12
436.727	678.12
436.949	638.12
437.17	612.12
437.392	607.12
437.614	618.12
437.835	645.12
438.057	769.12
438.278	891.12
438.5	899.12
438.721	971.12
438.943	926.12
439.165	715.12
439.386	679.12
439.608	665.12
439.829	674.12
440.05	708.12
440.272	758.12
440.493	689.12
440.715	653.12
440.936	620.12
441.158	609.12
441.379	612.12
441.6	630.12
441.822	647.12
442.043	702.12
442.264	808.12
442.486	867.12
442.707	713.12
442.928	666.12
443.149	644.12
443.371	718.12
443.592	745.12
443.813	863.12
444.034	931.12
444.255	780.12
444.476	681.12
444.698	670.12
444.919	661.12
445.14	749.12
445.361	707.12
445.582	702.12
445.803	750.12
446.024	898.12
446.245	890.12
446.466	802.12
446.687	701.12
446.908	641.12
447.129	630.12
447.35	613.12
447.571	605.12
447.792	588.12
448.013	599.12
448.234	616.12
448.455	663.12
448.675	833.12
448.896	935.12
449.117	791.12
449.338	759.12
449.559	886.12
449.779	1014.12
450	793.12
450.221	666.12
450.442	617.12
450.662	605.12
450.883	591.12
451.104	600.12
451.324	579.12
451.545	578.12
451.766	552.12
451.986	552.12
452.207	539.12
452.428	518.12
452.648	549.12
452.869	534.12
453.089	537.12
453.31	549.12
453.53	539.12
453.751	562.12
453.971	547.12
454.192	557.12
454.412	550.12
454.633	540.12
454.853	535.12
455.073	549.12
455.294	592.12
455.514	636.12
455.734	640.12
455.955	546.12
456.175	501.12
456.395	501.12
456.616	489.12
456.836	507.12
457.056	492.12
457.276	531.12
457.497	516.12
457.717	490.12
457.937	535.12
458.157	527.12
458.377	520.12
458.598	567.12
458.818	615.12
459.038	704.12
459.258	731.12
459.478	646.12
459.698	594.12
459.918	579.12
460.138	563.12
460.358	575.12
460.578	571.12
460.798	589.12
461.018	572.12
461.238	592.12
461.458	590.12
461.678	566.12
461.898	592.12
462.118	586.12
462.338	597.12
462.558	604.12
462.777	608.12
462.997	618.12
463.217	654.12
463.437	615.12
463.657	647.12
463.876	637.12
464.096	626.12
464.316	634.12
464.536	637.12
464.755	620.12
464.975	647.12
465.195	646.12
465.414	733.12
465.634	661.12
465.854	626.12
466.073	612.12
466.293	570.12
466.512	573.12
466.732	562.12
466.951	577.12
467.171	547.12
467.391	578.12
467.61	576.12
467.829	548.12
468.049	551.12
468.268	568.12
468.488	568.12
468.707	543.12
468.927	548.12
469.146	548.12
469.365	543.12
469.585	535.12
469.804	559.12
470.023	571.12
470.243	583.12
470.462	541.12
470.681	574.12
470.901	584.12
471.12	594.12
471.339	564.12
471.558	542.12
471.777	570.12
471.997	556.12
472.216	561.12
472.435	563.12
472.654	566.12
472.873	547.12
473.092	536.12
473.311	565.12
473.53	575.12
473.749	570.12
473.968	626.12
474.187	751.12
474.406	771.12
474.625	634.12
474.844	579.12
475.063	551.12
475.282	557.12
475.501	541.12
475.72	583.12
475.939	593.12
476.158	590.12
476.377	589.12
476.596	578.12
476.814	575.12
477.033	591.12
477.252	609.12
477.471	595.12
477.69	597.12
477.908	607.12
478.127	611.12
478.346	611.12
478.564	638.12
478.783	631.12
479.002	655.12
479.22	647.12
479.439	655.12
479.658	667.12
479.876	680.12
480.095	691.12
480.313	712.12
480.532	689.12
480.751	708.12
480.969	671.12
481.188	684.12
481.406	700.12
481.624	662.12
481.843	676.12
482.061	646.12
482.28	653.12
482.498	660.12
482.717	676.12
482.935	674.12
483.153	654.12
483.372	655.12
483.59	652.12
483.808	666.12
484.027	675.12
484.245	659.12
484.463	643.12
484.681	661.12
484.9	664.12
485.118	701.12
485.336	685.12
485.554	692.12
485.772	654.12
485.99	664.12
486.209	665.12
486.427	696.12
486.645	687.12
486.863	716.12
487.081	721.12
487.299	692.12
487.517	719.12
487.735	703.12
487.953	730.12
488.171	696.12
488.389	708.12
488.607	694.12
488.825	693.12
489.043	705.12
489.261	742.12
489.479	710.12
489.696	716.12
489.914	747.12
490.132	709.12
490.35	742.12
490.568	733.12
490.786	767.12
491.003	782.12
491.221	776.12
491.439	779.12
491.657	755.12
491.874	784.12
492.092	777.12
492.31	801.12
492.527	805.12
492.745	805.12
492.963	826.12
493.18	796.12
493.398	815.12
493.615	821.12
493.833	853.12
494.05	854.12
494.268	813.12
494.485	839.12
494.703	806.12
494.92	836.12
495.138	860.12
495.355	838.12
495.573	825.12
495.79	833.12
496.008	834.12
496.225	827.12
496.442	850.12
496.66	866.12
496.877	858.12
497.094	844.12
497.312	845.12
497.529	874.12
497.746	886.12
497.963	888.12
498.181	922.12
498.398	961.12
498.615	944.12
498.832	993.12
499.049	986.12
499.267	998.12
499.484	1029.12
499.701	1101.12
499.918	1106.12
500.135	1139.12
500.352	1193.12
500.569	1229.12
500.786	1228.12
501.003	1207.12
501.22	1166.12
501.437	1140.12
501.654	1121.12
501.871	1089.12
