Data from 1988.PennyLincolnUp.Lamp.En5.5.200Scan.071819.P2_HRD10591_17-21-05-972.txt Node
Date: Thu Jul 18 17:21:05 EDT 2019
User: cochatt
Spectrometer: HR+D1059
Trigger mode: 1
Integration Time (sec): 1.000000E-1
Scans to average: 1
Electric dark correction enabled: true
Nonlinearity correction enabled: false
Boxcar width: 0
XAxis mode: Wavelengths
Number of Pixels in Spectrum: 2048
>>>>>Begin Spectral Data<<<<<
223.165	-19.19
223.4	-19.19
223.635	-19.19
223.869	-13.19
224.104	-18.19
224.338	-1.19
224.573	-23.19
224.808	-17.19
225.042	3.81
225.277	-17.19
225.511	-8.19
225.746	4.81
225.98	4.81
226.215	17.81
226.449	13.81
226.683	21.81
226.918	36.81
227.152	13.81
227.387	24.81
227.621	37.81
227.856	42.81
228.09	45.81
228.324	53.81
228.559	55.81
228.793	82.81
229.027	106.81
229.262	109.81
229.496	115.81
229.73	146.81
229.964	170.81
230.199	137.81
230.433	109.81
230.667	128.81
230.901	114.81
231.136	116.81
231.37	117.81
231.604	97.81
231.838	108.81
232.072	119.81
232.306	134.81
232.541	116.81
232.775	128.81
233.009	135.81
233.243	125.81
233.477	107.81
233.711	130.81
233.945	138.81
234.179	119.81
234.413	132.81
234.647	128.81
234.881	133.81
235.115	116.81
235.349	110.81
235.583	126.81
235.817	128.81
236.051	134.81
236.285	147.81
236.519	127.81
236.753	147.81
236.987	152.81
237.221	206.81
237.455	263.81
237.689	200.81
237.922	137.81
238.156	137.81
238.39	143.81
238.624	123.81
238.858	137.81
239.091	139.81
239.325	119.81
239.559	131.81
239.793	130.81
240.027	164.81
240.26	164.81
240.494	182.81
240.728	169.81
240.961	172.81
241.195	145.81
241.429	154.81
241.662	128.81
241.896	131.81
242.13	143.81
242.363	147.81
242.597	132.81
242.83	157.81
243.064	152.81
243.298	141.81
243.531	148.81
243.765	154.81
243.998	153.81
244.232	152.81
244.465	163.81
244.699	158.81
244.932	158.81
245.166	158.81
245.399	153.81
245.633	158.81
245.866	141.81
246.099	163.81
246.333	170.81
246.566	155.81
246.8	162.81
247.033	161.81
247.266	158.81
247.5	168.81
247.733	188.81
247.966	189.81
248.2	169.81
248.433	178.81
248.666	182.81
248.899	195.81
249.133	227.81
249.366	230.81
249.599	225.81
249.832	203.81
250.066	178.81
250.299	201.81
250.532	188.81
250.765	225.81
250.998	242.81
251.231	236.81
251.465	222.81
251.698	217.81
251.931	213.81
252.164	202.81
252.397	226.81
252.63	225.81
252.863	210.81
253.096	214.81
253.329	242.81
253.562	242.81
253.795	242.81
254.028	225.81
254.261	218.81
254.494	238.81
254.727	272.81
254.96	293.81
255.193	289.81
255.426	284.81
255.659	227.81
255.892	242.81
256.124	247.81
256.357	234.81
256.59	224.81
256.823	233.81
257.056	218.81
257.289	232.81
257.521	222.81
257.754	233.81
257.987	213.81
258.22	213.81
258.452	213.81
258.685	221.81
258.918	210.81
259.151	224.81
259.383	220.81
259.616	236.81
259.849	251.81
260.081	234.81
260.314	276.81
260.547	294.81
260.779	265.81
261.012	267.81
261.244	236.81
261.477	250.81
261.71	232.81
261.942	246.81
262.175	238.81
262.407	243.81
262.64	241.81
262.872	246.81
263.105	243.81
263.337	230.81
263.57	222.81
263.802	258.81
264.035	232.81
264.267	226.81
264.499	232.81
264.732	227.81
264.964	219.81
265.197	231.81
265.429	246.81
265.661	230.81
265.894	233.81
266.126	234.81
266.358	236.81
266.591	222.81
266.823	230.81
267.055	245.81
267.287	248.81
267.52	246.81
267.752	250.81
267.984	251.81
268.216	258.81
268.448	246.81
268.681	244.81
268.913	270.81
269.145	290.81
269.377	299.81
269.609	301.81
269.841	281.81
270.073	298.81
270.306	315.81
270.538	329.81
270.77	339.81
271.002	308.81
271.234	317.81
271.466	318.81
271.698	333.81
271.93	364.81
272.162	329.81
272.394	333.81
272.626	309.81
272.858	316.81
273.09	295.81
273.322	295.81
273.553	299.81
273.785	288.81
274.017	300.81
274.249	291.81
274.481	286.81
274.713	286.81
274.945	307.81
275.176	293.81
275.408	296.81
275.64	293.81
275.872	276.81
276.104	295.81
276.335	296.81
276.567	305.81
276.799	312.81
277.031	327.81
277.262	333.81
277.494	331.81
277.726	327.81
277.957	323.81
278.189	302.81
278.421	279.81
278.652	306.81
278.884	285.81
279.115	277.81
279.347	305.81
279.579	285.81
279.81	287.81
280.042	278.81
280.273	287.81
280.505	288.81
280.736	278.81
280.968	291.81
281.199	284.81
281.431	274.81
281.662	294.81
281.894	308.81
282.125	290.81
282.356	297.81
282.588	338.81
282.819	334.81
283.051	331.81
283.282	304.81
283.513	312.81
283.745	301.81
283.976	294.81
284.207	308.81
284.439	316.81
284.67	308.81
284.901	289.81
285.132	300.81
285.364	310.81
285.595	312.81
285.826	307.81
286.057	309.81
286.288	300.81
286.52	310.81
286.751	308.81
286.982	304.81
287.213	298.81
287.444	316.81
287.675	322.81
287.906	327.81
288.138	331.81
288.369	356.81
288.6	342.81
288.831	315.81
289.062	325.81
289.293	326.81
289.524	311.81
289.755	306.81
289.986	300.81
290.217	315.81
290.448	299.81
290.679	309.81
290.91	309.81
291.141	321.81
291.371	320.81
291.602	307.81
291.833	335.81
292.064	338.81
292.295	317.81
292.526	328.81
292.757	326.81
292.987	326.81
293.218	330.81
293.449	332.81
293.68	312.81
293.91	327.81
294.141	321.81
294.372	332.81
294.603	342.81
294.833	318.81
295.064	314.81
295.295	332.81
295.525	320.81
295.756	330.81
295.987	324.81
296.217	353.81
296.448	372.81
296.679	338.81
296.909	336.81
297.14	342.81
297.37	328.81
297.601	345.81
297.831	330.81
298.062	338.81
298.292	324.81
298.523	329.81
298.753	327.81
298.984	330.81
299.214	334.81
299.445	342.81
299.675	352.81
299.905	356.81
300.136	347.81
300.366	352.81
300.597	346.81
300.827	353.81
301.057	366.81
301.288	376.81
301.518	348.81
301.748	338.81
301.979	340.81
302.209	372.81
302.439	365.81
302.669	368.81
302.9	362.81
303.13	363.81
303.36	372.81
303.59	364.81
303.82	376.81
304.051	381.81
304.281	366.81
304.511	361.81
304.741	349.81
304.971	348.81
305.201	364.81
305.431	362.81
305.661	373.81
305.891	356.81
306.121	364.81
306.352	366.81
306.582	380.81
306.812	374.81
307.042	369.81
307.272	365.81
307.502	376.81
307.731	384.81
307.961	362.81
308.191	379.81
308.421	365.81
308.651	365.81
308.881	396.81
309.111	368.81
309.341	375.81
309.571	378.81
309.8	389.81
310.03	410.81
310.26	424.81
310.49	408.81
310.72	414.81
310.949	436.81
311.179	460.81
311.409	444.81
311.639	422.81
311.868	444.81
312.098	420.81
312.328	433.81
312.557	448.81
312.787	466.81
313.017	441.81
313.246	433.81
313.476	426.81
313.706	430.81
313.935	423.81
314.165	427.81
314.394	454.81
314.624	444.81
314.853	436.81
315.083	442.81
315.312	402.81
315.542	418.81
315.771	407.81
316.001	407.81
316.23	416.81
316.46	391.81
316.689	420.81
316.919	416.81
317.148	435.81
317.377	454.81
317.607	436.81
317.836	450.81
318.065	413.81
318.295	436.81
318.524	430.81
318.753	418.81
318.983	448.81
319.212	433.81
319.441	443.81
319.67	424.81
319.9	432.81
320.129	418.81
320.358	432.81
320.587	422.81
320.816	435.81
321.046	451.81
321.275	446.81
321.504	454.81
321.733	463.81
321.962	480.81
322.191	471.81
322.42	499.81
322.649	510.81
322.878	500.81
323.108	499.81
323.337	565.81
323.566	590.81
323.795	618.81
324.024	662.81
324.253	800.81
324.482	1168.81
324.71	1845.81
324.939	2674.81
325.168	2360.81
325.397	1165.81
325.626	787.81
325.855	631.81
326.084	613.81
326.313	606.81
326.542	599.81
326.77	669.81
326.999	754.81
327.228	1028.81
327.457	1625.81
327.686	2018.81
327.914	1322.81
328.143	813.81
328.372	708.81
328.6	662.81
328.829	641.81
329.058	670.81
329.287	657.81
329.515	608.81
329.744	592.81
329.972	583.81
330.201	576.81
330.43	629.81
330.658	619.81
330.887	692.81
331.115	695.81
331.344	626.81
331.572	539.81
331.801	565.81
332.03	568.81
332.258	531.81
332.486	521.81
332.715	485.81
332.943	511.81
333.172	518.81
333.4	517.81
333.629	536.81
333.857	538.81
334.085	535.81
334.314	523.81
334.542	548.81
334.771	555.81
334.999	530.81
335.227	519.81
335.455	542.81
335.684	518.81
335.912	493.81
336.14	506.81
336.369	498.81
336.597	517.81
336.825	518.81
337.053	492.81
337.281	490.81
337.51	516.81
337.738	486.81
337.966	496.81
338.194	500.81
338.422	502.81
338.65	488.81
338.878	468.81
339.106	477.81
339.334	474.81
339.562	499.81
339.79	491.81
340.018	494.81
340.246	485.81
340.474	485.81
340.702	507.81
340.93	498.81
341.158	466.81
341.386	472.81
341.614	493.81
341.842	483.81
342.07	488.81
342.298	482.81
342.526	482.81
342.754	473.81
342.981	482.81
343.209	468.81
343.437	498.81
343.665	505.81
343.893	485.81
344.12	512.81
344.348	490.81
344.576	500.81
344.804	521.81
345.031	525.81
345.259	527.81
345.487	506.81
345.714	517.81
345.942	480.81
346.17	464.81
346.397	480.81
346.625	488.81
346.853	452.81
347.08	461.81
347.308	474.81
347.535	485.81
347.763	489.81
347.99	476.81
348.218	484.81
348.445	479.81
348.673	500.81
348.9	470.81
349.128	463.81
349.355	445.81
349.583	479.81
349.81	445.81
350.037	482.81
350.265	455.81
350.492	469.81
350.72	488.81
350.947	491.81
351.174	486.81
351.402	491.81
351.629	501.81
351.856	477.81
352.083	484.81
352.311	520.81
352.538	469.81
352.765	491.81
352.992	492.81
353.22	498.81
353.447	473.81
353.674	481.81
353.901	472.81
354.128	441.81
354.355	453.81
354.583	443.81
354.81	451.81
355.037	434.81
355.264	443.81
355.491	421.81
355.718	443.81
355.945	434.81
356.172	434.81
356.399	457.81
356.626	438.81
356.853	455.81
357.08	427.81
357.307	441.81
357.534	435.81
357.761	422.81
357.988	463.81
358.215	451.81
358.441	449.81
358.668	460.81
358.895	468.81
359.122	458.81
359.349	477.81
359.576	480.81
359.802	488.81
360.029	530.81
360.256	554.81
360.483	523.81
360.709	497.81
360.936	493.81
361.163	461.81
361.39	480.81
361.616	493.81
361.843	486.81
362.07	481.81
362.296	475.81
362.523	481.81
362.749	469.81
362.976	474.81
363.203	487.81
363.429	473.81
363.656	456.81
363.882	456.81
364.109	452.81
364.335	451.81
364.562	456.81
364.788	466.81
365.015	448.81
365.241	455.81
365.468	473.81
365.694	482.81
365.92	454.81
366.147	452.81
366.373	475.81
366.599	440.81
366.826	468.81
367.052	456.81
367.278	463.81
367.505	433.81
367.731	461.81
367.957	473.81
368.184	439.81
368.41	461.81
368.636	482.81
368.862	475.81
369.089	490.81
369.315	451.81
369.541	473.81
369.767	451.81
369.993	463.81
370.219	436.81
370.445	436.81
370.672	434.81
370.898	464.81
371.124	472.81
371.35	460.81
371.576	471.81
371.802	457.81
372.028	458.81
372.254	461.81
372.48	456.81
372.706	460.81
372.932	481.81
373.158	443.81
373.384	456.81
373.61	469.81
373.835	485.81
374.061	468.81
374.287	454.81
374.513	454.81
374.739	456.81
374.965	471.81
375.191	470.81
375.416	472.81
375.642	467.81
375.868	489.81
376.094	473.81
376.319	470.81
376.545	477.81
376.771	454.81
376.997	461.81
377.222	447.81
377.448	461.81
377.674	464.81
377.899	432.81
378.125	457.81
378.35	452.81
378.576	457.81
378.802	461.81
379.027	460.81
379.253	466.81
379.478	474.81
379.704	468.81
379.929	472.81
380.155	457.81
380.38	466.81
380.606	466.81
380.831	465.81
381.057	457.81
381.282	474.81
381.507	454.81
381.733	460.81
381.958	472.81
382.184	468.81
382.409	491.81
382.634	503.81
382.86	478.81
383.085	476.81
383.31	478.81
383.535	471.81
383.761	461.81
383.986	497.81
384.211	508.81
384.436	476.81
384.662	503.81
384.887	501.81
385.112	491.81
385.337	499.81
385.562	505.81
385.787	513.81
386.013	527.81
386.238	538.81
386.463	523.81
386.688	499.81
386.913	491.81
387.138	512.81
387.363	518.81
387.588	488.81
387.813	491.81
388.038	511.81
388.263	513.81
388.488	538.81
388.713	518.81
388.938	504.81
389.163	540.81
389.387	497.81
389.612	493.81
389.837	522.81
390.062	540.81
390.287	518.81
390.512	525.81
390.736	491.81
390.961	501.81
391.186	516.81
391.411	524.81
391.636	515.81
391.86	525.81
392.085	554.81
392.31	533.81
392.534	531.81
392.759	526.81
392.984	518.81
393.208	536.81
393.433	527.81
393.658	540.81
393.882	505.81
394.107	534.81
394.331	544.81
394.556	514.81
394.78	521.81
395.005	518.81
395.229	538.81
395.454	534.81
395.678	553.81
395.903	528.81
396.127	568.81
396.352	574.81
396.576	562.81
396.801	538.81
397.025	553.81
397.249	542.81
397.474	559.81
397.698	533.81
397.922	576.81
398.147	591.81
398.371	609.81
398.595	569.81
398.82	580.81
399.044	609.81
399.268	635.81
399.492	667.81
399.717	686.81
399.941	726.81
400.165	766.81
400.389	753.81
400.613	692.81
400.837	658.81
401.062	589.81
401.286	598.81
401.51	594.81
401.734	597.81
401.958	600.81
402.182	613.81
402.406	605.81
402.63	633.81
402.854	610.81
403.078	623.81
403.302	612.81
403.526	618.81
403.75	624.81
403.974	617.81
404.198	617.81
404.422	612.81
404.645	611.81
404.869	624.81
405.093	684.81
405.317	688.81
405.541	732.81
405.765	681.81
405.988	650.81
406.212	660.81
406.436	693.81
406.66	718.81
406.883	682.81
407.107	715.81
407.331	729.81
407.555	838.81
407.778	812.81
408.002	767.81
408.226	717.81
408.449	682.81
408.673	696.81
408.896	734.81
409.12	792.81
409.344	753.81
409.567	660.81
409.791	668.81
410.014	645.81
410.238	625.81
410.461	625.81
410.685	635.81
410.908	637.81
411.132	694.81
411.355	740.81
411.578	678.81
411.802	664.81
412.025	650.81
412.249	612.81
412.472	634.81
412.695	666.81
412.919	662.81
413.142	626.81
413.365	603.81
413.589	598.81
413.812	601.81
414.035	606.81
414.258	608.81
414.482	615.81
414.705	583.81
414.928	579.81
415.151	575.81
415.374	591.81
415.597	590.81
415.821	594.81
416.044	590.81
416.267	613.81
416.49	589.81
416.713	585.81
416.936	596.81
417.159	603.81
417.382	613.81
417.605	601.81
417.828	592.81
418.051	619.81
418.274	616.81
418.497	598.81
418.72	606.81
418.943	579.81
419.166	595.81
419.389	643.81
419.611	616.81
419.834	626.81
420.057	617.81
420.28	625.81
420.503	609.81
420.726	610.81
420.948	622.81
421.171	685.81
421.394	701.81
421.617	621.81
421.839	622.81
422.062	609.81
422.285	635.81
422.507	697.81
422.73	799.81
422.953	761.81
423.175	658.81
423.398	636.81
423.621	651.81
423.843	674.81
424.066	674.81
424.288	692.81
424.511	698.81
424.733	757.81
424.956	854.81
425.178	830.81
425.401	810.81
425.623	848.81
425.846	726.81
426.068	678.81
426.291	665.81
426.513	677.81
426.735	681.81
426.958	716.81
427.18	834.81
427.402	988.81
427.625	1111.81
427.847	949.81
428.069	808.81
428.292	736.81
428.514	676.81
428.736	637.81
428.958	626.81
429.181	604.81
429.403	639.81
429.625	614.81
429.847	667.81
430.069	730.81
430.292	748.81
430.514	638.81
430.736	605.81
430.958	633.81
431.18	594.81
431.402	615.81
431.624	582.81
431.846	557.81
432.068	557.81
432.29	586.81
432.512	580.81
432.734	612.81
432.956	587.81
433.178	593.81
433.4	584.81
433.622	604.81
433.844	580.81
434.066	582.81
434.287	593.81
434.509	582.81
434.731	594.81
434.953	604.81
435.175	620.81
435.397	665.81
435.618	669.81
435.84	716.81
436.062	856.81
436.284	924.81
436.505	749.81
436.727	682.81
436.949	645.81
437.17	618.81
437.392	613.81
437.614	636.81
437.835	688.81
438.057	804.81
438.278	907.81
438.5	911.81
438.721	995.81
438.943	965.81
439.165	757.81
439.386	692.81
439.608	668.81
439.829	662.81
440.05	717.81
440.272	794.81
440.493	704.81
440.715	674.81
440.936	628.81
441.158	634.81
441.379	629.81
441.6	635.81
441.822	660.81
442.043	702.81
442.264	811.81
442.486	878.81
442.707	739.81
442.928	707.81
443.149	716.81
443.371	727.81
443.592	764.81
443.813	876.81
444.034	945.81
444.255	804.81
444.476	703.81
444.698	692.81
444.919	660.81
445.14	790.81
445.361	763.81
445.582	726.81
445.803	818.81
446.024	917.81
446.245	918.81
446.466	844.81
446.687	737.81
446.908	690.81
447.129	638.81
447.35	632.81
447.571	629.81
447.792	596.81
448.013	619.81
448.234	658.81
448.455	712.81
448.675	852.81
448.896	989.81
449.117	812.81
449.338	780.81
449.559	916.81
449.779	1042.81
450	838.81
450.221	677.81
450.442	629.81
450.662	623.81
450.883	612.81
451.104	610.81
451.324	632.81
451.545	597.81
451.766	574.81
451.986	550.81
452.207	529.81
452.428	544.81
452.648	554.81
452.869	562.81
453.089	561.81
453.31	585.81
453.53	548.81
453.751	561.81
453.971	572.81
454.192	570.81
454.412	569.81
454.633	562.81
454.853	561.81
455.073	576.81
455.294	586.81
455.514	653.81
455.734	651.81
455.955	584.81
456.175	530.81
456.395	538.81
456.616	541.81
456.836	524.81
457.056	502.81
457.276	521.81
457.497	545.81
457.717	542.81
457.937	522.81
458.157	519.81
458.377	564.81
458.598	580.81
458.818	653.81
459.038	714.81
459.258	766.81
459.478	648.81
459.698	621.81
459.918	605.81
460.138	590.81
460.358	580.81
460.578	589.81
460.798	596.81
461.018	594.81
461.238	600.81
461.458	608.81
461.678	598.81
461.898	603.81
462.118	600.81
462.338	598.81
462.558	601.81
462.777	623.81
462.997	614.81
463.217	666.81
463.437	670.81
463.657	640.81
463.876	632.81
464.096	635.81
464.316	619.81
464.536	646.81
464.755	650.81
464.975	675.81
465.195	680.81
465.414	770.81
465.634	688.81
465.854	640.81
466.073	596.81
466.293	582.81
466.512	573.81
466.732	572.81
466.951	600.81
467.171	562.81
467.391	560.81
467.61	587.81
467.829	601.81
468.049	558.81
468.268	537.81
468.488	566.81
468.707	550.81
468.927	550.81
469.146	559.81
469.365	569.81
469.585	552.81
469.804	581.81
470.023	538.81
470.243	564.81
470.462	582.81
470.681	606.81
470.901	598.81
471.12	601.81
471.339	580.81
471.558	594.81
471.777	582.81
471.997	577.81
472.216	570.81
472.435	584.81
472.654	584.81
472.873	568.81
473.092	567.81
473.311	575.81
473.53	576.81
473.749	572.81
473.968	630.81
474.187	763.81
474.406	739.81
474.625	635.81
474.844	603.81
475.063	598.81
475.282	601.81
475.501	588.81
475.72	602.81
475.939	588.81
476.158	603.81
476.377	611.81
476.596	577.81
476.814	615.81
477.033	613.81
477.252	630.81
477.471	611.81
477.69	630.81
477.908	622.81
478.127	641.81
478.346	613.81
478.564	636.81
478.783	642.81
479.002	635.81
479.22	696.81
479.439	658.81
479.658	678.81
479.876	684.81
480.095	715.81
480.313	752.81
480.532	718.81
480.751	696.81
480.969	719.81
481.188	717.81
481.406	748.81
481.624	706.81
481.843	683.81
482.061	692.81
482.28	672.81
482.498	674.81
482.717	673.81
482.935	682.81
483.153	680.81
483.372	640.81
483.59	672.81
483.808	669.81
484.027	702.81
484.245	660.81
484.463	677.81
484.681	676.81
484.9	681.81
485.118	706.81
485.336	692.81
485.554	724.81
485.772	715.81
485.99	718.81
486.209	701.81
486.427	721.81
486.645	700.81
486.863	726.81
487.081	746.81
487.299	724.81
487.517	728.81
487.735	715.81
487.953	728.81
488.171	734.81
488.389	741.81
488.607	722.81
488.825	731.81
489.043	723.81
489.261	729.81
489.479	753.81
489.696	744.81
489.914	732.81
490.132	766.81
490.35	752.81
490.568	756.81
490.786	780.81
491.003	778.81
491.221	782.81
491.439	826.81
491.657	829.81
491.874	808.81
492.092	828.81
492.31	848.81
492.527	848.81
492.745	835.81
492.963	836.81
493.18	853.81
493.398	856.81
493.615	864.81
493.833	843.81
494.05	825.81
494.268	844.81
494.485	858.81
494.703	850.81
494.92	864.81
495.138	850.81
495.355	875.81
495.573	888.81
495.79	864.81
496.008	829.81
496.225	859.81
496.442	840.81
496.66	903.81
496.877	871.81
497.094	894.81
497.312	874.81
497.529	894.81
497.746	915.81
497.963	918.81
498.181	961.81
498.398	936.81
498.615	974.81
498.832	987.81
499.049	1006.81
499.267	1054.81
499.484	1052.81
499.701	1076.81
499.918	1155.81
500.135	1189.81
500.352	1208.81
500.569	1240.81
500.786	1234.81
501.003	1234.81
501.22	1180.81
501.437	1171.81
501.654	1124.81
