Data from 1988.PennyLincolnUp.Lamp.En5.5.200Scan.071819.P2_HRD10591_17-18-24-971.txt Node
Date: Thu Jul 18 17:18:24 EDT 2019
User: cochatt
Spectrometer: HR+D1059
Trigger mode: 1
Integration Time (sec): 1.000000E-1
Scans to average: 1
Electric dark correction enabled: true
Nonlinearity correction enabled: false
Boxcar width: 0
XAxis mode: Wavelengths
Number of Pixels in Spectrum: 2048
>>>>>Begin Spectral Data<<<<<
223.165	-15.38
223.4	-15.38
223.635	-15.38
223.869	-15.38
224.104	-7.38
224.338	-20.38
224.573	-13.38
224.808	-20.38
225.042	-10.38
225.277	-7.38
225.511	-13.38
225.746	14.62
225.98	12.62
226.215	7.62
226.449	0.62
226.683	26.62
226.918	29.62
227.152	31.62
227.387	38.62
227.621	38.62
227.856	55.62
228.09	47.62
228.324	50.62
228.559	64.62
228.793	74.62
229.027	101.62
229.262	100.62
229.496	98.62
229.73	115.62
229.964	122.62
230.199	98.62
230.433	92.62
230.667	104.62
230.901	107.62
231.136	120.62
231.37	102.62
231.604	118.62
231.838	121.62
232.072	103.62
232.306	118.62
232.541	118.62
232.775	102.62
233.009	115.62
233.243	118.62
233.477	98.62
233.711	99.62
233.945	108.62
234.179	103.62
234.413	115.62
234.647	106.62
234.881	111.62
235.115	108.62
235.349	100.62
235.583	98.62
235.817	120.62
236.051	115.62
236.285	118.62
236.519	117.62
236.753	117.62
236.987	133.62
237.221	156.62
237.455	178.62
237.689	140.62
237.922	121.62
238.156	122.62
238.39	103.62
238.624	126.62
238.858	106.62
239.091	114.62
239.325	120.62
239.559	123.62
239.793	126.62
240.027	131.62
240.26	131.62
240.494	145.62
240.728	146.62
240.961	131.62
241.195	114.62
241.429	118.62
241.662	118.62
241.896	120.62
242.13	125.62
242.363	124.62
242.597	132.62
242.83	138.62
243.064	136.62
243.298	130.62
243.531	136.62
243.765	127.62
243.998	119.62
244.232	119.62
244.465	143.62
244.699	126.62
244.932	123.62
245.166	132.62
245.399	123.62
245.633	128.62
245.866	140.62
246.099	123.62
246.333	139.62
246.566	145.62
246.8	141.62
247.033	139.62
247.266	124.62
247.5	136.62
247.733	142.62
247.966	141.62
248.2	134.62
248.433	139.62
248.666	163.62
248.899	167.62
249.133	179.62
249.366	163.62
249.599	165.62
249.832	168.62
250.066	150.62
250.299	152.62
250.532	162.62
250.765	172.62
250.998	198.62
251.231	185.62
251.465	175.62
251.698	166.62
251.931	166.62
252.164	152.62
252.397	177.62
252.63	175.62
252.863	182.62
253.096	193.62
253.329	195.62
253.562	188.62
253.795	186.62
254.028	177.62
254.261	180.62
254.494	178.62
254.727	216.62
254.96	233.62
255.193	205.62
255.426	207.62
255.659	180.62
255.892	189.62
256.124	190.62
256.357	170.62
256.59	186.62
256.823	192.62
257.056	187.62
257.289	194.62
257.521	190.62
257.754	192.62
257.987	190.62
258.22	186.62
258.452	175.62
258.685	190.62
258.918	178.62
259.151	183.62
259.383	196.62
259.616	193.62
259.849	186.62
260.081	194.62
260.314	215.62
260.547	217.62
260.779	226.62
261.012	191.62
261.244	198.62
261.477	188.62
261.71	180.62
261.942	193.62
262.175	204.62
262.407	207.62
262.64	197.62
262.872	185.62
263.105	209.62
263.337	188.62
263.57	196.62
263.802	183.62
264.035	197.62
264.267	184.62
264.499	200.62
264.732	200.62
264.964	207.62
265.197	200.62
265.429	189.62
265.661	186.62
265.894	170.62
266.126	178.62
266.358	210.62
266.591	200.62
266.823	202.62
267.055	194.62
267.287	207.62
267.52	205.62
267.752	201.62
267.984	207.62
268.216	202.62
268.448	199.62
268.681	215.62
268.913	218.62
269.145	219.62
269.377	232.62
269.609	228.62
269.841	224.62
270.073	218.62
270.306	232.62
270.538	234.62
270.77	239.62
271.002	249.62
271.234	240.62
271.466	240.62
271.698	237.62
271.93	267.62
272.162	249.62
272.394	262.62
272.626	243.62
272.858	240.62
273.09	246.62
273.322	248.62
273.553	235.62
273.785	237.62
274.017	240.62
274.249	245.62
274.481	232.62
274.713	220.62
274.945	234.62
275.176	227.62
275.408	226.62
275.64	240.62
275.872	250.62
276.104	228.62
276.335	222.62
276.567	236.62
276.799	233.62
277.031	243.62
277.262	270.62
277.494	258.62
277.726	260.62
277.957	270.62
278.189	250.62
278.421	252.62
278.652	240.62
278.884	247.62
279.115	244.62
279.347	243.62
279.579	256.62
279.81	246.62
280.042	261.62
280.273	255.62
280.505	256.62
280.736	252.62
280.968	243.62
281.199	233.62
281.431	229.62
281.662	252.62
281.894	252.62
282.125	247.62
282.356	260.62
282.588	258.62
282.819	247.62
283.051	252.62
283.282	254.62
283.513	252.62
283.745	258.62
283.976	266.62
284.207	253.62
284.439	260.62
284.67	262.62
284.901	258.62
285.132	263.62
285.364	275.62
285.595	256.62
285.826	245.62
286.057	266.62
286.288	262.62
286.52	258.62
286.751	239.62
286.982	274.62
287.213	259.62
287.444	278.62
287.675	254.62
287.906	263.62
288.138	279.62
288.369	252.62
288.6	271.62
288.831	270.62
289.062	276.62
289.293	268.62
289.524	260.62
289.755	267.62
289.986	281.62
290.217	283.62
290.448	240.62
290.679	266.62
290.91	257.62
291.141	278.62
291.371	267.62
291.602	262.62
291.833	283.62
292.064	273.62
292.295	273.62
292.526	265.62
292.757	269.62
292.987	256.62
293.218	264.62
293.449	252.62
293.68	268.62
293.91	272.62
294.141	267.62
294.372	285.62
294.603	299.62
294.833	285.62
295.064	278.62
295.295	278.62
295.525	273.62
295.756	274.62
295.987	266.62
296.217	278.62
296.448	286.62
296.679	282.62
296.909	274.62
297.14	266.62
297.37	277.62
297.601	268.62
297.831	294.62
298.062	285.62
298.292	297.62
298.523	290.62
298.753	282.62
298.984	280.62
299.214	296.62
299.445	263.62
299.675	291.62
299.905	276.62
300.136	297.62
300.366	286.62
300.597	303.62
300.827	287.62
301.057	313.62
301.288	302.62
301.518	282.62
301.748	291.62
301.979	288.62
302.209	287.62
302.439	295.62
302.669	301.62
302.9	298.62
303.13	303.62
303.36	304.62
303.59	292.62
303.82	296.62
304.051	296.62
304.281	301.62
304.511	303.62
304.741	310.62
304.971	292.62
305.201	312.62
305.431	312.62
305.661	324.62
305.891	284.62
306.121	296.62
306.352	304.62
306.582	300.62
306.812	308.62
307.042	313.62
307.272	302.62
307.502	305.62
307.731	312.62
307.961	306.62
308.191	309.62
308.421	317.62
308.651	316.62
308.881	287.62
309.111	312.62
309.341	317.62
309.571	309.62
309.8	315.62
310.03	342.62
310.26	338.62
310.49	328.62
310.72	321.62
310.949	332.62
311.179	331.62
311.409	319.62
311.639	328.62
311.868	332.62
312.098	327.62
312.328	344.62
312.557	332.62
312.787	350.62
313.017	372.62
313.246	350.62
313.476	344.62
313.706	332.62
313.935	332.62
314.165	343.62
314.394	357.62
314.624	344.62
314.853	330.62
315.083	338.62
315.312	350.62
315.542	356.62
315.771	351.62
316.001	336.62
316.23	351.62
316.46	340.62
316.689	330.62
316.919	354.62
317.148	349.62
317.377	340.62
317.607	343.62
317.836	351.62
318.065	350.62
318.295	350.62
318.524	345.62
318.753	326.62
318.983	324.62
319.212	340.62
319.441	344.62
319.67	340.62
319.9	344.62
320.129	332.62
320.358	336.62
320.587	341.62
320.816	363.62
321.046	366.62
321.275	347.62
321.504	351.62
321.733	353.62
321.962	363.62
322.191	355.62
322.42	380.62
322.649	378.62
322.878	380.62
323.108	390.62
323.337	388.62
323.566	415.62
323.795	399.62
324.024	438.62
324.253	517.62
324.482	686.62
324.71	1028.62
324.939	1487.62
325.168	1270.62
325.397	656.62
325.626	490.62
325.855	431.62
326.084	400.62
326.313	392.62
326.542	406.62
326.77	423.62
326.999	496.62
327.228	619.62
327.457	911.62
327.686	1106.62
327.914	751.62
328.143	532.62
328.372	462.62
328.6	450.62
328.829	430.62
329.058	440.62
329.287	450.62
329.515	434.62
329.744	417.62
329.972	389.62
330.201	407.62
330.43	415.62
330.658	433.62
330.887	452.62
331.115	456.62
331.344	399.62
331.572	406.62
331.801	402.62
332.03	408.62
332.258	399.62
332.486	406.62
332.715	403.62
332.943	416.62
333.172	402.62
333.4	408.62
333.629	405.62
333.857	405.62
334.085	384.62
334.314	421.62
334.542	405.62
334.771	418.62
334.999	425.62
335.227	439.62
335.455	380.62
335.684	405.62
335.912	403.62
336.14	394.62
336.369	394.62
336.597	404.62
336.825	416.62
337.053	407.62
337.281	399.62
337.51	386.62
337.738	395.62
337.966	406.62
338.194	410.62
338.422	410.62
338.65	396.62
338.878	398.62
339.106	399.62
339.334	395.62
339.562	395.62
339.79	390.62
340.018	386.62
340.246	384.62
340.474	397.62
340.702	392.62
340.93	378.62
341.158	394.62
341.386	380.62
341.614	384.62
341.842	388.62
342.07	389.62
342.298	373.62
342.526	387.62
342.754	372.62
342.981	380.62
343.209	388.62
343.437	408.62
343.665	396.62
343.893	413.62
344.12	420.62
344.348	419.62
344.576	412.62
344.804	405.62
345.031	395.62
345.259	413.62
345.487	396.62
345.714	381.62
345.942	378.62
346.17	384.62
346.397	381.62
346.625	386.62
346.853	378.62
347.08	364.62
347.308	380.62
347.535	366.62
347.763	382.62
347.99	388.62
348.218	378.62
348.445	377.62
348.673	381.62
348.9	376.62
349.128	379.62
349.355	366.62
349.583	380.62
349.81	374.62
350.037	374.62
350.265	370.62
350.492	376.62
350.72	389.62
350.947	382.62
351.174	380.62
351.402	383.62
351.629	375.62
351.856	378.62
352.083	384.62
352.311	384.62
352.538	391.62
352.765	392.62
352.992	384.62
353.22	377.62
353.447	366.62
353.674	384.62
353.901	384.62
354.128	381.62
354.355	352.62
354.583	357.62
354.81	374.62
355.037	378.62
355.264	375.62
355.491	349.62
355.718	367.62
355.945	345.62
356.172	351.62
356.399	366.62
356.626	375.62
356.853	358.62
357.08	358.62
357.307	366.62
357.534	389.62
357.761	368.62
357.988	350.62
358.215	359.62
358.441	370.62
358.668	358.62
358.895	378.62
359.122	382.62
359.349	378.62
359.576	391.62
359.802	401.62
360.029	420.62
360.256	400.62
360.483	388.62
360.709	393.62
360.936	395.62
361.163	354.62
361.39	382.62
361.616	367.62
361.843	355.62
362.07	356.62
362.296	383.62
362.523	399.62
362.749	392.62
362.976	364.62
363.203	352.62
363.429	350.62
363.656	362.62
363.882	363.62
364.109	379.62
364.335	372.62
364.562	352.62
364.788	358.62
365.015	360.62
365.241	370.62
365.468	386.62
365.694	372.62
365.92	354.62
366.147	382.62
366.373	367.62
366.599	362.62
366.826	359.62
367.052	352.62
367.278	346.62
367.505	371.62
367.731	391.62
367.957	375.62
368.184	365.62
368.41	382.62
368.636	374.62
368.862	382.62
369.089	391.62
369.315	374.62
369.541	402.62
369.767	361.62
369.993	375.62
370.219	379.62
370.445	385.62
370.672	359.62
370.898	386.62
371.124	384.62
371.35	399.62
371.576	374.62
371.802	373.62
372.028	366.62
372.254	364.62
372.48	375.62
372.706	386.62
372.932	386.62
373.158	377.62
373.384	372.62
373.61	392.62
373.835	386.62
374.061	391.62
374.287	394.62
374.513	416.62
374.739	394.62
374.965	397.62
375.191	404.62
375.416	395.62
375.642	370.62
375.868	390.62
376.094	387.62
376.319	381.62
376.545	392.62
376.771	374.62
376.997	377.62
377.222	374.62
377.448	382.62
377.674	388.62
377.899	382.62
378.125	390.62
378.35	382.62
378.576	375.62
378.802	366.62
379.027	372.62
379.253	376.62
379.478	396.62
379.704	380.62
379.929	383.62
380.155	392.62
380.38	388.62
380.606	384.62
380.831	396.62
381.057	376.62
381.282	395.62
381.507	392.62
381.733	395.62
381.958	381.62
382.184	396.62
382.409	395.62
382.634	391.62
382.86	389.62
383.085	397.62
383.31	388.62
383.535	412.62
383.761	394.62
383.986	406.62
384.211	398.62
384.436	402.62
384.662	415.62
384.887	412.62
385.112	416.62
385.337	415.62
385.562	416.62
385.787	449.62
386.013	438.62
386.238	436.62
386.463	438.62
386.688	434.62
386.913	425.62
387.138	431.62
387.363	409.62
387.588	422.62
387.813	414.62
388.038	419.62
388.263	402.62
388.488	427.62
388.713	414.62
388.938	432.62
389.163	430.62
389.387	430.62
389.612	426.62
389.837	418.62
390.062	414.62
390.287	424.62
390.512	402.62
390.736	420.62
390.961	428.62
391.186	439.62
391.411	434.62
391.636	422.62
391.86	441.62
392.085	433.62
392.31	435.62
392.534	445.62
392.759	411.62
392.984	449.62
393.208	452.62
393.433	459.62
393.658	461.62
393.882	456.62
394.107	424.62
394.331	436.62
394.556	445.62
394.78	433.62
395.005	438.62
395.229	444.62
395.454	432.62
395.678	430.62
395.903	441.62
396.127	467.62
396.352	468.62
396.576	459.62
396.801	461.62
397.025	479.62
397.249	447.62
397.474	464.62
397.698	451.62
397.922	468.62
398.147	473.62
398.371	469.62
398.595	491.62
398.82	469.62
399.044	482.62
399.268	507.62
399.492	518.62
399.717	567.62
399.941	570.62
400.165	572.62
400.389	599.62
400.613	559.62
400.837	500.62
401.062	483.62
401.286	497.62
401.51	491.62
401.734	482.62
401.958	483.62
402.182	489.62
402.406	489.62
402.63	480.62
402.854	487.62
403.078	502.62
403.302	482.62
403.526	505.62
403.75	520.62
403.974	490.62
404.198	510.62
404.422	484.62
404.645	489.62
404.869	488.62
405.093	511.62
405.317	544.62
405.541	560.62
405.765	502.62
405.988	509.62
406.212	534.62
406.436	533.62
406.66	542.62
406.883	532.62
407.107	545.62
407.331	575.62
407.555	635.62
407.778	648.62
408.002	604.62
408.226	548.62
408.449	554.62
408.673	540.62
408.896	567.62
409.12	592.62
409.344	577.62
409.567	516.62
409.791	512.62
410.014	516.62
410.238	489.62
410.461	500.62
410.685	510.62
410.908	540.62
411.132	550.62
411.355	583.62
411.578	554.62
411.802	531.62
412.025	491.62
412.249	507.62
412.472	514.62
412.695	516.62
412.919	502.62
413.142	498.62
413.365	458.62
413.589	499.62
413.812	496.62
414.035	482.62
414.258	470.62
414.482	491.62
414.705	481.62
414.928	467.62
415.151	467.62
415.374	486.62
415.597	469.62
415.821	482.62
416.044	464.62
416.267	470.62
416.49	468.62
416.713	469.62
416.936	464.62
417.159	469.62
417.382	462.62
417.605	455.62
417.828	474.62
418.051	463.62
418.274	483.62
418.497	464.62
418.72	458.62
418.943	479.62
419.166	476.62
419.389	513.62
419.611	491.62
419.834	505.62
420.057	478.62
420.28	482.62
420.503	479.62
420.726	482.62
420.948	500.62
421.171	511.62
421.394	543.62
421.617	486.62
421.839	486.62
422.062	507.62
422.285	503.62
422.507	538.62
422.73	605.62
422.953	586.62
423.175	538.62
423.398	494.62
423.621	496.62
423.843	517.62
424.066	491.62
424.288	505.62
424.511	534.62
424.733	580.62
424.956	630.62
425.178	594.62
425.401	588.62
425.623	638.62
425.846	551.62
426.068	519.62
426.291	542.62
426.513	508.62
426.735	527.62
426.958	578.62
427.18	639.62
427.402	757.62
427.625	788.62
427.847	660.62
428.069	573.62
428.292	524.62
428.514	490.62
428.736	509.62
428.958	493.62
429.181	477.62
429.403	471.62
429.625	488.62
429.847	506.62
430.069	573.62
430.292	554.62
430.514	505.62
430.736	492.62
430.958	474.62
431.18	472.62
431.402	438.62
431.624	449.62
431.846	457.62
432.068	462.62
432.29	457.62
432.512	456.62
432.734	457.62
432.956	469.62
433.178	447.62
433.4	470.62
433.622	464.62
433.844	463.62
434.066	445.62
434.287	468.62
434.509	448.62
434.731	485.62
434.953	459.62
435.175	504.62
435.397	517.62
435.618	499.62
435.84	566.62
436.062	643.62
436.284	699.62
436.505	568.62
436.727	498.62
436.949	488.62
437.17	480.62
437.392	480.62
437.614	476.62
437.835	516.62
438.057	565.62
438.278	631.62
438.5	667.62
438.721	726.62
438.943	729.62
439.165	551.62
439.386	527.62
439.608	506.62
439.829	502.62
440.05	523.62
440.272	556.62
440.493	525.62
440.715	505.62
440.936	494.62
441.158	463.62
441.379	494.62
441.6	518.62
441.822	506.62
442.043	532.62
442.264	600.62
442.486	628.62
442.707	534.62
442.928	532.62
443.149	528.62
443.371	529.62
443.592	581.62
443.813	669.62
444.034	719.62
444.255	594.62
444.476	522.62
444.698	532.62
444.919	516.62
445.14	613.62
445.361	588.62
445.582	550.62
445.803	580.62
446.024	692.62
446.245	678.62
446.466	602.62
446.687	534.62
446.908	528.62
447.129	499.62
447.35	469.62
447.571	466.62
447.792	439.62
448.013	462.62
448.234	502.62
448.455	533.62
448.675	615.62
448.896	727.62
449.117	607.62
449.338	581.62
449.559	678.62
449.779	753.62
450	594.62
450.221	506.62
450.442	469.62
450.662	451.62
450.883	469.62
451.104	469.62
451.324	434.62
451.545	445.62
451.766	455.62
451.986	433.62
452.207	438.62
452.428	438.62
452.648	434.62
452.869	435.62
453.089	447.62
453.31	440.62
453.53	427.62
453.751	440.62
453.971	426.62
454.192	446.62
454.412	417.62
454.633	426.62
454.853	425.62
455.073	431.62
455.294	431.62
455.514	497.62
455.734	468.62
455.955	433.62
456.175	411.62
456.395	419.62
456.616	411.62
456.836	401.62
457.056	419.62
457.276	403.62
457.497	404.62
457.717	422.62
457.937	410.62
458.157	430.62
458.377	432.62
458.598	462.62
458.818	486.62
459.038	497.62
459.258	534.62
459.478	472.62
459.698	463.62
459.918	452.62
460.138	461.62
460.358	476.62
460.578	475.62
460.798	499.62
461.018	478.62
461.238	487.62
461.458	472.62
461.678	467.62
461.898	474.62
462.118	486.62
462.338	502.62
462.558	519.62
462.777	532.62
462.997	527.62
463.217	496.62
463.437	543.62
463.657	523.62
463.876	533.62
464.096	506.62
464.316	501.62
464.536	495.62
464.755	518.62
464.975	502.62
465.195	543.62
465.414	557.62
465.634	524.62
465.854	480.62
466.073	470.62
466.293	468.62
466.512	465.62
466.732	444.62
466.951	454.62
467.171	431.62
467.391	452.62
467.61	450.62
467.829	442.62
468.049	467.62
468.268	445.62
468.488	422.62
468.707	445.62
468.927	456.62
469.146	442.62
469.365	442.62
469.585	449.62
469.804	441.62
470.023	456.62
470.243	453.62
470.462	463.62
470.681	487.62
470.901	476.62
471.12	441.62
471.339	458.62
471.558	462.62
471.777	446.62
471.997	440.62
472.216	468.62
472.435	437.62
472.654	454.62
472.873	444.62
473.092	446.62
473.311	461.62
473.53	447.62
473.749	447.62
473.968	502.62
474.187	566.62
474.406	579.62
474.625	501.62
474.844	472.62
475.063	458.62
475.282	476.62
475.501	456.62
475.72	461.62
475.939	458.62
476.158	485.62
476.377	481.62
476.596	469.62
476.814	489.62
477.033	469.62
477.252	472.62
477.471	463.62
477.69	493.62
477.908	494.62
478.127	510.62
478.346	518.62
478.564	491.62
478.783	518.62
479.002	525.62
479.22	521.62
479.439	537.62
479.658	541.62
479.876	546.62
480.095	522.62
480.313	579.62
480.532	550.62
480.751	564.62
480.969	540.62
481.188	543.62
481.406	556.62
481.624	546.62
481.843	523.62
482.061	525.62
482.28	553.62
482.498	542.62
482.717	529.62
482.935	537.62
483.153	545.62
483.372	529.62
483.59	518.62
483.808	525.62
484.027	526.62
484.245	542.62
484.463	518.62
484.681	544.62
484.9	543.62
485.118	546.62
485.336	538.62
485.554	554.62
485.772	573.62
485.99	544.62
486.209	543.62
486.427	550.62
486.645	574.62
486.863	581.62
487.081	554.62
487.299	571.62
487.517	559.62
487.735	540.62
487.953	575.62
488.171	563.62
488.389	564.62
488.607	559.62
488.825	570.62
489.043	575.62
489.261	586.62
489.479	560.62
489.696	556.62
489.914	601.62
490.132	593.62
490.35	586.62
490.568	578.62
490.786	593.62
491.003	589.62
491.221	645.62
491.439	631.62
491.657	612.62
491.874	621.62
492.092	618.62
492.31	601.62
492.527	610.62
492.745	603.62
492.963	641.62
493.18	633.62
493.398	672.62
493.615	641.62
493.833	634.62
494.05	654.62
494.268	647.62
494.485	647.62
494.703	642.62
494.92	644.62
495.138	663.62
495.355	660.62
495.573	652.62
495.79	675.62
496.008	664.62
496.225	662.62
496.442	665.62
496.66	664.62
496.877	664.62
497.094	678.62
497.312	698.62
497.529	665.62
497.746	709.62
497.963	699.62
498.181	699.62
498.398	740.62
498.615	755.62
498.832	755.62
499.049	795.62
499.267	830.62
499.484	853.62
499.701	855.62
499.918	907.62
500.135	964.62
500.352	999.62
500.569	983.62
500.786	978.62
501.003	966.62
501.22	957.62
501.437	933.62
501.654	894.62
501.871	847.62
502.088	846.62
