Data from 1988.PennyLincolnUp.Lamp.En5.5.200Scan.071819.P2_HRD10591_17-21-25-972.txt Node
Date: Thu Jul 18 17:21:25 EDT 2019
User: cochatt
Spectrometer: HR+D1059
Trigger mode: 1
Integration Time (sec): 1.000000E-1
Scans to average: 1
Electric dark correction enabled: true
Nonlinearity correction enabled: false
Boxcar width: 0
XAxis mode: Wavelengths
Number of Pixels in Spectrum: 2048
>>>>>Begin Spectral Data<<<<<
223.165	-12.62
223.4	-12.62
223.635	-12.62
223.869	-7.62
224.104	-16.62
224.338	-18.62
224.573	-17.62
224.808	-13.62
225.042	-6.62
225.277	0.38
225.511	-2.62
225.746	-3.62
225.98	4.38
226.215	13.38
226.449	8.38
226.683	16.38
226.918	28.38
227.152	28.38
227.387	37.38
227.621	57.38
227.856	43.38
228.09	47.38
228.324	55.38
228.559	57.38
228.793	74.38
229.027	98.38
229.262	98.38
229.496	121.38
229.73	139.38
229.964	160.38
230.199	144.38
230.433	123.38
230.667	112.38
230.901	118.38
231.136	111.38
231.37	120.38
231.604	125.38
231.838	129.38
232.072	120.38
232.306	115.38
232.541	115.38
232.775	119.38
233.009	127.38
233.243	130.38
233.477	127.38
233.711	118.38
233.945	130.38
234.179	124.38
234.413	121.38
234.647	119.38
234.881	125.38
235.115	123.38
235.349	116.38
235.583	126.38
235.817	122.38
236.051	139.38
236.285	146.38
236.519	129.38
236.753	139.38
236.987	159.38
237.221	191.38
237.455	269.38
237.689	219.38
237.922	163.38
238.156	138.38
238.39	133.38
238.624	124.38
238.858	136.38
239.091	137.38
239.325	123.38
239.559	125.38
239.793	136.38
240.027	146.38
240.26	155.38
240.494	167.38
240.728	163.38
240.961	171.38
241.195	156.38
241.429	160.38
241.662	139.38
241.896	142.38
242.13	154.38
242.363	161.38
242.597	150.38
242.83	146.38
243.064	150.38
243.298	136.38
243.531	146.38
243.765	149.38
243.998	150.38
244.232	147.38
244.465	156.38
244.699	171.38
244.932	147.38
245.166	143.38
245.399	156.38
245.633	161.38
245.866	158.38
246.099	163.38
246.333	152.38
246.566	157.38
246.8	166.38
247.033	162.38
247.266	191.38
247.5	180.38
247.733	182.38
247.966	153.38
248.2	171.38
248.433	179.38
248.666	199.38
248.899	201.38
249.133	195.38
249.366	236.38
249.599	228.38
249.832	208.38
250.066	205.38
250.299	198.38
250.532	204.38
250.765	211.38
250.998	215.38
251.231	248.38
251.465	228.38
251.698	228.38
251.931	213.38
252.164	184.38
252.397	209.38
252.63	199.38
252.863	214.38
253.096	229.38
253.329	263.38
253.562	263.38
253.795	226.38
254.028	225.38
254.261	232.38
254.494	254.38
254.727	291.38
254.96	300.38
255.193	295.38
255.426	270.38
255.659	260.38
255.892	242.38
256.124	241.38
256.357	244.38
256.59	244.38
256.823	218.38
257.056	215.38
257.289	222.38
257.521	234.38
257.754	232.38
257.987	203.38
258.22	204.38
258.452	223.38
258.685	231.38
258.918	212.38
259.151	230.38
259.383	228.38
259.616	228.38
259.849	247.38
260.081	247.38
260.314	284.38
260.547	285.38
260.779	277.38
261.012	258.38
261.244	255.38
261.477	260.38
261.71	230.38
261.942	256.38
262.175	258.38
262.407	259.38
262.64	236.38
262.872	226.38
263.105	236.38
263.337	223.38
263.57	234.38
263.802	237.38
264.035	211.38
264.267	214.38
264.499	235.38
264.732	232.38
264.964	226.38
265.197	221.38
265.429	228.38
265.661	248.38
265.894	222.38
266.126	234.38
266.358	248.38
266.591	241.38
266.823	240.38
267.055	258.38
267.287	262.38
267.52	239.38
267.752	249.38
267.984	249.38
268.216	256.38
268.448	250.38
268.681	243.38
268.913	258.38
269.145	291.38
269.377	303.38
269.609	300.38
269.841	306.38
270.073	294.38
270.306	317.38
270.538	335.38
270.77	347.38
271.002	335.38
271.234	316.38
271.466	325.38
271.698	344.38
271.93	339.38
272.162	341.38
272.394	329.38
272.626	350.38
272.858	324.38
273.09	311.38
273.322	317.38
273.553	296.38
273.785	293.38
274.017	293.38
274.249	279.38
274.481	290.38
274.713	279.38
274.945	292.38
275.176	295.38
275.408	292.38
275.64	291.38
275.872	281.38
276.104	277.38
276.335	299.38
276.567	291.38
276.799	308.38
277.031	343.38
277.262	336.38
277.494	348.38
277.726	329.38
277.957	318.38
278.189	322.38
278.421	289.38
278.652	300.38
278.884	310.38
279.115	290.38
279.347	290.38
279.579	291.38
279.81	274.38
280.042	293.38
280.273	300.38
280.505	280.38
280.736	276.38
280.968	291.38
281.199	282.38
281.431	302.38
281.662	304.38
281.894	301.38
282.125	306.38
282.356	332.38
282.588	348.38
282.819	330.38
283.051	315.38
283.282	304.38
283.513	306.38
283.745	298.38
283.976	302.38
284.207	320.38
284.439	308.38
284.67	314.38
284.901	311.38
285.132	308.38
285.364	315.38
285.595	288.38
285.826	323.38
286.057	308.38
286.288	314.38
286.52	320.38
286.751	303.38
286.982	292.38
287.213	302.38
287.444	314.38
287.675	333.38
287.906	312.38
288.138	326.38
288.369	339.38
288.6	314.38
288.831	318.38
289.062	319.38
289.293	316.38
289.524	304.38
289.755	317.38
289.986	314.38
290.217	331.38
290.448	332.38
290.679	326.38
290.91	317.38
291.141	331.38
291.371	321.38
291.602	333.38
291.833	332.38
292.064	320.38
292.295	312.38
292.526	315.38
292.757	337.38
292.987	332.38
293.218	311.38
293.449	330.38
293.68	331.38
293.91	320.38
294.141	340.38
294.372	310.38
294.603	323.38
294.833	331.38
295.064	333.38
295.295	347.38
295.525	339.38
295.756	337.38
295.987	327.38
296.217	368.38
296.448	382.38
296.679	342.38
296.909	333.38
297.14	351.38
297.37	338.38
297.601	354.38
297.831	327.38
298.062	346.38
298.292	354.38
298.523	332.38
298.753	344.38
298.984	325.38
299.214	320.38
299.445	372.38
299.675	347.38
299.905	365.38
300.136	344.38
300.366	350.38
300.597	355.38
300.827	366.38
301.057	361.38
301.288	350.38
301.518	382.38
301.748	370.38
301.979	358.38
302.209	369.38
302.439	376.38
302.669	370.38
302.9	366.38
303.13	381.38
303.36	376.38
303.59	352.38
303.82	374.38
304.051	368.38
304.281	369.38
304.511	361.38
304.741	359.38
304.971	355.38
305.201	361.38
305.431	377.38
305.661	366.38
305.891	382.38
306.121	386.38
306.352	382.38
306.582	348.38
306.812	380.38
307.042	374.38
307.272	355.38
307.502	370.38
307.731	368.38
307.961	366.38
308.191	387.38
308.421	386.38
308.651	393.38
308.881	371.38
309.111	386.38
309.341	383.38
309.571	393.38
309.8	418.38
310.03	406.38
310.26	431.38
310.49	401.38
310.72	446.38
310.949	438.38
311.179	461.38
311.409	440.38
311.639	419.38
311.868	423.38
312.098	440.38
312.328	428.38
312.557	450.38
312.787	474.38
313.017	462.38
313.246	430.38
313.476	423.38
313.706	441.38
313.935	428.38
314.165	455.38
314.394	452.38
314.624	458.38
314.853	451.38
315.083	436.38
315.312	426.38
315.542	410.38
315.771	416.38
316.001	415.38
316.23	438.38
316.46	416.38
316.689	428.38
316.919	440.38
317.148	454.38
317.377	448.38
317.607	445.38
317.836	434.38
318.065	424.38
318.295	433.38
318.524	428.38
318.753	427.38
318.983	418.38
319.212	437.38
319.441	439.38
319.67	456.38
319.9	448.38
320.129	452.38
320.358	442.38
320.587	464.38
320.816	437.38
321.046	432.38
321.275	458.38
321.504	457.38
321.733	450.38
321.962	473.38
322.191	482.38
322.42	487.38
322.649	508.38
322.878	523.38
323.108	533.38
323.337	546.38
323.566	567.38
323.795	635.38
324.024	686.38
324.253	820.38
324.482	1150.38
324.71	1855.38
324.939	2754.38
325.168	2379.38
325.397	1190.38
325.626	763.38
325.855	683.38
326.084	608.38
326.313	579.38
326.542	637.38
326.77	644.38
326.999	760.38
327.228	1078.38
327.457	1628.38
327.686	2058.38
327.914	1340.38
328.143	845.38
328.372	722.38
328.6	688.38
328.829	654.38
329.058	670.38
329.287	677.38
329.515	663.38
329.744	587.38
329.972	587.38
330.201	581.38
330.43	613.38
330.658	669.38
330.887	688.38
331.115	685.38
331.344	612.38
331.572	551.38
331.801	569.38
332.03	584.38
332.258	546.38
332.486	520.38
332.715	516.38
332.943	524.38
333.172	548.38
333.4	533.38
333.629	538.38
333.857	564.38
334.085	551.38
334.314	566.38
334.542	579.38
334.771	582.38
334.999	568.38
335.227	528.38
335.455	519.38
335.684	539.38
335.912	506.38
336.14	527.38
336.369	533.38
336.597	527.38
336.825	523.38
337.053	522.38
337.281	504.38
337.51	517.38
337.738	519.38
337.966	517.38
338.194	511.38
338.422	523.38
338.65	524.38
338.878	507.38
339.106	473.38
339.334	493.38
339.562	479.38
339.79	510.38
340.018	496.38
340.246	523.38
340.474	507.38
340.702	511.38
340.93	492.38
341.158	483.38
341.386	476.38
341.614	514.38
341.842	480.38
342.07	488.38
342.298	521.38
342.526	499.38
342.754	504.38
342.981	476.38
343.209	478.38
343.437	471.38
343.665	491.38
343.893	494.38
344.12	501.38
344.348	534.38
344.576	503.38
344.804	498.38
345.031	516.38
345.259	534.38
345.487	486.38
345.714	513.38
345.942	483.38
346.17	489.38
346.397	480.38
346.625	488.38
346.853	494.38
347.08	491.38
347.308	489.38
347.535	486.38
347.763	514.38
347.99	482.38
348.218	528.38
348.445	509.38
348.673	514.38
348.9	496.38
349.128	487.38
349.355	461.38
349.583	444.38
349.81	470.38
350.037	468.38
350.265	464.38
350.492	460.38
350.72	466.38
350.947	474.38
351.174	505.38
351.402	510.38
351.629	488.38
351.856	505.38
352.083	509.38
352.311	508.38
352.538	486.38
352.765	490.38
352.992	497.38
353.22	479.38
353.447	476.38
353.674	459.38
353.901	471.38
354.128	471.38
354.355	469.38
354.583	446.38
354.81	451.38
355.037	483.38
355.264	454.38
355.491	478.38
355.718	448.38
355.945	464.38
356.172	448.38
356.399	447.38
356.626	470.38
356.853	467.38
357.08	464.38
357.307	447.38
357.534	462.38
357.761	449.38
357.988	463.38
358.215	451.38
358.441	464.38
358.668	464.38
358.895	476.38
359.122	456.38
359.349	465.38
359.576	489.38
359.802	531.38
360.029	550.38
360.256	558.38
360.483	547.38
360.709	499.38
360.936	500.38
361.163	475.38
361.39	517.38
361.616	489.38
361.843	504.38
362.07	473.38
362.296	473.38
362.523	490.38
362.749	492.38
362.976	486.38
363.203	481.38
363.429	483.38
363.656	476.38
363.882	468.38
364.109	470.38
364.335	455.38
364.562	469.38
364.788	461.38
365.015	476.38
365.241	476.38
365.468	503.38
365.694	465.38
365.92	502.38
366.147	457.38
366.373	501.38
366.599	504.38
366.826	457.38
367.052	459.38
367.278	467.38
367.505	493.38
367.731	489.38
367.957	478.38
368.184	475.38
368.41	485.38
368.636	490.38
368.862	491.38
369.089	452.38
369.315	499.38
369.541	476.38
369.767	480.38
369.993	467.38
370.219	465.38
370.445	473.38
370.672	466.38
370.898	465.38
371.124	441.38
371.35	467.38
371.576	462.38
371.802	454.38
372.028	451.38
372.254	471.38
372.48	480.38
372.706	458.38
372.932	479.38
373.158	474.38
373.384	462.38
373.61	488.38
373.835	483.38
374.061	476.38
374.287	476.38
374.513	464.38
374.739	498.38
374.965	484.38
375.191	453.38
375.416	486.38
375.642	493.38
375.868	471.38
376.094	476.38
376.319	486.38
376.545	475.38
376.771	469.38
376.997	483.38
377.222	476.38
377.448	481.38
377.674	484.38
377.899	484.38
378.125	470.38
378.35	489.38
378.576	476.38
378.802	454.38
379.027	465.38
379.253	462.38
379.478	466.38
379.704	464.38
379.929	474.38
380.155	493.38
380.38	470.38
380.606	482.38
380.831	472.38
381.057	470.38
381.282	475.38
381.507	498.38
381.733	471.38
381.958	474.38
382.184	498.38
382.409	498.38
382.634	484.38
382.86	487.38
383.085	496.38
383.31	508.38
383.535	484.38
383.761	476.38
383.986	492.38
384.211	495.38
384.436	480.38
384.662	502.38
384.887	527.38
385.112	515.38
385.337	528.38
385.562	504.38
385.787	532.38
386.013	538.38
386.238	527.38
386.463	517.38
386.688	517.38
386.913	514.38
387.138	514.38
387.363	537.38
387.588	534.38
387.813	524.38
388.038	507.38
388.263	508.38
388.488	530.38
388.713	519.38
388.938	505.38
389.163	518.38
389.387	539.38
389.612	531.38
389.837	522.38
390.062	529.38
390.287	516.38
390.512	522.38
390.736	518.38
390.961	526.38
391.186	524.38
391.411	529.38
391.636	534.38
391.86	555.38
392.085	554.38
392.31	546.38
392.534	536.38
392.759	536.38
392.984	536.38
393.208	516.38
393.433	548.38
393.658	556.38
393.882	545.38
394.107	531.38
394.331	540.38
394.556	546.38
394.78	518.38
395.005	523.38
395.229	545.38
395.454	553.38
395.678	538.38
395.903	570.38
396.127	600.38
396.352	576.38
396.576	552.38
396.801	568.38
397.025	540.38
397.249	564.38
397.474	562.38
397.698	579.38
397.922	594.38
398.147	617.38
398.371	599.38
398.595	589.38
398.82	611.38
399.044	632.38
399.268	638.38
399.492	643.38
399.717	693.38
399.941	720.38
400.165	755.38
400.389	746.38
400.613	716.38
400.837	679.38
401.062	633.38
401.286	597.38
401.51	616.38
401.734	638.38
401.958	622.38
402.182	628.38
402.406	611.38
402.63	660.38
402.854	635.38
403.078	651.38
403.302	641.38
403.526	638.38
403.75	632.38
403.974	629.38
404.198	644.38
404.422	635.38
404.645	655.38
404.869	655.38
405.093	677.38
405.317	698.38
405.541	752.38
405.765	682.38
405.988	658.38
406.212	677.38
406.436	704.38
406.66	718.38
406.883	706.38
407.107	728.38
407.331	787.38
407.555	869.38
407.778	832.38
408.002	760.38
408.226	724.38
408.449	695.38
408.673	697.38
408.896	744.38
409.12	781.38
409.344	746.38
409.567	687.38
409.791	638.38
410.014	632.38
410.238	644.38
410.461	652.38
410.685	636.38
410.908	677.38
411.132	724.38
411.355	736.38
411.578	719.38
411.802	653.38
412.025	638.38
412.249	654.38
412.472	658.38
412.695	699.38
412.919	692.38
413.142	644.38
413.365	609.38
413.589	605.38
413.812	623.38
414.035	616.38
414.258	605.38
414.482	613.38
414.705	582.38
414.928	586.38
415.151	597.38
415.374	619.38
415.597	608.38
415.821	606.38
416.044	609.38
416.267	604.38
416.49	595.38
416.713	588.38
416.936	606.38
417.159	587.38
417.382	611.38
417.605	611.38
417.828	634.38
418.051	633.38
418.274	611.38
418.497	598.38
418.72	638.38
418.943	588.38
419.166	632.38
419.389	642.38
419.611	650.38
419.834	643.38
420.057	645.38
420.28	633.38
420.503	611.38
420.726	634.38
420.948	616.38
421.171	711.38
421.394	729.38
421.617	667.38
421.839	642.38
422.062	618.38
422.285	647.38
422.507	730.38
422.73	825.38
422.953	792.38
423.175	685.38
423.398	680.38
423.621	655.38
423.843	679.38
424.066	673.38
424.288	702.38
424.511	735.38
424.733	768.38
424.956	867.38
425.178	830.38
425.401	823.38
425.623	856.38
425.846	743.38
426.068	692.38
426.291	665.38
426.513	673.38
426.735	683.38
426.958	741.38
427.18	850.38
427.402	991.38
427.625	1119.38
427.847	964.38
428.069	844.38
428.292	767.38
428.514	662.38
428.736	676.38
428.958	640.38
429.181	627.38
429.403	620.38
429.625	632.38
429.847	660.38
430.069	752.38
430.292	774.38
430.514	652.38
430.736	623.38
430.958	594.38
431.18	604.38
431.402	603.38
431.624	584.38
431.846	603.38
432.068	598.38
432.29	603.38
432.512	593.38
432.734	614.38
432.956	583.38
433.178	626.38
433.4	630.38
433.622	594.38
433.844	600.38
434.066	605.38
434.287	598.38
434.509	613.38
434.731	612.38
434.953	618.38
435.175	649.38
435.397	685.38
435.618	686.38
435.84	731.38
436.062	863.38
436.284	961.38
436.505	798.38
436.727	678.38
436.949	645.38
437.17	647.38
437.392	634.38
437.614	656.38
437.835	701.38
438.057	826.38
438.278	966.38
438.5	950.38
438.721	1023.38
438.943	991.38
439.165	755.38
439.386	705.38
439.608	697.38
439.829	698.38
440.05	735.38
440.272	772.38
440.493	730.38
440.715	676.38
440.936	650.38
441.158	628.38
441.379	632.38
441.6	647.38
441.822	657.38
442.043	754.38
442.264	838.38
442.486	899.38
442.707	766.38
442.928	706.38
443.149	714.38
443.371	740.38
443.592	820.38
443.813	900.38
444.034	978.38
444.255	799.38
444.476	721.38
444.698	708.38
444.919	672.38
445.14	802.38
445.361	755.38
445.582	765.38
445.803	820.38
446.024	935.38
446.245	956.38
446.466	879.38
446.687	754.38
446.908	684.38
447.129	644.38
447.35	647.38
447.571	626.38
447.792	619.38
448.013	638.38
448.234	642.38
448.455	735.38
448.675	862.38
448.896	1001.38
449.117	862.38
449.338	790.38
449.559	920.38
449.779	1048.38
450	840.38
450.221	684.38
450.442	643.38
450.662	619.38
450.883	634.38
451.104	663.38
451.324	616.38
451.545	601.38
451.766	606.38
451.986	558.38
452.207	572.38
452.428	539.38
452.648	542.38
452.869	560.38
453.089	596.38
453.31	589.38
453.53	577.38
453.751	566.38
453.971	580.38
454.192	592.38
454.412	559.38
454.633	549.38
454.853	562.38
455.073	583.38
455.294	590.38
455.514	694.38
455.734	646.38
455.955	593.38
456.175	548.38
456.395	532.38
456.616	512.38
456.836	523.38
457.056	542.38
457.276	506.38
457.497	538.38
457.717	545.38
457.937	520.38
458.157	526.38
458.377	564.38
458.598	597.38
458.818	659.38
459.038	734.38
459.258	770.38
459.478	660.38
459.698	600.38
459.918	620.38
460.138	622.38
460.358	587.38
460.578	619.38
460.798	624.38
461.018	620.38
461.238	603.38
461.458	599.38
461.678	607.38
461.898	613.38
462.118	624.38
462.338	623.38
462.558	658.38
462.777	625.38
462.997	646.38
463.217	670.38
463.437	674.38
463.657	640.38
463.876	677.38
464.096	664.38
464.316	642.38
464.536	670.38
464.755	657.38
464.975	667.38
465.195	695.38
465.414	772.38
465.634	699.38
465.854	637.38
466.073	634.38
466.293	602.38
466.512	588.38
466.732	571.38
466.951	588.38
467.171	585.38
467.391	577.38
467.61	587.38
467.829	582.38
468.049	603.38
468.268	590.38
468.488	577.38
468.707	591.38
468.927	584.38
469.146	558.38
469.365	583.38
469.585	530.38
469.804	593.38
470.023	611.38
470.243	580.38
470.462	582.38
470.681	622.38
470.901	595.38
471.12	598.38
471.339	570.38
471.558	595.38
471.777	597.38
471.997	556.38
472.216	580.38
472.435	619.38
472.654	596.38
472.873	569.38
473.092	570.38
473.311	570.38
473.53	598.38
473.749	608.38
473.968	634.38
474.187	780.38
474.406	781.38
474.625	658.38
474.844	606.38
475.063	596.38
475.282	584.38
475.501	589.38
475.72	609.38
475.939	594.38
476.158	603.38
476.377	610.38
476.596	597.38
476.814	632.38
477.033	618.38
477.252	640.38
477.471	638.38
477.69	656.38
477.908	654.38
478.127	650.38
478.346	670.38
478.564	658.38
478.783	650.38
479.002	676.38
479.22	663.38
479.439	708.38
479.658	680.38
479.876	738.38
480.095	728.38
480.313	746.38
480.532	753.38
480.751	718.38
480.969	735.38
481.188	741.38
481.406	786.38
481.624	732.38
481.843	708.38
482.061	686.38
482.28	686.38
482.498	696.38
482.717	687.38
482.935	707.38
483.153	691.38
483.372	683.38
483.59	703.38
483.808	690.38
484.027	692.38
484.245	683.38
484.463	709.38
484.681	707.38
484.9	706.38
485.118	706.38
485.336	698.38
485.554	711.38
485.772	711.38
485.99	713.38
486.209	737.38
486.427	725.38
486.645	757.38
486.863	743.38
487.081	793.38
487.299	777.38
487.517	739.38
487.735	738.38
487.953	742.38
488.171	746.38
488.389	739.38
488.607	750.38
488.825	712.38
489.043	756.38
489.261	774.38
489.479	755.38
489.696	764.38
489.914	756.38
490.132	756.38
490.35	766.38
490.568	770.38
490.786	794.38
491.003	815.38
491.221	828.38
491.439	810.38
491.657	828.38
491.874	823.38
492.092	888.38
492.31	842.38
492.527	858.38
492.745	872.38
492.963	847.38
493.18	841.38
493.398	869.38
493.615	895.38
493.833	886.38
494.05	879.38
494.268	871.38
494.485	883.38
494.703	880.38
494.92	847.38
495.138	874.38
495.355	864.38
495.573	897.38
495.79	898.38
496.008	898.38
496.225	906.38
496.442	904.38
496.66	885.38
496.877	893.38
497.094	921.38
497.312	897.38
497.529	940.38
497.746	924.38
497.963	938.38
498.181	985.38
498.398	999.38
498.615	1013.38
498.832	1021.38
499.049	1026.38
499.267	1078.38
499.484	1092.38
499.701	1150.38
499.918	1149.38
500.135	1215.38
500.352	1274.38
500.569	1286.38
500.786	1292.38
501.003	1249.38
501.22	1240.38
501.437	1176.38
501.654	1148.38
