Data from 1988.PennyLincolnUp.Lamp.En5.5.200Scan.071819.P2_HRD10591_17-19-04-971.txt Node
Date: Thu Jul 18 17:19:04 EDT 2019
User: cochatt
Spectrometer: HR+D1059
Trigger mode: 1
Integration Time (sec): 1.000000E-1
Scans to average: 1
Electric dark correction enabled: true
Nonlinearity correction enabled: false
Boxcar width: 0
XAxis mode: Wavelengths
Number of Pixels in Spectrum: 2048
>>>>>Begin Spectral Data<<<<<
223.165	-3.25
223.4	-3.25
223.635	-3.25
223.869	-24.25
224.104	-23.25
224.338	-16.25
224.573	-6.25
224.808	-9.25
225.042	-13.25
225.277	-16.25
225.511	-0.25
225.746	6.75
225.98	-5.25
226.215	7.75
226.449	20.75
226.683	28.75
226.918	16.75
227.152	36.75
227.387	32.75
227.621	45.75
227.856	45.75
228.09	60.75
228.324	49.75
228.559	66.75
228.793	93.75
229.027	106.75
229.262	116.75
229.496	118.75
229.73	141.75
229.964	154.75
230.199	122.75
230.433	134.75
230.667	114.75
230.901	107.75
231.136	129.75
231.37	104.75
231.604	122.75
231.838	108.75
232.072	122.75
232.306	121.75
232.541	94.75
232.775	124.75
233.009	105.75
233.243	112.75
233.477	107.75
233.711	125.75
233.945	131.75
234.179	123.75
234.413	119.75
234.647	125.75
234.881	124.75
235.115	117.75
235.349	125.75
235.583	129.75
235.817	116.75
236.051	118.75
236.285	119.75
236.519	124.75
236.753	133.75
236.987	150.75
237.221	176.75
237.455	217.75
237.689	176.75
237.922	129.75
238.156	133.75
238.39	135.75
238.624	149.75
238.858	125.75
239.091	129.75
239.325	132.75
239.559	126.75
239.793	136.75
240.027	132.75
240.26	141.75
240.494	150.75
240.728	150.75
240.961	153.75
241.195	138.75
241.429	128.75
241.662	134.75
241.896	139.75
242.13	135.75
242.363	134.75
242.597	130.75
242.83	136.75
243.064	124.75
243.298	144.75
243.531	140.75
243.765	130.75
243.998	146.75
244.232	153.75
244.465	148.75
244.699	149.75
244.932	139.75
245.166	140.75
245.399	156.75
245.633	140.75
245.866	149.75
246.099	138.75
246.333	128.75
246.566	131.75
246.8	157.75
247.033	157.75
247.266	168.75
247.5	152.75
247.733	161.75
247.966	177.75
248.2	174.75
248.433	173.75
248.666	166.75
248.899	172.75
249.133	195.75
249.366	213.75
249.599	191.75
249.832	189.75
250.066	182.75
250.299	176.75
250.532	180.75
250.765	185.75
250.998	205.75
251.231	212.75
251.465	212.75
251.698	203.75
251.931	194.75
252.164	202.75
252.397	191.75
252.63	202.75
252.863	202.75
253.096	202.75
253.329	215.75
253.562	221.75
253.795	217.75
254.028	205.75
254.261	197.75
254.494	225.75
254.727	235.75
254.96	261.75
255.193	240.75
255.426	230.75
255.659	228.75
255.892	213.75
256.124	218.75
256.357	210.75
256.59	225.75
256.823	205.75
257.056	209.75
257.289	199.75
257.521	205.75
257.754	220.75
257.987	200.75
258.22	209.75
258.452	212.75
258.685	204.75
258.918	208.75
259.151	229.75
259.383	213.75
259.616	223.75
259.849	222.75
260.081	233.75
260.314	223.75
260.547	272.75
260.779	240.75
261.012	207.75
261.244	227.75
261.477	224.75
261.71	212.75
261.942	224.75
262.175	226.75
262.407	215.75
262.64	196.75
262.872	220.75
263.105	210.75
263.337	223.75
263.57	207.75
263.802	221.75
264.035	224.75
264.267	224.75
264.499	221.75
264.732	197.75
264.964	232.75
265.197	214.75
265.429	207.75
265.661	205.75
265.894	208.75
266.126	208.75
266.358	204.75
266.591	205.75
266.823	216.75
267.055	226.75
267.287	232.75
267.52	223.75
267.752	217.75
267.984	241.75
268.216	244.75
268.448	236.75
268.681	223.75
268.913	240.75
269.145	245.75
269.377	266.75
269.609	250.75
269.841	250.75
270.073	259.75
270.306	297.75
270.538	303.75
270.77	294.75
271.002	301.75
271.234	283.75
271.466	281.75
271.698	292.75
271.93	306.75
272.162	287.75
272.394	308.75
272.626	262.75
272.858	263.75
273.09	264.75
273.322	263.75
273.553	245.75
273.785	273.75
274.017	245.75
274.249	252.75
274.481	270.75
274.713	247.75
274.945	250.75
275.176	268.75
275.408	267.75
275.64	263.75
275.872	264.75
276.104	240.75
276.335	252.75
276.567	248.75
276.799	270.75
277.031	295.75
277.262	321.75
277.494	329.75
277.726	286.75
277.957	276.75
278.189	279.75
278.421	270.75
278.652	272.75
278.884	265.75
279.115	264.75
279.347	272.75
279.579	261.75
279.81	260.75
280.042	273.75
280.273	288.75
280.505	284.75
280.736	269.75
280.968	275.75
281.199	270.75
281.431	276.75
281.662	288.75
281.894	274.75
282.125	264.75
282.356	273.75
282.588	309.75
282.819	305.75
283.051	268.75
283.282	270.75
283.513	284.75
283.745	285.75
283.976	295.75
284.207	284.75
284.439	274.75
284.67	264.75
284.901	285.75
285.132	276.75
285.364	281.75
285.595	292.75
285.826	274.75
286.057	271.75
286.288	275.75
286.52	277.75
286.751	282.75
286.982	278.75
287.213	294.75
287.444	278.75
287.675	294.75
287.906	301.75
288.138	293.75
288.369	286.75
288.6	295.75
288.831	308.75
289.062	304.75
289.293	305.75
289.524	301.75
289.755	303.75
289.986	275.75
290.217	288.75
290.448	274.75
290.679	280.75
290.91	277.75
291.141	300.75
291.371	288.75
291.602	277.75
291.833	291.75
292.064	277.75
292.295	310.75
292.526	288.75
292.757	287.75
292.987	289.75
293.218	288.75
293.449	288.75
293.68	310.75
293.91	302.75
294.141	297.75
294.372	286.75
294.603	293.75
294.833	299.75
295.064	301.75
295.295	298.75
295.525	289.75
295.756	305.75
295.987	298.75
296.217	325.75
296.448	333.75
296.679	308.75
296.909	313.75
297.14	286.75
297.37	318.75
297.601	305.75
297.831	301.75
298.062	304.75
298.292	310.75
298.523	312.75
298.753	295.75
298.984	309.75
299.214	314.75
299.445	327.75
299.675	315.75
299.905	320.75
300.136	328.75
300.366	321.75
300.597	322.75
300.827	292.75
301.057	330.75
301.288	332.75
301.518	344.75
301.748	320.75
301.979	314.75
302.209	318.75
302.439	336.75
302.669	343.75
302.9	324.75
303.13	326.75
303.36	324.75
303.59	349.75
303.82	334.75
304.051	354.75
304.281	343.75
304.511	328.75
304.741	305.75
304.971	335.75
305.201	322.75
305.431	322.75
305.661	330.75
305.891	307.75
306.121	331.75
306.352	361.75
306.582	340.75
306.812	337.75
307.042	329.75
307.272	336.75
307.502	334.75
307.731	334.75
307.961	338.75
308.191	340.75
308.421	334.75
308.651	340.75
308.881	338.75
309.111	345.75
309.341	348.75
309.571	361.75
309.8	341.75
310.03	361.75
310.26	372.75
310.49	359.75
310.72	396.75
310.949	400.75
311.179	397.75
311.409	368.75
311.639	394.75
311.868	385.75
312.098	382.75
312.328	393.75
312.557	410.75
312.787	412.75
313.017	390.75
313.246	402.75
313.476	397.75
313.706	385.75
313.935	387.75
314.165	394.75
314.394	413.75
314.624	394.75
314.853	378.75
315.083	364.75
315.312	377.75
315.542	390.75
315.771	372.75
316.001	388.75
316.23	380.75
316.46	362.75
316.689	382.75
316.919	384.75
317.148	388.75
317.377	376.75
317.607	391.75
317.836	381.75
318.065	391.75
318.295	399.75
318.524	400.75
318.753	368.75
318.983	388.75
319.212	390.75
319.441	394.75
319.67	403.75
319.9	391.75
320.129	396.75
320.358	382.75
320.587	388.75
320.816	394.75
321.046	402.75
321.275	402.75
321.504	398.75
321.733	417.75
321.962	435.75
322.191	421.75
322.42	418.75
322.649	432.75
322.878	457.75
323.108	461.75
323.337	469.75
323.566	505.75
323.795	531.75
324.024	588.75
324.253	672.75
324.482	945.75
324.71	1486.75
324.939	2157.75
325.168	1809.75
325.397	952.75
325.626	650.75
325.855	559.75
326.084	523.75
326.313	493.75
326.542	518.75
326.77	545.75
326.999	647.75
327.228	876.75
327.457	1299.75
327.686	1573.75
327.914	1058.75
328.143	701.75
328.372	603.75
328.6	585.75
328.829	561.75
329.058	556.75
329.287	578.75
329.515	520.75
329.744	507.75
329.972	498.75
330.201	512.75
330.43	518.75
330.658	559.75
330.887	592.75
331.115	573.75
331.344	530.75
331.572	500.75
331.801	503.75
332.03	509.75
332.258	473.75
332.486	468.75
332.715	461.75
332.943	470.75
333.172	456.75
333.4	465.75
333.629	457.75
333.857	464.75
334.085	490.75
334.314	458.75
334.542	472.75
334.771	462.75
334.999	462.75
335.227	457.75
335.455	461.75
335.684	455.75
335.912	454.75
336.14	440.75
336.369	440.75
336.597	445.75
336.825	458.75
337.053	462.75
337.281	440.75
337.51	440.75
337.738	466.75
337.966	427.75
338.194	443.75
338.422	452.75
338.65	445.75
338.878	418.75
339.106	454.75
339.334	433.75
339.562	446.75
339.79	436.75
340.018	461.75
340.246	432.75
340.474	451.75
340.702	456.75
340.93	460.75
341.158	447.75
341.386	412.75
341.614	436.75
341.842	439.75
342.07	428.75
342.298	444.75
342.526	431.75
342.754	448.75
342.981	423.75
343.209	434.75
343.437	424.75
343.665	439.75
343.893	447.75
344.12	454.75
344.348	454.75
344.576	451.75
344.804	454.75
345.031	476.75
345.259	458.75
345.487	456.75
345.714	444.75
345.942	441.75
346.17	444.75
346.397	429.75
346.625	414.75
346.853	420.75
347.08	402.75
347.308	445.75
347.535	430.75
347.763	432.75
347.99	422.75
348.218	397.75
348.445	460.75
348.673	430.75
348.9	431.75
349.128	414.75
349.355	417.75
349.583	420.75
349.81	433.75
350.037	403.75
350.265	402.75
350.492	422.75
350.72	413.75
350.947	419.75
351.174	423.75
351.402	438.75
351.629	418.75
351.856	460.75
352.083	452.75
352.311	453.75
352.538	446.75
352.765	446.75
352.992	425.75
353.22	449.75
353.447	413.75
353.674	430.75
353.901	402.75
354.128	420.75
354.355	406.75
354.583	386.75
354.81	405.75
355.037	407.75
355.264	407.75
355.491	407.75
355.718	419.75
355.945	407.75
356.172	405.75
356.399	397.75
356.626	400.75
356.853	383.75
357.08	400.75
357.307	404.75
357.534	377.75
357.761	410.75
357.988	395.75
358.215	399.75
358.441	398.75
358.668	388.75
358.895	409.75
359.122	392.75
359.349	431.75
359.576	422.75
359.802	442.75
360.029	473.75
360.256	465.75
360.483	470.75
360.709	450.75
360.936	437.75
361.163	418.75
361.39	437.75
361.616	430.75
361.843	412.75
362.07	407.75
362.296	408.75
362.523	406.75
362.749	434.75
362.976	402.75
363.203	422.75
363.429	396.75
363.656	412.75
363.882	410.75
364.109	430.75
364.335	406.75
364.562	416.75
364.788	410.75
365.015	402.75
365.241	414.75
365.468	412.75
365.694	411.75
365.92	435.75
366.147	398.75
366.373	390.75
366.599	405.75
366.826	416.75
367.052	407.75
367.278	401.75
367.505	402.75
367.731	404.75
367.957	437.75
368.184	420.75
368.41	422.75
368.636	414.75
368.862	430.75
369.089	409.75
369.315	390.75
369.541	432.75
369.767	411.75
369.993	400.75
370.219	413.75
370.445	428.75
370.672	410.75
370.898	393.75
371.124	389.75
371.35	388.75
371.576	416.75
371.802	429.75
372.028	413.75
372.254	416.75
372.48	420.75
372.706	413.75
372.932	389.75
373.158	417.75
373.384	414.75
373.61	416.75
373.835	402.75
374.061	410.75
374.287	392.75
374.513	423.75
374.739	426.75
374.965	432.75
375.191	425.75
375.416	424.75
375.642	420.75
375.868	414.75
376.094	404.75
376.319	425.75
376.545	420.75
376.771	428.75
376.997	404.75
377.222	401.75
377.448	406.75
377.674	399.75
377.899	409.75
378.125	408.75
378.35	396.75
378.576	409.75
378.802	410.75
379.027	408.75
379.253	402.75
379.478	397.75
379.704	396.75
379.929	406.75
380.155	398.75
380.38	412.75
380.606	398.75
380.831	405.75
381.057	398.75
381.282	410.75
381.507	423.75
381.733	408.75
381.958	401.75
382.184	408.75
382.409	410.75
382.634	419.75
382.86	428.75
383.085	408.75
383.31	434.75
383.535	450.75
383.761	430.75
383.986	419.75
384.211	442.75
384.436	429.75
384.662	439.75
384.887	451.75
385.112	443.75
385.337	443.75
385.562	439.75
385.787	446.75
386.013	453.75
386.238	465.75
386.463	445.75
386.688	458.75
386.913	426.75
387.138	438.75
387.363	448.75
387.588	448.75
387.813	425.75
388.038	448.75
388.263	416.75
388.488	469.75
388.713	455.75
388.938	428.75
389.163	452.75
389.387	456.75
389.612	447.75
389.837	425.75
390.062	417.75
390.287	481.75
390.512	468.75
390.736	436.75
390.961	453.75
391.186	454.75
391.411	462.75
391.636	465.75
391.86	496.75
392.085	455.75
392.31	454.75
392.534	466.75
392.759	469.75
392.984	466.75
393.208	465.75
393.433	465.75
393.658	450.75
393.882	447.75
394.107	431.75
394.331	452.75
394.556	450.75
394.78	467.75
395.005	459.75
395.229	447.75
395.454	449.75
395.678	477.75
395.903	486.75
396.127	489.75
396.352	488.75
396.576	501.75
396.801	468.75
397.025	485.75
397.249	461.75
397.474	470.75
397.698	497.75
397.922	505.75
398.147	494.75
398.371	524.75
398.595	503.75
398.82	528.75
399.044	540.75
399.268	527.75
399.492	560.75
399.717	611.75
399.941	632.75
400.165	654.75
400.389	630.75
400.613	576.75
400.837	548.75
401.062	550.75
401.286	507.75
401.51	516.75
401.734	505.75
401.958	521.75
402.182	524.75
402.406	530.75
402.63	532.75
402.854	534.75
403.078	529.75
403.302	532.75
403.526	527.75
403.75	549.75
403.974	535.75
404.198	508.75
404.422	536.75
404.645	554.75
404.869	540.75
405.093	561.75
405.317	571.75
405.541	593.75
405.765	571.75
405.988	546.75
406.212	557.75
406.436	586.75
406.66	603.75
406.883	578.75
407.107	611.75
407.331	628.75
407.555	691.75
407.778	700.75
408.002	632.75
408.226	605.75
408.449	580.75
408.673	589.75
408.896	629.75
409.12	674.75
409.344	619.75
409.567	557.75
409.791	570.75
410.014	535.75
410.238	526.75
410.461	539.75
410.685	538.75
410.908	572.75
411.132	597.75
411.355	606.75
411.578	605.75
411.802	517.75
412.025	526.75
412.249	542.75
412.472	552.75
412.695	557.75
412.919	521.75
413.142	523.75
413.365	507.75
413.589	506.75
413.812	508.75
414.035	513.75
414.258	523.75
414.482	516.75
414.705	501.75
414.928	494.75
415.151	494.75
415.374	519.75
415.597	495.75
415.821	504.75
416.044	503.75
416.267	505.75
416.49	511.75
416.713	506.75
416.936	501.75
417.159	504.75
417.382	497.75
417.605	507.75
417.828	519.75
418.051	530.75
418.274	524.75
418.497	515.75
418.72	500.75
418.943	502.75
419.166	519.75
419.389	538.75
419.611	535.75
419.834	526.75
420.057	522.75
420.28	518.75
420.503	503.75
420.726	491.75
420.948	534.75
421.171	580.75
421.394	617.75
421.617	545.75
421.839	543.75
422.062	522.75
422.285	545.75
422.507	618.75
422.73	664.75
422.953	642.75
423.175	582.75
423.398	569.75
423.621	550.75
423.843	568.75
424.066	561.75
424.288	534.75
424.511	586.75
424.733	658.75
424.956	715.75
425.178	666.75
425.401	687.75
425.623	692.75
425.846	586.75
426.068	588.75
426.291	566.75
426.513	569.75
426.735	561.75
426.958	630.75
427.18	696.75
427.402	800.75
427.625	911.75
427.847	751.75
428.069	663.75
428.292	593.75
428.514	556.75
428.736	550.75
428.958	554.75
429.181	520.75
429.403	504.75
429.625	539.75
429.847	561.75
430.069	631.75
430.292	642.75
430.514	531.75
430.736	520.75
430.958	530.75
431.18	495.75
431.402	502.75
431.624	493.75
431.846	498.75
432.068	491.75
432.29	494.75
432.512	489.75
432.734	504.75
432.956	488.75
433.178	515.75
433.4	530.75
433.622	506.75
433.844	518.75
434.066	509.75
434.287	497.75
434.509	490.75
434.731	534.75
434.953	512.75
435.175	522.75
435.397	569.75
435.618	579.75
435.84	606.75
436.062	711.75
436.284	766.75
436.505	658.75
436.727	558.75
436.949	548.75
437.17	531.75
437.392	509.75
437.614	541.75
437.835	567.75
438.057	692.75
438.278	774.75
438.5	767.75
438.721	851.75
438.943	800.75
439.165	633.75
439.386	588.75
439.608	580.75
439.829	593.75
440.05	599.75
440.272	647.75
440.493	601.75
440.715	553.75
440.936	541.75
441.158	547.75
441.379	544.75
441.6	534.75
441.822	560.75
442.043	591.75
442.264	710.75
442.486	738.75
442.707	629.75
442.928	571.75
443.149	574.75
443.371	609.75
443.592	625.75
443.813	741.75
444.034	777.75
444.255	677.75
444.476	604.75
444.698	580.75
444.919	564.75
445.14	649.75
445.361	621.75
445.582	614.75
445.803	663.75
446.024	772.75
446.245	790.75
446.466	722.75
446.687	617.75
446.908	582.75
447.129	544.75
447.35	535.75
447.571	510.75
447.792	534.75
448.013	571.75
448.234	553.75
448.455	593.75
448.675	726.75
448.896	820.75
449.117	679.75
449.338	664.75
449.559	770.75
449.779	860.75
450	679.75
450.221	581.75
450.442	544.75
450.662	529.75
450.883	533.75
451.104	524.75
451.324	524.75
451.545	491.75
451.766	485.75
451.986	493.75
452.207	455.75
452.428	469.75
452.648	466.75
452.869	472.75
453.089	484.75
453.31	502.75
453.53	477.75
453.751	485.75
453.971	466.75
454.192	485.75
454.412	497.75
454.633	460.75
454.853	462.75
455.073	480.75
455.294	510.75
455.514	577.75
455.734	538.75
455.955	476.75
456.175	463.75
456.395	470.75
456.616	448.75
456.836	464.75
457.056	460.75
457.276	427.75
457.497	432.75
457.717	448.75
457.937	439.75
458.157	466.75
458.377	477.75
458.598	492.75
458.818	521.75
459.038	612.75
459.258	630.75
459.478	556.75
459.698	512.75
459.918	506.75
460.138	509.75
460.358	508.75
460.578	512.75
460.798	530.75
461.018	545.75
461.238	518.75
461.458	512.75
461.678	502.75
461.898	528.75
462.118	512.75
462.338	512.75
462.558	527.75
462.777	541.75
462.997	553.75
463.217	565.75
463.437	560.75
463.657	555.75
463.876	545.75
464.096	548.75
464.316	548.75
464.536	548.75
464.755	547.75
464.975	547.75
465.195	581.75
465.414	661.75
465.634	578.75
465.854	541.75
466.073	521.75
466.293	505.75
466.512	488.75
466.732	505.75
466.951	504.75
467.171	495.75
467.391	494.75
467.61	502.75
467.829	497.75
468.049	494.75
468.268	479.75
468.488	465.75
468.707	461.75
468.927	458.75
469.146	466.75
469.365	467.75
469.585	478.75
469.804	504.75
470.023	488.75
470.243	506.75
470.462	501.75
470.681	505.75
470.901	515.75
471.12	510.75
471.339	512.75
471.558	512.75
471.777	503.75
471.997	488.75
472.216	478.75
472.435	494.75
472.654	470.75
472.873	458.75
473.092	489.75
473.311	500.75
473.53	489.75
473.749	495.75
473.968	513.75
474.187	641.75
474.406	649.75
474.625	544.75
474.844	510.75
475.063	486.75
475.282	500.75
475.501	500.75
475.72	499.75
475.939	503.75
476.158	530.75
476.377	514.75
476.596	518.75
476.814	520.75
477.033	534.75
477.252	499.75
477.471	552.75
477.69	534.75
477.908	557.75
478.127	534.75
478.346	553.75
478.564	582.75
478.783	544.75
479.002	565.75
479.22	572.75
479.439	585.75
479.658	576.75
479.876	589.75
480.095	617.75
480.313	630.75
480.532	599.75
480.751	609.75
480.969	596.75
481.188	594.75
481.406	608.75
481.624	587.75
481.843	588.75
482.061	593.75
482.28	571.75
482.498	586.75
482.717	565.75
482.935	577.75
483.153	592.75
483.372	572.75
483.59	576.75
483.808	586.75
484.027	585.75
484.245	594.75
484.463	580.75
484.681	593.75
484.9	583.75
485.118	593.75
485.336	602.75
485.554	589.75
485.772	605.75
485.99	597.75
486.209	603.75
486.427	584.75
486.645	625.75
486.863	619.75
487.081	622.75
487.299	621.75
487.517	607.75
487.735	611.75
487.953	610.75
488.171	612.75
488.389	597.75
488.607	636.75
488.825	641.75
489.043	646.75
489.261	602.75
489.479	632.75
489.696	639.75
489.914	625.75
490.132	633.75
490.35	636.75
490.568	649.75
490.786	662.75
491.003	652.75
491.221	668.75
491.439	655.75
491.657	676.75
491.874	689.75
492.092	692.75
492.31	678.75
492.527	696.75
492.745	720.75
492.963	704.75
493.18	703.75
493.398	708.75
493.615	704.75
493.833	693.75
494.05	739.75
494.268	728.75
494.485	698.75
494.703	697.75
494.92	713.75
495.138	735.75
495.355	705.75
495.573	718.75
495.79	714.75
496.008	725.75
496.225	710.75
496.442	738.75
496.66	726.75
496.877	752.75
497.094	760.75
497.312	745.75
497.529	762.75
497.746	767.75
497.963	798.75
498.181	794.75
498.398	817.75
498.615	801.75
498.832	838.75
499.049	836.75
499.267	875.75
499.484	914.75
499.701	934.75
499.918	950.75
500.135	979.75
500.352	1045.75
500.569	1042.75
500.786	1021.75
501.003	1008.75
501.22	1001.75
501.437	978.75
501.654	945.75
501.871	939.75
