Data from 1988.PennyLincolnUp.Lamp.En5.5.200Scan.071819.P2_HRD10591_17-18-18-971.txt Node
Date: Thu Jul 18 17:18:18 EDT 2019
User: cochatt
Spectrometer: HR+D1059
Trigger mode: 1
Integration Time (sec): 1.000000E-1
Scans to average: 1
Electric dark correction enabled: true
Nonlinearity correction enabled: false
Boxcar width: 0
XAxis mode: Wavelengths
Number of Pixels in Spectrum: 2048
>>>>>Begin Spectral Data<<<<<
223.165	-14.19
223.4	-14.19
223.635	-14.19
223.869	-21.19
224.104	-28.19
224.338	-11.19
224.573	-8.19
224.808	-15.19
225.042	-13.19
225.277	-13.19
225.511	4.81
225.746	13.81
225.98	8.81
226.215	6.81
226.449	0.81
226.683	11.81
226.918	40.81
227.152	36.81
227.387	29.81
227.621	37.81
227.856	42.81
228.09	43.81
228.324	49.81
228.559	64.81
228.793	79.81
229.027	111.81
229.262	104.81
229.496	102.81
229.73	131.81
229.964	167.81
230.199	148.81
230.433	124.81
230.667	113.81
230.901	108.81
231.136	108.81
231.37	124.81
231.604	122.81
231.838	128.81
232.072	132.81
232.306	132.81
232.541	120.81
232.775	124.81
233.009	111.81
233.243	107.81
233.477	129.81
233.711	128.81
233.945	106.81
234.179	132.81
234.413	124.81
234.647	133.81
234.881	117.81
235.115	128.81
235.349	112.81
235.583	121.81
235.817	126.81
236.051	125.81
236.285	133.81
236.519	123.81
236.753	143.81
236.987	167.81
237.221	186.81
237.455	236.81
237.689	203.81
237.922	138.81
238.156	141.81
238.39	135.81
238.624	126.81
238.858	125.81
239.091	132.81
239.325	139.81
239.559	136.81
239.793	147.81
240.027	136.81
240.26	152.81
240.494	168.81
240.728	165.81
240.961	175.81
241.195	160.81
241.429	138.81
241.662	138.81
241.896	143.81
242.13	135.81
242.363	132.81
242.597	136.81
242.83	144.81
243.064	140.81
243.298	148.81
243.531	143.81
243.765	132.81
243.998	145.81
244.232	137.81
244.465	149.81
244.699	156.81
244.932	160.81
245.166	149.81
245.399	148.81
245.633	142.81
245.866	149.81
246.099	146.81
246.333	159.81
246.566	140.81
246.8	145.81
247.033	160.81
247.266	170.81
247.5	160.81
247.733	161.81
247.966	159.81
248.2	160.81
248.433	174.81
248.666	180.81
248.899	191.81
249.133	207.81
249.366	211.81
249.599	197.81
249.832	201.81
250.066	177.81
250.299	175.81
250.532	201.81
250.765	192.81
250.998	221.81
251.231	241.81
251.465	201.81
251.698	222.81
251.931	236.81
252.164	213.81
252.397	200.81
252.63	220.81
252.863	205.81
253.096	220.81
253.329	225.81
253.562	221.81
253.795	226.81
254.028	228.81
254.261	219.81
254.494	223.81
254.727	250.81
254.96	260.81
255.193	254.81
255.426	238.81
255.659	226.81
255.892	227.81
256.124	209.81
256.357	201.81
256.59	198.81
256.823	210.81
257.056	191.81
257.289	199.81
257.521	210.81
257.754	214.81
257.987	223.81
258.22	200.81
258.452	190.81
258.685	194.81
258.918	212.81
259.151	210.81
259.383	212.81
259.616	205.81
259.849	218.81
260.081	234.81
260.314	268.81
260.547	275.81
260.779	246.81
261.012	227.81
261.244	244.81
261.477	233.81
261.71	220.81
261.942	230.81
262.175	252.81
262.407	248.81
262.64	238.81
262.872	203.81
263.105	228.81
263.337	228.81
263.57	231.81
263.802	216.81
264.035	202.81
264.267	192.81
264.499	209.81
264.732	202.81
264.964	210.81
265.197	226.81
265.429	224.81
265.661	199.81
265.894	213.81
266.126	215.81
266.358	223.81
266.591	221.81
266.823	229.81
267.055	230.81
267.287	226.81
267.52	210.81
267.752	222.81
267.984	216.81
268.216	215.81
268.448	222.81
268.681	244.81
268.913	225.81
269.145	265.81
269.377	272.81
269.609	280.81
269.841	273.81
270.073	258.81
270.306	275.81
270.538	322.81
270.77	309.81
271.002	277.81
271.234	285.81
271.466	304.81
271.698	313.81
271.93	324.81
272.162	318.81
272.394	306.81
272.626	312.81
272.858	291.81
273.09	280.81
273.322	261.81
273.553	269.81
273.785	285.81
274.017	274.81
274.249	271.81
274.481	291.81
274.713	298.81
274.945	297.81
275.176	280.81
275.408	296.81
275.64	303.81
275.872	273.81
276.104	277.81
276.335	279.81
276.567	295.81
276.799	300.81
277.031	313.81
277.262	316.81
277.494	314.81
277.726	312.81
277.957	296.81
278.189	286.81
278.421	294.81
278.652	290.81
278.884	291.81
279.115	314.81
279.347	354.81
279.579	413.81
279.81	518.81
280.042	480.81
280.273	403.81
280.505	422.81
280.736	362.81
280.968	301.81
281.199	285.81
281.431	288.81
281.662	297.81
281.894	285.81
282.125	285.81
282.356	292.81
282.588	326.81
282.819	329.81
283.051	295.81
283.282	273.81
283.513	269.81
283.745	292.81
283.976	288.81
284.207	297.81
284.439	288.81
284.67	280.81
284.901	303.81
285.132	312.81
285.364	308.81
285.595	299.81
285.826	300.81
286.057	306.81
286.288	283.81
286.52	301.81
286.751	291.81
286.982	283.81
287.213	283.81
287.444	294.81
287.675	293.81
287.906	305.81
288.138	320.81
288.369	356.81
288.6	365.81
288.831	324.81
289.062	311.81
289.293	316.81
289.524	297.81
289.755	302.81
289.986	291.81
290.217	290.81
290.448	300.81
290.679	280.81
290.91	291.81
291.141	295.81
291.371	302.81
291.602	319.81
291.833	284.81
292.064	298.81
292.295	292.81
292.526	293.81
292.757	292.81
292.987	313.81
293.218	301.81
293.449	295.81
293.68	319.81
293.91	296.81
294.141	312.81
294.372	305.81
294.603	309.81
294.833	318.81
295.064	297.81
295.295	299.81
295.525	315.81
295.756	327.81
295.987	318.81
296.217	354.81
296.448	371.81
296.679	330.81
296.909	320.81
297.14	305.81
297.37	305.81
297.601	311.81
297.831	309.81
298.062	310.81
298.292	312.81
298.523	302.81
298.753	335.81
298.984	318.81
299.214	320.81
299.445	322.81
299.675	316.81
299.905	340.81
300.136	324.81
300.366	318.81
300.597	330.81
300.827	324.81
301.057	342.81
301.288	352.81
301.518	334.81
301.748	341.81
301.979	349.81
302.209	347.81
302.439	361.81
302.669	344.81
302.9	350.81
303.13	344.81
303.36	329.81
303.59	353.81
303.82	369.81
304.051	365.81
304.281	326.81
304.511	340.81
304.741	364.81
304.971	361.81
305.201	355.81
305.431	351.81
305.661	361.81
305.891	340.81
306.121	366.81
306.352	363.81
306.582	366.81
306.812	346.81
307.042	356.81
307.272	341.81
307.502	352.81
307.731	355.81
307.961	358.81
308.191	345.81
308.421	339.81
308.651	383.81
308.881	384.81
309.111	393.81
309.341	380.81
309.571	418.81
309.8	402.81
310.03	410.81
310.26	408.81
310.49	398.81
310.72	404.81
310.949	441.81
311.179	420.81
311.409	385.81
311.639	407.81
311.868	366.81
312.098	412.81
312.328	417.81
312.557	425.81
312.787	433.81
313.017	428.81
313.246	415.81
313.476	412.81
313.706	397.81
313.935	408.81
314.165	422.81
314.394	425.81
314.624	428.81
314.853	401.81
315.083	400.81
315.312	390.81
315.542	395.81
315.771	382.81
316.001	405.81
316.23	408.81
316.46	412.81
316.689	414.81
316.919	416.81
317.148	407.81
317.377	426.81
317.607	429.81
317.836	437.81
318.065	441.81
318.295	423.81
318.524	425.81
318.753	417.81
318.983	409.81
319.212	422.81
319.441	430.81
319.67	430.81
319.9	397.81
320.129	409.81
320.358	382.81
320.587	415.81
320.816	423.81
321.046	432.81
321.275	405.81
321.504	420.81
321.733	425.81
321.962	437.81
322.191	467.81
322.42	467.81
322.649	467.81
322.878	521.81
323.108	526.81
323.337	548.81
323.566	582.81
323.795	586.81
324.024	662.81
324.253	836.81
324.482	1259.81
324.71	1978.81
324.939	2946.81
325.168	2464.81
325.397	1228.81
325.626	781.81
325.855	623.81
326.084	571.81
326.313	562.81
326.542	563.81
326.77	636.81
326.999	763.81
327.228	1074.81
327.457	1704.81
327.686	2148.81
327.914	1369.81
328.143	852.81
328.372	692.81
328.6	634.81
328.829	607.81
329.058	646.81
329.287	664.81
329.515	584.81
329.744	533.81
329.972	532.81
330.201	532.81
330.43	565.81
330.658	609.81
330.887	649.81
331.115	637.81
331.344	574.81
331.572	537.81
331.801	518.81
332.03	539.81
332.258	519.81
332.486	503.81
332.715	494.81
332.943	464.81
333.172	463.81
333.4	472.81
333.629	497.81
333.857	482.81
334.085	512.81
334.314	480.81
334.542	485.81
334.771	491.81
334.999	515.81
335.227	512.81
335.455	486.81
335.684	474.81
335.912	473.81
336.14	487.81
336.369	473.81
336.597	491.81
336.825	501.81
337.053	495.81
337.281	490.81
337.51	458.81
337.738	467.81
337.966	470.81
338.194	498.81
338.422	496.81
338.65	477.81
338.878	466.81
339.106	454.81
339.334	469.81
339.562	469.81
339.79	482.81
340.018	466.81
340.246	435.81
340.474	461.81
340.702	456.81
340.93	450.81
341.158	455.81
341.386	468.81
341.614	494.81
341.842	488.81
342.07	459.81
342.298	462.81
342.526	452.81
342.754	439.81
342.981	431.81
343.209	446.81
343.437	463.81
343.665	474.81
343.893	466.81
344.12	460.81
344.348	476.81
344.576	464.81
344.804	472.81
345.031	473.81
345.259	479.81
345.487	491.81
345.714	484.81
345.942	464.81
346.17	455.81
346.397	488.81
346.625	454.81
346.853	447.81
347.08	451.81
347.308	465.81
347.535	469.81
347.763	463.81
347.99	467.81
348.218	457.81
348.445	465.81
348.673	462.81
348.9	473.81
349.128	457.81
349.355	457.81
349.583	447.81
349.81	431.81
350.037	423.81
350.265	432.81
350.492	429.81
350.72	429.81
350.947	434.81
351.174	446.81
351.402	460.81
351.629	450.81
351.856	474.81
352.083	484.81
352.311	482.81
352.538	482.81
352.765	504.81
352.992	466.81
353.22	454.81
353.447	452.81
353.674	452.81
353.901	433.81
354.128	444.81
354.355	433.81
354.583	433.81
354.81	419.81
355.037	412.81
355.264	407.81
355.491	425.81
355.718	427.81
355.945	410.81
356.172	432.81
356.399	414.81
356.626	413.81
356.853	432.81
357.08	423.81
357.307	427.81
357.534	423.81
357.761	425.81
357.988	431.81
358.215	440.81
358.441	436.81
358.668	434.81
358.895	417.81
359.122	453.81
359.349	426.81
359.576	460.81
359.802	475.81
360.029	512.81
360.256	540.81
360.483	498.81
360.709	454.81
360.936	435.81
361.163	443.81
361.39	470.81
361.616	471.81
361.843	444.81
362.07	503.81
362.296	462.81
362.523	465.81
362.749	448.81
362.976	442.81
363.203	448.81
363.429	426.81
363.656	446.81
363.882	444.81
364.109	430.81
364.335	433.81
364.562	429.81
364.788	412.81
365.015	426.81
365.241	433.81
365.468	438.81
365.694	425.81
365.92	411.81
366.147	423.81
366.373	431.81
366.599	448.81
366.826	414.81
367.052	433.81
367.278	447.81
367.505	419.81
367.731	408.81
367.957	425.81
368.184	423.81
368.41	438.81
368.636	446.81
368.862	432.81
369.089	422.81
369.315	436.81
369.541	423.81
369.767	420.81
369.993	414.81
370.219	429.81
370.445	437.81
370.672	425.81
370.898	410.81
371.124	436.81
371.35	423.81
371.576	413.81
371.802	416.81
372.028	418.81
372.254	429.81
372.48	431.81
372.706	422.81
372.932	427.81
373.158	426.81
373.384	424.81
373.61	453.81
373.835	475.81
374.061	432.81
374.287	429.81
374.513	443.81
374.739	431.81
374.965	447.81
375.191	440.81
375.416	418.81
375.642	448.81
375.868	478.81
376.094	442.81
376.319	422.81
376.545	432.81
376.771	432.81
376.997	421.81
377.222	431.81
377.448	419.81
377.674	433.81
377.899	400.81
378.125	421.81
378.35	417.81
378.576	448.81
378.802	429.81
379.027	426.81
379.253	428.81
379.478	410.81
379.704	399.81
379.929	416.81
380.155	424.81
380.38	416.81
380.606	407.81
380.831	433.81
381.057	437.81
381.282	412.81
381.507	433.81
381.733	462.81
381.958	406.81
382.184	462.81
382.409	474.81
382.634	461.81
382.86	457.81
383.085	469.81
383.31	470.81
383.535	464.81
383.761	463.81
383.986	487.81
384.211	485.81
384.436	473.81
384.662	476.81
384.887	492.81
385.112	456.81
385.337	472.81
385.562	484.81
385.787	461.81
386.013	521.81
386.238	512.81
386.463	503.81
386.688	514.81
386.913	487.81
387.138	492.81
387.363	504.81
387.588	471.81
387.813	466.81
388.038	477.81
388.263	492.81
388.488	480.81
388.713	502.81
388.938	457.81
389.163	455.81
389.387	437.81
389.612	466.81
389.837	448.81
390.062	477.81
390.287	474.81
390.512	450.81
390.736	478.81
390.961	466.81
391.186	451.81
391.411	469.81
391.636	483.81
391.86	482.81
392.085	484.81
392.31	486.81
392.534	479.81
392.759	505.81
392.984	540.81
393.208	623.81
393.433	857.81
393.658	932.81
393.882	602.81
394.107	496.81
394.331	501.81
394.556	530.81
394.78	517.81
395.005	484.81
395.229	462.81
395.454	476.81
395.678	510.81
395.903	518.81
396.127	566.81
396.352	613.81
396.576	593.81
396.801	632.81
397.025	741.81
397.249	660.81
397.474	508.81
397.698	511.81
397.922	511.81
398.147	544.81
398.371	518.81
398.595	536.81
398.82	512.81
399.044	552.81
399.268	546.81
399.492	589.81
399.717	589.81
399.941	621.81
400.165	642.81
400.389	657.81
400.613	598.81
400.837	574.81
401.062	569.81
401.286	544.81
401.51	540.81
401.734	528.81
401.958	516.81
402.182	534.81
402.406	578.81
402.63	570.81
402.854	539.81
403.078	546.81
403.302	566.81
403.526	548.81
403.75	549.81
403.974	546.81
404.198	541.81
404.422	568.81
404.645	555.81
404.869	577.81
405.093	577.81
405.317	586.81
405.541	616.81
405.765	573.81
405.988	578.81
406.212	605.81
406.436	638.81
406.66	625.81
406.883	608.81
407.107	620.81
407.331	665.81
407.555	730.81
407.778	743.81
408.002	674.81
408.226	638.81
408.449	649.81
408.673	626.81
408.896	661.81
409.12	648.81
409.344	652.81
409.567	573.81
409.791	566.81
410.014	544.81
410.238	554.81
410.461	576.81
410.685	567.81
410.908	568.81
411.132	598.81
411.355	649.81
411.578	616.81
411.802	562.81
412.025	550.81
412.249	539.81
412.472	577.81
412.695	570.81
412.919	556.81
413.142	552.81
413.365	558.81
413.589	531.81
413.812	522.81
414.035	528.81
414.258	529.81
414.482	533.81
414.705	519.81
414.928	525.81
415.151	518.81
415.374	515.81
415.597	518.81
415.821	506.81
416.044	500.81
416.267	518.81
416.49	540.81
416.713	527.81
416.936	522.81
417.159	552.81
417.382	513.81
417.605	542.81
417.828	538.81
418.051	540.81
418.274	540.81
418.497	511.81
418.72	497.81
418.943	522.81
419.166	521.81
419.389	558.81
419.611	583.81
419.834	554.81
420.057	538.81
420.28	549.81
420.503	536.81
420.726	541.81
420.948	552.81
421.171	585.81
421.394	623.81
421.617	561.81
421.839	548.81
422.062	546.81
422.285	565.81
422.507	634.81
422.73	743.81
422.953	750.81
423.175	638.81
423.398	582.81
423.621	562.81
423.843	557.81
424.066	568.81
424.288	574.81
424.511	614.81
424.733	658.81
424.956	760.81
425.178	712.81
425.401	731.81
425.623	746.81
425.846	608.81
426.068	606.81
426.291	554.81
426.513	568.81
426.735	581.81
426.958	654.81
427.18	721.81
427.402	857.81
427.625	949.81
427.847	848.81
428.069	694.81
428.292	613.81
428.514	589.81
428.736	575.81
428.958	564.81
429.181	555.81
429.403	547.81
429.625	556.81
429.847	589.81
430.069	665.81
430.292	664.81
430.514	577.81
430.736	564.81
430.958	543.81
431.18	528.81
431.402	514.81
431.624	489.81
431.846	509.81
432.068	508.81
432.29	523.81
432.512	497.81
432.734	527.81
432.956	507.81
433.178	525.81
433.4	560.81
433.622	545.81
433.844	515.81
434.066	518.81
434.287	520.81
434.509	500.81
434.731	533.81
434.953	538.81
435.175	545.81
435.397	564.81
435.618	599.81
435.84	640.81
436.062	743.81
436.284	806.81
436.505	661.81
436.727	630.81
436.949	565.81
437.17	574.81
437.392	565.81
437.614	578.81
437.835	581.81
438.057	708.81
438.278	824.81
438.5	822.81
438.721	887.81
438.943	876.81
439.165	666.81
439.386	605.81
439.608	603.81
439.829	598.81
440.05	647.81
440.272	730.81
440.493	674.81
440.715	614.81
440.936	592.81
441.158	563.81
441.379	558.81
441.6	570.81
441.822	616.81
442.043	632.81
442.264	708.81
442.486	775.81
442.707	650.81
442.928	611.81
443.149	626.81
443.371	639.81
443.592	680.81
443.813	810.81
444.034	849.81
444.255	713.81
444.476	633.81
444.698	604.81
444.919	616.81
445.14	697.81
445.361	658.81
445.582	661.81
445.803	744.81
446.024	844.81
446.245	870.81
446.466	763.81
446.687	628.81
446.908	600.81
447.129	570.81
447.35	557.81
447.571	567.81
447.792	544.81
448.013	538.81
448.234	566.81
448.455	630.81
448.675	755.81
448.896	888.81
449.117	737.81
449.338	684.81
449.559	818.81
449.779	903.81
450	736.81
450.221	606.81
450.442	568.81
450.662	537.81
450.883	552.81
451.104	588.81
451.324	569.81
451.545	527.81
451.766	524.81
451.986	488.81
452.207	492.81
452.428	502.81
452.648	508.81
452.869	489.81
453.089	489.81
453.31	542.81
453.53	528.81
453.751	515.81
453.971	508.81
454.192	553.81
454.412	522.81
454.633	508.81
454.853	493.81
455.073	498.81
455.294	549.81
455.514	621.81
455.734	572.81
455.955	516.81
456.175	489.81
456.395	480.81
456.616	465.81
456.836	458.81
457.056	492.81
457.276	468.81
457.497	471.81
457.717	465.81
457.937	466.81
458.157	482.81
458.377	480.81
458.598	549.81
458.818	592.81
459.038	696.81
459.258	706.81
459.478	606.81
459.698	578.81
459.918	541.81
460.138	545.81
460.358	528.81
460.578	523.81
460.798	552.81
461.018	545.81
461.238	537.81
461.458	537.81
461.678	505.81
461.898	545.81
462.118	541.81
462.338	544.81
462.558	566.81
462.777	540.81
462.997	547.81
463.217	573.81
463.437	580.81
463.657	582.81
463.876	565.81
464.096	551.81
464.316	593.81
464.536	576.81
464.755	572.81
464.975	591.81
465.195	647.81
465.414	740.81
465.634	654.81
465.854	590.81
466.073	534.81
466.293	526.81
466.512	528.81
466.732	517.81
466.951	522.81
467.171	535.81
467.391	526.81
467.61	524.81
467.829	536.81
468.049	518.81
468.268	503.81
468.488	489.81
468.707	500.81
468.927	512.81
469.146	517.81
469.365	491.81
469.585	504.81
469.804	514.81
470.023	518.81
470.243	538.81
470.462	538.81
470.681	558.81
470.901	558.81
471.12	536.81
471.339	531.81
471.558	518.81
471.777	511.81
471.997	507.81
472.216	512.81
472.435	498.81
472.654	502.81
472.873	512.81
473.092	488.81
473.311	505.81
473.53	522.81
473.749	552.81
473.968	566.81
474.187	655.81
474.406	682.81
474.625	576.81
474.844	532.81
475.063	494.81
475.282	518.81
475.501	502.81
475.72	543.81
475.939	533.81
476.158	526.81
476.377	539.81
476.596	548.81
476.814	555.81
477.033	554.81
477.252	560.81
477.471	588.81
477.69	557.81
477.908	559.81
478.127	565.81
478.346	562.81
478.564	580.81
478.783	553.81
479.002	600.81
479.22	617.81
479.439	630.81
479.658	628.81
479.876	669.81
480.095	638.81
480.313	668.81
480.532	652.81
480.751	623.81
480.969	608.81
481.188	656.81
481.406	644.81
481.624	646.81
481.843	632.81
482.061	595.81
482.28	612.81
482.498	609.81
482.717	603.81
482.935	611.81
483.153	626.81
483.372	618.81
483.59	628.81
483.808	604.81
484.027	609.81
484.245	621.81
484.463	622.81
484.681	641.81
484.9	621.81
485.118	631.81
485.336	637.81
485.554	629.81
485.772	638.81
485.99	643.81
486.209	648.81
486.427	656.81
486.645	678.81
486.863	696.81
487.081	680.81
487.299	696.81
487.517	664.81
487.735	676.81
487.953	682.81
488.171	672.81
488.389	670.81
488.607	661.81
488.825	657.81
489.043	654.81
489.261	667.81
489.479	681.81
489.696	664.81
489.914	680.81
490.132	648.81
490.35	668.81
490.568	672.81
490.786	686.81
491.003	680.81
491.221	707.81
491.439	739.81
491.657	727.81
491.874	744.81
492.092	704.81
492.31	721.81
492.527	720.81
492.745	757.81
492.963	745.81
493.18	734.81
493.398	718.81
493.615	741.81
493.833	740.81
494.05	762.81
494.268	726.81
494.485	702.81
494.703	742.81
494.92	747.81
495.138	738.81
495.355	752.81
495.573	765.81
495.79	776.81
496.008	782.81
496.225	782.81
496.442	775.81
496.66	751.81
496.877	776.81
497.094	745.81
497.312	774.81
497.529	793.81
497.746	798.81
497.963	794.81
498.181	826.81
498.398	847.81
498.615	844.81
498.832	885.81
499.049	861.81
499.267	905.81
499.484	931.81
499.701	953.81
499.918	982.81
500.135	1002.81
500.352	1048.81
500.569	1101.81
500.786	1048.81
501.003	1061.81
501.22	1043.81
501.437	1006.81
501.654	1008.81
501.871	981.81
