Data from 1988.PennyLincolnUp.Lamp.En5.5.200Scan.071819.P2_HRD10591_17-18-51-971.txt Node
Date: Thu Jul 18 17:18:51 EDT 2019
User: cochatt
Spectrometer: HR+D1059
Trigger mode: 1
Integration Time (sec): 1.000000E-1
Scans to average: 1
Electric dark correction enabled: true
Nonlinearity correction enabled: false
Boxcar width: 0
XAxis mode: Wavelengths
Number of Pixels in Spectrum: 2048
>>>>>Begin Spectral Data<<<<<
223.165	-18.69
223.4	-18.69
223.635	-18.69
223.869	-13.69
224.104	-19.69
224.338	-6.69
224.573	-28.69
224.808	-22.69
225.042	-14.69
225.277	7.31
225.511	-8.69
225.746	10.31
225.98	10.31
226.215	14.31
226.449	27.31
226.683	20.31
226.918	25.31
227.152	18.31
227.387	43.31
227.621	46.31
227.856	35.31
228.09	34.31
228.324	45.31
228.559	54.31
228.793	69.31
229.027	91.31
229.262	97.31
229.496	111.31
229.73	120.31
229.964	151.31
230.199	118.31
230.433	117.31
230.667	108.31
230.901	116.31
231.136	116.31
231.37	102.31
231.604	127.31
231.838	101.31
232.072	92.31
232.306	101.31
232.541	106.31
232.775	94.31
233.009	112.31
233.243	122.31
233.477	110.31
233.711	116.31
233.945	122.31
234.179	117.31
234.413	108.31
234.647	113.31
234.881	100.31
235.115	122.31
235.349	114.31
235.583	110.31
235.817	120.31
236.051	119.31
236.285	115.31
236.519	123.31
236.753	131.31
236.987	143.31
237.221	181.31
237.455	215.31
237.689	178.31
237.922	133.31
238.156	124.31
238.39	120.31
238.624	134.31
238.858	120.31
239.091	123.31
239.325	118.31
239.559	130.31
239.793	121.31
240.027	128.31
240.26	137.31
240.494	149.31
240.728	137.31
240.961	158.31
241.195	137.31
241.429	142.31
241.662	142.31
241.896	133.31
242.13	129.31
242.363	142.31
242.597	143.31
242.83	144.31
243.064	126.31
243.298	132.31
243.531	141.31
243.765	127.31
243.998	136.31
244.232	122.31
244.465	142.31
244.699	134.31
244.932	143.31
245.166	137.31
245.399	120.31
245.633	142.31
245.866	150.31
246.099	140.31
246.333	143.31
246.566	162.31
246.8	143.31
247.033	143.31
247.266	155.31
247.5	167.31
247.733	150.31
247.966	156.31
248.2	175.31
248.433	157.31
248.666	166.31
248.899	177.31
249.133	183.31
249.366	205.31
249.599	180.31
249.832	169.31
250.066	169.31
250.299	158.31
250.532	176.31
250.765	171.31
250.998	195.31
251.231	197.31
251.465	198.31
251.698	176.31
251.931	197.31
252.164	185.31
252.397	201.31
252.63	197.31
252.863	204.31
253.096	188.31
253.329	207.31
253.562	201.31
253.795	198.31
254.028	197.31
254.261	196.31
254.494	211.31
254.727	226.31
254.96	245.31
255.193	243.31
255.426	234.31
255.659	197.31
255.892	214.31
256.124	195.31
256.357	199.31
256.59	188.31
256.823	197.31
257.056	195.31
257.289	207.31
257.521	206.31
257.754	205.31
257.987	218.31
258.22	205.31
258.452	193.31
258.685	197.31
258.918	196.31
259.151	205.31
259.383	197.31
259.616	204.31
259.849	215.31
260.081	236.31
260.314	229.31
260.547	226.31
260.779	224.31
261.012	218.31
261.244	234.31
261.477	206.31
261.71	218.31
261.942	229.31
262.175	247.31
262.407	228.31
262.64	205.31
262.872	201.31
263.105	197.31
263.337	204.31
263.57	208.31
263.802	205.31
264.035	195.31
264.267	207.31
264.499	207.31
264.732	220.31
264.964	220.31
265.197	217.31
265.429	213.31
265.661	218.31
265.894	196.31
266.126	209.31
266.358	212.31
266.591	213.31
266.823	213.31
267.055	220.31
267.287	222.31
267.52	241.31
267.752	225.31
267.984	227.31
268.216	214.31
268.448	243.31
268.681	238.31
268.913	234.31
269.145	241.31
269.377	271.31
269.609	243.31
269.841	268.31
270.073	273.31
270.306	279.31
270.538	274.31
270.77	277.31
271.002	285.31
271.234	274.31
271.466	281.31
271.698	301.31
271.93	314.31
272.162	298.31
272.394	292.31
272.626	287.31
272.858	275.31
273.09	262.31
273.322	262.31
273.553	249.31
273.785	246.31
274.017	268.31
274.249	258.31
274.481	248.31
274.713	255.31
274.945	263.31
275.176	267.31
275.408	263.31
275.64	269.31
275.872	259.31
276.104	254.31
276.335	251.31
276.567	264.31
276.799	274.31
277.031	289.31
277.262	301.31
277.494	286.31
277.726	273.31
277.957	262.31
278.189	250.31
278.421	274.31
278.652	259.31
278.884	263.31
279.115	268.31
279.347	234.31
279.579	267.31
279.81	270.31
280.042	268.31
280.273	285.31
280.505	247.31
280.736	256.31
280.968	254.31
281.199	245.31
281.431	266.31
281.662	265.31
281.894	275.31
282.125	270.31
282.356	281.31
282.588	309.31
282.819	313.31
283.051	282.31
283.282	261.31
283.513	273.31
283.745	285.31
283.976	281.31
284.207	272.31
284.439	269.31
284.67	288.31
284.901	280.31
285.132	288.31
285.364	268.31
285.595	284.31
285.826	277.31
286.057	261.31
286.288	281.31
286.52	299.31
286.751	262.31
286.982	286.31
287.213	286.31
287.444	287.31
287.675	298.31
287.906	284.31
288.138	275.31
288.369	306.31
288.6	291.31
288.831	296.31
289.062	312.31
289.293	281.31
289.524	293.31
289.755	302.31
289.986	283.31
290.217	277.31
290.448	284.31
290.679	280.31
290.91	301.31
291.141	292.31
291.371	277.31
291.602	291.31
291.833	282.31
292.064	293.31
292.295	311.31
292.526	302.31
292.757	278.31
292.987	288.31
293.218	283.31
293.449	281.31
293.68	287.31
293.91	306.31
294.141	299.31
294.372	290.31
294.603	289.31
294.833	277.31
295.064	301.31
295.295	294.31
295.525	286.31
295.756	291.31
295.987	293.31
296.217	319.31
296.448	309.31
296.679	306.31
296.909	308.31
297.14	301.31
297.37	289.31
297.601	291.31
297.831	311.31
298.062	286.31
298.292	327.31
298.523	310.31
298.753	294.31
298.984	295.31
299.214	311.31
299.445	314.31
299.675	305.31
299.905	305.31
300.136	312.31
300.366	319.31
300.597	311.31
300.827	296.31
301.057	323.31
301.288	313.31
301.518	313.31
301.748	338.31
301.979	321.31
302.209	341.31
302.439	333.31
302.669	327.31
302.9	329.31
303.13	331.31
303.36	336.31
303.59	334.31
303.82	342.31
304.051	340.31
304.281	341.31
304.511	331.31
304.741	330.31
304.971	316.31
305.201	311.31
305.431	331.31
305.661	330.31
305.891	320.31
306.121	330.31
306.352	331.31
306.582	345.31
306.812	324.31
307.042	330.31
307.272	337.31
307.502	327.31
307.731	327.31
307.961	338.31
308.191	331.31
308.421	331.31
308.651	339.31
308.881	353.31
309.111	322.31
309.341	318.31
309.571	340.31
309.8	355.31
310.03	367.31
310.26	366.31
310.49	369.31
310.72	377.31
310.949	391.31
311.179	394.31
311.409	380.31
311.639	389.31
311.868	385.31
312.098	378.31
312.328	386.31
312.557	386.31
312.787	410.31
313.017	393.31
313.246	385.31
313.476	363.31
313.706	365.31
313.935	390.31
314.165	397.31
314.394	394.31
314.624	389.31
314.853	397.31
315.083	382.31
315.312	377.31
315.542	373.31
315.771	361.31
316.001	371.31
316.23	356.31
316.46	377.31
316.689	377.31
316.919	391.31
317.148	400.31
317.377	399.31
317.607	387.31
317.836	379.31
318.065	396.31
318.295	369.31
318.524	367.31
318.753	393.31
318.983	384.31
319.212	401.31
319.441	377.31
319.67	381.31
319.9	382.31
320.129	373.31
320.358	378.31
320.587	398.31
320.816	402.31
321.046	395.31
321.275	398.31
321.504	403.31
321.733	421.31
321.962	414.31
322.191	435.31
322.42	438.31
322.649	446.31
322.878	441.31
323.108	456.31
323.337	477.31
323.566	466.31
323.795	522.31
324.024	543.31
324.253	645.31
324.482	908.31
324.71	1370.31
324.939	2033.31
325.168	1734.31
325.397	917.31
325.626	630.31
325.855	551.31
326.084	494.31
326.313	494.31
326.542	491.31
326.77	529.31
326.999	617.31
327.228	841.31
327.457	1245.31
327.686	1482.31
327.914	992.31
328.143	675.31
328.372	597.31
328.6	549.31
328.829	545.31
329.058	547.31
329.287	547.31
329.515	528.31
329.744	491.31
329.972	485.31
330.201	457.31
330.43	487.31
330.658	553.31
330.887	554.31
331.115	551.31
331.344	505.31
331.572	478.31
331.801	489.31
332.03	474.31
332.258	471.31
332.486	449.31
332.715	458.31
332.943	458.31
333.172	447.31
333.4	462.31
333.629	465.31
333.857	479.31
334.085	486.31
334.314	478.31
334.542	468.31
334.771	450.31
334.999	452.31
335.227	483.31
335.455	463.31
335.684	442.31
335.912	454.31
336.14	437.31
336.369	456.31
336.597	439.31
336.825	455.31
337.053	455.31
337.281	446.31
337.51	421.31
337.738	439.31
337.966	456.31
338.194	444.31
338.422	452.31
338.65	431.31
338.878	426.31
339.106	443.31
339.334	444.31
339.562	415.31
339.79	435.31
340.018	418.31
340.246	425.31
340.474	430.31
340.702	418.31
340.93	411.31
341.158	438.31
341.386	423.31
341.614	437.31
341.842	427.31
342.07	430.31
342.298	437.31
342.526	450.31
342.754	429.31
342.981	425.31
343.209	445.31
343.437	398.31
343.665	434.31
343.893	429.31
344.12	461.31
344.348	458.31
344.576	427.31
344.804	441.31
345.031	423.31
345.259	451.31
345.487	437.31
345.714	449.31
345.942	429.31
346.17	418.31
346.397	407.31
346.625	427.31
346.853	432.31
347.08	437.31
347.308	442.31
347.535	437.31
347.763	413.31
347.99	402.31
348.218	425.31
348.445	413.31
348.673	416.31
348.9	423.31
349.128	444.31
349.355	419.31
349.583	407.31
349.81	412.31
350.037	413.31
350.265	401.31
350.492	405.31
350.72	405.31
350.947	434.31
351.174	422.31
351.402	436.31
351.629	411.31
351.856	417.31
352.083	437.31
352.311	444.31
352.538	429.31
352.765	427.31
352.992	420.31
353.22	441.31
353.447	423.31
353.674	411.31
353.901	411.31
354.128	413.31
354.355	397.31
354.583	389.31
354.81	394.31
355.037	403.31
355.264	382.31
355.491	408.31
355.718	400.31
355.945	404.31
356.172	393.31
356.399	390.31
356.626	377.31
356.853	376.31
357.08	396.31
357.307	398.31
357.534	391.31
357.761	420.31
357.988	388.31
358.215	406.31
358.441	389.31
358.668	390.31
358.895	401.31
359.122	415.31
359.349	408.31
359.576	431.31
359.802	426.31
360.029	454.31
360.256	455.31
360.483	451.31
360.709	426.31
360.936	419.31
361.163	429.31
361.39	405.31
361.616	421.31
361.843	447.31
362.07	409.31
362.296	437.31
362.523	410.31
362.749	410.31
362.976	402.31
363.203	410.31
363.429	414.31
363.656	383.31
363.882	405.31
364.109	400.31
364.335	397.31
364.562	400.31
364.788	408.31
365.015	411.31
365.241	408.31
365.468	407.31
365.694	415.31
365.92	432.31
366.147	421.31
366.373	410.31
366.599	407.31
366.826	398.31
367.052	407.31
367.278	394.31
367.505	393.31
367.731	417.31
367.957	409.31
368.184	383.31
368.41	383.31
368.636	415.31
368.862	434.31
369.089	423.31
369.315	407.31
369.541	400.31
369.767	410.31
369.993	401.31
370.219	412.31
370.445	392.31
370.672	403.31
370.898	409.31
371.124	404.31
371.35	392.31
371.576	412.31
371.802	399.31
372.028	419.31
372.254	425.31
372.48	406.31
372.706	428.31
372.932	418.31
373.158	395.31
373.384	407.31
373.61	416.31
373.835	399.31
374.061	397.31
374.287	420.31
374.513	412.31
374.739	441.31
374.965	420.31
375.191	423.31
375.416	429.31
375.642	404.31
375.868	397.31
376.094	425.31
376.319	410.31
376.545	407.31
376.771	402.31
376.997	403.31
377.222	417.31
377.448	419.31
377.674	399.31
377.899	388.31
378.125	392.31
378.35	399.31
378.576	403.31
378.802	408.31
379.027	395.31
379.253	402.31
379.478	387.31
379.704	427.31
379.929	415.31
380.155	415.31
380.38	398.31
380.606	418.31
380.831	412.31
381.057	415.31
381.282	402.31
381.507	405.31
381.733	391.31
381.958	438.31
382.184	418.31
382.409	413.31
382.634	407.31
382.86	419.31
383.085	422.31
383.31	439.31
383.535	407.31
383.761	422.31
383.986	442.31
384.211	421.31
384.436	417.31
384.662	439.31
384.887	439.31
385.112	416.31
385.337	423.31
385.562	421.31
385.787	434.31
386.013	461.31
386.238	449.31
386.463	454.31
386.688	443.31
386.913	468.31
387.138	455.31
387.363	444.31
387.588	452.31
387.813	451.31
388.038	427.31
388.263	425.31
388.488	450.31
388.713	437.31
388.938	452.31
389.163	450.31
389.387	423.31
389.612	442.31
389.837	449.31
390.062	450.31
390.287	442.31
390.512	444.31
390.736	438.31
390.961	441.31
391.186	437.31
391.411	463.31
391.636	457.31
391.86	462.31
392.085	475.31
392.31	464.31
392.534	467.31
392.759	446.31
392.984	448.31
393.208	463.31
393.433	455.31
393.658	490.31
393.882	441.31
394.107	437.31
394.331	446.31
394.556	457.31
394.78	449.31
395.005	463.31
395.229	462.31
395.454	463.31
395.678	463.31
395.903	477.31
396.127	502.31
396.352	504.31
396.576	478.31
396.801	472.31
397.025	489.31
397.249	486.31
397.474	475.31
397.698	492.31
397.922	513.31
398.147	483.31
398.371	527.31
398.595	499.31
398.82	519.31
399.044	532.31
399.268	549.31
399.492	552.31
399.717	577.31
399.941	618.31
400.165	643.31
400.389	619.31
400.613	596.31
400.837	554.31
401.062	559.31
401.286	532.31
401.51	536.31
401.734	528.31
401.958	525.31
402.182	513.31
402.406	541.31
402.63	531.31
402.854	521.31
403.078	525.31
403.302	559.31
403.526	533.31
403.75	497.31
403.974	532.31
404.198	526.31
404.422	535.31
404.645	544.31
404.869	558.31
405.093	569.31
405.317	593.31
405.541	602.31
405.765	564.31
405.988	549.31
406.212	561.31
406.436	578.31
406.66	595.31
406.883	567.31
407.107	598.31
407.331	641.31
407.555	693.31
407.778	698.31
408.002	644.31
408.226	597.31
408.449	567.31
408.673	597.31
408.896	617.31
409.12	653.31
409.344	620.31
409.567	565.31
409.791	547.31
410.014	545.31
410.238	563.31
410.461	547.31
410.685	543.31
410.908	554.31
411.132	619.31
411.355	624.31
411.578	589.31
411.802	543.31
412.025	524.31
412.249	533.31
412.472	536.31
412.695	544.31
412.919	535.31
413.142	526.31
413.365	517.31
413.589	517.31
413.812	518.31
414.035	484.31
414.258	511.31
414.482	513.31
414.705	499.31
414.928	519.31
415.151	525.31
415.374	502.31
415.597	493.31
415.821	487.31
416.044	492.31
416.267	500.31
416.49	510.31
416.713	518.31
416.936	495.31
417.159	493.31
417.382	522.31
417.605	497.31
417.828	486.31
418.051	540.31
418.274	539.31
418.497	487.31
418.72	500.31
418.943	480.31
419.166	515.31
419.389	544.31
419.611	552.31
419.834	518.31
420.057	528.31
420.28	482.31
420.503	536.31
420.726	539.31
420.948	526.31
421.171	574.31
421.394	610.31
421.617	533.31
421.839	536.31
422.062	510.31
422.285	538.31
422.507	606.31
422.73	686.31
422.953	647.31
423.175	571.31
423.398	541.31
423.621	540.31
423.843	555.31
424.066	565.31
424.288	537.31
424.511	581.31
424.733	645.31
424.956	724.31
425.178	676.31
425.401	674.31
425.623	698.31
425.846	600.31
426.068	561.31
426.291	565.31
426.513	553.31
426.735	582.31
426.958	610.31
427.18	697.31
427.402	827.31
427.625	913.31
427.847	753.31
428.069	628.31
428.292	584.31
428.514	561.31
428.736	537.31
428.958	543.31
429.181	511.31
429.403	519.31
429.625	542.31
429.847	570.31
430.069	636.31
430.292	613.31
430.514	544.31
430.736	533.31
430.958	498.31
431.18	505.31
431.402	527.31
431.624	487.31
431.846	476.31
432.068	482.31
432.29	501.31
432.512	496.31
432.734	486.31
432.956	488.31
433.178	497.31
433.4	526.31
433.622	507.31
433.844	497.31
434.066	502.31
434.287	501.31
434.509	497.31
434.731	520.31
434.953	504.31
435.175	533.31
435.397	563.31
435.618	565.31
435.84	618.31
436.062	703.31
436.284	720.31
436.505	611.31
436.727	600.31
436.949	553.31
437.17	536.31
437.392	517.31
437.614	541.31
437.835	554.31
438.057	653.31
438.278	775.31
438.5	749.31
438.721	811.31
438.943	781.31
439.165	633.31
439.386	589.31
439.608	588.31
439.829	560.31
440.05	596.31
440.272	646.31
440.493	584.31
440.715	540.31
440.936	555.31
441.158	500.31
441.379	501.31
441.6	558.31
441.822	557.31
442.043	597.31
442.264	692.31
442.486	717.31
442.707	628.31
442.928	559.31
443.149	592.31
443.371	590.31
443.592	664.31
443.813	739.31
444.034	805.31
444.255	652.31
444.476	606.31
444.698	563.31
444.919	579.31
445.14	653.31
445.361	606.31
445.582	609.31
445.803	680.31
446.024	754.31
446.245	785.31
446.466	703.31
446.687	597.31
446.908	567.31
447.129	532.31
447.35	535.31
447.571	534.31
447.792	518.31
448.013	523.31
448.234	521.31
448.455	565.31
448.675	681.31
448.896	798.31
449.117	702.31
449.338	636.31
449.559	771.31
449.779	877.31
450	661.31
450.221	577.31
450.442	542.31
450.662	510.31
450.883	505.31
451.104	517.31
451.324	490.31
451.545	489.31
451.766	463.31
451.986	463.31
452.207	458.31
452.428	454.31
452.648	472.31
452.869	464.31
453.089	479.31
453.31	505.31
453.53	483.31
453.751	460.31
453.971	483.31
454.192	490.31
454.412	473.31
454.633	455.31
454.853	458.31
455.073	471.31
455.294	511.31
455.514	530.31
455.734	530.31
455.955	468.31
456.175	427.31
456.395	450.31
456.616	432.31
456.836	418.31
457.056	445.31
457.276	431.31
457.497	429.31
457.717	443.31
457.937	455.31
458.157	451.31
458.377	453.31
458.598	473.31
458.818	526.31
459.038	581.31
459.258	630.31
459.478	526.31
459.698	513.31
459.918	488.31
460.138	502.31
460.358	502.31
460.578	504.31
460.798	506.31
461.018	509.31
461.238	514.31
461.458	503.31
461.678	494.31
461.898	517.31
462.118	519.31
462.338	532.31
462.558	536.31
462.777	534.31
462.997	543.31
463.217	557.31
463.437	554.31
463.657	547.31
463.876	557.31
464.096	565.31
464.316	525.31
464.536	574.31
464.755	570.31
464.975	573.31
465.195	585.31
465.414	646.31
465.634	591.31
465.854	529.31
466.073	515.31
466.293	501.31
466.512	485.31
466.732	450.31
466.951	480.31
467.171	483.31
467.391	499.31
467.61	490.31
467.829	499.31
468.049	494.31
468.268	490.31
468.488	459.31
468.707	447.31
468.927	449.31
469.146	473.31
469.365	455.31
469.585	465.31
469.804	485.31
470.023	484.31
470.243	487.31
470.462	483.31
470.681	511.31
470.901	497.31
471.12	490.31
471.339	475.31
471.558	484.31
471.777	486.31
471.997	483.31
472.216	493.31
472.435	483.31
472.654	482.31
472.873	474.31
473.092	470.31
473.311	488.31
473.53	486.31
473.749	479.31
473.968	530.31
474.187	610.31
474.406	643.31
474.625	539.31
474.844	500.31
475.063	486.31
475.282	479.31
475.501	490.31
475.72	488.31
475.939	496.31
476.158	515.31
476.377	503.31
476.596	487.31
476.814	523.31
477.033	537.31
477.252	534.31
477.471	526.31
477.69	545.31
477.908	536.31
478.127	549.31
478.346	543.31
478.564	554.31
478.783	561.31
479.002	605.31
479.22	557.31
479.439	569.31
479.658	582.31
479.876	569.31
480.095	598.31
480.313	591.31
480.532	575.31
480.751	576.31
480.969	606.31
481.188	614.31
481.406	589.31
481.624	605.31
481.843	597.31
482.061	572.31
482.28	556.31
482.498	566.31
482.717	570.31
482.935	571.31
483.153	568.31
483.372	561.31
483.59	582.31
483.808	567.31
484.027	576.31
484.245	563.31
484.463	549.31
484.681	566.31
484.9	589.31
485.118	604.31
485.336	600.31
485.554	603.31
485.772	601.31
485.99	609.31
486.209	607.31
486.427	607.31
486.645	610.31
486.863	623.31
487.081	615.31
487.299	606.31
487.517	626.31
487.735	629.31
487.953	610.31
488.171	605.31
488.389	635.31
488.607	604.31
488.825	608.31
489.043	614.31
489.261	610.31
489.479	635.31
489.696	615.31
489.914	633.31
490.132	632.31
490.35	617.31
490.568	631.31
490.786	643.31
491.003	665.31
491.221	662.31
491.439	678.31
491.657	677.31
491.874	713.31
492.092	691.31
492.31	689.31
492.527	683.31
492.745	693.31
492.963	680.31
493.18	681.31
493.398	703.31
493.615	696.31
493.833	731.31
494.05	708.31
494.268	717.31
494.485	722.31
494.703	711.31
494.92	714.31
495.138	719.31
495.355	730.31
495.573	719.31
495.79	727.31
496.008	731.31
496.225	736.31
496.442	717.31
496.66	743.31
496.877	714.31
497.094	733.31
497.312	737.31
497.529	746.31
497.746	767.31
497.963	780.31
498.181	792.31
498.398	828.31
498.615	827.31
498.832	830.31
499.049	828.31
499.267	883.31
499.484	885.31
499.701	918.31
499.918	950.31
500.135	995.31
500.352	1035.31
500.569	1068.31
500.786	1053.31
501.003	1031.31
501.22	1020.31
501.437	971.31
501.654	964.31
501.871	947.31
