Data from 1988.PennyLincolnUp.Lamp.En5.5.200Scan.071819.P2_HRD10591_17-19-08-972.txt Node
Date: Thu Jul 18 17:19:08 EDT 2019
User: cochatt
Spectrometer: HR+D1059
Trigger mode: 1
Integration Time (sec): 1.000000E-1
Scans to average: 1
Electric dark correction enabled: true
Nonlinearity correction enabled: false
Boxcar width: 0
XAxis mode: Wavelengths
Number of Pixels in Spectrum: 2048
>>>>>Begin Spectral Data<<<<<
223.165	-13.88
223.4	-13.88
223.635	-13.88
223.869	-14.88
224.104	-4.88
224.338	-11.88
224.573	-19.88
224.808	-15.88
225.042	-5.88
225.277	4.12
225.511	0.12
225.746	-3.88
225.98	4.12
226.215	-0.88
226.449	16.12
226.683	11.12
226.918	25.12
227.152	31.12
227.387	35.12
227.621	40.12
227.856	36.12
228.09	40.12
228.324	54.12
228.559	52.12
228.793	66.12
229.027	101.12
229.262	83.12
229.496	101.12
229.73	119.12
229.964	141.12
230.199	131.12
230.433	113.12
230.667	115.12
230.901	110.12
231.136	112.12
231.37	122.12
231.604	113.12
231.838	98.12
232.072	105.12
232.306	109.12
232.541	109.12
232.775	124.12
233.009	120.12
233.243	102.12
233.477	90.12
233.711	108.12
233.945	121.12
234.179	113.12
234.413	114.12
234.647	126.12
234.881	101.12
235.115	117.12
235.349	102.12
235.583	118.12
235.817	121.12
236.051	119.12
236.285	129.12
236.519	107.12
236.753	125.12
236.987	148.12
237.221	182.12
237.455	220.12
237.689	185.12
237.922	138.12
238.156	135.12
238.39	131.12
238.624	115.12
238.858	121.12
239.091	111.12
239.325	118.12
239.559	132.12
239.793	114.12
240.027	142.12
240.26	135.12
240.494	148.12
240.728	153.12
240.961	151.12
241.195	138.12
241.429	115.12
241.662	135.12
241.896	131.12
242.13	147.12
242.363	135.12
242.597	119.12
242.83	125.12
243.064	138.12
243.298	128.12
243.531	135.12
243.765	138.12
243.998	135.12
244.232	136.12
244.465	133.12
244.699	135.12
244.932	134.12
245.166	148.12
245.399	150.12
245.633	145.12
245.866	153.12
246.099	134.12
246.333	138.12
246.566	138.12
246.8	144.12
247.033	150.12
247.266	157.12
247.5	167.12
247.733	158.12
247.966	165.12
248.2	165.12
248.433	170.12
248.666	157.12
248.899	175.12
249.133	193.12
249.366	185.12
249.599	201.12
249.832	175.12
250.066	180.12
250.299	173.12
250.532	181.12
250.765	205.12
250.998	204.12
251.231	206.12
251.465	214.12
251.698	195.12
251.931	185.12
252.164	175.12
252.397	189.12
252.63	183.12
252.863	202.12
253.096	214.12
253.329	232.12
253.562	210.12
253.795	202.12
254.028	209.12
254.261	225.12
254.494	217.12
254.727	236.12
254.96	253.12
255.193	239.12
255.426	241.12
255.659	207.12
255.892	231.12
256.124	222.12
256.357	202.12
256.59	218.12
256.823	196.12
257.056	200.12
257.289	204.12
257.521	194.12
257.754	198.12
257.987	190.12
258.22	195.12
258.452	182.12
258.685	186.12
258.918	202.12
259.151	186.12
259.383	214.12
259.616	197.12
259.849	209.12
260.081	224.12
260.314	224.12
260.547	237.12
260.779	215.12
261.012	227.12
261.244	227.12
261.477	213.12
261.71	221.12
261.942	211.12
262.175	221.12
262.407	226.12
262.64	197.12
262.872	214.12
263.105	205.12
263.337	214.12
263.57	220.12
263.802	209.12
264.035	213.12
264.267	216.12
264.499	208.12
264.732	210.12
264.964	201.12
265.197	226.12
265.429	200.12
265.661	192.12
265.894	206.12
266.126	211.12
266.358	200.12
266.591	210.12
266.823	229.12
267.055	220.12
267.287	232.12
267.52	239.12
267.752	218.12
267.984	231.12
268.216	219.12
268.448	227.12
268.681	231.12
268.913	230.12
269.145	254.12
269.377	260.12
269.609	250.12
269.841	255.12
270.073	272.12
270.306	288.12
270.538	292.12
270.77	319.12
271.002	291.12
271.234	282.12
271.466	280.12
271.698	291.12
271.93	311.12
272.162	291.12
272.394	311.12
272.626	329.12
272.858	281.12
273.09	260.12
273.322	261.12
273.553	256.12
273.785	272.12
274.017	263.12
274.249	263.12
274.481	258.12
274.713	275.12
274.945	281.12
275.176	267.12
275.408	270.12
275.64	263.12
275.872	243.12
276.104	264.12
276.335	255.12
276.567	258.12
276.799	297.12
277.031	286.12
277.262	315.12
277.494	310.12
277.726	289.12
277.957	269.12
278.189	267.12
278.421	277.12
278.652	277.12
278.884	245.12
279.115	279.12
279.347	269.12
279.579	255.12
279.81	255.12
280.042	270.12
280.273	273.12
280.505	264.12
280.736	240.12
280.968	262.12
281.199	273.12
281.431	267.12
281.662	267.12
281.894	277.12
282.125	271.12
282.356	285.12
282.588	302.12
282.819	301.12
283.051	293.12
283.282	262.12
283.513	273.12
283.745	278.12
283.976	283.12
284.207	283.12
284.439	277.12
284.67	257.12
284.901	264.12
285.132	288.12
285.364	267.12
285.595	275.12
285.826	260.12
286.057	277.12
286.288	281.12
286.52	272.12
286.751	271.12
286.982	286.12
287.213	277.12
287.444	285.12
287.675	274.12
287.906	295.12
288.138	288.12
288.369	283.12
288.6	287.12
288.831	305.12
289.062	314.12
289.293	273.12
289.524	293.12
289.755	289.12
289.986	293.12
290.217	290.12
290.448	275.12
290.679	285.12
290.91	294.12
291.141	291.12
291.371	284.12
291.602	293.12
291.833	291.12
292.064	299.12
292.295	292.12
292.526	306.12
292.757	287.12
292.987	269.12
293.218	291.12
293.449	290.12
293.68	287.12
293.91	287.12
294.141	295.12
294.372	297.12
294.603	296.12
294.833	297.12
295.064	304.12
295.295	304.12
295.525	285.12
295.756	312.12
295.987	315.12
296.217	335.12
296.448	327.12
296.679	297.12
296.909	310.12
297.14	307.12
297.37	296.12
297.601	316.12
297.831	305.12
298.062	301.12
298.292	293.12
298.523	313.12
298.753	306.12
298.984	301.12
299.214	305.12
299.445	289.12
299.675	317.12
299.905	314.12
300.136	309.12
300.366	322.12
300.597	313.12
300.827	326.12
301.057	318.12
301.288	321.12
301.518	322.12
301.748	340.12
301.979	357.12
302.209	350.12
302.439	315.12
302.669	309.12
302.9	321.12
303.13	342.12
303.36	320.12
303.59	338.12
303.82	319.12
304.051	338.12
304.281	333.12
304.511	335.12
304.741	356.12
304.971	335.12
305.201	340.12
305.431	330.12
305.661	325.12
305.891	337.12
306.121	328.12
306.352	336.12
306.582	340.12
306.812	325.12
307.042	324.12
307.272	336.12
307.502	334.12
307.731	318.12
307.961	349.12
308.191	369.12
308.421	357.12
308.651	340.12
308.881	336.12
309.111	343.12
309.341	351.12
309.571	328.12
309.8	356.12
310.03	372.12
310.26	367.12
310.49	370.12
310.72	373.12
310.949	395.12
311.179	404.12
311.409	389.12
311.639	387.12
311.868	389.12
312.098	375.12
312.328	380.12
312.557	391.12
312.787	413.12
313.017	420.12
313.246	380.12
313.476	383.12
313.706	368.12
313.935	381.12
314.165	395.12
314.394	412.12
314.624	403.12
314.853	400.12
315.083	387.12
315.312	400.12
315.542	376.12
315.771	387.12
316.001	375.12
316.23	388.12
316.46	379.12
316.689	385.12
316.919	403.12
317.148	408.12
317.377	387.12
317.607	393.12
317.836	394.12
318.065	376.12
318.295	390.12
318.524	391.12
318.753	363.12
318.983	385.12
319.212	383.12
319.441	395.12
319.67	401.12
319.9	389.12
320.129	393.12
320.358	377.12
320.587	389.12
320.816	413.12
321.046	397.12
321.275	400.12
321.504	421.12
321.733	404.12
321.962	413.12
322.191	408.12
322.42	436.12
322.649	462.12
322.878	452.12
323.108	472.12
323.337	486.12
323.566	482.12
323.795	561.12
324.024	574.12
324.253	709.12
324.482	996.12
324.71	1515.12
324.939	2145.12
325.168	1857.12
325.397	990.12
325.626	666.12
325.855	585.12
326.084	515.12
326.313	514.12
326.542	532.12
326.77	573.12
326.999	655.12
327.228	877.12
327.457	1322.12
327.686	1617.12
327.914	1079.12
328.143	705.12
328.372	616.12
328.6	591.12
328.829	577.12
329.058	567.12
329.287	579.12
329.515	568.12
329.744	529.12
329.972	493.12
330.201	499.12
330.43	515.12
330.658	542.12
330.887	591.12
331.115	572.12
331.344	525.12
331.572	522.12
331.801	495.12
332.03	498.12
332.258	475.12
332.486	466.12
332.715	454.12
332.943	450.12
333.172	459.12
333.4	457.12
333.629	451.12
333.857	470.12
334.085	492.12
334.314	457.12
334.542	490.12
334.771	485.12
334.999	476.12
335.227	493.12
335.455	474.12
335.684	444.12
335.912	437.12
336.14	443.12
336.369	456.12
336.597	461.12
336.825	469.12
337.053	467.12
337.281	435.12
337.51	444.12
337.738	454.12
337.966	447.12
338.194	470.12
338.422	445.12
338.65	449.12
338.878	435.12
339.106	442.12
339.334	455.12
339.562	441.12
339.79	441.12
340.018	441.12
340.246	456.12
340.474	448.12
340.702	440.12
340.93	445.12
341.158	444.12
341.386	456.12
341.614	424.12
341.842	433.12
342.07	458.12
342.298	454.12
342.526	444.12
342.754	423.12
342.981	407.12
343.209	417.12
343.437	423.12
343.665	451.12
343.893	459.12
344.12	450.12
344.348	456.12
344.576	450.12
344.804	463.12
345.031	447.12
345.259	483.12
345.487	452.12
345.714	438.12
345.942	431.12
346.17	434.12
346.397	437.12
346.625	445.12
346.853	426.12
347.08	437.12
347.308	420.12
347.535	437.12
347.763	435.12
347.99	424.12
348.218	444.12
348.445	438.12
348.673	430.12
348.9	436.12
349.128	423.12
349.355	407.12
349.583	410.12
349.81	399.12
350.037	403.12
350.265	388.12
350.492	409.12
350.72	413.12
350.947	407.12
351.174	438.12
351.402	425.12
351.629	423.12
351.856	418.12
352.083	435.12
352.311	437.12
352.538	441.12
352.765	438.12
352.992	456.12
353.22	443.12
353.447	419.12
353.674	417.12
353.901	411.12
354.128	417.12
354.355	403.12
354.583	402.12
354.81	410.12
355.037	408.12
355.264	414.12
355.491	403.12
355.718	398.12
355.945	389.12
356.172	418.12
356.399	399.12
356.626	399.12
356.853	400.12
357.08	390.12
357.307	377.12
357.534	393.12
357.761	400.12
357.988	402.12
358.215	400.12
358.441	407.12
358.668	414.12
358.895	413.12
359.122	403.12
359.349	403.12
359.576	424.12
359.802	455.12
360.029	446.12
360.256	487.12
360.483	455.12
360.709	423.12
360.936	441.12
361.163	440.12
361.39	432.12
361.616	418.12
361.843	416.12
362.07	430.12
362.296	437.12
362.523	409.12
362.749	448.12
362.976	435.12
363.203	406.12
363.429	401.12
363.656	424.12
363.882	409.12
364.109	400.12
364.335	411.12
364.562	420.12
364.788	395.12
365.015	402.12
365.241	430.12
365.468	416.12
365.694	404.12
365.92	413.12
366.147	394.12
366.373	401.12
366.599	401.12
366.826	406.12
367.052	395.12
367.278	416.12
367.505	402.12
367.731	408.12
367.957	422.12
368.184	393.12
368.41	399.12
368.636	420.12
368.862	399.12
369.089	409.12
369.315	406.12
369.541	388.12
369.767	405.12
369.993	398.12
370.219	410.12
370.445	410.12
370.672	414.12
370.898	406.12
371.124	405.12
371.35	414.12
371.576	411.12
371.802	395.12
372.028	401.12
372.254	395.12
372.48	411.12
372.706	440.12
372.932	413.12
373.158	413.12
373.384	421.12
373.61	426.12
373.835	395.12
374.061	432.12
374.287	430.12
374.513	435.12
374.739	420.12
374.965	409.12
375.191	416.12
375.416	414.12
375.642	420.12
375.868	423.12
376.094	434.12
376.319	406.12
376.545	401.12
376.771	393.12
376.997	409.12
377.222	422.12
377.448	407.12
377.674	399.12
377.899	397.12
378.125	395.12
378.35	399.12
378.576	413.12
378.802	413.12
379.027	404.12
379.253	391.12
379.478	405.12
379.704	403.12
379.929	383.12
380.155	394.12
380.38	424.12
380.606	412.12
380.831	403.12
381.057	421.12
381.282	383.12
381.507	407.12
381.733	413.12
381.958	413.12
382.184	409.12
382.409	399.12
382.634	423.12
382.86	409.12
383.085	412.12
383.31	417.12
383.535	417.12
383.761	445.12
383.986	425.12
384.211	433.12
384.436	435.12
384.662	423.12
384.887	439.12
385.112	446.12
385.337	426.12
385.562	450.12
385.787	445.12
386.013	439.12
386.238	456.12
386.463	468.12
386.688	445.12
386.913	443.12
387.138	447.12
387.363	458.12
387.588	457.12
387.813	452.12
388.038	467.12
388.263	463.12
388.488	473.12
388.713	454.12
388.938	450.12
389.163	459.12
389.387	456.12
389.612	448.12
389.837	444.12
390.062	448.12
390.287	470.12
390.512	431.12
390.736	432.12
390.961	431.12
391.186	446.12
391.411	458.12
391.636	450.12
391.86	466.12
392.085	464.12
392.31	474.12
392.534	473.12
392.759	463.12
392.984	444.12
393.208	457.12
393.433	449.12
393.658	452.12
393.882	477.12
394.107	454.12
394.331	444.12
394.556	453.12
394.78	479.12
395.005	448.12
395.229	466.12
395.454	479.12
395.678	479.12
395.903	479.12
396.127	498.12
396.352	495.12
396.576	493.12
396.801	460.12
397.025	470.12
397.249	483.12
397.474	493.12
397.698	505.12
397.922	497.12
398.147	521.12
398.371	526.12
398.595	516.12
398.82	518.12
399.044	519.12
399.268	539.12
399.492	563.12
399.717	596.12
399.941	630.12
400.165	660.12
400.389	651.12
400.613	582.12
400.837	563.12
401.062	541.12
401.286	533.12
401.51	509.12
401.734	521.12
401.958	538.12
402.182	517.12
402.406	557.12
402.63	532.12
402.854	529.12
403.078	533.12
403.302	520.12
403.526	552.12
403.75	530.12
403.974	537.12
404.198	524.12
404.422	550.12
404.645	549.12
404.869	548.12
405.093	564.12
405.317	596.12
405.541	608.12
405.765	578.12
405.988	566.12
406.212	570.12
406.436	602.12
406.66	575.12
406.883	588.12
407.107	591.12
407.331	663.12
407.555	704.12
407.778	706.12
408.002	649.12
408.226	605.12
408.449	608.12
408.673	584.12
408.896	606.12
409.12	651.12
409.344	658.12
409.567	570.12
409.791	567.12
410.014	559.12
410.238	541.12
410.461	535.12
410.685	553.12
410.908	545.12
411.132	610.12
411.355	629.12
411.578	602.12
411.802	543.12
412.025	519.12
412.249	530.12
412.472	525.12
412.695	542.12
412.919	531.12
413.142	545.12
413.365	531.12
413.589	538.12
413.812	514.12
414.035	500.12
414.258	522.12
414.482	519.12
414.705	506.12
414.928	517.12
415.151	509.12
415.374	520.12
415.597	524.12
415.821	521.12
416.044	510.12
416.267	514.12
416.49	515.12
416.713	505.12
416.936	505.12
417.159	510.12
417.382	513.12
417.605	503.12
417.828	520.12
418.051	575.12
418.274	563.12
418.497	522.12
418.72	495.12
418.943	464.12
419.166	509.12
419.389	551.12
419.611	546.12
419.834	528.12
420.057	502.12
420.28	530.12
420.503	512.12
420.726	544.12
420.948	534.12
421.171	575.12
421.394	624.12
421.617	561.12
421.839	547.12
422.062	574.12
422.285	549.12
422.507	600.12
422.73	658.12
422.953	652.12
423.175	589.12
423.398	557.12
423.621	559.12
423.843	577.12
424.066	571.12
424.288	563.12
424.511	605.12
424.733	635.12
424.956	704.12
425.178	703.12
425.401	674.12
425.623	721.12
425.846	612.12
426.068	565.12
426.291	557.12
426.513	557.12
426.735	554.12
426.958	618.12
427.18	702.12
427.402	842.12
427.625	934.12
427.847	794.12
428.069	648.12
428.292	599.12
428.514	550.12
428.736	551.12
428.958	566.12
429.181	543.12
429.403	513.12
429.625	548.12
429.847	575.12
430.069	641.12
430.292	598.12
430.514	558.12
430.736	528.12
430.958	533.12
431.18	515.12
431.402	512.12
431.624	476.12
431.846	509.12
432.068	519.12
432.29	501.12
432.512	498.12
432.734	525.12
432.956	507.12
433.178	517.12
433.4	515.12
433.622	523.12
433.844	521.12
434.066	483.12
434.287	497.12
434.509	528.12
434.731	526.12
434.953	533.12
435.175	541.12
435.397	554.12
435.618	586.12
435.84	627.12
436.062	694.12
436.284	789.12
436.505	645.12
436.727	563.12
436.949	543.12
437.17	547.12
437.392	543.12
437.614	541.12
437.835	603.12
438.057	695.12
438.278	755.12
438.5	790.12
438.721	837.12
438.943	802.12
439.165	652.12
439.386	588.12
439.608	575.12
439.829	593.12
440.05	605.12
440.272	642.12
440.493	633.12
440.715	567.12
440.936	543.12
441.158	551.12
441.379	536.12
441.6	567.12
441.822	562.12
442.043	605.12
442.264	696.12
442.486	749.12
442.707	625.12
442.928	574.12
443.149	607.12
443.371	605.12
443.592	631.12
443.813	751.12
444.034	815.12
444.255	672.12
444.476	602.12
444.698	586.12
444.919	576.12
445.14	662.12
445.361	650.12
445.582	625.12
445.803	650.12
446.024	758.12
446.245	777.12
446.466	718.12
446.687	613.12
446.908	570.12
447.129	543.12
447.35	539.12
447.571	532.12
447.792	529.12
448.013	545.12
448.234	551.12
448.455	606.12
448.675	720.12
448.896	813.12
449.117	697.12
449.338	664.12
449.559	801.12
449.779	883.12
450	701.12
450.221	565.12
450.442	548.12
450.662	529.12
450.883	527.12
451.104	535.12
451.324	541.12
451.545	516.12
451.766	498.12
451.986	486.12
452.207	483.12
452.428	478.12
452.648	477.12
452.869	460.12
453.089	459.12
453.31	496.12
453.53	505.12
453.751	487.12
453.971	488.12
454.192	508.12
454.412	472.12
454.633	456.12
454.853	465.12
455.073	462.12
455.294	489.12
455.514	555.12
455.734	551.12
455.955	474.12
456.175	481.12
456.395	458.12
456.616	445.12
456.836	451.12
457.056	421.12
457.276	431.12
457.497	472.12
457.717	439.12
457.937	442.12
458.157	455.12
458.377	463.12
458.598	495.12
458.818	543.12
459.038	636.12
459.258	644.12
459.478	552.12
459.698	512.12
459.918	533.12
460.138	522.12
460.358	511.12
460.578	513.12
460.798	510.12
461.018	524.12
461.238	539.12
461.458	520.12
461.678	505.12
461.898	516.12
462.118	504.12
462.338	530.12
462.558	543.12
462.777	539.12
462.997	580.12
463.217	545.12
463.437	572.12
463.657	553.12
463.876	527.12
464.096	551.12
464.316	566.12
464.536	582.12
464.755	561.12
464.975	566.12
465.195	602.12
465.414	646.12
465.634	587.12
465.854	529.12
466.073	530.12
466.293	529.12
466.512	499.12
466.732	505.12
466.951	473.12
467.171	473.12
467.391	495.12
467.61	493.12
467.829	494.12
468.049	486.12
468.268	483.12
468.488	479.12
468.707	463.12
468.927	473.12
469.146	457.12
469.365	478.12
469.585	499.12
469.804	491.12
470.023	486.12
470.243	492.12
470.462	520.12
470.681	497.12
470.901	518.12
471.12	505.12
471.339	484.12
471.558	504.12
471.777	486.12
471.997	480.12
472.216	483.12
472.435	482.12
472.654	501.12
472.873	497.12
473.092	486.12
473.311	483.12
473.53	487.12
473.749	498.12
473.968	539.12
474.187	658.12
474.406	647.12
474.625	578.12
474.844	513.12
475.063	511.12
475.282	496.12
475.501	492.12
475.72	523.12
475.939	529.12
476.158	525.12
476.377	512.12
476.596	515.12
476.814	527.12
477.033	519.12
477.252	518.12
477.471	527.12
477.69	538.12
477.908	546.12
478.127	550.12
478.346	542.12
478.564	558.12
478.783	567.12
479.002	567.12
479.22	567.12
479.439	566.12
479.658	610.12
479.876	606.12
480.095	608.12
480.313	649.12
480.532	614.12
480.751	600.12
480.969	613.12
481.188	638.12
481.406	603.12
481.624	605.12
481.843	602.12
482.061	590.12
482.28	591.12
482.498	544.12
482.717	581.12
482.935	569.12
483.153	566.12
483.372	584.12
483.59	582.12
483.808	561.12
484.027	576.12
484.245	610.12
484.463	594.12
484.681	603.12
484.9	605.12
485.118	593.12
485.336	597.12
485.554	598.12
485.772	617.12
485.99	617.12
486.209	612.12
486.427	587.12
486.645	600.12
486.863	612.12
487.081	629.12
487.299	621.12
487.517	619.12
487.735	633.12
487.953	641.12
488.171	638.12
488.389	599.12
488.607	630.12
488.825	625.12
489.043	629.12
489.261	648.12
489.479	634.12
489.696	656.12
489.914	650.12
490.132	602.12
490.35	646.12
490.568	637.12
490.786	664.12
491.003	660.12
491.221	690.12
491.439	688.12
491.657	680.12
491.874	696.12
492.092	705.12
492.31	703.12
492.527	704.12
492.745	693.12
492.963	704.12
493.18	707.12
493.398	707.12
493.615	708.12
493.833	721.12
494.05	737.12
494.268	715.12
494.485	707.12
494.703	707.12
494.92	731.12
495.138	733.12
495.355	697.12
495.573	730.12
495.79	714.12
496.008	747.12
496.225	744.12
496.442	726.12
496.66	736.12
496.877	761.12
497.094	761.12
497.312	741.12
497.529	739.12
497.746	775.12
497.963	763.12
498.181	790.12
498.398	782.12
498.615	872.12
498.832	839.12
499.049	861.12
499.267	899.12
499.484	903.12
499.701	933.12
499.918	960.12
500.135	1023.12
500.352	1031.12
500.569	1083.12
500.786	1039.12
501.003	1032.12
501.22	1035.12
501.437	988.12
501.654	958.12
501.871	962.12
