Data from 1988.PennyLincolnUp.Lamp.En5.5.200Scan.071819.P2_HRD10591_17-18-43-972.txt Node
Date: Thu Jul 18 17:18:43 EDT 2019
User: cochatt
Spectrometer: HR+D1059
Trigger mode: 1
Integration Time (sec): 1.000000E-1
Scans to average: 1
Electric dark correction enabled: true
Nonlinearity correction enabled: false
Boxcar width: 0
XAxis mode: Wavelengths
Number of Pixels in Spectrum: 2048
>>>>>Begin Spectral Data<<<<<
223.165	-18.88
223.4	-18.88
223.635	-18.88
223.869	-13.88
224.104	-22.88
224.338	-1.88
224.573	-10.88
224.808	-16.88
225.042	-8.88
225.277	7.12
225.511	-10.88
225.746	4.12
225.98	0.12
226.215	3.12
226.449	19.12
226.683	20.12
226.918	26.12
227.152	25.12
227.387	33.12
227.621	22.12
227.856	44.12
228.09	41.12
228.324	54.12
228.559	47.12
228.793	65.12
229.027	102.12
229.262	104.12
229.496	116.12
229.73	129.12
229.964	149.12
230.199	132.12
230.433	113.12
230.667	115.12
230.901	106.12
231.136	110.12
231.37	102.12
231.604	112.12
231.838	119.12
232.072	122.12
232.306	99.12
232.541	107.12
232.775	115.12
233.009	102.12
233.243	97.12
233.477	110.12
233.711	110.12
233.945	122.12
234.179	126.12
234.413	120.12
234.647	101.12
234.881	121.12
235.115	113.12
235.349	123.12
235.583	131.12
235.817	122.12
236.051	116.12
236.285	117.12
236.519	124.12
236.753	134.12
236.987	139.12
237.221	168.12
237.455	236.12
237.689	187.12
237.922	149.12
238.156	106.12
238.39	123.12
238.624	139.12
238.858	119.12
239.091	124.12
239.325	124.12
239.559	106.12
239.793	125.12
240.027	125.12
240.26	135.12
240.494	134.12
240.728	136.12
240.961	131.12
241.195	138.12
241.429	130.12
241.662	132.12
241.896	143.12
242.13	137.12
242.363	134.12
242.597	122.12
242.83	138.12
243.064	141.12
243.298	135.12
243.531	144.12
243.765	131.12
243.998	137.12
244.232	126.12
244.465	129.12
244.699	140.12
244.932	138.12
245.166	136.12
245.399	143.12
245.633	133.12
245.866	142.12
246.099	148.12
246.333	138.12
246.566	150.12
246.8	144.12
247.033	157.12
247.266	149.12
247.5	165.12
247.733	138.12
247.966	167.12
248.2	159.12
248.433	171.12
248.666	153.12
248.899	185.12
249.133	169.12
249.366	189.12
249.599	186.12
249.832	159.12
250.066	171.12
250.299	179.12
250.532	173.12
250.765	161.12
250.998	190.12
251.231	216.12
251.465	207.12
251.698	201.12
251.931	194.12
252.164	189.12
252.397	198.12
252.63	174.12
252.863	189.12
253.096	194.12
253.329	218.12
253.562	214.12
253.795	213.12
254.028	222.12
254.261	211.12
254.494	221.12
254.727	235.12
254.96	252.12
255.193	238.12
255.426	235.12
255.659	213.12
255.892	220.12
256.124	207.12
256.357	207.12
256.59	199.12
256.823	195.12
257.056	171.12
257.289	205.12
257.521	198.12
257.754	198.12
257.987	191.12
258.22	202.12
258.452	213.12
258.685	183.12
258.918	217.12
259.151	213.12
259.383	213.12
259.616	206.12
259.849	212.12
260.081	219.12
260.314	233.12
260.547	260.12
260.779	227.12
261.012	209.12
261.244	234.12
261.477	206.12
261.71	198.12
261.942	230.12
262.175	217.12
262.407	216.12
262.64	204.12
262.872	200.12
263.105	198.12
263.337	193.12
263.57	209.12
263.802	199.12
264.035	195.12
264.267	213.12
264.499	212.12
264.732	212.12
264.964	219.12
265.197	205.12
265.429	213.12
265.661	203.12
265.894	207.12
266.126	210.12
266.358	201.12
266.591	204.12
266.823	206.12
267.055	207.12
267.287	217.12
267.52	222.12
267.752	205.12
267.984	220.12
268.216	231.12
268.448	227.12
268.681	215.12
268.913	216.12
269.145	238.12
269.377	259.12
269.609	262.12
269.841	254.12
270.073	265.12
270.306	272.12
270.538	286.12
270.77	292.12
271.002	289.12
271.234	283.12
271.466	270.12
271.698	284.12
271.93	287.12
272.162	302.12
272.394	294.12
272.626	276.12
272.858	271.12
273.09	280.12
273.322	254.12
273.553	257.12
273.785	250.12
274.017	251.12
274.249	249.12
274.481	258.12
274.713	253.12
274.945	248.12
275.176	251.12
275.408	255.12
275.64	246.12
275.872	243.12
276.104	257.12
276.335	247.12
276.567	256.12
276.799	271.12
277.031	281.12
277.262	306.12
277.494	283.12
277.726	287.12
277.957	280.12
278.189	291.12
278.421	259.12
278.652	279.12
278.884	261.12
279.115	261.12
279.347	260.12
279.579	262.12
279.81	271.12
280.042	260.12
280.273	263.12
280.505	272.12
280.736	268.12
280.968	247.12
281.199	248.12
281.431	249.12
281.662	262.12
281.894	264.12
282.125	275.12
282.356	286.12
282.588	275.12
282.819	291.12
283.051	275.12
283.282	275.12
283.513	275.12
283.745	283.12
283.976	271.12
284.207	282.12
284.439	278.12
284.67	270.12
284.901	284.12
285.132	269.12
285.364	269.12
285.595	260.12
285.826	277.12
286.057	273.12
286.288	266.12
286.52	269.12
286.751	285.12
286.982	271.12
287.213	266.12
287.444	282.12
287.675	297.12
287.906	292.12
288.138	280.12
288.369	297.12
288.6	301.12
288.831	282.12
289.062	310.12
289.293	298.12
289.524	291.12
289.755	297.12
289.986	291.12
290.217	292.12
290.448	295.12
290.679	275.12
290.91	278.12
291.141	277.12
291.371	282.12
291.602	283.12
291.833	305.12
292.064	287.12
292.295	275.12
292.526	281.12
292.757	288.12
292.987	284.12
293.218	289.12
293.449	279.12
293.68	282.12
293.91	293.12
294.141	298.12
294.372	283.12
294.603	314.12
294.833	300.12
295.064	310.12
295.295	289.12
295.525	296.12
295.756	279.12
295.987	300.12
296.217	325.12
296.448	315.12
296.679	320.12
296.909	283.12
297.14	302.12
297.37	312.12
297.601	310.12
297.831	294.12
298.062	315.12
298.292	293.12
298.523	290.12
298.753	284.12
298.984	305.12
299.214	304.12
299.445	313.12
299.675	293.12
299.905	305.12
300.136	309.12
300.366	322.12
300.597	308.12
300.827	334.12
301.057	316.12
301.288	323.12
301.518	329.12
301.748	322.12
301.979	313.12
302.209	327.12
302.439	320.12
302.669	300.12
302.9	335.12
303.13	325.12
303.36	318.12
303.59	335.12
303.82	321.12
304.051	342.12
304.281	330.12
304.511	323.12
304.741	334.12
304.971	339.12
305.201	341.12
305.431	341.12
305.661	322.12
305.891	328.12
306.121	326.12
306.352	335.12
306.582	340.12
306.812	346.12
307.042	333.12
307.272	329.12
307.502	329.12
307.731	340.12
307.961	315.12
308.191	319.12
308.421	337.12
308.651	327.12
308.881	350.12
309.111	343.12
309.341	340.12
309.571	355.12
309.8	357.12
310.03	377.12
310.26	362.12
310.49	370.12
310.72	380.12
310.949	377.12
311.179	394.12
311.409	370.12
311.639	367.12
311.868	371.12
312.098	385.12
312.328	391.12
312.557	406.12
312.787	391.12
313.017	389.12
313.246	391.12
313.476	365.12
313.706	372.12
313.935	389.12
314.165	380.12
314.394	413.12
314.624	399.12
314.853	386.12
315.083	362.12
315.312	373.12
315.542	379.12
315.771	379.12
316.001	367.12
316.23	371.12
316.46	377.12
316.689	374.12
316.919	388.12
317.148	375.12
317.377	379.12
317.607	382.12
317.836	382.12
318.065	386.12
318.295	379.12
318.524	376.12
318.753	381.12
318.983	377.12
319.212	377.12
319.441	397.12
319.67	391.12
319.9	377.12
320.129	394.12
320.358	382.12
320.587	380.12
320.816	385.12
321.046	399.12
321.275	422.12
321.504	396.12
321.733	401.12
321.962	407.12
322.191	412.12
322.42	423.12
322.649	445.12
322.878	449.12
323.108	456.12
323.337	472.12
323.566	478.12
323.795	491.12
324.024	552.12
324.253	666.12
324.482	913.12
324.71	1431.12
324.939	2075.12
325.168	1768.12
325.397	936.12
325.626	621.12
325.855	525.12
326.084	510.12
326.313	489.12
326.542	497.12
326.77	534.12
326.999	633.12
327.228	867.12
327.457	1289.12
327.686	1547.12
327.914	1027.12
328.143	662.12
328.372	585.12
328.6	550.12
328.829	541.12
329.058	558.12
329.287	557.12
329.515	511.12
329.744	484.12
329.972	473.12
330.201	472.12
330.43	488.12
330.658	518.12
330.887	553.12
331.115	547.12
331.344	484.12
331.572	482.12
331.801	475.12
332.03	473.12
332.258	472.12
332.486	472.12
332.715	447.12
332.943	449.12
333.172	449.12
333.4	438.12
333.629	454.12
333.857	447.12
334.085	469.12
334.314	460.12
334.542	464.12
334.771	474.12
334.999	443.12
335.227	437.12
335.455	437.12
335.684	442.12
335.912	457.12
336.14	447.12
336.369	463.12
336.597	457.12
336.825	445.12
337.053	453.12
337.281	427.12
337.51	439.12
337.738	416.12
337.966	439.12
338.194	455.12
338.422	448.12
338.65	446.12
338.878	463.12
339.106	430.12
339.334	434.12
339.562	427.12
339.79	419.12
340.018	420.12
340.246	422.12
340.474	420.12
340.702	446.12
340.93	433.12
341.158	411.12
341.386	441.12
341.614	417.12
341.842	451.12
342.07	423.12
342.298	421.12
342.526	411.12
342.754	402.12
342.981	407.12
343.209	423.12
343.437	438.12
343.665	429.12
343.893	433.12
344.12	449.12
344.348	420.12
344.576	434.12
344.804	447.12
345.031	453.12
345.259	479.12
345.487	447.12
345.714	414.12
345.942	429.12
346.17	436.12
346.397	427.12
346.625	396.12
346.853	408.12
347.08	413.12
347.308	435.12
347.535	432.12
347.763	435.12
347.99	417.12
348.218	417.12
348.445	430.12
348.673	433.12
348.9	426.12
349.128	423.12
349.355	425.12
349.583	436.12
349.81	410.12
350.037	415.12
350.265	391.12
350.492	408.12
350.72	405.12
350.947	387.12
351.174	420.12
351.402	411.12
351.629	420.12
351.856	430.12
352.083	408.12
352.311	417.12
352.538	420.12
352.765	429.12
352.992	409.12
353.22	439.12
353.447	422.12
353.674	414.12
353.901	395.12
354.128	388.12
354.355	413.12
354.583	393.12
354.81	399.12
355.037	391.12
355.264	405.12
355.491	389.12
355.718	394.12
355.945	394.12
356.172	391.12
356.399	385.12
356.626	388.12
356.853	385.12
357.08	386.12
357.307	376.12
357.534	392.12
357.761	383.12
357.988	398.12
358.215	385.12
358.441	385.12
358.668	397.12
358.895	414.12
359.122	391.12
359.349	407.12
359.576	407.12
359.802	427.12
360.029	439.12
360.256	460.12
360.483	447.12
360.709	444.12
360.936	420.12
361.163	403.12
361.39	409.12
361.616	418.12
361.843	432.12
362.07	398.12
362.296	431.12
362.523	407.12
362.749	416.12
362.976	431.12
363.203	420.12
363.429	425.12
363.656	419.12
363.882	393.12
364.109	403.12
364.335	419.12
364.562	391.12
364.788	389.12
365.015	427.12
365.241	394.12
365.468	386.12
365.694	403.12
365.92	419.12
366.147	418.12
366.373	384.12
366.599	408.12
366.826	387.12
367.052	392.12
367.278	412.12
367.505	414.12
367.731	390.12
367.957	393.12
368.184	413.12
368.41	399.12
368.636	427.12
368.862	419.12
369.089	396.12
369.315	412.12
369.541	412.12
369.767	411.12
369.993	414.12
370.219	410.12
370.445	404.12
370.672	421.12
370.898	402.12
371.124	394.12
371.35	412.12
371.576	395.12
371.802	392.12
372.028	395.12
372.254	422.12
372.48	398.12
372.706	397.12
372.932	401.12
373.158	424.12
373.384	405.12
373.61	430.12
373.835	395.12
374.061	417.12
374.287	419.12
374.513	402.12
374.739	440.12
374.965	425.12
375.191	409.12
375.416	412.12
375.642	427.12
375.868	420.12
376.094	411.12
376.319	399.12
376.545	409.12
376.771	397.12
376.997	408.12
377.222	395.12
377.448	399.12
377.674	408.12
377.899	397.12
378.125	398.12
378.35	409.12
378.576	413.12
378.802	387.12
379.027	410.12
379.253	396.12
379.478	385.12
379.704	395.12
379.929	407.12
380.155	408.12
380.38	400.12
380.606	390.12
380.831	406.12
381.057	411.12
381.282	415.12
381.507	417.12
381.733	402.12
381.958	393.12
382.184	397.12
382.409	397.12
382.634	426.12
382.86	433.12
383.085	429.12
383.31	413.12
383.535	410.12
383.761	438.12
383.986	429.12
384.211	435.12
384.436	440.12
384.662	412.12
384.887	434.12
385.112	450.12
385.337	439.12
385.562	436.12
385.787	421.12
386.013	454.12
386.238	455.12
386.463	451.12
386.688	439.12
386.913	442.12
387.138	450.12
387.363	453.12
387.588	448.12
387.813	450.12
388.038	440.12
388.263	443.12
388.488	443.12
388.713	460.12
388.938	463.12
389.163	440.12
389.387	447.12
389.612	449.12
389.837	439.12
390.062	436.12
390.287	426.12
390.512	433.12
390.736	453.12
390.961	455.12
391.186	456.12
391.411	449.12
391.636	455.12
391.86	459.12
392.085	458.12
392.31	441.12
392.534	462.12
392.759	443.12
392.984	428.12
393.208	457.12
393.433	457.12
393.658	463.12
393.882	454.12
394.107	441.12
394.331	464.12
394.556	463.12
394.78	463.12
395.005	447.12
395.229	433.12
395.454	459.12
395.678	467.12
395.903	469.12
396.127	481.12
396.352	479.12
396.576	470.12
396.801	478.12
397.025	479.12
397.249	478.12
397.474	500.12
397.698	489.12
397.922	485.12
398.147	502.12
398.371	506.12
398.595	503.12
398.82	502.12
399.044	501.12
399.268	563.12
399.492	572.12
399.717	605.12
399.941	620.12
400.165	641.12
400.389	635.12
400.613	575.12
400.837	561.12
401.062	527.12
401.286	511.12
401.51	516.12
401.734	524.12
401.958	509.12
402.182	501.12
402.406	521.12
402.63	525.12
402.854	521.12
403.078	523.12
403.302	540.12
403.526	520.12
403.75	538.12
403.974	529.12
404.198	524.12
404.422	523.12
404.645	531.12
404.869	526.12
405.093	556.12
405.317	548.12
405.541	610.12
405.765	578.12
405.988	561.12
406.212	574.12
406.436	579.12
406.66	597.12
406.883	556.12
407.107	617.12
407.331	628.12
407.555	695.12
407.778	693.12
408.002	646.12
408.226	598.12
408.449	589.12
408.673	582.12
408.896	606.12
409.12	643.12
409.344	628.12
409.567	557.12
409.791	551.12
410.014	548.12
410.238	543.12
410.461	519.12
410.685	542.12
410.908	575.12
411.132	557.12
411.355	603.12
411.578	609.12
411.802	536.12
412.025	545.12
412.249	527.12
412.472	523.12
412.695	522.12
412.919	533.12
413.142	519.12
413.365	519.12
413.589	492.12
413.812	517.12
414.035	523.12
414.258	504.12
414.482	508.12
414.705	509.12
414.928	517.12
415.151	478.12
415.374	501.12
415.597	504.12
415.821	500.12
416.044	492.12
416.267	497.12
416.49	501.12
416.713	509.12
416.936	489.12
417.159	489.12
417.382	487.12
417.605	501.12
417.828	501.12
418.051	522.12
418.274	497.12
418.497	497.12
418.72	516.12
418.943	519.12
419.166	521.12
419.389	551.12
419.611	525.12
419.834	521.12
420.057	524.12
420.28	530.12
420.503	494.12
420.726	517.12
420.948	536.12
421.171	560.12
421.394	585.12
421.617	542.12
421.839	512.12
422.062	515.12
422.285	530.12
422.507	583.12
422.73	683.12
422.953	637.12
423.175	557.12
423.398	555.12
423.621	535.12
423.843	573.12
424.066	558.12
424.288	573.12
424.511	570.12
424.733	610.12
424.956	710.12
425.178	666.12
425.401	684.12
425.623	685.12
425.846	594.12
426.068	573.12
426.291	565.12
426.513	548.12
426.735	561.12
426.958	603.12
427.18	685.12
427.402	796.12
427.625	909.12
427.847	771.12
428.069	649.12
428.292	592.12
428.514	559.12
428.736	520.12
428.958	535.12
429.181	520.12
429.403	523.12
429.625	524.12
429.847	556.12
430.069	597.12
430.292	601.12
430.514	514.12
430.736	521.12
430.958	505.12
431.18	471.12
431.402	478.12
431.624	482.12
431.846	492.12
432.068	477.12
432.29	511.12
432.512	497.12
432.734	497.12
432.956	491.12
433.178	490.12
433.4	525.12
433.622	484.12
433.844	471.12
434.066	493.12
434.287	505.12
434.509	504.12
434.731	514.12
434.953	513.12
435.175	511.12
435.397	568.12
435.618	571.12
435.84	610.12
436.062	705.12
436.284	757.12
436.505	627.12
436.727	570.12
436.949	530.12
437.17	541.12
437.392	543.12
437.614	524.12
437.835	574.12
438.057	665.12
438.278	792.12
438.5	748.12
438.721	831.12
438.943	812.12
439.165	643.12
439.386	566.12
439.608	571.12
439.829	552.12
440.05	589.12
440.272	637.12
440.493	585.12
440.715	558.12
440.936	537.12
441.158	517.12
441.379	533.12
441.6	552.12
441.822	558.12
442.043	598.12
442.264	696.12
442.486	741.12
442.707	626.12
442.928	588.12
443.149	598.12
443.371	599.12
443.592	645.12
443.813	738.12
444.034	811.12
444.255	660.12
444.476	585.12
444.698	605.12
444.919	538.12
445.14	664.12
445.361	622.12
445.582	609.12
445.803	671.12
446.024	753.12
446.245	777.12
446.466	710.12
446.687	606.12
446.908	551.12
447.129	539.12
447.35	513.12
447.571	516.12
447.792	523.12
448.013	535.12
448.234	552.12
448.455	576.12
448.675	693.12
448.896	825.12
449.117	675.12
449.338	668.12
449.559	758.12
449.779	853.12
450	667.12
450.221	547.12
450.442	530.12
450.662	508.12
450.883	520.12
451.104	525.12
451.324	501.12
451.545	493.12
451.766	496.12
451.986	470.12
452.207	483.12
452.428	488.12
452.648	468.12
452.869	481.12
453.089	482.12
453.31	475.12
453.53	477.12
453.751	460.12
453.971	470.12
454.192	486.12
454.412	474.12
454.633	447.12
454.853	469.12
455.073	467.12
455.294	498.12
455.514	556.12
455.734	542.12
455.955	488.12
456.175	433.12
456.395	435.12
456.616	424.12
456.836	448.12
457.056	433.12
457.276	408.12
457.497	435.12
457.717	461.12
457.937	456.12
458.157	425.12
458.377	460.12
458.598	487.12
458.818	525.12
459.038	622.12
459.258	609.12
459.478	547.12
459.698	522.12
459.918	507.12
460.138	493.12
460.358	517.12
460.578	517.12
460.798	526.12
461.018	514.12
461.238	501.12
461.458	489.12
461.678	502.12
461.898	514.12
462.118	514.12
462.338	516.12
462.558	535.12
462.777	539.12
462.997	563.12
463.217	555.12
463.437	557.12
463.657	531.12
463.876	532.12
464.096	531.12
464.316	535.12
464.536	536.12
464.755	577.12
464.975	552.12
465.195	595.12
465.414	637.12
465.634	559.12
465.854	536.12
466.073	534.12
466.293	493.12
466.512	474.12
466.732	502.12
466.951	482.12
467.171	469.12
467.391	472.12
467.61	498.12
467.829	510.12
468.049	480.12
468.268	479.12
468.488	464.12
468.707	474.12
468.927	470.12
469.146	469.12
469.365	464.12
469.585	478.12
469.804	479.12
470.023	482.12
470.243	491.12
470.462	487.12
470.681	495.12
470.901	499.12
471.12	499.12
471.339	477.12
471.558	502.12
471.777	478.12
471.997	471.12
472.216	482.12
472.435	471.12
472.654	459.12
472.873	481.12
473.092	461.12
473.311	467.12
473.53	484.12
473.749	484.12
473.968	519.12
474.187	635.12
474.406	648.12
474.625	553.12
474.844	533.12
475.063	499.12
475.282	499.12
475.501	489.12
475.72	483.12
475.939	494.12
476.158	501.12
476.377	508.12
476.596	505.12
476.814	519.12
477.033	494.12
477.252	501.12
477.471	523.12
477.69	525.12
477.908	505.12
478.127	519.12
478.346	544.12
478.564	548.12
478.783	530.12
479.002	550.12
479.22	545.12
479.439	569.12
479.658	580.12
479.876	603.12
480.095	594.12
480.313	587.12
480.532	613.12
480.751	603.12
480.969	580.12
481.188	600.12
481.406	579.12
481.624	587.12
481.843	567.12
482.061	570.12
482.28	582.12
482.498	559.12
482.717	577.12
482.935	566.12
483.153	568.12
483.372	581.12
483.59	597.12
483.808	566.12
484.027	544.12
484.245	566.12
484.463	572.12
484.681	589.12
484.9	604.12
485.118	590.12
485.336	577.12
485.554	576.12
485.772	587.12
485.99	605.12
486.209	588.12
486.427	584.12
486.645	593.12
486.863	603.12
487.081	614.12
487.299	608.12
487.517	603.12
487.735	588.12
487.953	602.12
488.171	590.12
488.389	592.12
488.607	613.12
488.825	611.12
489.043	619.12
489.261	611.12
489.479	622.12
489.696	600.12
489.914	603.12
490.132	608.12
490.35	635.12
490.568	629.12
490.786	644.12
491.003	663.12
491.221	646.12
491.439	665.12
491.657	663.12
491.874	690.12
492.092	680.12
492.31	678.12
492.527	689.12
492.745	697.12
492.963	679.12
493.18	696.12
493.398	684.12
493.615	685.12
493.833	696.12
494.05	693.12
494.268	675.12
494.485	701.12
494.703	721.12
494.92	711.12
495.138	713.12
495.355	724.12
495.573	716.12
495.79	727.12
496.008	713.12
496.225	736.12
496.442	735.12
496.66	734.12
496.877	735.12
497.094	742.12
497.312	719.12
497.529	751.12
497.746	777.12
497.963	755.12
498.181	791.12
498.398	795.12
498.615	782.12
498.832	814.12
499.049	826.12
499.267	849.12
499.484	878.12
499.701	925.12
499.918	956.12
500.135	990.12
500.352	1012.12
500.569	1044.12
500.786	1047.12
501.003	1058.12
501.22	993.12
501.437	959.12
501.654	951.12
501.871	920.12
