Data from 1988.PennyLincolnUp.Lamp.En5.5.200Scan.071819.P2_HRD10591_17-20-12-971.txt Node
Date: Thu Jul 18 17:20:12 EDT 2019
User: cochatt
Spectrometer: HR+D1059
Trigger mode: 1
Integration Time (sec): 1.000000E-1
Scans to average: 1
Electric dark correction enabled: true
Nonlinearity correction enabled: false
Boxcar width: 0
XAxis mode: Wavelengths
Number of Pixels in Spectrum: 2048
>>>>>Begin Spectral Data<<<<<
223.165	-14.38
223.4	-14.38
223.635	-14.38
223.869	-8.38
224.104	-29.38
224.338	-24.38
224.573	-4.38
224.808	-23.38
225.042	1.62
225.277	-6.38
225.511	0.62
225.746	4.62
225.98	11.62
226.215	6.62
226.449	12.62
226.683	11.62
226.918	25.62
227.152	35.62
227.387	31.62
227.621	28.62
227.856	49.62
228.09	50.62
228.324	58.62
228.559	55.62
228.793	70.62
229.027	98.62
229.262	108.62
229.496	97.62
229.73	129.62
229.964	167.62
230.199	145.62
230.433	132.62
230.667	105.62
230.901	116.62
231.136	115.62
231.37	114.62
231.604	104.62
231.838	119.62
232.072	118.62
232.306	121.62
232.541	117.62
232.775	111.62
233.009	113.62
233.243	122.62
233.477	122.62
233.711	108.62
233.945	115.62
234.179	131.62
234.413	117.62
234.647	130.62
234.881	124.62
235.115	111.62
235.349	118.62
235.583	131.62
235.817	145.62
236.051	126.62
236.285	115.62
236.519	124.62
236.753	137.62
236.987	145.62
237.221	193.62
237.455	251.62
237.689	196.62
237.922	159.62
238.156	155.62
238.39	141.62
238.624	136.62
238.858	133.62
239.091	131.62
239.325	127.62
239.559	132.62
239.793	141.62
240.027	156.62
240.26	142.62
240.494	154.62
240.728	148.62
240.961	170.62
241.195	141.62
241.429	155.62
241.662	142.62
241.896	141.62
242.13	140.62
242.363	153.62
242.597	139.62
242.83	138.62
243.064	137.62
243.298	148.62
243.531	149.62
243.765	145.62
243.998	153.62
244.232	151.62
244.465	148.62
244.699	167.62
244.932	154.62
245.166	150.62
245.399	147.62
245.633	161.62
245.866	151.62
246.099	156.62
246.333	150.62
246.566	155.62
246.8	161.62
247.033	157.62
247.266	159.62
247.5	179.62
247.733	185.62
247.966	173.62
248.2	192.62
248.433	178.62
248.666	174.62
248.899	199.62
249.133	198.62
249.366	209.62
249.599	202.62
249.832	178.62
250.066	194.62
250.299	197.62
250.532	188.62
250.765	203.62
250.998	227.62
251.231	231.62
251.465	220.62
251.698	202.62
251.931	216.62
252.164	207.62
252.397	220.62
252.63	209.62
252.863	216.62
253.096	223.62
253.329	228.62
253.562	226.62
253.795	229.62
254.028	231.62
254.261	247.62
254.494	253.62
254.727	265.62
254.96	308.62
255.193	295.62
255.426	239.62
255.659	233.62
255.892	245.62
256.124	236.62
256.357	229.62
256.59	224.62
256.823	209.62
257.056	211.62
257.289	203.62
257.521	212.62
257.754	209.62
257.987	202.62
258.22	234.62
258.452	213.62
258.685	226.62
258.918	213.62
259.151	223.62
259.383	225.62
259.616	217.62
259.849	236.62
260.081	233.62
260.314	247.62
260.547	266.62
260.779	260.62
261.012	236.62
261.244	243.62
261.477	246.62
261.71	236.62
261.942	229.62
262.175	266.62
262.407	236.62
262.64	219.62
262.872	229.62
263.105	229.62
263.337	223.62
263.57	219.62
263.802	222.62
264.035	224.62
264.267	222.62
264.499	209.62
264.732	218.62
264.964	229.62
265.197	224.62
265.429	233.62
265.661	232.62
265.894	228.62
266.126	227.62
266.358	230.62
266.591	239.62
266.823	237.62
267.055	226.62
267.287	237.62
267.52	240.62
267.752	251.62
267.984	255.62
268.216	254.62
268.448	241.62
268.681	250.62
268.913	263.62
269.145	270.62
269.377	281.62
269.609	275.62
269.841	277.62
270.073	283.62
270.306	305.62
270.538	328.62
270.77	333.62
271.002	314.62
271.234	307.62
271.466	312.62
271.698	335.62
271.93	343.62
272.162	327.62
272.394	333.62
272.626	331.62
272.858	318.62
273.09	309.62
273.322	291.62
273.553	277.62
273.785	273.62
274.017	286.62
274.249	274.62
274.481	281.62
274.713	267.62
274.945	297.62
275.176	279.62
275.408	276.62
275.64	277.62
275.872	271.62
276.104	272.62
276.335	268.62
276.567	277.62
276.799	305.62
277.031	335.62
277.262	339.62
277.494	343.62
277.726	329.62
277.957	304.62
278.189	309.62
278.421	290.62
278.652	270.62
278.884	273.62
279.115	293.62
279.347	281.62
279.579	294.62
279.81	273.62
280.042	283.62
280.273	276.62
280.505	283.62
280.736	279.62
280.968	286.62
281.199	279.62
281.431	292.62
281.662	303.62
281.894	290.62
282.125	296.62
282.356	301.62
282.588	316.62
282.819	332.62
283.051	293.62
283.282	275.62
283.513	292.62
283.745	291.62
283.976	318.62
284.207	297.62
284.439	318.62
284.67	291.62
284.901	298.62
285.132	286.62
285.364	299.62
285.595	298.62
285.826	300.62
286.057	307.62
286.288	292.62
286.52	299.62
286.751	294.62
286.982	292.62
287.213	301.62
287.444	292.62
287.675	298.62
287.906	308.62
288.138	340.62
288.369	330.62
288.6	309.62
288.831	326.62
289.062	292.62
289.293	313.62
289.524	300.62
289.755	316.62
289.986	307.62
290.217	294.62
290.448	323.62
290.679	311.62
290.91	308.62
291.141	307.62
291.371	300.62
291.602	317.62
291.833	315.62
292.064	296.62
292.295	298.62
292.526	319.62
292.757	314.62
292.987	309.62
293.218	303.62
293.449	306.62
293.68	295.62
293.91	307.62
294.141	340.62
294.372	319.62
294.603	319.62
294.833	317.62
295.064	317.62
295.295	307.62
295.525	305.62
295.756	302.62
295.987	329.62
296.217	340.62
296.448	349.62
296.679	326.62
296.909	343.62
297.14	324.62
297.37	320.62
297.601	322.62
297.831	325.62
298.062	311.62
298.292	322.62
298.523	338.62
298.753	331.62
298.984	346.62
299.214	316.62
299.445	318.62
299.675	319.62
299.905	354.62
300.136	335.62
300.366	329.62
300.597	321.62
300.827	338.62
301.057	353.62
301.288	355.62
301.518	348.62
301.748	339.62
301.979	348.62
302.209	356.62
302.439	346.62
302.669	371.62
302.9	349.62
303.13	354.62
303.36	360.62
303.59	347.62
303.82	341.62
304.051	364.62
304.281	339.62
304.511	363.62
304.741	336.62
304.971	346.62
305.201	328.62
305.431	358.62
305.661	370.62
305.891	372.62
306.121	337.62
306.352	373.62
306.582	384.62
306.812	358.62
307.042	348.62
307.272	352.62
307.502	367.62
307.731	349.62
307.961	344.62
308.191	349.62
308.421	357.62
308.651	352.62
308.881	350.62
309.111	389.62
309.341	377.62
309.571	410.62
309.8	377.62
310.03	385.62
310.26	400.62
310.49	389.62
310.72	397.62
310.949	436.62
311.179	415.62
311.409	435.62
311.639	433.62
311.868	407.62
312.098	413.62
312.328	444.62
312.557	435.62
312.787	431.62
313.017	427.62
313.246	419.62
313.476	408.62
313.706	415.62
313.935	414.62
314.165	422.62
314.394	460.62
314.624	431.62
314.853	423.62
315.083	420.62
315.312	407.62
315.542	393.62
315.771	411.62
316.001	413.62
316.23	426.62
316.46	399.62
316.689	401.62
316.919	405.62
317.148	402.62
317.377	421.62
317.607	407.62
317.836	411.62
318.065	405.62
318.295	404.62
318.524	405.62
318.753	405.62
318.983	422.62
319.212	411.62
319.441	409.62
319.67	431.62
319.9	431.62
320.129	403.62
320.358	427.62
320.587	421.62
320.816	437.62
321.046	442.62
321.275	432.62
321.504	421.62
321.733	433.62
321.962	467.62
322.191	477.62
322.42	500.62
322.649	488.62
322.878	509.62
323.108	501.62
323.337	523.62
323.566	540.62
323.795	588.62
324.024	651.62
324.253	745.62
324.482	1096.62
324.71	1677.62
324.939	2467.62
325.168	2154.62
325.397	1096.62
325.626	725.62
325.855	607.62
326.084	561.62
326.313	560.62
326.542	578.62
326.77	626.62
326.999	724.62
327.228	974.62
327.457	1506.62
327.686	1892.62
327.914	1229.62
328.143	802.62
328.372	707.62
328.6	624.62
328.829	594.62
329.058	603.62
329.287	649.62
329.515	619.62
329.744	555.62
329.972	531.62
330.201	533.62
330.43	581.62
330.658	611.62
330.887	683.62
331.115	666.62
331.344	562.62
331.572	541.62
331.801	542.62
332.03	537.62
332.258	515.62
332.486	491.62
332.715	475.62
332.943	494.62
333.172	488.62
333.4	486.62
333.629	490.62
333.857	532.62
334.085	515.62
334.314	507.62
334.542	516.62
334.771	500.62
334.999	512.62
335.227	525.62
335.455	497.62
335.684	511.62
335.912	499.62
336.14	488.62
336.369	475.62
336.597	488.62
336.825	491.62
337.053	496.62
337.281	475.62
337.51	471.62
337.738	474.62
337.966	486.62
338.194	529.62
338.422	497.62
338.65	481.62
338.878	482.62
339.106	489.62
339.334	488.62
339.562	464.62
339.79	464.62
340.018	485.62
340.246	481.62
340.474	488.62
340.702	478.62
340.93	469.62
341.158	474.62
341.386	462.62
341.614	502.62
341.842	473.62
342.07	474.62
342.298	470.62
342.526	466.62
342.754	448.62
342.981	457.62
343.209	469.62
343.437	469.62
343.665	481.62
343.893	477.62
344.12	497.62
344.348	473.62
344.576	503.62
344.804	496.62
345.031	502.62
345.259	503.62
345.487	502.62
345.714	482.62
345.942	484.62
346.17	472.62
346.397	452.62
346.625	472.62
346.853	465.62
347.08	462.62
347.308	455.62
347.535	461.62
347.763	481.62
347.99	485.62
348.218	477.62
348.445	495.62
348.673	476.62
348.9	456.62
349.128	472.62
349.355	435.62
349.583	443.62
349.81	426.62
350.037	451.62
350.265	466.62
350.492	450.62
350.72	450.62
350.947	446.62
351.174	464.62
351.402	490.62
351.629	469.62
351.856	490.62
352.083	490.62
352.311	503.62
352.538	460.62
352.765	480.62
352.992	488.62
353.22	468.62
353.447	465.62
353.674	432.62
353.901	451.62
354.128	445.62
354.355	423.62
354.583	435.62
354.81	436.62
355.037	424.62
355.264	436.62
355.491	433.62
355.718	432.62
355.945	442.62
356.172	424.62
356.399	433.62
356.626	435.62
356.853	432.62
357.08	435.62
357.307	433.62
357.534	410.62
357.761	438.62
357.988	415.62
358.215	444.62
358.441	437.62
358.668	441.62
358.895	433.62
359.122	434.62
359.349	463.62
359.576	456.62
359.802	491.62
360.029	535.62
360.256	522.62
360.483	530.62
360.709	472.62
360.936	459.62
361.163	458.62
361.39	457.62
361.616	467.62
361.843	466.62
362.07	468.62
362.296	483.62
362.523	461.62
362.749	465.62
362.976	472.62
363.203	449.62
363.429	435.62
363.656	452.62
363.882	458.62
364.109	431.62
364.335	427.62
364.562	436.62
364.788	455.62
365.015	450.62
365.241	440.62
365.468	456.62
365.694	456.62
365.92	458.62
366.147	440.62
366.373	446.62
366.599	440.62
366.826	447.62
367.052	443.62
367.278	437.62
367.505	436.62
367.731	449.62
367.957	448.62
368.184	459.62
368.41	458.62
368.636	462.62
368.862	476.62
369.089	476.62
369.315	460.62
369.541	447.62
369.767	454.62
369.993	441.62
370.219	433.62
370.445	461.62
370.672	440.62
370.898	439.62
371.124	471.62
371.35	445.62
371.576	462.62
371.802	453.62
372.028	452.62
372.254	435.62
372.48	431.62
372.706	449.62
372.932	457.62
373.158	436.62
373.384	443.62
373.61	459.62
373.835	466.62
374.061	447.62
374.287	445.62
374.513	465.62
374.739	447.62
374.965	469.62
375.191	440.62
375.416	483.62
375.642	449.62
375.868	449.62
376.094	443.62
376.319	440.62
376.545	453.62
376.771	443.62
376.997	445.62
377.222	438.62
377.448	442.62
377.674	439.62
377.899	451.62
378.125	453.62
378.35	442.62
378.576	447.62
378.802	446.62
379.027	438.62
379.253	436.62
379.478	432.62
379.704	428.62
379.929	446.62
380.155	435.62
380.38	449.62
380.606	460.62
380.831	447.62
381.057	442.62
381.282	441.62
381.507	466.62
381.733	447.62
381.958	449.62
382.184	440.62
382.409	461.62
382.634	467.62
382.86	446.62
383.085	471.62
383.31	455.62
383.535	474.62
383.761	471.62
383.986	470.62
384.211	467.62
384.436	474.62
384.662	484.62
384.887	495.62
385.112	499.62
385.337	468.62
385.562	489.62
385.787	479.62
386.013	487.62
386.238	502.62
386.463	477.62
386.688	481.62
386.913	490.62
387.138	484.62
387.363	474.62
387.588	508.62
387.813	492.62
388.038	490.62
388.263	513.62
388.488	500.62
388.713	493.62
388.938	511.62
389.163	503.62
389.387	513.62
389.612	491.62
389.837	489.62
390.062	501.62
390.287	502.62
390.512	506.62
390.736	491.62
390.961	516.62
391.186	474.62
391.411	491.62
391.636	490.62
391.86	502.62
392.085	517.62
392.31	526.62
392.534	499.62
392.759	512.62
392.984	510.62
393.208	504.62
393.433	506.62
393.658	522.62
393.882	522.62
394.107	475.62
394.331	513.62
394.556	497.62
394.78	502.62
395.005	519.62
395.229	508.62
395.454	522.62
395.678	514.62
395.903	541.62
396.127	565.62
396.352	578.62
396.576	540.62
396.801	533.62
397.025	520.62
397.249	536.62
397.474	544.62
397.698	530.62
397.922	547.62
398.147	563.62
398.371	560.62
398.595	588.62
398.82	595.62
399.044	602.62
399.268	610.62
399.492	661.62
399.717	668.62
399.941	703.62
400.165	709.62
400.389	740.62
400.613	672.62
400.837	616.62
401.062	609.62
401.286	601.62
401.51	591.62
401.734	603.62
401.958	587.62
402.182	584.62
402.406	582.62
402.63	602.62
402.854	585.62
403.078	605.62
403.302	622.62
403.526	610.62
403.75	611.62
403.974	600.62
404.198	612.62
404.422	617.62
404.645	596.62
404.869	612.62
405.093	623.62
405.317	649.62
405.541	682.62
405.765	653.62
405.988	622.62
406.212	646.62
406.436	662.62
406.66	661.62
406.883	654.62
407.107	695.62
407.331	726.62
407.555	801.62
407.778	819.62
408.002	716.62
408.226	668.62
408.449	674.62
408.673	677.62
408.896	681.62
409.12	769.62
409.344	716.62
409.567	649.62
409.791	648.62
410.014	618.62
410.238	613.62
410.461	615.62
410.685	627.62
410.908	623.62
411.132	671.62
411.355	701.62
411.578	680.62
411.802	617.62
412.025	603.62
412.249	604.62
412.472	620.62
412.695	633.62
412.919	607.62
413.142	609.62
413.365	599.62
413.589	593.62
413.812	589.62
414.035	608.62
414.258	569.62
414.482	574.62
414.705	582.62
414.928	571.62
415.151	589.62
415.374	554.62
415.597	568.62
415.821	570.62
416.044	553.62
416.267	581.62
416.49	580.62
416.713	552.62
416.936	577.62
417.159	567.62
417.382	581.62
417.605	556.62
417.828	571.62
418.051	608.62
418.274	604.62
418.497	569.62
418.72	570.62
418.943	583.62
419.166	596.62
419.389	604.62
419.611	619.62
419.834	626.62
420.057	579.62
420.28	600.62
420.503	567.62
420.726	568.62
420.948	602.62
421.171	670.62
421.394	688.62
421.617	629.62
421.839	596.62
422.062	618.62
422.285	614.62
422.507	682.62
422.73	769.62
422.953	759.62
423.175	657.62
423.398	639.62
423.621	627.62
423.843	636.62
424.066	647.62
424.288	651.62
424.511	665.62
424.733	739.62
424.956	823.62
425.178	787.62
425.401	772.62
425.623	831.62
425.846	716.62
426.068	643.62
426.291	619.62
426.513	635.62
426.735	657.62
426.958	700.62
427.18	795.62
427.402	945.62
427.625	1033.62
427.847	894.62
428.069	778.62
428.292	678.62
428.514	666.62
428.736	635.62
428.958	619.62
429.181	612.62
429.403	616.62
429.625	594.62
429.847	643.62
430.069	713.62
430.292	711.62
430.514	616.62
430.736	603.62
430.958	578.62
431.18	571.62
431.402	592.62
431.624	570.62
431.846	554.62
432.068	566.62
432.29	553.62
432.512	569.62
432.734	590.62
432.956	589.62
433.178	585.62
433.4	560.62
433.622	576.62
433.844	553.62
434.066	561.62
434.287	553.62
434.509	598.62
434.731	590.62
434.953	601.62
435.175	634.62
435.397	639.62
435.618	643.62
435.84	686.62
436.062	817.62
436.284	872.62
436.505	728.62
436.727	687.62
436.949	625.62
437.17	630.62
437.392	596.62
437.614	589.62
437.835	628.62
438.057	767.62
438.278	919.62
438.5	897.62
438.721	953.62
438.943	927.62
439.165	741.62
439.386	657.62
439.608	660.62
439.829	641.62
440.05	696.62
440.272	739.62
440.493	698.62
440.715	647.62
440.936	625.62
441.158	620.62
441.379	607.62
441.6	612.62
441.822	631.62
442.043	667.62
442.264	784.62
442.486	821.62
442.707	722.62
442.928	644.62
443.149	663.62
443.371	695.62
443.592	754.62
443.813	869.62
444.034	951.62
444.255	733.62
444.476	663.62
444.698	674.62
444.919	653.62
445.14	772.62
445.361	698.62
445.582	700.62
445.803	781.62
446.024	890.62
446.245	912.62
446.466	827.62
446.687	716.62
446.908	646.62
447.129	633.62
447.35	625.62
447.571	590.62
447.792	594.62
448.013	586.62
448.234	614.62
448.455	694.62
448.675	789.62
448.896	956.62
449.117	782.62
449.338	765.62
449.559	899.62
449.779	1027.62
450	824.62
450.221	681.62
450.442	632.62
450.662	598.62
450.883	598.62
451.104	632.62
451.324	612.62
451.545	568.62
451.766	568.62
451.986	554.62
452.207	531.62
452.428	522.62
452.648	541.62
452.869	517.62
453.089	543.62
453.31	564.62
453.53	559.62
453.751	553.62
453.971	546.62
454.192	570.62
454.412	559.62
454.633	533.62
454.853	533.62
455.073	538.62
455.294	584.62
455.514	648.62
455.734	634.62
455.955	542.62
456.175	539.62
456.395	509.62
456.616	504.62
456.836	498.62
457.056	509.62
457.276	500.62
457.497	499.62
457.717	513.62
457.937	515.62
458.157	518.62
458.377	531.62
458.598	578.62
458.818	619.62
459.038	693.62
459.258	727.62
459.478	646.62
459.698	594.62
459.918	579.62
460.138	587.62
460.358	579.62
460.578	585.62
460.798	580.62
461.018	556.62
461.238	568.62
461.458	560.62
461.678	585.62
461.898	583.62
462.118	590.62
462.338	589.62
462.558	593.62
462.777	607.62
462.997	616.62
463.217	638.62
463.437	630.62
463.657	634.62
463.876	631.62
464.096	643.62
464.316	605.62
464.536	629.62
464.755	626.62
464.975	628.62
465.195	652.62
465.414	730.62
465.634	674.62
465.854	627.62
466.073	620.62
466.293	580.62
466.512	574.62
466.732	541.62
466.951	565.62
467.171	563.62
467.391	572.62
467.61	578.62
467.829	580.62
468.049	538.62
468.268	537.62
468.488	524.62
468.707	546.62
468.927	544.62
469.146	540.62
469.365	554.62
469.585	533.62
469.804	556.62
470.023	563.62
470.243	569.62
470.462	566.62
470.681	571.62
470.901	598.62
471.12	562.62
471.339	557.62
471.558	582.62
471.777	563.62
471.997	548.62
472.216	537.62
472.435	532.62
472.654	560.62
472.873	539.62
473.092	556.62
473.311	546.62
473.53	548.62
473.749	561.62
473.968	617.62
474.187	727.62
474.406	739.62
474.625	612.62
474.844	587.62
475.063	574.62
475.282	573.62
475.501	569.62
475.72	598.62
475.939	598.62
476.158	571.62
476.377	576.62
476.596	587.62
476.814	576.62
477.033	572.62
477.252	598.62
477.471	607.62
477.69	603.62
477.908	601.62
478.127	617.62
478.346	616.62
478.564	589.62
478.783	627.62
479.002	623.62
479.22	627.62
479.439	651.62
479.658	664.62
479.876	679.62
480.095	693.62
480.313	721.62
480.532	702.62
480.751	672.62
480.969	687.62
481.188	691.62
481.406	704.62
481.624	652.62
481.843	656.62
482.061	665.62
482.28	662.62
482.498	653.62
482.717	651.62
482.935	645.62
483.153	656.62
483.372	659.62
483.59	645.62
483.808	676.62
484.027	664.62
484.245	667.62
484.463	688.62
484.681	647.62
484.9	669.62
485.118	668.62
485.336	667.62
485.554	685.62
485.772	681.62
485.99	691.62
486.209	714.62
486.427	706.62
486.645	693.62
486.863	712.62
487.081	704.62
487.299	715.62
487.517	711.62
487.735	700.62
487.953	719.62
488.171	695.62
488.389	697.62
488.607	707.62
488.825	726.62
489.043	720.62
489.261	711.62
489.479	680.62
489.696	700.62
489.914	722.62
490.132	737.62
490.35	718.62
490.568	725.62
490.786	764.62
491.003	764.62
491.221	786.62
491.439	793.62
491.657	795.62
491.874	811.62
492.092	802.62
492.31	799.62
492.527	851.62
492.745	818.62
492.963	819.62
493.18	815.62
493.398	817.62
493.615	822.62
493.833	825.62
494.05	817.62
494.268	811.62
494.485	849.62
494.703	833.62
494.92	841.62
495.138	832.62
495.355	806.62
495.573	839.62
495.79	843.62
496.008	842.62
496.225	859.62
496.442	848.62
496.66	860.62
496.877	829.62
497.094	865.62
497.312	904.62
497.529	877.62
497.746	875.62
497.963	899.62
498.181	876.62
498.398	951.62
498.615	964.62
498.832	960.62
499.049	997.62
499.267	988.62
499.484	1018.62
499.701	1093.62
499.918	1133.62
500.135	1124.62
500.352	1172.62
500.569	1216.62
500.786	1202.62
501.003	1199.62
501.22	1156.62
501.437	1144.62
501.654	1095.62
501.871	1086.62
