Data from 1988.PennyLincolnUp.Lamp.En5.5.200Scan.071819.P2_HRD10591_17-21-27-972.txt Node
Date: Thu Jul 18 17:21:27 EDT 2019
User: cochatt
Spectrometer: HR+D1059
Trigger mode: 1
Integration Time (sec): 1.000000E-1
Scans to average: 1
Electric dark correction enabled: true
Nonlinearity correction enabled: false
Boxcar width: 0
XAxis mode: Wavelengths
Number of Pixels in Spectrum: 2048
>>>>>Begin Spectral Data<<<<<
223.165	-7.12
223.4	-7.12
223.635	-7.12
223.869	-21.12
224.104	-14.12
224.338	-18.12
224.573	-13.12
224.808	-12.12
225.042	-2.12
225.277	-17.12
225.511	-1.12
225.746	-17.12
225.98	14.88
226.215	9.88
226.449	12.88
226.683	16.88
226.918	41.88
227.152	26.88
227.387	35.88
227.621	32.88
227.856	47.88
228.09	42.88
228.324	50.88
228.559	58.88
228.793	72.88
229.027	103.88
229.262	113.88
229.496	131.88
229.73	133.88
229.964	148.88
230.199	142.88
230.433	106.88
230.667	124.88
230.901	128.88
231.136	130.88
231.37	112.88
231.604	129.88
231.838	124.88
232.072	132.88
232.306	111.88
232.541	136.88
232.775	120.88
233.009	123.88
233.243	131.88
233.477	139.88
233.711	124.88
233.945	125.88
234.179	126.88
234.413	123.88
234.647	119.88
234.881	117.88
235.115	132.88
235.349	129.88
235.583	135.88
235.817	132.88
236.051	136.88
236.285	128.88
236.519	124.88
236.753	135.88
236.987	158.88
237.221	205.88
237.455	254.88
237.689	217.88
237.922	161.88
238.156	144.88
238.39	137.88
238.624	132.88
238.858	146.88
239.091	126.88
239.325	136.88
239.559	140.88
239.793	149.88
240.027	146.88
240.26	173.88
240.494	182.88
240.728	160.88
240.961	154.88
241.195	162.88
241.429	154.88
241.662	142.88
241.896	146.88
242.13	144.88
242.363	146.88
242.597	149.88
242.83	149.88
243.064	154.88
243.298	150.88
243.531	154.88
243.765	143.88
243.998	133.88
244.232	157.88
244.465	153.88
244.699	161.88
244.932	155.88
245.166	157.88
245.399	152.88
245.633	155.88
245.866	151.88
246.099	147.88
246.333	154.88
246.566	172.88
246.8	153.88
247.033	172.88
247.266	161.88
247.5	188.88
247.733	200.88
247.966	193.88
248.2	180.88
248.433	198.88
248.666	166.88
248.899	182.88
249.133	212.88
249.366	213.88
249.599	215.88
249.832	204.88
250.066	193.88
250.299	196.88
250.532	200.88
250.765	219.88
250.998	227.88
251.231	240.88
251.465	232.88
251.698	226.88
251.931	230.88
252.164	211.88
252.397	207.88
252.63	219.88
252.863	217.88
253.096	241.88
253.329	250.88
253.562	235.88
253.795	246.88
254.028	231.88
254.261	236.88
254.494	241.88
254.727	304.88
254.96	308.88
255.193	288.88
255.426	280.88
255.659	265.88
255.892	251.88
256.124	249.88
256.357	235.88
256.59	220.88
256.823	234.88
257.056	226.88
257.289	229.88
257.521	245.88
257.754	235.88
257.987	217.88
258.22	226.88
258.452	219.88
258.685	236.88
258.918	223.88
259.151	233.88
259.383	245.88
259.616	248.88
259.849	244.88
260.081	248.88
260.314	274.88
260.547	292.88
260.779	269.88
261.012	246.88
261.244	262.88
261.477	245.88
261.71	253.88
261.942	238.88
262.175	248.88
262.407	257.88
262.64	256.88
262.872	232.88
263.105	248.88
263.337	241.88
263.57	245.88
263.802	233.88
264.035	228.88
264.267	234.88
264.499	240.88
264.732	211.88
264.964	231.88
265.197	229.88
265.429	225.88
265.661	236.88
265.894	235.88
266.126	222.88
266.358	238.88
266.591	251.88
266.823	247.88
267.055	235.88
267.287	252.88
267.52	249.88
267.752	244.88
267.984	255.88
268.216	258.88
268.448	251.88
268.681	247.88
268.913	264.88
269.145	277.88
269.377	296.88
269.609	284.88
269.841	293.88
270.073	304.88
270.306	344.88
270.538	348.88
270.77	357.88
271.002	332.88
271.234	324.88
271.466	327.88
271.698	341.88
271.93	354.88
272.162	353.88
272.394	356.88
272.626	321.88
272.858	314.88
273.09	313.88
273.322	293.88
273.553	282.88
273.785	284.88
274.017	298.88
274.249	297.88
274.481	274.88
274.713	297.88
274.945	289.88
275.176	288.88
275.408	295.88
275.64	294.88
275.872	289.88
276.104	305.88
276.335	284.88
276.567	304.88
276.799	330.88
277.031	331.88
277.262	362.88
277.494	355.88
277.726	335.88
277.957	333.88
278.189	315.88
278.421	312.88
278.652	306.88
278.884	304.88
279.115	292.88
279.347	295.88
279.579	288.88
279.81	297.88
280.042	300.88
280.273	292.88
280.505	298.88
280.736	286.88
280.968	308.88
281.199	308.88
281.431	307.88
281.662	298.88
281.894	292.88
282.125	305.88
282.356	335.88
282.588	361.88
282.819	354.88
283.051	326.88
283.282	313.88
283.513	280.88
283.745	327.88
283.976	308.88
284.207	330.88
284.439	319.88
284.67	294.88
284.901	305.88
285.132	310.88
285.364	305.88
285.595	322.88
285.826	293.88
286.057	311.88
286.288	309.88
286.52	309.88
286.751	324.88
286.982	329.88
287.213	325.88
287.444	322.88
287.675	320.88
287.906	320.88
288.138	333.88
288.369	320.88
288.6	334.88
288.831	318.88
289.062	327.88
289.293	336.88
289.524	327.88
289.755	305.88
289.986	326.88
290.217	318.88
290.448	301.88
290.679	333.88
290.91	335.88
291.141	315.88
291.371	316.88
291.602	332.88
291.833	323.88
292.064	313.88
292.295	313.88
292.526	317.88
292.757	333.88
292.987	312.88
293.218	319.88
293.449	322.88
293.68	337.88
293.91	334.88
294.141	324.88
294.372	333.88
294.603	322.88
294.833	340.88
295.064	332.88
295.295	334.88
295.525	324.88
295.756	334.88
295.987	349.88
296.217	365.88
296.448	386.88
296.679	342.88
296.909	361.88
297.14	338.88
297.37	328.88
297.601	352.88
297.831	336.88
298.062	348.88
298.292	341.88
298.523	340.88
298.753	347.88
298.984	356.88
299.214	348.88
299.445	340.88
299.675	360.88
299.905	360.88
300.136	350.88
300.366	351.88
300.597	353.88
300.827	355.88
301.057	352.88
301.288	364.88
301.518	363.88
301.748	363.88
301.979	360.88
302.209	378.88
302.439	378.88
302.669	362.88
302.9	370.88
303.13	350.88
303.36	374.88
303.59	358.88
303.82	394.88
304.051	364.88
304.281	379.88
304.511	378.88
304.741	375.88
304.971	359.88
305.201	347.88
305.431	354.88
305.661	385.88
305.891	386.88
306.121	389.88
306.352	379.88
306.582	359.88
306.812	379.88
307.042	374.88
307.272	389.88
307.502	390.88
307.731	385.88
307.961	373.88
308.191	382.88
308.421	380.88
308.651	385.88
308.881	364.88
309.111	405.88
309.341	388.88
309.571	400.88
309.8	402.88
310.03	421.88
310.26	430.88
310.49	434.88
310.72	426.88
310.949	458.88
311.179	453.88
311.409	448.88
311.639	439.88
311.868	434.88
312.098	432.88
312.328	456.88
312.557	448.88
312.787	470.88
313.017	464.88
313.246	450.88
313.476	444.88
313.706	446.88
313.935	430.88
314.165	469.88
314.394	446.88
314.624	444.88
314.853	440.88
315.083	433.88
315.312	430.88
315.542	423.88
315.771	428.88
316.001	432.88
316.23	422.88
316.46	406.88
316.689	438.88
316.919	427.88
317.148	442.88
317.377	454.88
317.607	441.88
317.836	430.88
318.065	430.88
318.295	420.88
318.524	423.88
318.753	412.88
318.983	418.88
319.212	431.88
319.441	437.88
319.67	464.88
319.9	451.88
320.129	446.88
320.358	416.88
320.587	435.88
320.816	456.88
321.046	456.88
321.275	454.88
321.504	444.88
321.733	449.88
321.962	466.88
322.191	498.88
322.42	486.88
322.649	523.88
322.878	523.88
323.108	541.88
323.337	556.88
323.566	555.88
323.795	609.88
324.024	706.88
324.253	803.88
324.482	1210.88
324.71	1830.88
324.939	2786.88
325.168	2405.88
325.397	1206.88
325.626	786.88
325.855	662.88
326.084	611.88
326.313	590.88
326.542	597.88
326.77	630.88
326.999	754.88
327.228	1068.88
327.457	1666.88
327.686	2088.88
327.914	1340.88
328.143	834.88
328.372	708.88
328.6	702.88
328.829	665.88
329.058	678.88
329.287	696.88
329.515	662.88
329.744	602.88
329.972	569.88
330.201	588.88
330.43	632.88
330.658	661.88
330.887	701.88
331.115	675.88
331.344	601.88
331.572	577.88
331.801	570.88
332.03	563.88
332.258	563.88
332.486	539.88
332.715	544.88
332.943	513.88
333.172	527.88
333.4	527.88
333.629	534.88
333.857	553.88
334.085	550.88
334.314	554.88
334.542	560.88
334.771	575.88
334.999	558.88
335.227	533.88
335.455	537.88
335.684	541.88
335.912	534.88
336.14	526.88
336.369	532.88
336.597	519.88
336.825	537.88
337.053	492.88
337.281	522.88
337.51	507.88
337.738	516.88
337.966	512.88
338.194	517.88
338.422	523.88
338.65	512.88
338.878	522.88
339.106	504.88
339.334	508.88
339.562	485.88
339.79	486.88
340.018	485.88
340.246	489.88
340.474	505.88
340.702	506.88
340.93	496.88
341.158	495.88
341.386	514.88
341.614	509.88
341.842	508.88
342.07	478.88
342.298	496.88
342.526	499.88
342.754	477.88
342.981	476.88
343.209	476.88
343.437	476.88
343.665	502.88
343.893	509.88
344.12	508.88
344.348	526.88
344.576	528.88
344.804	502.88
345.031	520.88
345.259	543.88
345.487	536.88
345.714	508.88
345.942	504.88
346.17	476.88
346.397	473.88
346.625	483.88
346.853	483.88
347.08	501.88
347.308	510.88
347.535	501.88
347.763	484.88
347.99	471.88
348.218	508.88
348.445	506.88
348.673	496.88
348.9	502.88
349.128	485.88
349.355	491.88
349.583	455.88
349.81	482.88
350.037	461.88
350.265	468.88
350.492	482.88
350.72	459.88
350.947	472.88
351.174	499.88
351.402	501.88
351.629	497.88
351.856	492.88
352.083	485.88
352.311	487.88
352.538	510.88
352.765	503.88
352.992	500.88
353.22	480.88
353.447	512.88
353.674	483.88
353.901	457.88
354.128	466.88
354.355	463.88
354.583	474.88
354.81	465.88
355.037	448.88
355.264	455.88
355.491	450.88
355.718	456.88
355.945	455.88
356.172	472.88
356.399	473.88
356.626	460.88
356.853	464.88
357.08	472.88
357.307	446.88
357.534	442.88
357.761	458.88
357.988	445.88
358.215	442.88
358.441	448.88
358.668	439.88
358.895	457.88
359.122	470.88
359.349	478.88
359.576	474.88
359.802	512.88
360.029	533.88
360.256	569.88
360.483	560.88
360.709	481.88
360.936	490.88
361.163	483.88
361.39	494.88
361.616	450.88
361.843	496.88
362.07	497.88
362.296	507.88
362.523	499.88
362.749	497.88
362.976	500.88
363.203	494.88
363.429	477.88
363.656	470.88
363.882	493.88
364.109	456.88
364.335	474.88
364.562	477.88
364.788	483.88
365.015	461.88
365.241	502.88
365.468	472.88
365.694	486.88
365.92	476.88
366.147	468.88
366.373	448.88
366.599	457.88
366.826	459.88
367.052	466.88
367.278	450.88
367.505	478.88
367.731	460.88
367.957	477.88
368.184	473.88
368.41	477.88
368.636	477.88
368.862	476.88
369.089	479.88
369.315	461.88
369.541	444.88
369.767	460.88
369.993	480.88
370.219	476.88
370.445	478.88
370.672	465.88
370.898	468.88
371.124	469.88
371.35	454.88
371.576	473.88
371.802	477.88
372.028	464.88
372.254	480.88
372.48	445.88
372.706	473.88
372.932	459.88
373.158	486.88
373.384	492.88
373.61	459.88
373.835	478.88
374.061	489.88
374.287	471.88
374.513	462.88
374.739	476.88
374.965	479.88
375.191	486.88
375.416	466.88
375.642	470.88
375.868	486.88
376.094	474.88
376.319	475.88
376.545	463.88
376.771	467.88
376.997	473.88
377.222	487.88
377.448	462.88
377.674	482.88
377.899	496.88
378.125	462.88
378.35	468.88
378.576	483.88
378.802	478.88
379.027	456.88
379.253	452.88
379.478	458.88
379.704	464.88
379.929	457.88
380.155	453.88
380.38	466.88
380.606	480.88
380.831	481.88
381.057	490.88
381.282	461.88
381.507	482.88
381.733	480.88
381.958	477.88
382.184	461.88
382.409	477.88
382.634	502.88
382.86	489.88
383.085	492.88
383.31	502.88
383.535	502.88
383.761	516.88
383.986	507.88
384.211	498.88
384.436	479.88
384.662	488.88
384.887	516.88
385.112	492.88
385.337	502.88
385.562	499.88
385.787	521.88
386.013	551.88
386.238	530.88
386.463	527.88
386.688	528.88
386.913	519.88
387.138	518.88
387.363	515.88
387.588	524.88
387.813	533.88
388.038	534.88
388.263	532.88
388.488	518.88
388.713	540.88
388.938	517.88
389.163	525.88
389.387	540.88
389.612	519.88
389.837	538.88
390.062	537.88
390.287	521.88
390.512	516.88
390.736	544.88
390.961	526.88
391.186	518.88
391.411	547.88
391.636	527.88
391.86	548.88
392.085	569.88
392.31	580.88
392.534	550.88
392.759	538.88
392.984	569.88
393.208	536.88
393.433	562.88
393.658	528.88
393.882	533.88
394.107	534.88
394.331	545.88
394.556	536.88
394.78	524.88
395.005	537.88
395.229	526.88
395.454	542.88
395.678	563.88
395.903	564.88
396.127	566.88
396.352	583.88
396.576	564.88
396.801	550.88
397.025	540.88
397.249	570.88
397.474	548.88
397.698	555.88
397.922	597.88
398.147	620.88
398.371	621.88
398.595	608.88
398.82	604.88
399.044	641.88
399.268	635.88
399.492	682.88
399.717	698.88
399.941	747.88
400.165	771.88
400.389	773.88
400.613	692.88
400.837	669.88
401.062	629.88
401.286	628.88
401.51	610.88
401.734	593.88
401.958	617.88
402.182	617.88
402.406	635.88
402.63	615.88
402.854	604.88
403.078	627.88
403.302	629.88
403.526	647.88
403.75	640.88
403.974	634.88
404.198	653.88
404.422	636.88
404.645	662.88
404.869	655.88
405.093	678.88
405.317	695.88
405.541	753.88
405.765	699.88
405.988	698.88
406.212	683.88
406.436	700.88
406.66	724.88
406.883	714.88
407.107	731.88
407.331	797.88
407.555	852.88
407.778	811.88
408.002	787.88
408.226	741.88
408.449	723.88
408.673	722.88
408.896	733.88
409.12	793.88
409.344	747.88
409.567	683.88
409.791	637.88
410.014	657.88
410.238	626.88
410.461	661.88
410.685	668.88
410.908	651.88
411.132	707.88
411.355	755.88
411.578	744.88
411.802	669.88
412.025	653.88
412.249	645.88
412.472	667.88
412.695	710.88
412.919	690.88
413.142	640.88
413.365	602.88
413.589	637.88
413.812	623.88
414.035	598.88
414.258	572.88
414.482	602.88
414.705	626.88
414.928	606.88
415.151	595.88
415.374	572.88
415.597	609.88
415.821	606.88
416.044	628.88
416.267	605.88
416.49	593.88
416.713	614.88
416.936	602.88
417.159	590.88
417.382	617.88
417.605	604.88
417.828	610.88
418.051	615.88
418.274	632.88
418.497	610.88
418.72	615.88
418.943	591.88
419.166	623.88
419.389	651.88
419.611	641.88
419.834	614.88
420.057	646.88
420.28	617.88
420.503	598.88
420.726	617.88
420.948	647.88
421.171	682.88
421.394	728.88
421.617	648.88
421.839	638.88
422.062	648.88
422.285	657.88
422.507	709.88
422.73	817.88
422.953	766.88
423.175	714.88
423.398	673.88
423.621	675.88
423.843	678.88
424.066	682.88
424.288	689.88
424.511	705.88
424.733	776.88
424.956	849.88
425.178	854.88
425.401	850.88
425.623	867.88
425.846	729.88
426.068	667.88
426.291	656.88
426.513	668.88
426.735	673.88
426.958	740.88
427.18	838.88
427.402	997.88
427.625	1133.88
427.847	968.88
428.069	814.88
428.292	716.88
428.514	689.88
428.736	636.88
428.958	629.88
429.181	625.88
429.403	624.88
429.625	622.88
429.847	706.88
430.069	780.88
430.292	756.88
430.514	648.88
430.736	633.88
430.958	618.88
431.18	612.88
431.402	595.88
431.624	588.88
431.846	584.88
432.068	589.88
432.29	596.88
432.512	582.88
432.734	606.88
432.956	598.88
433.178	608.88
433.4	612.88
433.622	612.88
433.844	613.88
434.066	583.88
434.287	565.88
434.509	579.88
434.731	596.88
434.953	609.88
435.175	640.88
435.397	696.88
435.618	708.88
435.84	739.88
436.062	833.88
436.284	953.88
436.505	795.88
436.727	712.88
436.949	668.88
437.17	625.88
437.392	642.88
437.614	685.88
437.835	692.88
438.057	822.88
438.278	938.88
438.5	919.88
438.721	1031.88
438.943	973.88
439.165	773.88
439.386	691.88
439.608	680.88
439.829	682.88
440.05	717.88
440.272	781.88
440.493	747.88
440.715	664.88
440.936	650.88
441.158	655.88
441.379	636.88
441.6	649.88
441.822	696.88
442.043	746.88
442.264	838.88
442.486	869.88
442.707	772.88
442.928	688.88
443.149	705.88
443.371	725.88
443.592	797.88
443.813	888.88
444.034	971.88
444.255	796.88
444.476	721.88
444.698	718.88
444.919	713.88
445.14	816.88
445.361	750.88
445.582	740.88
445.803	811.88
446.024	976.88
446.245	969.88
446.466	868.88
446.687	734.88
446.908	708.88
447.129	658.88
447.35	635.88
447.571	629.88
447.792	604.88
448.013	622.88
448.234	649.88
448.455	718.88
448.675	868.88
448.896	993.88
449.117	857.88
449.338	784.88
449.559	931.88
449.779	1078.88
450	850.88
450.221	712.88
450.442	636.88
450.662	621.88
450.883	634.88
451.104	656.88
451.324	642.88
451.545	603.88
451.766	608.88
451.986	568.88
452.207	546.88
452.428	574.88
452.648	556.88
452.869	548.88
453.089	562.88
453.31	580.88
453.53	575.88
453.751	574.88
453.971	569.88
454.192	566.88
454.412	570.88
454.633	558.88
454.853	570.88
455.073	556.88
455.294	604.88
455.514	676.88
455.734	668.88
455.955	565.88
456.175	561.88
456.395	537.88
456.616	526.88
456.836	529.88
457.056	537.88
457.276	487.88
457.497	528.88
457.717	546.88
457.937	544.88
458.157	536.88
458.377	562.88
458.598	594.88
458.818	638.88
459.038	745.88
459.258	766.88
459.478	641.88
459.698	582.88
459.918	583.88
460.138	609.88
460.358	605.88
460.578	594.88
460.798	600.88
461.018	621.88
461.238	584.88
461.458	612.88
461.678	605.88
461.898	658.88
462.118	632.88
462.338	627.88
462.558	634.88
462.777	645.88
462.997	656.88
463.217	666.88
463.437	671.88
463.657	655.88
463.876	639.88
464.096	644.88
464.316	633.88
464.536	662.88
464.755	646.88
464.975	657.88
465.195	706.88
465.414	776.88
465.634	707.88
465.854	668.88
466.073	620.88
466.293	599.88
466.512	585.88
466.732	588.88
466.951	578.88
467.171	587.88
467.391	579.88
467.61	579.88
467.829	601.88
468.049	593.88
468.268	590.88
468.488	583.88
468.707	560.88
468.927	556.88
469.146	548.88
469.365	544.88
469.585	563.88
469.804	565.88
470.023	577.88
470.243	573.88
470.462	597.88
470.681	612.88
470.901	587.88
471.12	587.88
471.339	577.88
471.558	604.88
471.777	608.88
471.997	571.88
472.216	576.88
472.435	596.88
472.654	590.88
472.873	564.88
473.092	570.88
473.311	562.88
473.53	570.88
473.749	606.88
473.968	652.88
474.187	774.88
474.406	806.88
474.625	692.88
474.844	599.88
475.063	600.88
475.282	600.88
475.501	593.88
475.72	620.88
475.939	600.88
476.158	633.88
476.377	610.88
476.596	588.88
476.814	597.88
477.033	617.88
477.252	653.88
477.471	620.88
477.69	639.88
477.908	649.88
478.127	626.88
478.346	633.88
478.564	658.88
478.783	657.88
479.002	659.88
479.22	665.88
479.439	674.88
479.658	709.88
479.876	697.88
480.095	738.88
480.313	773.88
480.532	744.88
480.751	727.88
480.969	692.88
481.188	740.88
481.406	774.88
481.624	714.88
481.843	719.88
482.061	709.88
482.28	706.88
482.498	690.88
482.717	677.88
482.935	697.88
483.153	694.88
483.372	685.88
483.59	686.88
483.808	693.88
484.027	696.88
484.245	702.88
484.463	697.88
484.681	705.88
484.9	708.88
485.118	722.88
485.336	710.88
485.554	699.88
485.772	719.88
485.99	713.88
486.209	731.88
486.427	706.88
486.645	741.88
486.863	739.88
487.081	776.88
487.299	724.88
487.517	741.88
487.735	752.88
487.953	732.88
488.171	729.88
488.389	757.88
488.607	741.88
488.825	746.88
489.043	732.88
489.261	746.88
489.479	756.88
489.696	745.88
489.914	764.88
490.132	768.88
490.35	769.88
490.568	789.88
490.786	805.88
491.003	789.88
491.221	802.88
491.439	829.88
491.657	853.88
491.874	830.88
492.092	825.88
492.31	856.88
492.527	861.88
492.745	857.88
492.963	844.88
493.18	866.88
493.398	895.88
493.615	898.88
493.833	892.88
494.05	902.88
494.268	864.88
494.485	885.88
494.703	863.88
494.92	896.88
495.138	868.88
495.355	870.88
495.573	893.88
495.79	884.88
496.008	892.88
496.225	881.88
496.442	874.88
496.66	908.88
496.877	884.88
497.094	888.88
497.312	885.88
497.529	910.88
497.746	933.88
497.963	932.88
498.181	977.88
498.398	991.88
498.615	1024.88
498.832	1028.88
499.049	1033.88
499.267	1078.88
499.484	1088.88
499.701	1101.88
499.918	1139.88
500.135	1226.88
500.352	1257.88
500.569	1304.88
500.786	1281.88
501.003	1269.88
501.22	1254.88
501.437	1190.88
501.654	1178.88
