Data from 1988.PennyLincolnUp.Lamp.En5.5.200Scan.071819.P2_HRD10591_17-21-06-974.txt Node
Date: Thu Jul 18 17:21:06 EDT 2019
User: cochatt
Spectrometer: HR+D1059
Trigger mode: 1
Integration Time (sec): 1.000000E-1
Scans to average: 1
Electric dark correction enabled: true
Nonlinearity correction enabled: false
Boxcar width: 0
XAxis mode: Wavelengths
Number of Pixels in Spectrum: 2048
>>>>>Begin Spectral Data<<<<<
223.165	-24.75
223.4	-24.75
223.635	-24.75
223.869	-32.75
224.104	-20.75
224.338	-0.75
224.573	-19.75
224.808	-11.75
225.042	-12.75
225.277	-1.75
225.511	13.25
225.746	9.25
225.98	7.25
226.215	13.25
226.449	1.25
226.683	21.25
226.918	25.25
227.152	34.25
227.387	31.25
227.621	49.25
227.856	30.25
228.09	51.25
228.324	49.25
228.559	53.25
228.793	73.25
229.027	111.25
229.262	94.25
229.496	123.25
229.73	155.25
229.964	164.25
230.199	162.25
230.433	124.25
230.667	125.25
230.901	125.25
231.136	129.25
231.37	117.25
231.604	115.25
231.838	120.25
232.072	108.25
232.306	125.25
232.541	103.25
232.775	129.25
233.009	125.25
233.243	125.25
233.477	126.25
233.711	121.25
233.945	130.25
234.179	119.25
234.413	139.25
234.647	122.25
234.881	131.25
235.115	107.25
235.349	129.25
235.583	124.25
235.817	129.25
236.051	137.25
236.285	133.25
236.519	118.25
236.753	121.25
236.987	151.25
237.221	193.25
237.455	254.25
237.689	204.25
237.922	157.25
238.156	146.25
238.39	136.25
238.624	127.25
238.858	117.25
239.091	122.25
239.325	109.25
239.559	131.25
239.793	145.25
240.027	137.25
240.26	166.25
240.494	159.25
240.728	158.25
240.961	167.25
241.195	150.25
241.429	154.25
241.662	137.25
241.896	149.25
242.13	144.25
242.363	145.25
242.597	161.25
242.83	140.25
243.064	149.25
243.298	144.25
243.531	141.25
243.765	162.25
243.998	124.25
244.232	148.25
244.465	146.25
244.699	152.25
244.932	163.25
245.166	175.25
245.399	158.25
245.633	139.25
245.866	138.25
246.099	166.25
246.333	159.25
246.566	162.25
246.8	150.25
247.033	165.25
247.266	193.25
247.5	179.25
247.733	181.25
247.966	187.25
248.2	197.25
248.433	165.25
248.666	189.25
248.899	200.25
249.133	218.25
249.366	213.25
249.599	219.25
249.832	203.25
250.066	200.25
250.299	180.25
250.532	214.25
250.765	205.25
250.998	237.25
251.231	241.25
251.465	219.25
251.698	218.25
251.931	195.25
252.164	197.25
252.397	199.25
252.63	219.25
252.863	211.25
253.096	213.25
253.329	250.25
253.562	242.25
253.795	231.25
254.028	234.25
254.261	234.25
254.494	254.25
254.727	278.25
254.96	310.25
255.193	276.25
255.426	250.25
255.659	250.25
255.892	235.25
256.124	209.25
256.357	230.25
256.59	245.25
256.823	221.25
257.056	217.25
257.289	204.25
257.521	234.25
257.754	236.25
257.987	221.25
258.22	220.25
258.452	230.25
258.685	226.25
258.918	210.25
259.151	234.25
259.383	224.25
259.616	226.25
259.849	244.25
260.081	253.25
260.314	278.25
260.547	279.25
260.779	264.25
261.012	237.25
261.244	232.25
261.477	243.25
261.71	234.25
261.942	248.25
262.175	262.25
262.407	242.25
262.64	243.25
262.872	236.25
263.105	239.25
263.337	224.25
263.57	224.25
263.802	213.25
264.035	218.25
264.267	226.25
264.499	229.25
264.732	234.25
264.964	213.25
265.197	235.25
265.429	216.25
265.661	234.25
265.894	225.25
266.126	236.25
266.358	234.25
266.591	221.25
266.823	229.25
267.055	242.25
267.287	255.25
267.52	236.25
267.752	239.25
267.984	226.25
268.216	247.25
268.448	261.25
268.681	259.25
268.913	264.25
269.145	279.25
269.377	281.25
269.609	286.25
269.841	278.25
270.073	298.25
270.306	306.25
270.538	339.25
270.77	342.25
271.002	337.25
271.234	313.25
271.466	317.25
271.698	331.25
271.93	352.25
272.162	330.25
272.394	335.25
272.626	323.25
272.858	304.25
273.09	301.25
273.322	281.25
273.553	293.25
273.785	281.25
274.017	277.25
274.249	279.25
274.481	285.25
274.713	300.25
274.945	286.25
275.176	287.25
275.408	300.25
275.64	290.25
275.872	270.25
276.104	279.25
276.335	281.25
276.567	286.25
276.799	319.25
277.031	339.25
277.262	331.25
277.494	336.25
277.726	323.25
277.957	306.25
278.189	308.25
278.421	286.25
278.652	276.25
278.884	298.25
279.115	300.25
279.347	294.25
279.579	290.25
279.81	284.25
280.042	284.25
280.273	305.25
280.505	281.25
280.736	289.25
280.968	290.25
281.199	298.25
281.431	289.25
281.662	295.25
281.894	292.25
282.125	282.25
282.356	314.25
282.588	311.25
282.819	332.25
283.051	311.25
283.282	275.25
283.513	294.25
283.745	290.25
283.976	306.25
284.207	296.25
284.439	317.25
284.67	303.25
284.901	291.25
285.132	307.25
285.364	288.25
285.595	301.25
285.826	284.25
286.057	286.25
286.288	281.25
286.52	321.25
286.751	300.25
286.982	317.25
287.213	308.25
287.444	309.25
287.675	297.25
287.906	311.25
288.138	329.25
288.369	298.25
288.6	338.25
288.831	335.25
289.062	328.25
289.293	318.25
289.524	307.25
289.755	314.25
289.986	305.25
290.217	306.25
290.448	310.25
290.679	310.25
290.91	306.25
291.141	326.25
291.371	305.25
291.602	299.25
291.833	319.25
292.064	313.25
292.295	316.25
292.526	331.25
292.757	305.25
292.987	312.25
293.218	313.25
293.449	307.25
293.68	320.25
293.91	312.25
294.141	329.25
294.372	312.25
294.603	340.25
294.833	320.25
295.064	310.25
295.295	306.25
295.525	312.25
295.756	335.25
295.987	325.25
296.217	344.25
296.448	362.25
296.679	346.25
296.909	338.25
297.14	331.25
297.37	324.25
297.601	323.25
297.831	321.25
298.062	335.25
298.292	324.25
298.523	331.25
298.753	332.25
298.984	339.25
299.214	330.25
299.445	320.25
299.675	350.25
299.905	323.25
300.136	321.25
300.366	318.25
300.597	326.25
300.827	331.25
301.057	359.25
301.288	349.25
301.518	354.25
301.748	341.25
301.979	344.25
302.209	358.25
302.439	377.25
302.669	355.25
302.9	373.25
303.13	370.25
303.36	345.25
303.59	353.25
303.82	380.25
304.051	357.25
304.281	344.25
304.511	358.25
304.741	335.25
304.971	345.25
305.201	347.25
305.431	358.25
305.661	348.25
305.891	361.25
306.121	350.25
306.352	364.25
306.582	383.25
306.812	350.25
307.042	355.25
307.272	370.25
307.502	359.25
307.731	359.25
307.961	357.25
308.191	362.25
308.421	370.25
308.651	356.25
308.881	381.25
309.111	385.25
309.341	362.25
309.571	387.25
309.8	385.25
310.03	396.25
310.26	412.25
310.49	398.25
310.72	409.25
310.949	424.25
311.179	454.25
311.409	433.25
311.639	437.25
311.868	402.25
312.098	413.25
312.328	435.25
312.557	437.25
312.787	476.25
313.017	451.25
313.246	436.25
313.476	423.25
313.706	399.25
313.935	421.25
314.165	458.25
314.394	431.25
314.624	429.25
314.853	434.25
315.083	415.25
315.312	411.25
315.542	405.25
315.771	404.25
316.001	412.25
316.23	398.25
316.46	409.25
316.689	419.25
316.919	420.25
317.148	428.25
317.377	409.25
317.607	414.25
317.836	417.25
318.065	407.25
318.295	427.25
318.524	421.25
318.753	437.25
318.983	402.25
319.212	396.25
319.441	417.25
319.67	437.25
319.9	412.25
320.129	417.25
320.358	398.25
320.587	421.25
320.816	429.25
321.046	437.25
321.275	433.25
321.504	442.25
321.733	442.25
321.962	467.25
322.191	477.25
322.42	483.25
322.649	492.25
322.878	485.25
323.108	517.25
323.337	544.25
323.566	566.25
323.795	594.25
324.024	661.25
324.253	789.25
324.482	1141.25
324.71	1769.25
324.939	2697.25
325.168	2344.25
325.397	1155.25
325.626	749.25
325.855	637.25
326.084	592.25
326.313	549.25
326.542	550.25
326.77	637.25
326.999	738.25
327.228	1017.25
327.457	1580.25
327.686	1967.25
327.914	1314.25
328.143	808.25
328.372	709.25
328.6	655.25
328.829	648.25
329.058	655.25
329.287	659.25
329.515	619.25
329.744	538.25
329.972	558.25
330.201	553.25
330.43	598.25
330.658	614.25
330.887	688.25
331.115	673.25
331.344	588.25
331.572	537.25
331.801	523.25
332.03	549.25
332.258	534.25
332.486	488.25
332.715	507.25
332.943	486.25
333.172	515.25
333.4	503.25
333.629	516.25
333.857	532.25
334.085	528.25
334.314	525.25
334.542	525.25
334.771	530.25
334.999	547.25
335.227	523.25
335.455	516.25
335.684	474.25
335.912	501.25
336.14	486.25
336.369	510.25
336.597	499.25
336.825	506.25
337.053	492.25
337.281	485.25
337.51	488.25
337.738	503.25
337.966	485.25
338.194	486.25
338.422	497.25
338.65	491.25
338.878	481.25
339.106	492.25
339.334	482.25
339.562	489.25
339.79	493.25
340.018	471.25
340.246	490.25
340.474	475.25
340.702	485.25
340.93	454.25
341.158	480.25
341.386	481.25
341.614	505.25
341.842	474.25
342.07	464.25
342.298	474.25
342.526	469.25
342.754	456.25
342.981	457.25
343.209	474.25
343.437	460.25
343.665	459.25
343.893	482.25
344.12	482.25
344.348	507.25
344.576	499.25
344.804	486.25
345.031	512.25
345.259	506.25
345.487	499.25
345.714	474.25
345.942	479.25
346.17	493.25
346.397	471.25
346.625	487.25
346.853	480.25
347.08	459.25
347.308	472.25
347.535	463.25
347.763	465.25
347.99	466.25
348.218	485.25
348.445	489.25
348.673	493.25
348.9	483.25
349.128	462.25
349.355	446.25
349.583	436.25
349.81	461.25
350.037	466.25
350.265	449.25
350.492	453.25
350.72	445.25
350.947	472.25
351.174	466.25
351.402	483.25
351.629	463.25
351.856	461.25
352.083	486.25
352.311	478.25
352.538	524.25
352.765	500.25
352.992	484.25
353.22	468.25
353.447	466.25
353.674	460.25
353.901	458.25
354.128	453.25
354.355	441.25
354.583	463.25
354.81	431.25
355.037	434.25
355.264	430.25
355.491	457.25
355.718	447.25
355.945	426.25
356.172	430.25
356.399	440.25
356.626	414.25
356.853	417.25
357.08	433.25
357.307	430.25
357.534	427.25
357.761	430.25
357.988	450.25
358.215	405.25
358.441	439.25
358.668	453.25
358.895	469.25
359.122	453.25
359.349	459.25
359.576	469.25
359.802	484.25
360.029	522.25
360.256	539.25
360.483	519.25
360.709	479.25
360.936	467.25
361.163	458.25
361.39	486.25
361.616	491.25
361.843	471.25
362.07	496.25
362.296	449.25
362.523	471.25
362.749	463.25
362.976	486.25
363.203	462.25
363.429	460.25
363.656	465.25
363.882	466.25
364.109	451.25
364.335	468.25
364.562	445.25
364.788	451.25
365.015	464.25
365.241	475.25
365.468	438.25
365.694	434.25
365.92	477.25
366.147	454.25
366.373	446.25
366.599	445.25
366.826	423.25
367.052	437.25
367.278	440.25
367.505	449.25
367.731	474.25
367.957	455.25
368.184	454.25
368.41	458.25
368.636	462.25
368.862	499.25
369.089	450.25
369.315	444.25
369.541	451.25
369.767	437.25
369.993	459.25
370.219	458.25
370.445	458.25
370.672	426.25
370.898	461.25
371.124	430.25
371.35	459.25
371.576	463.25
371.802	469.25
372.028	433.25
372.254	433.25
372.48	447.25
372.706	461.25
372.932	438.25
373.158	471.25
373.384	469.25
373.61	446.25
373.835	445.25
374.061	469.25
374.287	453.25
374.513	451.25
374.739	442.25
374.965	450.25
375.191	463.25
375.416	454.25
375.642	452.25
375.868	438.25
376.094	441.25
376.319	456.25
376.545	471.25
376.771	437.25
376.997	441.25
377.222	433.25
377.448	451.25
377.674	468.25
377.899	444.25
378.125	447.25
378.35	437.25
378.576	451.25
378.802	442.25
379.027	461.25
379.253	454.25
379.478	437.25
379.704	452.25
379.929	457.25
380.155	441.25
380.38	455.25
380.606	439.25
380.831	465.25
381.057	446.25
381.282	467.25
381.507	449.25
381.733	445.25
381.958	463.25
382.184	471.25
382.409	449.25
382.634	461.25
382.86	460.25
383.085	475.25
383.31	479.25
383.535	473.25
383.761	474.25
383.986	484.25
384.211	494.25
384.436	484.25
384.662	494.25
384.887	479.25
385.112	488.25
385.337	486.25
385.562	505.25
385.787	535.25
386.013	510.25
386.238	502.25
386.463	517.25
386.688	476.25
386.913	504.25
387.138	504.25
387.363	514.25
387.588	503.25
387.813	489.25
388.038	515.25
388.263	498.25
388.488	505.25
388.713	504.25
388.938	504.25
389.163	517.25
389.387	508.25
389.612	516.25
389.837	506.25
390.062	493.25
390.287	494.25
390.512	500.25
390.736	502.25
390.961	487.25
391.186	504.25
391.411	488.25
391.636	511.25
391.86	507.25
392.085	502.25
392.31	538.25
392.534	535.25
392.759	528.25
392.984	526.25
393.208	531.25
393.433	515.25
393.658	507.25
393.882	497.25
394.107	526.25
394.331	517.25
394.556	502.25
394.78	509.25
395.005	534.25
395.229	520.25
395.454	519.25
395.678	515.25
395.903	556.25
396.127	557.25
396.352	565.25
396.576	543.25
396.801	523.25
397.025	522.25
397.249	533.25
397.474	549.25
397.698	517.25
397.922	552.25
398.147	581.25
398.371	592.25
398.595	556.25
398.82	570.25
399.044	594.25
399.268	595.25
399.492	619.25
399.717	643.25
399.941	690.25
400.165	711.25
400.389	751.25
400.613	687.25
400.837	623.25
401.062	610.25
401.286	615.25
401.51	578.25
401.734	603.25
401.958	586.25
402.182	597.25
402.406	607.25
402.63	603.25
402.854	602.25
403.078	621.25
403.302	604.25
403.526	618.25
403.75	619.25
403.974	615.25
404.198	613.25
404.422	613.25
404.645	620.25
404.869	635.25
405.093	649.25
405.317	681.25
405.541	734.25
405.765	651.25
405.988	652.25
406.212	637.25
406.436	653.25
406.66	660.25
406.883	643.25
407.107	688.25
407.331	732.25
407.555	793.25
407.778	837.25
408.002	751.25
408.226	701.25
408.449	683.25
408.673	672.25
408.896	702.25
409.12	753.25
409.344	714.25
409.567	663.25
409.791	633.25
410.014	621.25
410.238	638.25
410.461	614.25
410.685	623.25
410.908	631.25
411.132	684.25
411.355	719.25
411.578	700.25
411.802	627.25
412.025	595.25
412.249	609.25
412.472	625.25
412.695	639.25
412.919	643.25
413.142	593.25
413.365	581.25
413.589	585.25
413.812	597.25
414.035	587.25
414.258	585.25
414.482	565.25
414.705	553.25
414.928	571.25
415.151	591.25
415.374	589.25
415.597	563.25
415.821	575.25
416.044	599.25
416.267	612.25
416.49	601.25
416.713	577.25
416.936	592.25
417.159	579.25
417.382	595.25
417.605	600.25
417.828	582.25
418.051	633.25
418.274	606.25
418.497	577.25
418.72	582.25
418.943	581.25
419.166	599.25
419.389	633.25
419.611	619.25
419.834	619.25
420.057	610.25
420.28	611.25
420.503	586.25
420.726	597.25
420.948	598.25
421.171	674.25
421.394	728.25
421.617	641.25
421.839	598.25
422.062	629.25
422.285	595.25
422.507	683.25
422.73	793.25
422.953	770.25
423.175	643.25
423.398	646.25
423.621	623.25
423.843	641.25
424.066	649.25
424.288	643.25
424.511	670.25
424.733	734.25
424.956	826.25
425.178	805.25
425.401	781.25
425.623	810.25
425.846	706.25
426.068	638.25
426.291	635.25
426.513	662.25
426.735	653.25
426.958	710.25
427.18	813.25
427.402	984.25
427.625	1069.25
427.847	938.25
428.069	782.25
428.292	706.25
428.514	629.25
428.736	636.25
428.958	622.25
429.181	609.25
429.403	609.25
429.625	629.25
429.847	669.25
430.069	737.25
430.292	740.25
430.514	649.25
430.736	611.25
430.958	614.25
431.18	577.25
431.402	582.25
431.624	552.25
431.846	570.25
432.068	541.25
432.29	570.25
432.512	548.25
432.734	585.25
432.956	593.25
433.178	597.25
433.4	583.25
433.622	575.25
433.844	581.25
434.066	591.25
434.287	590.25
434.509	603.25
434.731	578.25
434.953	608.25
435.175	630.25
435.397	650.25
435.618	646.25
435.84	709.25
436.062	845.25
436.284	883.25
436.505	761.25
436.727	678.25
436.949	625.25
437.17	629.25
437.392	579.25
437.614	635.25
437.835	666.25
438.057	791.25
438.278	894.25
438.5	899.25
438.721	990.25
438.943	965.25
439.165	763.25
439.386	662.25
439.608	656.25
439.829	673.25
440.05	702.25
440.272	726.25
440.493	711.25
440.715	648.25
440.936	633.25
441.158	605.25
441.379	605.25
441.6	621.25
441.822	662.25
442.043	695.25
442.264	797.25
442.486	872.25
442.707	724.25
442.928	656.25
443.149	675.25
443.371	728.25
443.592	750.25
443.813	873.25
444.034	928.25
444.255	769.25
444.476	686.25
444.698	661.25
444.919	661.25
445.14	772.25
445.361	727.25
445.582	702.25
445.803	795.25
446.024	901.25
446.245	919.25
446.466	829.25
446.687	708.25
446.908	658.25
447.129	645.25
447.35	613.25
447.571	602.25
447.792	599.25
448.013	620.25
448.234	633.25
448.455	675.25
448.675	799.25
448.896	946.25
449.117	812.25
449.338	769.25
449.559	893.25
449.779	1033.25
450	806.25
450.221	687.25
450.442	630.25
450.662	600.25
450.883	582.25
451.104	618.25
451.324	615.25
451.545	570.25
451.766	567.25
451.986	536.25
452.207	541.25
452.428	537.25
452.648	549.25
452.869	534.25
453.089	566.25
453.31	579.25
453.53	555.25
453.751	531.25
453.971	522.25
454.192	561.25
454.412	552.25
454.633	556.25
454.853	532.25
455.073	536.25
455.294	598.25
455.514	665.25
455.734	653.25
455.955	571.25
456.175	521.25
456.395	517.25
456.616	505.25
456.836	506.25
457.056	512.25
457.276	494.25
457.497	511.25
457.717	506.25
457.937	531.25
458.157	543.25
458.377	519.25
458.598	577.25
458.818	637.25
459.038	713.25
459.258	743.25
459.478	629.25
459.698	583.25
459.918	585.25
460.138	580.25
460.358	585.25
460.578	586.25
460.798	582.25
461.018	582.25
461.238	593.25
461.458	590.25
461.678	589.25
461.898	577.25
462.118	571.25
462.338	601.25
462.558	602.25
462.777	612.25
462.997	618.25
463.217	650.25
463.437	621.25
463.657	621.25
463.876	631.25
464.096	619.25
464.316	617.25
464.536	639.25
464.755	651.25
464.975	629.25
465.195	669.25
465.414	775.25
465.634	663.25
465.854	627.25
466.073	613.25
466.293	586.25
466.512	595.25
466.732	584.25
466.951	573.25
467.171	556.25
467.391	578.25
467.61	571.25
467.829	571.25
468.049	569.25
468.268	561.25
468.488	556.25
468.707	542.25
468.927	549.25
469.146	518.25
469.365	541.25
469.585	557.25
469.804	535.25
470.023	577.25
470.243	570.25
470.462	545.25
470.681	581.25
470.901	603.25
471.12	555.25
471.339	569.25
471.558	569.25
471.777	571.25
471.997	569.25
472.216	542.25
472.435	573.25
472.654	577.25
472.873	581.25
473.092	554.25
473.311	548.25
473.53	549.25
473.749	580.25
473.968	615.25
474.187	730.25
474.406	773.25
474.625	612.25
474.844	588.25
475.063	579.25
475.282	567.25
475.501	569.25
475.72	585.25
475.939	580.25
476.158	580.25
476.377	591.25
476.596	561.25
476.814	579.25
477.033	596.25
477.252	595.25
477.471	623.25
477.69	620.25
477.908	600.25
478.127	634.25
478.346	615.25
478.564	644.25
478.783	624.25
479.002	619.25
479.22	653.25
479.439	664.25
479.658	694.25
479.876	693.25
480.095	704.25
480.313	732.25
480.532	677.25
480.751	699.25
480.969	697.25
481.188	714.25
481.406	734.25
481.624	710.25
481.843	674.25
482.061	669.25
482.28	683.25
482.498	635.25
482.717	673.25
482.935	649.25
483.153	655.25
483.372	660.25
483.59	681.25
483.808	645.25
484.027	667.25
484.245	695.25
484.463	654.25
484.681	692.25
484.9	662.25
485.118	670.25
485.336	670.25
485.554	696.25
485.772	686.25
485.99	675.25
486.209	683.25
486.427	697.25
486.645	706.25
486.863	715.25
487.081	721.25
487.299	723.25
487.517	684.25
487.735	702.25
487.953	714.25
488.171	722.25
488.389	717.25
488.607	721.25
488.825	722.25
489.043	705.25
489.261	707.25
489.479	741.25
489.696	753.25
489.914	751.25
490.132	747.25
490.35	735.25
490.568	756.25
490.786	771.25
491.003	766.25
491.221	777.25
491.439	805.25
491.657	806.25
491.874	809.25
492.092	800.25
492.31	794.25
492.527	812.25
492.745	851.25
492.963	817.25
493.18	842.25
493.398	846.25
493.615	849.25
493.833	860.25
494.05	862.25
494.268	826.25
494.485	846.25
494.703	827.25
494.92	833.25
495.138	859.25
495.355	833.25
495.573	852.25
495.79	851.25
496.008	848.25
496.225	850.25
496.442	851.25
496.66	856.25
496.877	843.25
497.094	871.25
497.312	877.25
497.529	873.25
497.746	925.25
497.963	892.25
498.181	955.25
498.398	956.25
498.615	968.25
498.832	997.25
499.049	981.25
499.267	1002.25
499.484	1008.25
499.701	1079.25
499.918	1126.25
500.135	1155.25
500.352	1205.25
500.569	1226.25
500.786	1224.25
501.003	1205.25
501.22	1176.25
501.437	1127.25
501.654	1107.25
