Data from 1988.PennyLincolnUp.Lamp.En5.5.200Scan.071819.P2_HRD10591_17-19-14-971.txt Node
Date: Thu Jul 18 17:19:14 EDT 2019
User: cochatt
Spectrometer: HR+D1059
Trigger mode: 1
Integration Time (sec): 1.000000E-1
Scans to average: 1
Electric dark correction enabled: true
Nonlinearity correction enabled: false
Boxcar width: 0
XAxis mode: Wavelengths
Number of Pixels in Spectrum: 2048
>>>>>Begin Spectral Data<<<<<
223.165	-25.81
223.4	-25.81
223.635	-25.81
223.869	-16.81
224.104	-17.81
224.338	-17.81
224.573	-7.81
224.808	-14.81
225.042	-4.81
225.277	6.19
225.511	-11.81
225.746	15.19
225.98	-7.81
226.215	20.19
226.449	19.19
226.683	16.19
226.918	13.19
227.152	35.19
227.387	34.19
227.621	29.19
227.856	41.19
228.09	56.19
228.324	57.19
228.559	44.19
228.793	72.19
229.027	104.19
229.262	123.19
229.496	122.19
229.73	141.19
229.964	165.19
230.199	146.19
230.433	121.19
230.667	117.19
230.901	108.19
231.136	122.19
231.37	121.19
231.604	111.19
231.838	102.19
232.072	113.19
232.306	118.19
232.541	117.19
232.775	130.19
233.009	119.19
233.243	125.19
233.477	115.19
233.711	115.19
233.945	126.19
234.179	123.19
234.413	129.19
234.647	111.19
234.881	117.19
235.115	108.19
235.349	104.19
235.583	114.19
235.817	118.19
236.051	132.19
236.285	142.19
236.519	130.19
236.753	142.19
236.987	141.19
237.221	193.19
237.455	237.19
237.689	182.19
237.922	159.19
238.156	131.19
238.39	132.19
238.624	125.19
238.858	117.19
239.091	125.19
239.325	136.19
239.559	136.19
239.793	133.19
240.027	137.19
240.26	154.19
240.494	164.19
240.728	144.19
240.961	141.19
241.195	145.19
241.429	152.19
241.662	137.19
241.896	121.19
242.13	139.19
242.363	138.19
242.597	145.19
242.83	145.19
243.064	146.19
243.298	137.19
243.531	143.19
243.765	129.19
243.998	149.19
244.232	149.19
244.465	153.19
244.699	164.19
244.932	142.19
245.166	142.19
245.399	161.19
245.633	151.19
245.866	155.19
246.099	164.19
246.333	150.19
246.566	131.19
246.8	150.19
247.033	166.19
247.266	168.19
247.5	157.19
247.733	158.19
247.966	177.19
248.2	172.19
248.433	177.19
248.666	173.19
248.899	181.19
249.133	190.19
249.366	216.19
249.599	201.19
249.832	171.19
250.066	184.19
250.299	185.19
250.532	190.19
250.765	196.19
250.998	217.19
251.231	214.19
251.465	214.19
251.698	199.19
251.931	197.19
252.164	199.19
252.397	207.19
252.63	186.19
252.863	193.19
253.096	211.19
253.329	234.19
253.562	231.19
253.795	218.19
254.028	214.19
254.261	213.19
254.494	223.19
254.727	243.19
254.96	285.19
255.193	270.19
255.426	238.19
255.659	241.19
255.892	218.19
256.124	229.19
256.357	201.19
256.59	213.19
256.823	211.19
257.056	202.19
257.289	226.19
257.521	221.19
257.754	212.19
257.987	206.19
258.22	213.19
258.452	197.19
258.685	203.19
258.918	204.19
259.151	214.19
259.383	217.19
259.616	218.19
259.849	242.19
260.081	245.19
260.314	254.19
260.547	257.19
260.779	241.19
261.012	236.19
261.244	234.19
261.477	236.19
261.71	218.19
261.942	225.19
262.175	238.19
262.407	234.19
262.64	231.19
262.872	235.19
263.105	210.19
263.337	225.19
263.57	225.19
263.802	202.19
264.035	214.19
264.267	202.19
264.499	218.19
264.732	224.19
264.964	214.19
265.197	218.19
265.429	224.19
265.661	209.19
265.894	215.19
266.126	230.19
266.358	229.19
266.591	218.19
266.823	227.19
267.055	246.19
267.287	230.19
267.52	241.19
267.752	228.19
267.984	225.19
268.216	236.19
268.448	250.19
268.681	234.19
268.913	265.19
269.145	270.19
269.377	282.19
269.609	293.19
269.841	276.19
270.073	279.19
270.306	307.19
270.538	321.19
270.77	310.19
271.002	306.19
271.234	311.19
271.466	314.19
271.698	307.19
271.93	316.19
272.162	315.19
272.394	326.19
272.626	313.19
272.858	314.19
273.09	267.19
273.322	263.19
273.553	265.19
273.785	274.19
274.017	267.19
274.249	266.19
274.481	259.19
274.713	267.19
274.945	268.19
275.176	270.19
275.408	282.19
275.64	282.19
275.872	279.19
276.104	281.19
276.335	257.19
276.567	264.19
276.799	305.19
277.031	313.19
277.262	321.19
277.494	322.19
277.726	313.19
277.957	289.19
278.189	298.19
278.421	279.19
278.652	298.19
278.884	282.19
279.115	273.19
279.347	263.19
279.579	261.19
279.81	269.19
280.042	267.19
280.273	277.19
280.505	289.19
280.736	281.19
280.968	280.19
281.199	265.19
281.431	269.19
281.662	279.19
281.894	296.19
282.125	285.19
282.356	294.19
282.588	319.19
282.819	312.19
283.051	284.19
283.282	297.19
283.513	291.19
283.745	279.19
283.976	270.19
284.207	293.19
284.439	289.19
284.67	298.19
284.901	302.19
285.132	285.19
285.364	270.19
285.595	288.19
285.826	258.19
286.057	287.19
286.288	297.19
286.52	289.19
286.751	279.19
286.982	293.19
287.213	293.19
287.444	300.19
287.675	301.19
287.906	313.19
288.138	315.19
288.369	313.19
288.6	309.19
288.831	321.19
289.062	289.19
289.293	316.19
289.524	313.19
289.755	301.19
289.986	316.19
290.217	290.19
290.448	295.19
290.679	295.19
290.91	301.19
291.141	305.19
291.371	309.19
291.602	302.19
291.833	307.19
292.064	294.19
292.295	297.19
292.526	292.19
292.757	325.19
292.987	318.19
293.218	310.19
293.449	325.19
293.68	293.19
293.91	304.19
294.141	282.19
294.372	298.19
294.603	305.19
294.833	311.19
295.064	325.19
295.295	317.19
295.525	314.19
295.756	308.19
295.987	305.19
296.217	335.19
296.448	357.19
296.679	330.19
296.909	314.19
297.14	318.19
297.37	337.19
297.601	321.19
297.831	327.19
298.062	325.19
298.292	313.19
298.523	308.19
298.753	307.19
298.984	335.19
299.214	302.19
299.445	322.19
299.675	333.19
299.905	343.19
300.136	322.19
300.366	334.19
300.597	342.19
300.827	338.19
301.057	333.19
301.288	359.19
301.518	350.19
301.748	343.19
301.979	341.19
302.209	329.19
302.439	349.19
302.669	328.19
302.9	343.19
303.13	357.19
303.36	349.19
303.59	353.19
303.82	358.19
304.051	349.19
304.281	349.19
304.511	343.19
304.741	351.19
304.971	349.19
305.201	332.19
305.431	344.19
305.661	345.19
305.891	357.19
306.121	337.19
306.352	339.19
306.582	354.19
306.812	328.19
307.042	348.19
307.272	358.19
307.502	330.19
307.731	359.19
307.961	359.19
308.191	347.19
308.421	338.19
308.651	351.19
308.881	354.19
309.111	357.19
309.341	376.19
309.571	395.19
309.8	389.19
310.03	391.19
310.26	407.19
310.49	418.19
310.72	400.19
310.949	413.19
311.179	442.19
311.409	391.19
311.639	389.19
311.868	404.19
312.098	406.19
312.328	391.19
312.557	417.19
312.787	418.19
313.017	406.19
313.246	417.19
313.476	383.19
313.706	391.19
313.935	403.19
314.165	420.19
314.394	439.19
314.624	430.19
314.853	397.19
315.083	430.19
315.312	403.19
315.542	390.19
315.771	397.19
316.001	368.19
316.23	382.19
316.46	397.19
316.689	414.19
316.919	424.19
317.148	415.19
317.377	404.19
317.607	417.19
317.836	421.19
318.065	398.19
318.295	414.19
318.524	407.19
318.753	407.19
318.983	403.19
319.212	402.19
319.441	410.19
319.67	416.19
319.9	423.19
320.129	402.19
320.358	405.19
320.587	411.19
320.816	422.19
321.046	425.19
321.275	436.19
321.504	405.19
321.733	440.19
321.962	455.19
322.191	455.19
322.42	472.19
322.649	453.19
322.878	466.19
323.108	483.19
323.337	523.19
323.566	516.19
323.795	575.19
324.024	625.19
324.253	742.19
324.482	1067.19
324.71	1620.19
324.939	2402.19
325.168	2082.19
325.397	1070.19
325.626	711.19
325.855	613.19
326.084	557.19
326.313	551.19
326.542	559.19
326.77	587.19
326.999	705.19
327.228	980.19
327.457	1491.19
327.686	1781.19
327.914	1161.19
328.143	761.19
328.372	657.19
328.6	594.19
328.829	603.19
329.058	601.19
329.287	623.19
329.515	580.19
329.744	536.19
329.972	509.19
330.201	551.19
330.43	576.19
330.658	590.19
330.887	630.19
331.115	642.19
331.344	575.19
331.572	508.19
331.801	528.19
332.03	523.19
332.258	479.19
332.486	471.19
332.715	461.19
332.943	499.19
333.172	481.19
333.4	489.19
333.629	505.19
333.857	490.19
334.085	490.19
334.314	484.19
334.542	501.19
334.771	493.19
334.999	495.19
335.227	493.19
335.455	513.19
335.684	475.19
335.912	481.19
336.14	468.19
336.369	473.19
336.597	486.19
336.825	476.19
337.053	484.19
337.281	490.19
337.51	485.19
337.738	477.19
337.966	466.19
338.194	466.19
338.422	467.19
338.65	477.19
338.878	483.19
339.106	458.19
339.334	458.19
339.562	445.19
339.79	430.19
340.018	447.19
340.246	460.19
340.474	469.19
340.702	475.19
340.93	466.19
341.158	453.19
341.386	449.19
341.614	444.19
341.842	450.19
342.07	460.19
342.298	475.19
342.526	437.19
342.754	456.19
342.981	442.19
343.209	434.19
343.437	455.19
343.665	435.19
343.893	472.19
344.12	467.19
344.348	492.19
344.576	475.19
344.804	460.19
345.031	488.19
345.259	491.19
345.487	493.19
345.714	469.19
345.942	460.19
346.17	456.19
346.397	463.19
346.625	453.19
346.853	448.19
347.08	425.19
347.308	451.19
347.535	452.19
347.763	461.19
347.99	456.19
348.218	465.19
348.445	455.19
348.673	469.19
348.9	478.19
349.128	434.19
349.355	420.19
349.583	435.19
349.81	430.19
350.037	432.19
350.265	444.19
350.492	431.19
350.72	439.19
350.947	446.19
351.174	433.19
351.402	458.19
351.629	465.19
351.856	441.19
352.083	461.19
352.311	473.19
352.538	469.19
352.765	484.19
352.992	453.19
353.22	453.19
353.447	446.19
353.674	439.19
353.901	418.19
354.128	428.19
354.355	416.19
354.583	411.19
354.81	431.19
355.037	418.19
355.264	419.19
355.491	417.19
355.718	400.19
355.945	404.19
356.172	415.19
356.399	424.19
356.626	394.19
356.853	406.19
357.08	399.19
357.307	407.19
357.534	395.19
357.761	440.19
357.988	445.19
358.215	411.19
358.441	427.19
358.668	407.19
358.895	422.19
359.122	435.19
359.349	446.19
359.576	437.19
359.802	468.19
360.029	494.19
360.256	507.19
360.483	484.19
360.709	452.19
360.936	457.19
361.163	441.19
361.39	433.19
361.616	451.19
361.843	430.19
362.07	433.19
362.296	448.19
362.523	440.19
362.749	451.19
362.976	461.19
363.203	442.19
363.429	426.19
363.656	429.19
363.882	415.19
364.109	399.19
364.335	428.19
364.562	439.19
364.788	437.19
365.015	433.19
365.241	418.19
365.468	406.19
365.694	435.19
365.92	433.19
366.147	447.19
366.373	435.19
366.599	417.19
366.826	425.19
367.052	412.19
367.278	439.19
367.505	431.19
367.731	439.19
367.957	439.19
368.184	431.19
368.41	411.19
368.636	441.19
368.862	461.19
369.089	450.19
369.315	430.19
369.541	425.19
369.767	423.19
369.993	427.19
370.219	412.19
370.445	423.19
370.672	408.19
370.898	429.19
371.124	426.19
371.35	445.19
371.576	442.19
371.802	413.19
372.028	427.19
372.254	440.19
372.48	437.19
372.706	423.19
372.932	415.19
373.158	439.19
373.384	443.19
373.61	435.19
373.835	447.19
374.061	434.19
374.287	407.19
374.513	431.19
374.739	448.19
374.965	441.19
375.191	454.19
375.416	408.19
375.642	437.19
375.868	444.19
376.094	450.19
376.319	439.19
376.545	428.19
376.771	438.19
376.997	410.19
377.222	429.19
377.448	435.19
377.674	425.19
377.899	431.19
378.125	423.19
378.35	421.19
378.576	393.19
378.802	419.19
379.027	436.19
379.253	441.19
379.478	423.19
379.704	440.19
379.929	422.19
380.155	427.19
380.38	408.19
380.606	426.19
380.831	391.19
381.057	419.19
381.282	430.19
381.507	431.19
381.733	427.19
381.958	413.19
382.184	445.19
382.409	458.19
382.634	436.19
382.86	456.19
383.085	448.19
383.31	429.19
383.535	449.19
383.761	461.19
383.986	453.19
384.211	461.19
384.436	435.19
384.662	455.19
384.887	452.19
385.112	447.19
385.337	458.19
385.562	471.19
385.787	462.19
386.013	489.19
386.238	482.19
386.463	488.19
386.688	472.19
386.913	481.19
387.138	474.19
387.363	484.19
387.588	462.19
387.813	475.19
388.038	475.19
388.263	458.19
388.488	479.19
388.713	467.19
388.938	463.19
389.163	475.19
389.387	468.19
389.612	461.19
389.837	455.19
390.062	459.19
390.287	456.19
390.512	472.19
390.736	487.19
390.961	467.19
391.186	476.19
391.411	489.19
391.636	487.19
391.86	495.19
392.085	473.19
392.31	489.19
392.534	503.19
392.759	501.19
392.984	485.19
393.208	482.19
393.433	485.19
393.658	479.19
393.882	452.19
394.107	465.19
394.331	487.19
394.556	469.19
394.78	460.19
395.005	486.19
395.229	483.19
395.454	498.19
395.678	493.19
395.903	497.19
396.127	536.19
396.352	555.19
396.576	522.19
396.801	507.19
397.025	512.19
397.249	490.19
397.474	499.19
397.698	500.19
397.922	511.19
398.147	544.19
398.371	559.19
398.595	534.19
398.82	536.19
399.044	566.19
399.268	557.19
399.492	604.19
399.717	605.19
399.941	656.19
400.165	695.19
400.389	687.19
400.613	621.19
400.837	572.19
401.062	564.19
401.286	563.19
401.51	534.19
401.734	555.19
401.958	529.19
402.182	557.19
402.406	575.19
402.63	549.19
402.854	546.19
403.078	524.19
403.302	555.19
403.526	551.19
403.75	545.19
403.974	571.19
404.198	543.19
404.422	548.19
404.645	563.19
404.869	556.19
405.093	587.19
405.317	598.19
405.541	615.19
405.765	614.19
405.988	580.19
406.212	633.19
406.436	627.19
406.66	623.19
406.883	601.19
407.107	625.19
407.331	667.19
407.555	724.19
407.778	723.19
408.002	686.19
408.226	633.19
408.449	643.19
408.673	641.19
408.896	659.19
409.12	684.19
409.344	646.19
409.567	570.19
409.791	577.19
410.014	581.19
410.238	561.19
410.461	564.19
410.685	581.19
410.908	568.19
411.132	605.19
411.355	665.19
411.578	613.19
411.802	575.19
412.025	571.19
412.249	550.19
412.472	575.19
412.695	539.19
412.919	567.19
413.142	537.19
413.365	543.19
413.589	550.19
413.812	546.19
414.035	525.19
414.258	529.19
414.482	535.19
414.705	532.19
414.928	514.19
415.151	519.19
415.374	569.19
415.597	525.19
415.821	526.19
416.044	543.19
416.267	527.19
416.49	546.19
416.713	516.19
416.936	545.19
417.159	518.19
417.382	548.19
417.605	529.19
417.828	551.19
418.051	547.19
418.274	548.19
418.497	539.19
418.72	521.19
418.943	503.19
419.166	540.19
419.389	564.19
419.611	552.19
419.834	578.19
420.057	556.19
420.28	537.19
420.503	545.19
420.726	533.19
420.948	569.19
421.171	592.19
421.394	630.19
421.617	597.19
421.839	581.19
422.062	544.19
422.285	569.19
422.507	637.19
422.73	695.19
422.953	714.19
423.175	598.19
423.398	589.19
423.621	569.19
423.843	589.19
424.066	590.19
424.288	617.19
424.511	620.19
424.733	662.19
424.956	757.19
425.178	713.19
425.401	734.19
425.623	742.19
425.846	640.19
426.068	605.19
426.291	612.19
426.513	589.19
426.735	629.19
426.958	660.19
427.18	713.19
427.402	859.19
427.625	963.19
427.847	809.19
428.069	683.19
428.292	597.19
428.514	591.19
428.736	578.19
428.958	573.19
429.181	539.19
429.403	538.19
429.625	554.19
429.847	611.19
430.069	674.19
430.292	657.19
430.514	571.19
430.736	558.19
430.958	555.19
431.18	537.19
431.402	524.19
431.624	523.19
431.846	531.19
432.068	525.19
432.29	511.19
432.512	506.19
432.734	541.19
432.956	518.19
433.178	527.19
433.4	549.19
433.622	532.19
433.844	522.19
434.066	486.19
434.287	522.19
434.509	538.19
434.731	541.19
434.953	549.19
435.175	567.19
435.397	590.19
435.618	590.19
435.84	649.19
436.062	772.19
436.284	810.19
436.505	667.19
436.727	610.19
436.949	578.19
437.17	545.19
437.392	550.19
437.614	569.19
437.835	617.19
438.057	719.19
438.278	823.19
438.5	805.19
438.721	898.19
438.943	867.19
439.165	664.19
439.386	607.19
439.608	615.19
439.829	599.19
440.05	628.19
440.272	655.19
440.493	627.19
440.715	586.19
440.936	587.19
441.158	565.19
441.379	569.19
441.6	569.19
441.822	599.19
442.043	649.19
442.264	744.19
442.486	785.19
442.707	669.19
442.928	601.19
443.149	623.19
443.371	637.19
443.592	676.19
443.813	829.19
444.034	849.19
444.255	679.19
444.476	645.19
444.698	615.19
444.919	609.19
445.14	690.19
445.361	654.19
445.582	659.19
445.803	728.19
446.024	801.19
446.245	829.19
446.466	775.19
446.687	645.19
446.908	614.19
447.129	554.19
447.35	545.19
447.571	547.19
447.792	552.19
448.013	546.19
448.234	572.19
448.455	633.19
448.675	753.19
448.896	868.19
449.117	743.19
449.338	694.19
449.559	809.19
449.779	917.19
450	722.19
450.221	616.19
450.442	577.19
450.662	540.19
450.883	574.19
451.104	577.19
451.324	541.19
451.545	513.19
451.766	490.19
451.986	505.19
452.207	486.19
452.428	480.19
452.648	473.19
452.869	486.19
453.089	491.19
453.31	533.19
453.53	525.19
453.751	475.19
453.971	497.19
454.192	506.19
454.412	494.19
454.633	486.19
454.853	487.19
455.073	464.19
455.294	527.19
455.514	621.19
455.734	571.19
455.955	507.19
456.175	460.19
456.395	474.19
456.616	460.19
456.836	476.19
457.056	433.19
457.276	453.19
457.497	488.19
457.717	469.19
457.937	469.19
458.157	467.19
458.377	487.19
458.598	513.19
458.818	585.19
459.038	654.19
459.258	673.19
459.478	587.19
459.698	529.19
459.918	535.19
460.138	505.19
460.358	525.19
460.578	536.19
460.798	561.19
461.018	545.19
461.238	552.19
461.458	521.19
461.678	542.19
461.898	551.19
462.118	533.19
462.338	554.19
462.558	562.19
462.777	565.19
462.997	591.19
463.217	601.19
463.437	578.19
463.657	565.19
463.876	568.19
464.096	571.19
464.316	568.19
464.536	578.19
464.755	562.19
464.975	578.19
465.195	633.19
465.414	693.19
465.634	622.19
465.854	563.19
466.073	563.19
466.293	528.19
466.512	529.19
466.732	499.19
466.951	522.19
467.171	498.19
467.391	506.19
467.61	532.19
467.829	508.19
468.049	515.19
468.268	487.19
468.488	489.19
468.707	482.19
468.927	494.19
469.146	489.19
469.365	476.19
469.585	497.19
469.804	492.19
470.023	533.19
470.243	520.19
470.462	520.19
470.681	552.19
470.901	529.19
471.12	523.19
471.339	514.19
471.558	530.19
471.777	530.19
471.997	511.19
472.216	500.19
472.435	513.19
472.654	479.19
472.873	498.19
473.092	505.19
473.311	497.19
473.53	520.19
473.749	514.19
473.968	572.19
474.187	673.19
474.406	707.19
474.625	567.19
474.844	547.19
475.063	519.19
475.282	495.19
475.501	517.19
475.72	531.19
475.939	542.19
476.158	538.19
476.377	538.19
476.596	532.19
476.814	553.19
477.033	541.19
477.252	550.19
477.471	556.19
477.69	557.19
477.908	548.19
478.127	563.19
478.346	543.19
478.564	581.19
478.783	566.19
479.002	585.19
479.22	606.19
479.439	609.19
479.658	609.19
479.876	626.19
480.095	650.19
480.313	663.19
480.532	650.19
480.751	623.19
480.969	636.19
481.188	657.19
481.406	641.19
481.624	605.19
481.843	625.19
482.061	577.19
482.28	619.19
482.498	603.19
482.717	621.19
482.935	595.19
483.153	586.19
483.372	596.19
483.59	601.19
483.808	611.19
484.027	591.19
484.245	621.19
484.463	611.19
484.681	630.19
484.9	627.19
485.118	613.19
485.336	613.19
485.554	628.19
485.772	626.19
485.99	629.19
486.209	629.19
486.427	645.19
486.645	651.19
486.863	650.19
487.081	655.19
487.299	638.19
487.517	638.19
487.735	639.19
487.953	694.19
488.171	649.19
488.389	652.19
488.607	637.19
488.825	661.19
489.043	648.19
489.261	654.19
489.479	651.19
489.696	639.19
489.914	665.19
490.132	666.19
490.35	663.19
490.568	667.19
490.786	659.19
491.003	704.19
491.221	716.19
491.439	708.19
491.657	719.19
491.874	726.19
492.092	702.19
492.31	737.19
492.527	739.19
492.745	749.19
492.963	716.19
493.18	745.19
493.398	775.19
493.615	737.19
493.833	746.19
494.05	721.19
494.268	766.19
494.485	763.19
494.703	744.19
494.92	732.19
495.138	745.19
495.355	773.19
495.573	782.19
495.79	755.19
496.008	777.19
496.225	760.19
496.442	756.19
496.66	780.19
496.877	762.19
497.094	770.19
497.312	805.19
497.529	764.19
497.746	784.19
497.963	814.19
498.181	815.19
498.398	824.19
498.615	871.19
498.832	869.19
499.049	873.19
499.267	915.19
499.484	949.19
499.701	979.19
499.918	1000.19
500.135	1047.19
500.352	1081.19
500.569	1097.19
500.786	1109.19
501.003	1095.19
501.22	1094.19
501.437	1059.19
501.654	1015.19
