Data from 1988.PennyLincolnUp.Lamp.En5.5.200Scan.071819.P2_HRD10591_17-18-45-972.txt Node
Date: Thu Jul 18 17:18:45 EDT 2019
User: cochatt
Spectrometer: HR+D1059
Trigger mode: 1
Integration Time (sec): 1.000000E-1
Scans to average: 1
Electric dark correction enabled: true
Nonlinearity correction enabled: false
Boxcar width: 0
XAxis mode: Wavelengths
Number of Pixels in Spectrum: 2048
>>>>>Begin Spectral Data<<<<<
223.165	-18.25
223.4	-18.25
223.635	-18.25
223.869	-11.25
224.104	-8.25
224.338	-13.25
224.573	-13.25
224.808	-21.25
225.042	-16.25
225.277	4.75
225.511	1.75
225.746	-3.25
225.98	-0.25
226.215	-1.25
226.449	20.75
226.683	-1.25
226.918	35.75
227.152	44.75
227.387	30.75
227.621	37.75
227.856	37.75
228.09	47.75
228.324	40.75
228.559	49.75
228.793	71.75
229.027	105.75
229.262	106.75
229.496	113.75
229.73	125.75
229.964	142.75
230.199	117.75
230.433	115.75
230.667	120.75
230.901	108.75
231.136	97.75
231.37	106.75
231.604	124.75
231.838	119.75
232.072	121.75
232.306	109.75
232.541	118.75
232.775	103.75
233.009	103.75
233.243	116.75
233.477	116.75
233.711	123.75
233.945	109.75
234.179	111.75
234.413	112.75
234.647	113.75
234.881	99.75
235.115	113.75
235.349	117.75
235.583	115.75
235.817	104.75
236.051	131.75
236.285	115.75
236.519	107.75
236.753	131.75
236.987	141.75
237.221	186.75
237.455	225.75
237.689	166.75
237.922	144.75
238.156	116.75
238.39	123.75
238.624	111.75
238.858	107.75
239.091	123.75
239.325	111.75
239.559	129.75
239.793	124.75
240.027	138.75
240.26	137.75
240.494	141.75
240.728	143.75
240.961	151.75
241.195	135.75
241.429	145.75
241.662	147.75
241.896	133.75
242.13	132.75
242.363	136.75
242.597	123.75
242.83	124.75
243.064	124.75
243.298	130.75
243.531	124.75
243.765	142.75
243.998	127.75
244.232	134.75
244.465	130.75
244.699	131.75
244.932	139.75
245.166	148.75
245.399	158.75
245.633	124.75
245.866	135.75
246.099	139.75
246.333	141.75
246.566	136.75
246.8	139.75
247.033	152.75
247.266	141.75
247.5	154.75
247.733	157.75
247.966	183.75
248.2	167.75
248.433	166.75
248.666	163.75
248.899	165.75
249.133	189.75
249.366	203.75
249.599	181.75
249.832	175.75
250.066	177.75
250.299	171.75
250.532	169.75
250.765	172.75
250.998	189.75
251.231	204.75
251.465	208.75
251.698	184.75
251.931	185.75
252.164	178.75
252.397	198.75
252.63	199.75
252.863	186.75
253.096	220.75
253.329	202.75
253.562	194.75
253.795	193.75
254.028	208.75
254.261	203.75
254.494	213.75
254.727	219.75
254.96	261.75
255.193	243.75
255.426	232.75
255.659	215.75
255.892	218.75
256.124	215.75
256.357	223.75
256.59	212.75
256.823	210.75
257.056	203.75
257.289	194.75
257.521	196.75
257.754	202.75
257.987	199.75
258.22	207.75
258.452	179.75
258.685	198.75
258.918	195.75
259.151	198.75
259.383	198.75
259.616	208.75
259.849	216.75
260.081	207.75
260.314	229.75
260.547	225.75
260.779	231.75
261.012	209.75
261.244	221.75
261.477	220.75
261.71	204.75
261.942	227.75
262.175	241.75
262.407	221.75
262.64	208.75
262.872	201.75
263.105	202.75
263.337	202.75
263.57	216.75
263.802	198.75
264.035	178.75
264.267	207.75
264.499	204.75
264.732	199.75
264.964	189.75
265.197	212.75
265.429	189.75
265.661	201.75
265.894	216.75
266.126	212.75
266.358	212.75
266.591	205.75
266.823	200.75
267.055	220.75
267.287	221.75
267.52	217.75
267.752	211.75
267.984	234.75
268.216	204.75
268.448	204.75
268.681	226.75
268.913	243.75
269.145	243.75
269.377	267.75
269.609	259.75
269.841	256.75
270.073	235.75
270.306	267.75
270.538	284.75
270.77	290.75
271.002	293.75
271.234	282.75
271.466	291.75
271.698	286.75
271.93	312.75
272.162	320.75
272.394	317.75
272.626	292.75
272.858	265.75
273.09	264.75
273.322	247.75
273.553	245.75
273.785	263.75
274.017	257.75
274.249	239.75
274.481	261.75
274.713	245.75
274.945	264.75
275.176	247.75
275.408	259.75
275.64	241.75
275.872	243.75
276.104	245.75
276.335	251.75
276.567	264.75
276.799	280.75
277.031	288.75
277.262	303.75
277.494	297.75
277.726	285.75
277.957	284.75
278.189	252.75
278.421	263.75
278.652	253.75
278.884	260.75
279.115	262.75
279.347	277.75
279.579	251.75
279.81	256.75
280.042	271.75
280.273	252.75
280.505	257.75
280.736	245.75
280.968	259.75
281.199	269.75
281.431	255.75
281.662	269.75
281.894	262.75
282.125	252.75
282.356	287.75
282.588	278.75
282.819	281.75
283.051	273.75
283.282	274.75
283.513	270.75
283.745	264.75
283.976	255.75
284.207	267.75
284.439	264.75
284.67	272.75
284.901	273.75
285.132	251.75
285.364	273.75
285.595	274.75
285.826	259.75
286.057	260.75
286.288	266.75
286.52	288.75
286.751	272.75
286.982	280.75
287.213	253.75
287.444	261.75
287.675	298.75
287.906	283.75
288.138	290.75
288.369	298.75
288.6	281.75
288.831	292.75
289.062	290.75
289.293	283.75
289.524	275.75
289.755	277.75
289.986	282.75
290.217	283.75
290.448	279.75
290.679	266.75
290.91	268.75
291.141	275.75
291.371	303.75
291.602	275.75
291.833	291.75
292.064	276.75
292.295	285.75
292.526	288.75
292.757	287.75
292.987	300.75
293.218	273.75
293.449	283.75
293.68	269.75
293.91	273.75
294.141	281.75
294.372	291.75
294.603	307.75
294.833	300.75
295.064	299.75
295.295	309.75
295.525	292.75
295.756	279.75
295.987	297.75
296.217	313.75
296.448	321.75
296.679	299.75
296.909	289.75
297.14	314.75
297.37	296.75
297.601	324.75
297.831	295.75
298.062	312.75
298.292	281.75
298.523	301.75
298.753	306.75
298.984	309.75
299.214	308.75
299.445	306.75
299.675	316.75
299.905	306.75
300.136	317.75
300.366	319.75
300.597	315.75
300.827	327.75
301.057	320.75
301.288	319.75
301.518	302.75
301.748	325.75
301.979	295.75
302.209	312.75
302.439	329.75
302.669	323.75
302.9	329.75
303.13	326.75
303.36	311.75
303.59	322.75
303.82	307.75
304.051	326.75
304.281	336.75
304.511	334.75
304.741	332.75
304.971	345.75
305.201	344.75
305.431	315.75
305.661	317.75
305.891	329.75
306.121	319.75
306.352	319.75
306.582	337.75
306.812	341.75
307.042	314.75
307.272	341.75
307.502	324.75
307.731	347.75
307.961	319.75
308.191	336.75
308.421	336.75
308.651	319.75
308.881	345.75
309.111	353.75
309.341	346.75
309.571	356.75
309.8	353.75
310.03	363.75
310.26	355.75
310.49	344.75
310.72	379.75
310.949	377.75
311.179	384.75
311.409	374.75
311.639	373.75
311.868	372.75
312.098	377.75
312.328	396.75
312.557	386.75
312.787	397.75
313.017	393.75
313.246	386.75
313.476	388.75
313.706	356.75
313.935	387.75
314.165	407.75
314.394	399.75
314.624	391.75
314.853	376.75
315.083	375.75
315.312	376.75
315.542	384.75
315.771	377.75
316.001	365.75
316.23	359.75
316.46	363.75
316.689	377.75
316.919	377.75
317.148	380.75
317.377	385.75
317.607	373.75
317.836	387.75
318.065	376.75
318.295	359.75
318.524	391.75
318.753	347.75
318.983	373.75
319.212	389.75
319.441	403.75
319.67	397.75
319.9	381.75
320.129	385.75
320.358	397.75
320.587	376.75
320.816	387.75
321.046	402.75
321.275	405.75
321.504	387.75
321.733	385.75
321.962	418.75
322.191	423.75
322.42	421.75
322.649	430.75
322.878	443.75
323.108	439.75
323.337	456.75
323.566	456.75
323.795	510.75
324.024	553.75
324.253	660.75
324.482	905.75
324.71	1423.75
324.939	2107.75
325.168	1750.75
325.397	900.75
325.626	626.75
325.855	534.75
326.084	500.75
326.313	496.75
326.542	513.75
326.77	550.75
326.999	624.75
327.228	851.75
327.457	1285.75
327.686	1542.75
327.914	1034.75
328.143	668.75
328.372	588.75
328.6	553.75
328.829	540.75
329.058	529.75
329.287	553.75
329.515	545.75
329.744	471.75
329.972	469.75
330.201	493.75
330.43	499.75
330.658	519.75
330.887	560.75
331.115	575.75
331.344	497.75
331.572	472.75
331.801	474.75
332.03	474.75
332.258	468.75
332.486	455.75
332.715	441.75
332.943	448.75
333.172	439.75
333.4	470.75
333.629	459.75
333.857	450.75
334.085	445.75
334.314	454.75
334.542	463.75
334.771	494.75
334.999	453.75
335.227	457.75
335.455	463.75
335.684	454.75
335.912	464.75
336.14	447.75
336.369	455.75
336.597	457.75
336.825	458.75
337.053	451.75
337.281	422.75
337.51	419.75
337.738	441.75
337.966	435.75
338.194	446.75
338.422	462.75
338.65	429.75
338.878	427.75
339.106	440.75
339.334	429.75
339.562	427.75
339.79	411.75
340.018	417.75
340.246	427.75
340.474	442.75
340.702	436.75
340.93	454.75
341.158	422.75
341.386	433.75
341.614	445.75
341.842	441.75
342.07	431.75
342.298	443.75
342.526	410.75
342.754	415.75
342.981	415.75
343.209	420.75
343.437	438.75
343.665	431.75
343.893	452.75
344.12	423.75
344.348	421.75
344.576	473.75
344.804	441.75
345.031	445.75
345.259	436.75
345.487	438.75
345.714	439.75
345.942	423.75
346.17	420.75
346.397	425.75
346.625	411.75
346.853	414.75
347.08	425.75
347.308	414.75
347.535	417.75
347.763	431.75
347.99	427.75
348.218	427.75
348.445	431.75
348.673	413.75
348.9	433.75
349.128	424.75
349.355	415.75
349.583	407.75
349.81	388.75
350.037	395.75
350.265	411.75
350.492	411.75
350.72	410.75
350.947	404.75
351.174	419.75
351.402	440.75
351.629	447.75
351.856	414.75
352.083	429.75
352.311	438.75
352.538	421.75
352.765	427.75
352.992	431.75
353.22	405.75
353.447	405.75
353.674	393.75
353.901	402.75
354.128	383.75
354.355	402.75
354.583	390.75
354.81	408.75
355.037	386.75
355.264	401.75
355.491	381.75
355.718	394.75
355.945	377.75
356.172	386.75
356.399	394.75
356.626	406.75
356.853	394.75
357.08	387.75
357.307	374.75
357.534	402.75
357.761	392.75
357.988	394.75
358.215	405.75
358.441	411.75
358.668	385.75
358.895	393.75
359.122	398.75
359.349	393.75
359.576	428.75
359.802	435.75
360.029	459.75
360.256	481.75
360.483	465.75
360.709	444.75
360.936	428.75
361.163	437.75
361.39	416.75
361.616	411.75
361.843	412.75
362.07	419.75
362.296	423.75
362.523	431.75
362.749	416.75
362.976	419.75
363.203	392.75
363.429	418.75
363.656	392.75
363.882	411.75
364.109	392.75
364.335	396.75
364.562	412.75
364.788	400.75
365.015	389.75
365.241	385.75
365.468	408.75
365.694	417.75
365.92	387.75
366.147	401.75
366.373	403.75
366.599	391.75
366.826	387.75
367.052	403.75
367.278	408.75
367.505	385.75
367.731	395.75
367.957	405.75
368.184	403.75
368.41	391.75
368.636	420.75
368.862	449.75
369.089	417.75
369.315	389.75
369.541	397.75
369.767	401.75
369.993	406.75
370.219	390.75
370.445	407.75
370.672	407.75
370.898	401.75
371.124	391.75
371.35	395.75
371.576	397.75
371.802	408.75
372.028	395.75
372.254	404.75
372.48	406.75
372.706	433.75
372.932	408.75
373.158	405.75
373.384	400.75
373.61	406.75
373.835	410.75
374.061	408.75
374.287	410.75
374.513	409.75
374.739	421.75
374.965	434.75
375.191	427.75
375.416	425.75
375.642	376.75
375.868	406.75
376.094	414.75
376.319	417.75
376.545	402.75
376.771	403.75
376.997	411.75
377.222	417.75
377.448	401.75
377.674	398.75
377.899	398.75
378.125	404.75
378.35	388.75
378.576	398.75
378.802	377.75
379.027	403.75
379.253	395.75
379.478	402.75
379.704	414.75
379.929	420.75
380.155	399.75
380.38	424.75
380.606	402.75
380.831	413.75
381.057	425.75
381.282	408.75
381.507	423.75
381.733	391.75
381.958	403.75
382.184	409.75
382.409	402.75
382.634	411.75
382.86	417.75
383.085	422.75
383.31	429.75
383.535	426.75
383.761	417.75
383.986	423.75
384.211	425.75
384.436	415.75
384.662	448.75
384.887	460.75
385.112	449.75
385.337	447.75
385.562	432.75
385.787	413.75
386.013	455.75
386.238	453.75
386.463	454.75
386.688	475.75
386.913	453.75
387.138	441.75
387.363	421.75
387.588	456.75
387.813	448.75
388.038	452.75
388.263	433.75
388.488	447.75
388.713	457.75
388.938	452.75
389.163	449.75
389.387	443.75
389.612	436.75
389.837	437.75
390.062	447.75
390.287	458.75
390.512	433.75
390.736	439.75
390.961	443.75
391.186	451.75
391.411	452.75
391.636	462.75
391.86	467.75
392.085	465.75
392.31	464.75
392.534	476.75
392.759	460.75
392.984	454.75
393.208	445.75
393.433	471.75
393.658	454.75
393.882	425.75
394.107	439.75
394.331	442.75
394.556	452.75
394.78	459.75
395.005	450.75
395.229	445.75
395.454	471.75
395.678	489.75
395.903	471.75
396.127	511.75
396.352	473.75
396.576	456.75
396.801	477.75
397.025	462.75
397.249	485.75
397.474	479.75
397.698	477.75
397.922	479.75
398.147	497.75
398.371	499.75
398.595	523.75
398.82	487.75
399.044	538.75
399.268	531.75
399.492	584.75
399.717	588.75
399.941	599.75
400.165	635.75
400.389	631.75
400.613	568.75
400.837	563.75
401.062	526.75
401.286	521.75
401.51	516.75
401.734	516.75
401.958	527.75
402.182	546.75
402.406	529.75
402.63	514.75
402.854	521.75
403.078	514.75
403.302	539.75
403.526	517.75
403.75	537.75
403.974	532.75
404.198	530.75
404.422	535.75
404.645	543.75
404.869	539.75
405.093	553.75
405.317	563.75
405.541	601.75
405.765	552.75
405.988	562.75
406.212	549.75
406.436	571.75
406.66	601.75
406.883	568.75
407.107	586.75
407.331	641.75
407.555	708.75
407.778	676.75
408.002	652.75
408.226	610.75
408.449	582.75
408.673	577.75
408.896	614.75
409.12	677.75
409.344	615.75
409.567	594.75
409.791	558.75
410.014	544.75
410.238	551.75
410.461	545.75
410.685	559.75
410.908	561.75
411.132	586.75
411.355	597.75
411.578	582.75
411.802	551.75
412.025	513.75
412.249	533.75
412.472	548.75
412.695	545.75
412.919	554.75
413.142	519.75
413.365	507.75
413.589	523.75
413.812	519.75
414.035	527.75
414.258	499.75
414.482	512.75
414.705	501.75
414.928	491.75
415.151	486.75
415.374	495.75
415.597	513.75
415.821	489.75
416.044	491.75
416.267	491.75
416.49	489.75
416.713	490.75
416.936	481.75
417.159	501.75
417.382	507.75
417.605	490.75
417.828	507.75
418.051	526.75
418.274	525.75
418.497	496.75
418.72	499.75
418.943	504.75
419.166	514.75
419.389	548.75
419.611	531.75
419.834	533.75
420.057	541.75
420.28	509.75
420.503	504.75
420.726	517.75
420.948	556.75
421.171	586.75
421.394	590.75
421.617	539.75
421.839	539.75
422.062	511.75
422.285	528.75
422.507	618.75
422.73	663.75
422.953	647.75
423.175	571.75
423.398	541.75
423.621	539.75
423.843	557.75
424.066	550.75
424.288	549.75
424.511	592.75
424.733	643.75
424.956	723.75
425.178	673.75
425.401	671.75
425.623	698.75
425.846	587.75
426.068	553.75
426.291	551.75
426.513	549.75
426.735	575.75
426.958	585.75
427.18	668.75
427.402	807.75
427.625	909.75
427.847	771.75
428.069	629.75
428.292	594.75
428.514	559.75
428.736	533.75
428.958	528.75
429.181	528.75
429.403	524.75
429.625	525.75
429.847	584.75
430.069	641.75
430.292	616.75
430.514	536.75
430.736	538.75
430.958	512.75
431.18	485.75
431.402	515.75
431.624	490.75
431.846	481.75
432.068	508.75
432.29	492.75
432.512	461.75
432.734	492.75
432.956	501.75
433.178	505.75
433.4	510.75
433.622	495.75
433.844	488.75
434.066	476.75
434.287	489.75
434.509	511.75
434.731	499.75
434.953	521.75
435.175	543.75
435.397	574.75
435.618	578.75
435.84	596.75
436.062	710.75
436.284	743.75
436.505	636.75
436.727	574.75
436.949	551.75
437.17	537.75
437.392	535.75
437.614	537.75
437.835	569.75
438.057	669.75
438.278	757.75
438.5	758.75
438.721	873.75
438.943	801.75
439.165	631.75
439.386	596.75
439.608	561.75
439.829	579.75
440.05	602.75
440.272	642.75
440.493	609.75
440.715	559.75
440.936	532.75
441.158	529.75
441.379	524.75
441.6	539.75
441.822	560.75
442.043	572.75
442.264	676.75
442.486	730.75
442.707	623.75
442.928	586.75
443.149	587.75
443.371	597.75
443.592	631.75
443.813	737.75
444.034	796.75
444.255	657.75
444.476	604.75
444.698	574.75
444.919	580.75
445.14	651.75
445.361	608.75
445.582	629.75
445.803	659.75
446.024	781.75
446.245	777.75
446.466	701.75
446.687	617.75
446.908	582.75
447.129	522.75
447.35	531.75
447.571	531.75
447.792	516.75
448.013	521.75
448.234	519.75
448.455	570.75
448.675	694.75
448.896	824.75
449.117	707.75
449.338	662.75
449.559	773.75
449.779	884.75
450	691.75
450.221	573.75
450.442	544.75
450.662	541.75
450.883	526.75
451.104	534.75
451.324	529.75
451.545	496.75
451.766	480.75
451.986	483.75
452.207	495.75
452.428	477.75
452.648	460.75
452.869	473.75
453.089	484.75
453.31	477.75
453.53	471.75
453.751	472.75
453.971	480.75
454.192	511.75
454.412	471.75
454.633	469.75
454.853	456.75
455.073	476.75
455.294	485.75
455.514	547.75
455.734	547.75
455.955	473.75
456.175	479.75
456.395	450.75
456.616	454.75
456.836	444.75
457.056	436.75
457.276	422.75
457.497	444.75
457.717	441.75
457.937	451.75
458.157	464.75
458.377	472.75
458.598	482.75
458.818	549.75
459.038	601.75
459.258	621.75
459.478	566.75
459.698	499.75
459.918	479.75
460.138	502.75
460.358	498.75
460.578	496.75
460.798	512.75
461.018	497.75
461.238	517.75
461.458	513.75
461.678	498.75
461.898	524.75
462.118	502.75
462.338	521.75
462.558	546.75
462.777	548.75
462.997	561.75
463.217	566.75
463.437	563.75
463.657	569.75
463.876	541.75
464.096	561.75
464.316	542.75
464.536	560.75
464.755	549.75
464.975	551.75
465.195	577.75
465.414	644.75
465.634	588.75
465.854	539.75
466.073	499.75
466.293	504.75
466.512	500.75
466.732	501.75
466.951	517.75
467.171	495.75
467.391	480.75
467.61	485.75
467.829	500.75
468.049	483.75
468.268	479.75
468.488	465.75
468.707	460.75
468.927	464.75
469.146	466.75
469.365	480.75
469.585	471.75
469.804	475.75
470.023	490.75
470.243	474.75
470.462	482.75
470.681	507.75
470.901	519.75
471.12	481.75
471.339	517.75
471.558	494.75
471.777	473.75
471.997	493.75
472.216	466.75
472.435	484.75
472.654	489.75
472.873	486.75
473.092	486.75
473.311	468.75
473.53	495.75
473.749	477.75
473.968	527.75
474.187	620.75
474.406	674.75
474.625	548.75
474.844	502.75
475.063	489.75
475.282	483.75
475.501	513.75
475.72	488.75
475.939	495.75
476.158	491.75
476.377	501.75
476.596	487.75
476.814	510.75
477.033	511.75
477.252	525.75
477.471	525.75
477.69	519.75
477.908	538.75
478.127	535.75
478.346	548.75
478.564	541.75
478.783	533.75
479.002	550.75
479.22	540.75
479.439	586.75
479.658	596.75
479.876	577.75
480.095	613.75
480.313	609.75
480.532	611.75
480.751	581.75
480.969	609.75
481.188	585.75
481.406	584.75
481.624	584.75
481.843	605.75
482.061	583.75
482.28	588.75
482.498	555.75
482.717	556.75
482.935	573.75
483.153	551.75
483.372	563.75
483.59	555.75
483.808	562.75
484.027	581.75
484.245	589.75
484.463	583.75
484.681	597.75
484.9	578.75
485.118	588.75
485.336	592.75
485.554	608.75
485.772	599.75
485.99	608.75
486.209	590.75
486.427	605.75
486.645	636.75
486.863	643.75
487.081	615.75
487.299	624.75
487.517	631.75
487.735	577.75
487.953	596.75
488.171	604.75
488.389	619.75
488.607	616.75
488.825	600.75
489.043	635.75
489.261	625.75
489.479	627.75
489.696	608.75
489.914	627.75
490.132	630.75
490.35	651.75
490.568	619.75
490.786	666.75
491.003	663.75
491.221	664.75
491.439	679.75
491.657	685.75
491.874	687.75
492.092	677.75
492.31	687.75
492.527	681.75
492.745	683.75
492.963	692.75
493.18	673.75
493.398	691.75
493.615	683.75
493.833	708.75
494.05	708.75
494.268	684.75
494.485	714.75
494.703	705.75
494.92	732.75
495.138	721.75
495.355	704.75
495.573	715.75
495.79	735.75
496.008	728.75
496.225	730.75
496.442	713.75
496.66	721.75
496.877	742.75
497.094	749.75
497.312	729.75
497.529	752.75
497.746	776.75
497.963	800.75
498.181	792.75
498.398	778.75
498.615	801.75
498.832	841.75
499.049	837.75
499.267	879.75
499.484	900.75
499.701	930.75
499.918	970.75
500.135	989.75
500.352	1030.75
500.569	1043.75
500.786	1049.75
501.003	1027.75
501.22	1013.75
501.437	1002.75
501.654	951.75
501.871	936.75
