Data from 1988.PennyLincolnUp.Lamp.En5.5.200Scan.071819.P2_HRD10591_17-19-28-971.txt Node
Date: Thu Jul 18 17:19:28 EDT 2019
User: cochatt
Spectrometer: HR+D1059
Trigger mode: 1
Integration Time (sec): 1.000000E-1
Scans to average: 1
Electric dark correction enabled: true
Nonlinearity correction enabled: false
Boxcar width: 0
XAxis mode: Wavelengths
Number of Pixels in Spectrum: 2048
>>>>>Begin Spectral Data<<<<<
223.165	-19.56
223.4	-19.56
223.635	-19.56
223.869	-20.56
224.104	-11.56
224.338	-16.56
224.573	-11.56
224.808	-16.56
225.042	-7.56
225.277	-14.56
225.511	-0.56
225.746	16.44
225.98	16.44
226.215	9.44
226.449	14.44
226.683	17.44
226.918	8.44
227.152	36.44
227.387	30.44
227.621	32.44
227.856	45.44
228.09	53.44
228.324	62.44
228.559	54.44
228.793	78.44
229.027	95.44
229.262	111.44
229.496	120.44
229.73	151.44
229.964	173.44
230.199	121.44
230.433	118.44
230.667	111.44
230.901	110.44
231.136	104.44
231.37	115.44
231.604	106.44
231.838	91.44
232.072	115.44
232.306	117.44
232.541	104.44
232.775	104.44
233.009	109.44
233.243	111.44
233.477	104.44
233.711	100.44
233.945	109.44
234.179	119.44
234.413	121.44
234.647	117.44
234.881	118.44
235.115	107.44
235.349	117.44
235.583	110.44
235.817	118.44
236.051	125.44
236.285	124.44
236.519	123.44
236.753	142.44
236.987	149.44
237.221	197.44
237.455	244.44
237.689	185.44
237.922	144.44
238.156	138.44
238.39	134.44
238.624	123.44
238.858	131.44
239.091	125.44
239.325	126.44
239.559	128.44
239.793	133.44
240.027	141.44
240.26	147.44
240.494	159.44
240.728	145.44
240.961	147.44
241.195	138.44
241.429	145.44
241.662	143.44
241.896	139.44
242.13	140.44
242.363	136.44
242.597	135.44
242.83	133.44
243.064	134.44
243.298	145.44
243.531	126.44
243.765	147.44
243.998	140.44
244.232	135.44
244.465	150.44
244.699	153.44
244.932	149.44
245.166	146.44
245.399	132.44
245.633	144.44
245.866	138.44
246.099	146.44
246.333	152.44
246.566	142.44
246.8	158.44
247.033	154.44
247.266	153.44
247.5	164.44
247.733	164.44
247.966	172.44
248.2	180.44
248.433	166.44
248.666	174.44
248.899	196.44
249.133	197.44
249.366	212.44
249.599	207.44
249.832	196.44
250.066	186.44
250.299	188.44
250.532	193.44
250.765	188.44
250.998	216.44
251.231	223.44
251.465	211.44
251.698	200.44
251.931	189.44
252.164	197.44
252.397	208.44
252.63	201.44
252.863	225.44
253.096	211.44
253.329	213.44
253.562	217.44
253.795	231.44
254.028	201.44
254.261	213.44
254.494	216.44
254.727	229.44
254.96	272.44
255.193	265.44
255.426	234.44
255.659	229.44
255.892	222.44
256.124	215.44
256.357	216.44
256.59	223.44
256.823	214.44
257.056	202.44
257.289	192.44
257.521	200.44
257.754	209.44
257.987	202.44
258.22	219.44
258.452	196.44
258.685	215.44
258.918	221.44
259.151	212.44
259.383	219.44
259.616	205.44
259.849	240.44
260.081	237.44
260.314	247.44
260.547	263.44
260.779	240.44
261.012	247.44
261.244	222.44
261.477	229.44
261.71	202.44
261.942	225.44
262.175	256.44
262.407	225.44
262.64	234.44
262.872	218.44
263.105	225.44
263.337	210.44
263.57	212.44
263.802	216.44
264.035	220.44
264.267	217.44
264.499	217.44
264.732	216.44
264.964	217.44
265.197	227.44
265.429	230.44
265.661	239.44
265.894	221.44
266.126	215.44
266.358	208.44
266.591	225.44
266.823	220.44
267.055	234.44
267.287	240.44
267.52	232.44
267.752	225.44
267.984	233.44
268.216	231.44
268.448	233.44
268.681	229.44
268.913	254.44
269.145	231.44
269.377	238.44
269.609	276.44
269.841	279.44
270.073	259.44
270.306	287.44
270.538	307.44
270.77	297.44
271.002	290.44
271.234	289.44
271.466	306.44
271.698	305.44
271.93	315.44
272.162	316.44
272.394	313.44
272.626	312.44
272.858	302.44
273.09	250.44
273.322	272.44
273.553	267.44
273.785	275.44
274.017	271.44
274.249	282.44
274.481	265.44
274.713	261.44
274.945	273.44
275.176	261.44
275.408	280.44
275.64	265.44
275.872	260.44
276.104	253.44
276.335	279.44
276.567	294.44
276.799	295.44
277.031	305.44
277.262	332.44
277.494	313.44
277.726	312.44
277.957	283.44
278.189	295.44
278.421	271.44
278.652	287.44
278.884	266.44
279.115	264.44
279.347	284.44
279.579	270.44
279.81	253.44
280.042	289.44
280.273	260.44
280.505	267.44
280.736	273.44
280.968	264.44
281.199	269.44
281.431	263.44
281.662	298.44
281.894	275.44
282.125	278.44
282.356	269.44
282.588	319.44
282.819	312.44
283.051	293.44
283.282	266.44
283.513	288.44
283.745	269.44
283.976	276.44
284.207	294.44
284.439	266.44
284.67	292.44
284.901	273.44
285.132	271.44
285.364	285.44
285.595	286.44
285.826	296.44
286.057	280.44
286.288	294.44
286.52	276.44
286.751	290.44
286.982	285.44
287.213	294.44
287.444	291.44
287.675	280.44
287.906	293.44
288.138	297.44
288.369	312.44
288.6	302.44
288.831	306.44
289.062	285.44
289.293	293.44
289.524	294.44
289.755	294.44
289.986	296.44
290.217	289.44
290.448	300.44
290.679	295.44
290.91	277.44
291.141	297.44
291.371	307.44
291.602	302.44
291.833	315.44
292.064	302.44
292.295	291.44
292.526	305.44
292.757	307.44
292.987	283.44
293.218	304.44
293.449	291.44
293.68	311.44
293.91	300.44
294.141	310.44
294.372	299.44
294.603	302.44
294.833	301.44
295.064	296.44
295.295	295.44
295.525	302.44
295.756	297.44
295.987	313.44
296.217	344.44
296.448	333.44
296.679	335.44
296.909	306.44
297.14	299.44
297.37	307.44
297.601	312.44
297.831	298.44
298.062	299.44
298.292	318.44
298.523	309.44
298.753	332.44
298.984	319.44
299.214	320.44
299.445	313.44
299.675	318.44
299.905	326.44
300.136	320.44
300.366	315.44
300.597	349.44
300.827	332.44
301.057	343.44
301.288	355.44
301.518	353.44
301.748	341.44
301.979	345.44
302.209	333.44
302.439	337.44
302.669	335.44
302.9	343.44
303.13	337.44
303.36	338.44
303.59	331.44
303.82	349.44
304.051	352.44
304.281	336.44
304.511	334.44
304.741	344.44
304.971	328.44
305.201	340.44
305.431	343.44
305.661	333.44
305.891	350.44
306.121	328.44
306.352	346.44
306.582	352.44
306.812	355.44
307.042	344.44
307.272	347.44
307.502	335.44
307.731	331.44
307.961	346.44
308.191	350.44
308.421	347.44
308.651	351.44
308.881	356.44
309.111	356.44
309.341	375.44
309.571	371.44
309.8	388.44
310.03	390.44
310.26	379.44
310.49	400.44
310.72	398.44
310.949	416.44
311.179	407.44
311.409	412.44
311.639	390.44
311.868	380.44
312.098	382.44
312.328	395.44
312.557	431.44
312.787	438.44
313.017	429.44
313.246	410.44
313.476	399.44
313.706	401.44
313.935	415.44
314.165	407.44
314.394	423.44
314.624	426.44
314.853	408.44
315.083	379.44
315.312	386.44
315.542	388.44
315.771	400.44
316.001	386.44
316.23	392.44
316.46	382.44
316.689	398.44
316.919	385.44
317.148	414.44
317.377	397.44
317.607	397.44
317.836	399.44
318.065	387.44
318.295	386.44
318.524	384.44
318.753	390.44
318.983	407.44
319.212	396.44
319.441	385.44
319.67	397.44
319.9	416.44
320.129	378.44
320.358	394.44
320.587	404.44
320.816	411.44
321.046	431.44
321.275	438.44
321.504	402.44
321.733	429.44
321.962	421.44
322.191	454.44
322.42	447.44
322.649	471.44
322.878	475.44
323.108	473.44
323.337	472.44
323.566	533.44
323.795	572.44
324.024	629.44
324.253	753.44
324.482	1064.44
324.71	1663.44
324.939	2371.44
325.168	2026.44
325.397	1021.44
325.626	713.44
325.855	613.44
326.084	559.44
326.313	528.44
326.542	526.44
326.77	575.44
326.999	686.44
327.228	947.44
327.457	1431.44
327.686	1745.44
327.914	1183.44
328.143	761.44
328.372	648.44
328.6	624.44
328.829	593.44
329.058	620.44
329.287	613.44
329.515	586.44
329.744	520.44
329.972	523.44
330.201	515.44
330.43	544.44
330.658	577.44
330.887	632.44
331.115	611.44
331.344	544.44
331.572	511.44
331.801	506.44
332.03	505.44
332.258	480.44
332.486	462.44
332.715	470.44
332.943	467.44
333.172	465.44
333.4	468.44
333.629	473.44
333.857	470.44
334.085	505.44
334.314	480.44
334.542	470.44
334.771	505.44
334.999	480.44
335.227	470.44
335.455	461.44
335.684	460.44
335.912	456.44
336.14	466.44
336.369	472.44
336.597	461.44
336.825	461.44
337.053	452.44
337.281	448.44
337.51	452.44
337.738	448.44
337.966	444.44
338.194	452.44
338.422	469.44
338.65	454.44
338.878	451.44
339.106	451.44
339.334	457.44
339.562	445.44
339.79	462.44
340.018	461.44
340.246	447.44
340.474	443.44
340.702	440.44
340.93	449.44
341.158	437.44
341.386	442.44
341.614	447.44
341.842	449.44
342.07	431.44
342.298	455.44
342.526	449.44
342.754	423.44
342.981	422.44
343.209	423.44
343.437	450.44
343.665	447.44
343.893	461.44
344.12	448.44
344.348	452.44
344.576	480.44
344.804	459.44
345.031	473.44
345.259	481.44
345.487	447.44
345.714	447.44
345.942	422.44
346.17	433.44
346.397	447.44
346.625	445.44
346.853	426.44
347.08	425.44
347.308	447.44
347.535	443.44
347.763	442.44
347.99	446.44
348.218	451.44
348.445	435.44
348.673	462.44
348.9	432.44
349.128	421.44
349.355	418.44
349.583	407.44
349.81	435.44
350.037	425.44
350.265	429.44
350.492	436.44
350.72	413.44
350.947	425.44
351.174	417.44
351.402	446.44
351.629	461.44
351.856	445.44
352.083	435.44
352.311	454.44
352.538	445.44
352.765	471.44
352.992	455.44
353.22	438.44
353.447	428.44
353.674	426.44
353.901	432.44
354.128	409.44
354.355	421.44
354.583	390.44
354.81	400.44
355.037	410.44
355.264	407.44
355.491	402.44
355.718	405.44
355.945	409.44
356.172	391.44
356.399	401.44
356.626	395.44
356.853	417.44
357.08	412.44
357.307	387.44
357.534	398.44
357.761	390.44
357.988	409.44
358.215	407.44
358.441	401.44
358.668	398.44
358.895	401.44
359.122	423.44
359.349	429.44
359.576	451.44
359.802	457.44
360.029	496.44
360.256	492.44
360.483	473.44
360.709	439.44
360.936	446.44
361.163	437.44
361.39	444.44
361.616	438.44
361.843	429.44
362.07	443.44
362.296	450.44
362.523	426.44
362.749	432.44
362.976	444.44
363.203	432.44
363.429	432.44
363.656	423.44
363.882	428.44
364.109	411.44
364.335	402.44
364.562	432.44
364.788	445.44
365.015	430.44
365.241	409.44
365.468	418.44
365.694	422.44
365.92	440.44
366.147	406.44
366.373	389.44
366.599	391.44
366.826	413.44
367.052	417.44
367.278	400.44
367.505	418.44
367.731	406.44
367.957	417.44
368.184	440.44
368.41	419.44
368.636	429.44
368.862	427.44
369.089	444.44
369.315	423.44
369.541	413.44
369.767	394.44
369.993	415.44
370.219	408.44
370.445	411.44
370.672	402.44
370.898	404.44
371.124	399.44
371.35	411.44
371.576	403.44
371.802	411.44
372.028	416.44
372.254	416.44
372.48	434.44
372.706	445.44
372.932	415.44
373.158	398.44
373.384	420.44
373.61	405.44
373.835	420.44
374.061	423.44
374.287	424.44
374.513	433.44
374.739	435.44
374.965	445.44
375.191	425.44
375.416	420.44
375.642	430.44
375.868	406.44
376.094	424.44
376.319	409.44
376.545	403.44
376.771	422.44
376.997	409.44
377.222	427.44
377.448	416.44
377.674	400.44
377.899	424.44
378.125	423.44
378.35	409.44
378.576	395.44
378.802	418.44
379.027	419.44
379.253	424.44
379.478	390.44
379.704	424.44
379.929	420.44
380.155	402.44
380.38	423.44
380.606	415.44
380.831	412.44
381.057	426.44
381.282	415.44
381.507	417.44
381.733	405.44
381.958	418.44
382.184	405.44
382.409	419.44
382.634	425.44
382.86	428.44
383.085	427.44
383.31	428.44
383.535	429.44
383.761	415.44
383.986	443.44
384.211	445.44
384.436	439.44
384.662	427.44
384.887	446.44
385.112	454.44
385.337	436.44
385.562	439.44
385.787	439.44
386.013	463.44
386.238	445.44
386.463	471.44
386.688	451.44
386.913	455.44
387.138	448.44
387.363	475.44
387.588	473.44
387.813	453.44
388.038	447.44
388.263	455.44
388.488	450.44
388.713	455.44
388.938	449.44
389.163	450.44
389.387	471.44
389.612	447.44
389.837	449.44
390.062	452.44
390.287	460.44
390.512	459.44
390.736	449.44
390.961	450.44
391.186	460.44
391.411	458.44
391.636	448.44
391.86	460.44
392.085	466.44
392.31	451.44
392.534	440.44
392.759	455.44
392.984	459.44
393.208	463.44
393.433	488.44
393.658	464.44
393.882	463.44
394.107	442.44
394.331	464.44
394.556	460.44
394.78	468.44
395.005	453.44
395.229	455.44
395.454	471.44
395.678	471.44
395.903	493.44
396.127	494.44
396.352	488.44
396.576	480.44
396.801	447.44
397.025	465.44
397.249	483.44
397.474	487.44
397.698	479.44
397.922	498.44
398.147	521.44
398.371	536.44
398.595	532.44
398.82	501.44
399.044	526.44
399.268	551.44
399.492	559.44
399.717	617.44
399.941	649.44
400.165	646.44
400.389	654.44
400.613	616.44
400.837	567.44
401.062	543.44
401.286	524.44
401.51	534.44
401.734	506.44
401.958	520.44
402.182	531.44
402.406	539.44
402.63	556.44
402.854	540.44
403.078	544.44
403.302	542.44
403.526	540.44
403.75	537.44
403.974	529.44
404.198	527.44
404.422	547.44
404.645	551.44
404.869	547.44
405.093	588.44
405.317	598.44
405.541	621.44
405.765	574.44
405.988	525.44
406.212	569.44
406.436	602.44
406.66	623.44
406.883	579.44
407.107	609.44
407.331	666.44
407.555	743.44
407.778	717.44
408.002	661.44
408.226	611.44
408.449	601.44
408.673	598.44
408.896	636.44
409.12	684.44
409.344	641.44
409.567	565.44
409.791	574.44
410.014	555.44
410.238	540.44
410.461	553.44
410.685	547.44
410.908	572.44
411.132	597.44
411.355	646.44
411.578	599.44
411.802	553.44
412.025	527.44
412.249	548.44
412.472	559.44
412.695	540.44
412.919	538.44
413.142	532.44
413.365	506.44
413.589	515.44
413.812	510.44
414.035	513.44
414.258	525.44
414.482	518.44
414.705	510.44
414.928	513.44
415.151	519.44
415.374	520.44
415.597	500.44
415.821	505.44
416.044	523.44
416.267	515.44
416.49	491.44
416.713	496.44
416.936	504.44
417.159	497.44
417.382	525.44
417.605	515.44
417.828	515.44
418.051	526.44
418.274	516.44
418.497	494.44
418.72	499.44
418.943	525.44
419.166	517.44
419.389	537.44
419.611	544.44
419.834	551.44
420.057	540.44
420.28	524.44
420.503	515.44
420.726	518.44
420.948	535.44
421.171	580.44
421.394	614.44
421.617	543.44
421.839	548.44
422.062	552.44
422.285	574.44
422.507	610.44
422.73	700.44
422.953	661.44
423.175	579.44
423.398	556.44
423.621	551.44
423.843	553.44
424.066	571.44
424.288	566.44
424.511	608.44
424.733	635.44
424.956	732.44
425.178	714.44
425.401	686.44
425.623	722.44
425.846	642.44
426.068	582.44
426.291	572.44
426.513	565.44
426.735	565.44
426.958	627.44
427.18	721.44
427.402	860.44
427.625	937.44
427.847	822.44
428.069	671.44
428.292	590.44
428.514	589.44
428.736	558.44
428.958	533.44
429.181	527.44
429.403	549.44
429.625	551.44
429.847	577.44
430.069	619.44
430.292	651.44
430.514	563.44
430.736	558.44
430.958	519.44
431.18	519.44
431.402	501.44
431.624	503.44
431.846	516.44
432.068	507.44
432.29	490.44
432.512	497.44
432.734	519.44
432.956	516.44
433.178	511.44
433.4	544.44
433.622	518.44
433.844	511.44
434.066	509.44
434.287	495.44
434.509	505.44
434.731	508.44
434.953	525.44
435.175	542.44
435.397	579.44
435.618	569.44
435.84	621.44
436.062	723.44
436.284	804.44
436.505	665.44
436.727	594.44
436.949	573.44
437.17	549.44
437.392	528.44
437.614	541.44
437.835	580.44
438.057	689.44
438.278	771.44
438.5	788.44
438.721	862.44
438.943	838.44
439.165	668.44
439.386	599.44
439.608	619.44
439.829	571.44
440.05	617.44
440.272	658.44
440.493	621.44
440.715	587.44
440.936	554.44
441.158	556.44
441.379	552.44
441.6	559.44
441.822	564.44
442.043	617.44
442.264	719.44
442.486	743.44
442.707	639.44
442.928	622.44
443.149	628.44
443.371	622.44
443.592	660.44
443.813	769.44
444.034	811.44
444.255	663.44
444.476	622.44
444.698	590.44
444.919	577.44
445.14	692.44
445.361	649.44
445.582	633.44
445.803	683.44
446.024	832.44
446.245	814.44
446.466	725.44
446.687	633.44
446.908	598.44
447.129	559.44
447.35	560.44
447.571	536.44
447.792	532.44
448.013	545.44
448.234	576.44
448.455	613.44
448.675	729.44
448.896	835.44
449.117	701.44
449.338	679.44
449.559	800.44
449.779	877.44
450	736.44
450.221	597.44
450.442	559.44
450.662	531.44
450.883	550.44
451.104	556.44
451.324	534.44
451.545	508.44
451.766	500.44
451.986	495.44
452.207	491.44
452.428	454.44
452.648	488.44
452.869	490.44
453.089	503.44
453.31	525.44
453.53	490.44
453.751	473.44
453.971	480.44
454.192	515.44
454.412	479.44
454.633	488.44
454.853	484.44
455.073	483.44
455.294	493.44
455.514	573.44
455.734	552.44
455.955	475.44
456.175	454.44
456.395	453.44
456.616	462.44
456.836	469.44
457.056	456.44
457.276	463.44
457.497	454.44
457.717	466.44
457.937	458.44
458.157	484.44
458.377	472.44
458.598	475.44
458.818	556.44
459.038	655.44
459.258	661.44
459.478	573.44
459.698	532.44
459.918	507.44
460.138	499.44
460.358	512.44
460.578	518.44
460.798	520.44
461.018	535.44
461.238	503.44
461.458	509.44
461.678	502.44
461.898	511.44
462.118	524.44
462.338	509.44
462.558	542.44
462.777	544.44
462.997	564.44
463.217	558.44
463.437	567.44
463.657	568.44
463.876	561.44
464.096	542.44
464.316	555.44
464.536	578.44
464.755	542.44
464.975	559.44
465.195	617.44
465.414	693.44
465.634	593.44
465.854	569.44
466.073	535.44
466.293	544.44
466.512	505.44
466.732	484.44
466.951	477.44
467.171	497.44
467.391	479.44
467.61	502.44
467.829	501.44
468.049	519.44
468.268	486.44
468.488	486.44
468.707	463.44
468.927	485.44
469.146	488.44
469.365	492.44
469.585	479.44
469.804	471.44
470.023	489.44
470.243	506.44
470.462	500.44
470.681	517.44
470.901	533.44
471.12	497.44
471.339	489.44
471.558	509.44
471.777	495.44
471.997	471.44
472.216	489.44
472.435	506.44
472.654	491.44
472.873	471.44
473.092	497.44
473.311	496.44
473.53	499.44
473.749	499.44
473.968	541.44
474.187	658.44
474.406	655.44
474.625	565.44
474.844	517.44
475.063	520.44
475.282	509.44
475.501	519.44
475.72	501.44
475.939	519.44
476.158	523.44
476.377	500.44
476.596	518.44
476.814	541.44
477.033	520.44
477.252	510.44
477.471	560.44
477.69	536.44
477.908	550.44
478.127	537.44
478.346	558.44
478.564	536.44
478.783	564.44
479.002	560.44
479.22	589.44
479.439	599.44
479.658	625.44
479.876	600.44
480.095	583.44
480.313	639.44
480.532	605.44
480.751	629.44
480.969	599.44
481.188	607.44
481.406	616.44
481.624	607.44
481.843	572.44
482.061	588.44
482.28	590.44
482.498	588.44
482.717	577.44
482.935	590.44
483.153	588.44
483.372	577.44
483.59	581.44
483.808	582.44
484.027	571.44
484.245	599.44
484.463	587.44
484.681	584.44
484.9	592.44
485.118	584.44
485.336	588.44
485.554	593.44
485.772	613.44
485.99	633.44
486.209	607.44
486.427	616.44
486.645	605.44
486.863	648.44
487.081	625.44
487.299	631.44
487.517	627.44
487.735	626.44
487.953	596.44
488.171	619.44
488.389	658.44
488.607	618.44
488.825	651.44
489.043	618.44
489.261	639.44
489.479	644.44
489.696	622.44
489.914	623.44
490.132	653.44
490.35	643.44
490.568	651.44
490.786	679.44
491.003	653.44
491.221	685.44
491.439	674.44
491.657	706.44
491.874	685.44
492.092	704.44
492.31	743.44
492.527	715.44
492.745	693.44
492.963	707.44
493.18	706.44
493.398	714.44
493.615	735.44
493.833	748.44
494.05	705.44
494.268	720.44
494.485	720.44
494.703	764.44
494.92	735.44
495.138	728.44
495.355	723.44
495.573	749.44
495.79	743.44
496.008	762.44
496.225	731.44
496.442	760.44
496.66	765.44
496.877	740.44
497.094	735.44
497.312	739.44
497.529	749.44
497.746	784.44
497.963	781.44
498.181	797.44
498.398	815.44
498.615	839.44
498.832	848.44
499.049	853.44
499.267	876.44
499.484	910.44
499.701	945.44
499.918	952.44
500.135	999.44
500.352	1032.44
500.569	1054.44
500.786	1048.44
501.003	1073.44
501.22	1031.44
501.437	969.44
501.654	960.44
501.871	937.44
