Data from 1988.PennyLincolnUp.Lamp.En5.5.200Scan.071819.P2_HRD10591_17-19-52-972.txt Node
Date: Thu Jul 18 17:19:52 EDT 2019
User: cochatt
Spectrometer: HR+D1059
Trigger mode: 1
Integration Time (sec): 1.000000E-1
Scans to average: 1
Electric dark correction enabled: true
Nonlinearity correction enabled: false
Boxcar width: 0
XAxis mode: Wavelengths
Number of Pixels in Spectrum: 2048
>>>>>Begin Spectral Data<<<<<
223.165	-23.38
223.4	-23.38
223.635	-23.38
223.869	-26.38
224.104	-13.38
224.338	-8.38
224.573	-20.38
224.808	-6.38
225.042	-12.38
225.277	-17.38
225.511	13.62
225.746	9.62
225.98	5.62
226.215	1.62
226.449	15.62
226.683	31.62
226.918	19.62
227.152	30.62
227.387	30.62
227.621	44.62
227.856	42.62
228.09	43.62
228.324	36.62
228.559	47.62
228.793	62.62
229.027	95.62
229.262	124.62
229.496	123.62
229.73	129.62
229.964	168.62
230.199	140.62
230.433	123.62
230.667	122.62
230.901	130.62
231.136	117.62
231.37	129.62
231.604	123.62
231.838	124.62
232.072	107.62
232.306	125.62
232.541	127.62
232.775	119.62
233.009	110.62
233.243	119.62
233.477	115.62
233.711	129.62
233.945	124.62
234.179	122.62
234.413	125.62
234.647	123.62
234.881	121.62
235.115	124.62
235.349	133.62
235.583	141.62
235.817	129.62
236.051	136.62
236.285	127.62
236.519	130.62
236.753	149.62
236.987	157.62
237.221	199.62
237.455	261.62
237.689	212.62
237.922	155.62
238.156	144.62
238.39	143.62
238.624	142.62
238.858	133.62
239.091	137.62
239.325	143.62
239.559	132.62
239.793	142.62
240.027	150.62
240.26	153.62
240.494	175.62
240.728	181.62
240.961	161.62
241.195	155.62
241.429	142.62
241.662	142.62
241.896	149.62
242.13	159.62
242.363	141.62
242.597	147.62
242.83	149.62
243.064	148.62
243.298	143.62
243.531	135.62
243.765	148.62
243.998	153.62
244.232	163.62
244.465	150.62
244.699	155.62
244.932	145.62
245.166	165.62
245.399	175.62
245.633	163.62
245.866	158.62
246.099	153.62
246.333	163.62
246.566	166.62
246.8	148.62
247.033	152.62
247.266	154.62
247.5	177.62
247.733	157.62
247.966	166.62
248.2	171.62
248.433	195.62
248.666	198.62
248.899	190.62
249.133	216.62
249.366	233.62
249.599	215.62
249.832	198.62
250.066	194.62
250.299	193.62
250.532	194.62
250.765	202.62
250.998	213.62
251.231	223.62
251.465	217.62
251.698	203.62
251.931	210.62
252.164	208.62
252.397	210.62
252.63	215.62
252.863	209.62
253.096	236.62
253.329	238.62
253.562	250.62
253.795	236.62
254.028	243.62
254.261	237.62
254.494	261.62
254.727	257.62
254.96	277.62
255.193	281.62
255.426	271.62
255.659	243.62
255.892	234.62
256.124	243.62
256.357	236.62
256.59	234.62
256.823	219.62
257.056	219.62
257.289	215.62
257.521	229.62
257.754	227.62
257.987	214.62
258.22	224.62
258.452	215.62
258.685	221.62
258.918	219.62
259.151	238.62
259.383	238.62
259.616	241.62
259.849	234.62
260.081	250.62
260.314	268.62
260.547	284.62
260.779	270.62
261.012	248.62
261.244	238.62
261.477	238.62
261.71	235.62
261.942	228.62
262.175	232.62
262.407	236.62
262.64	247.62
262.872	222.62
263.105	227.62
263.337	220.62
263.57	220.62
263.802	222.62
264.035	228.62
264.267	238.62
264.499	233.62
264.732	237.62
264.964	233.62
265.197	221.62
265.429	234.62
265.661	229.62
265.894	228.62
266.126	240.62
266.358	232.62
266.591	229.62
266.823	244.62
267.055	244.62
267.287	237.62
267.52	247.62
267.752	250.62
267.984	250.62
268.216	233.62
268.448	249.62
268.681	232.62
268.913	267.62
269.145	273.62
269.377	289.62
269.609	305.62
269.841	280.62
270.073	296.62
270.306	318.62
270.538	358.62
270.77	341.62
271.002	314.62
271.234	299.62
271.466	319.62
271.698	338.62
271.93	325.62
272.162	343.62
272.394	344.62
272.626	319.62
272.858	303.62
273.09	318.62
273.322	303.62
273.553	296.62
273.785	294.62
274.017	271.62
274.249	282.62
274.481	294.62
274.713	293.62
274.945	298.62
275.176	294.62
275.408	302.62
275.64	300.62
275.872	291.62
276.104	279.62
276.335	263.62
276.567	315.62
276.799	293.62
277.031	332.62
277.262	331.62
277.494	342.62
277.726	309.62
277.957	302.62
278.189	301.62
278.421	308.62
278.652	289.62
278.884	302.62
279.115	288.62
279.347	304.62
279.579	294.62
279.81	286.62
280.042	289.62
280.273	301.62
280.505	276.62
280.736	280.62
280.968	277.62
281.199	293.62
281.431	293.62
281.662	279.62
281.894	308.62
282.125	305.62
282.356	304.62
282.588	332.62
282.819	327.62
283.051	305.62
283.282	289.62
283.513	299.62
283.745	285.62
283.976	320.62
284.207	304.62
284.439	307.62
284.67	310.62
284.901	317.62
285.132	299.62
285.364	281.62
285.595	295.62
285.826	320.62
286.057	311.62
286.288	307.62
286.52	323.62
286.751	315.62
286.982	309.62
287.213	294.62
287.444	310.62
287.675	293.62
287.906	325.62
288.138	326.62
288.369	347.62
288.6	319.62
288.831	319.62
289.062	329.62
289.293	332.62
289.524	311.62
289.755	320.62
289.986	325.62
290.217	316.62
290.448	331.62
290.679	328.62
290.91	333.62
291.141	324.62
291.371	321.62
291.602	323.62
291.833	309.62
292.064	327.62
292.295	339.62
292.526	323.62
292.757	301.62
292.987	319.62
293.218	322.62
293.449	325.62
293.68	316.62
293.91	317.62
294.141	333.62
294.372	313.62
294.603	320.62
294.833	323.62
295.064	320.62
295.295	338.62
295.525	322.62
295.756	319.62
295.987	315.62
296.217	359.62
296.448	363.62
296.679	357.62
296.909	323.62
297.14	313.62
297.37	323.62
297.601	320.62
297.831	355.62
298.062	339.62
298.292	328.62
298.523	348.62
298.753	339.62
298.984	347.62
299.214	353.62
299.445	329.62
299.675	348.62
299.905	344.62
300.136	321.62
300.366	328.62
300.597	349.62
300.827	352.62
301.057	337.62
301.288	365.62
301.518	362.62
301.748	355.62
301.979	374.62
302.209	379.62
302.439	363.62
302.669	369.62
302.9	362.62
303.13	381.62
303.36	387.62
303.59	352.62
303.82	373.62
304.051	369.62
304.281	381.62
304.511	356.62
304.741	350.62
304.971	367.62
305.201	360.62
305.431	363.62
305.661	354.62
305.891	368.62
306.121	356.62
306.352	371.62
306.582	369.62
306.812	355.62
307.042	365.62
307.272	365.62
307.502	344.62
307.731	377.62
307.961	381.62
308.191	383.62
308.421	387.62
308.651	350.62
308.881	368.62
309.111	381.62
309.341	389.62
309.571	386.62
309.8	391.62
310.03	424.62
310.26	431.62
310.49	398.62
310.72	421.62
310.949	442.62
311.179	447.62
311.409	406.62
311.639	411.62
311.868	435.62
312.098	430.62
312.328	430.62
312.557	426.62
312.787	460.62
313.017	460.62
313.246	429.62
313.476	415.62
313.706	392.62
313.935	413.62
314.165	429.62
314.394	433.62
314.624	443.62
314.853	429.62
315.083	410.62
315.312	405.62
315.542	411.62
315.771	417.62
316.001	418.62
316.23	405.62
316.46	410.62
316.689	422.62
316.919	414.62
317.148	443.62
317.377	413.62
317.607	424.62
317.836	437.62
318.065	414.62
318.295	428.62
318.524	411.62
318.753	410.62
318.983	414.62
319.212	395.62
319.441	441.62
319.67	432.62
319.9	432.62
320.129	421.62
320.358	434.62
320.587	421.62
320.816	437.62
321.046	449.62
321.275	448.62
321.504	446.62
321.733	445.62
321.962	459.62
322.191	448.62
322.42	463.62
322.649	477.62
322.878	507.62
323.108	504.62
323.337	536.62
323.566	553.62
323.795	587.62
324.024	649.62
324.253	763.62
324.482	1079.62
324.71	1691.62
324.939	2518.62
325.168	2155.62
325.397	1109.62
325.626	754.62
325.855	610.62
326.084	599.62
326.313	565.62
326.542	581.62
326.77	598.62
326.999	737.62
327.228	984.62
327.457	1523.62
327.686	1876.62
327.914	1246.62
328.143	812.62
328.372	702.62
328.6	653.62
328.829	639.62
329.058	614.62
329.287	639.62
329.515	611.62
329.744	567.62
329.972	521.62
330.201	537.62
330.43	583.62
330.658	608.62
330.887	659.62
331.115	662.62
331.344	580.62
331.572	538.62
331.801	553.62
332.03	541.62
332.258	527.62
332.486	510.62
332.715	520.62
332.943	519.62
333.172	515.62
333.4	505.62
333.629	521.62
333.857	496.62
334.085	529.62
334.314	533.62
334.542	539.62
334.771	541.62
334.999	512.62
335.227	506.62
335.455	514.62
335.684	503.62
335.912	524.62
336.14	509.62
336.369	484.62
336.597	489.62
336.825	505.62
337.053	525.62
337.281	508.62
337.51	502.62
337.738	483.62
337.966	484.62
338.194	499.62
338.422	513.62
338.65	486.62
338.878	496.62
339.106	476.62
339.334	486.62
339.562	481.62
339.79	468.62
340.018	483.62
340.246	480.62
340.474	486.62
340.702	504.62
340.93	515.62
341.158	491.62
341.386	491.62
341.614	507.62
341.842	490.62
342.07	473.62
342.298	474.62
342.526	474.62
342.754	472.62
342.981	467.62
343.209	485.62
343.437	475.62
343.665	492.62
343.893	490.62
344.12	501.62
344.348	504.62
344.576	490.62
344.804	495.62
345.031	517.62
345.259	513.62
345.487	502.62
345.714	480.62
345.942	481.62
346.17	473.62
346.397	484.62
346.625	471.62
346.853	470.62
347.08	461.62
347.308	478.62
347.535	469.62
347.763	477.62
347.99	480.62
348.218	492.62
348.445	488.62
348.673	506.62
348.9	475.62
349.128	463.62
349.355	470.62
349.583	464.62
349.81	441.62
350.037	469.62
350.265	460.62
350.492	455.62
350.72	461.62
350.947	464.62
351.174	502.62
351.402	469.62
351.629	478.62
351.856	478.62
352.083	497.62
352.311	485.62
352.538	479.62
352.765	482.62
352.992	476.62
353.22	485.62
353.447	463.62
353.674	474.62
353.901	463.62
354.128	443.62
354.355	441.62
354.583	460.62
354.81	454.62
355.037	449.62
355.264	445.62
355.491	431.62
355.718	435.62
355.945	447.62
356.172	440.62
356.399	438.62
356.626	456.62
356.853	464.62
357.08	436.62
357.307	445.62
357.534	446.62
357.761	430.62
357.988	421.62
358.215	424.62
358.441	441.62
358.668	449.62
358.895	462.62
359.122	457.62
359.349	444.62
359.576	479.62
359.802	490.62
360.029	522.62
360.256	542.62
360.483	520.62
360.709	508.62
360.936	471.62
361.163	474.62
361.39	470.62
361.616	488.62
361.843	485.62
362.07	469.62
362.296	503.62
362.523	469.62
362.749	470.62
362.976	473.62
363.203	486.62
363.429	465.62
363.656	469.62
363.882	465.62
364.109	459.62
364.335	469.62
364.562	455.62
364.788	465.62
365.015	456.62
365.241	459.62
365.468	468.62
365.694	466.62
365.92	470.62
366.147	462.62
366.373	463.62
366.599	455.62
366.826	447.62
367.052	468.62
367.278	462.62
367.505	455.62
367.731	457.62
367.957	461.62
368.184	453.62
368.41	479.62
368.636	435.62
368.862	454.62
369.089	446.62
369.315	471.62
369.541	431.62
369.767	468.62
369.993	475.62
370.219	451.62
370.445	454.62
370.672	470.62
370.898	433.62
371.124	443.62
371.35	447.62
371.576	431.62
371.802	486.62
372.028	451.62
372.254	463.62
372.48	455.62
372.706	461.62
372.932	468.62
373.158	449.62
373.384	475.62
373.61	464.62
373.835	467.62
374.061	459.62
374.287	445.62
374.513	464.62
374.739	482.62
374.965	485.62
375.191	471.62
375.416	464.62
375.642	474.62
375.868	471.62
376.094	486.62
376.319	470.62
376.545	443.62
376.771	471.62
376.997	449.62
377.222	466.62
377.448	463.62
377.674	487.62
377.899	439.62
378.125	448.62
378.35	464.62
378.576	462.62
378.802	458.62
379.027	462.62
379.253	456.62
379.478	463.62
379.704	467.62
379.929	473.62
380.155	456.62
380.38	470.62
380.606	476.62
380.831	456.62
381.057	476.62
381.282	453.62
381.507	438.62
381.733	472.62
381.958	460.62
382.184	469.62
382.409	459.62
382.634	456.62
382.86	472.62
383.085	495.62
383.31	457.62
383.535	483.62
383.761	491.62
383.986	485.62
384.211	469.62
384.436	478.62
384.662	475.62
384.887	496.62
385.112	496.62
385.337	519.62
385.562	497.62
385.787	494.62
386.013	525.62
386.238	525.62
386.463	535.62
386.688	519.62
386.913	493.62
387.138	470.62
387.363	504.62
387.588	502.62
387.813	524.62
388.038	523.62
388.263	523.62
388.488	503.62
388.713	511.62
388.938	502.62
389.163	505.62
389.387	512.62
389.612	502.62
389.837	512.62
390.062	511.62
390.287	514.62
390.512	519.62
390.736	525.62
390.961	517.62
391.186	509.62
391.411	529.62
391.636	500.62
391.86	527.62
392.085	544.62
392.31	523.62
392.534	513.62
392.759	518.62
392.984	530.62
393.208	512.62
393.433	549.62
393.658	515.62
393.882	506.62
394.107	521.62
394.331	521.62
394.556	532.62
394.78	542.62
395.005	535.62
395.229	525.62
395.454	526.62
395.678	519.62
395.903	547.62
396.127	572.62
396.352	571.62
396.576	530.62
396.801	555.62
397.025	564.62
397.249	540.62
397.474	554.62
397.698	566.62
397.922	577.62
398.147	586.62
398.371	612.62
398.595	584.62
398.82	590.62
399.044	606.62
399.268	609.62
399.492	654.62
399.717	681.62
399.941	710.62
400.165	729.62
400.389	751.62
400.613	693.62
400.837	647.62
401.062	616.62
401.286	583.62
401.51	608.62
401.734	602.62
401.958	601.62
402.182	614.62
402.406	620.62
402.63	600.62
402.854	621.62
403.078	588.62
403.302	624.62
403.526	643.62
403.75	631.62
403.974	634.62
404.198	625.62
404.422	647.62
404.645	633.62
404.869	631.62
405.093	617.62
405.317	673.62
405.541	706.62
405.765	665.62
405.988	635.62
406.212	669.62
406.436	667.62
406.66	673.62
406.883	676.62
407.107	701.62
407.331	745.62
407.555	831.62
407.778	843.62
408.002	741.62
408.226	701.62
408.449	719.62
408.673	700.62
408.896	726.62
409.12	776.62
409.344	717.62
409.567	639.62
409.791	661.62
410.014	630.62
410.238	615.62
410.461	629.62
410.685	643.62
410.908	668.62
411.132	675.62
411.355	719.62
411.578	680.62
411.802	643.62
412.025	602.62
412.249	623.62
412.472	633.62
412.695	615.62
412.919	610.62
413.142	598.62
413.365	593.62
413.589	601.62
413.812	593.62
414.035	600.62
414.258	586.62
414.482	567.62
414.705	606.62
414.928	586.62
415.151	592.62
415.374	588.62
415.597	588.62
415.821	585.62
416.044	593.62
416.267	617.62
416.49	556.62
416.713	564.62
416.936	571.62
417.159	590.62
417.382	611.62
417.605	591.62
417.828	585.62
418.051	606.62
418.274	609.62
418.497	602.62
418.72	585.62
418.943	580.62
419.166	609.62
419.389	654.62
419.611	616.62
419.834	625.62
420.057	623.62
420.28	627.62
420.503	585.62
420.726	597.62
420.948	616.62
421.171	683.62
421.394	730.62
421.617	647.62
421.839	615.62
422.062	628.62
422.285	618.62
422.507	696.62
422.73	785.62
422.953	761.62
423.175	678.62
423.398	639.62
423.621	636.62
423.843	669.62
424.066	673.62
424.288	650.62
424.511	669.62
424.733	737.62
424.956	848.62
425.178	799.62
425.401	809.62
425.623	831.62
425.846	687.62
426.068	664.62
426.291	654.62
426.513	644.62
426.735	654.62
426.958	744.62
427.18	794.62
427.402	953.62
427.625	1057.62
427.847	911.62
428.069	796.62
428.292	688.62
428.514	663.62
428.736	640.62
428.958	621.62
429.181	622.62
429.403	609.62
429.625	627.62
429.847	680.62
430.069	734.62
430.292	744.62
430.514	650.62
430.736	622.62
430.958	589.62
431.18	598.62
431.402	582.62
431.624	581.62
431.846	568.62
432.068	587.62
432.29	588.62
432.512	566.62
432.734	579.62
432.956	580.62
433.178	607.62
433.4	599.62
433.622	593.62
433.844	586.62
434.066	581.62
434.287	585.62
434.509	604.62
434.731	594.62
434.953	607.62
435.175	637.62
435.397	653.62
435.618	677.62
435.84	711.62
436.062	827.62
436.284	887.62
436.505	745.62
436.727	668.62
436.949	635.62
437.17	614.62
437.392	618.62
437.614	627.62
437.835	644.62
438.057	760.62
438.278	901.62
438.5	893.62
438.721	949.62
438.943	933.62
439.165	769.62
439.386	683.62
439.608	657.62
439.829	662.62
440.05	704.62
440.272	783.62
440.493	721.62
440.715	644.62
440.936	635.62
441.158	623.62
441.379	634.62
441.6	647.62
441.822	649.62
442.043	680.62
442.264	815.62
442.486	859.62
442.707	740.62
442.928	679.62
443.149	664.62
443.371	712.62
443.592	748.62
443.813	883.62
444.034	910.62
444.255	776.62
444.476	685.62
444.698	689.62
444.919	668.62
445.14	788.62
445.361	736.62
445.582	746.62
445.803	814.62
446.024	903.62
446.245	921.62
446.466	841.62
446.687	687.62
446.908	674.62
447.129	629.62
447.35	607.62
447.571	603.62
447.792	592.62
448.013	608.62
448.234	638.62
448.455	691.62
448.675	854.62
448.896	984.62
449.117	825.62
449.338	743.62
449.559	900.62
449.779	1023.62
450	804.62
450.221	666.62
450.442	607.62
450.662	600.62
450.883	597.62
451.104	621.62
451.324	616.62
451.545	601.62
451.766	573.62
451.986	550.62
452.207	558.62
452.428	557.62
452.648	543.62
452.869	522.62
453.089	537.62
453.31	567.62
453.53	554.62
453.751	533.62
453.971	557.62
454.192	552.62
454.412	547.62
454.633	542.62
454.853	544.62
455.073	541.62
455.294	577.62
455.514	635.62
455.734	633.62
455.955	565.62
456.175	512.62
456.395	518.62
456.616	492.62
456.836	504.62
457.056	501.62
457.276	508.62
457.497	499.62
457.717	539.62
457.937	520.62
458.157	527.62
458.377	544.62
458.598	549.62
458.818	612.62
459.038	718.62
459.258	767.62
459.478	646.62
459.698	595.62
459.918	575.62
460.138	586.62
460.358	582.62
460.578	597.62
460.798	587.62
461.018	616.62
461.238	597.62
461.458	598.62
461.678	592.62
461.898	593.62
462.118	627.62
462.338	612.62
462.558	614.62
462.777	624.62
462.997	637.62
463.217	633.62
463.437	649.62
463.657	662.62
463.876	643.62
464.096	641.62
464.316	648.62
464.536	645.62
464.755	648.62
464.975	652.62
465.195	678.62
465.414	750.62
465.634	691.62
465.854	622.62
466.073	611.62
466.293	568.62
466.512	588.62
466.732	575.62
466.951	569.62
467.171	576.62
467.391	560.62
467.61	555.62
467.829	579.62
468.049	572.62
468.268	552.62
468.488	529.62
468.707	526.62
468.927	545.62
469.146	536.62
469.365	575.62
469.585	575.62
469.804	579.62
470.023	573.62
470.243	593.62
470.462	591.62
470.681	615.62
470.901	606.62
471.12	589.62
471.339	581.62
471.558	603.62
471.777	581.62
471.997	563.62
472.216	546.62
472.435	567.62
472.654	576.62
472.873	569.62
473.092	574.62
473.311	543.62
473.53	555.62
473.749	583.62
473.968	603.62
474.187	729.62
474.406	756.62
474.625	636.62
474.844	582.62
475.063	576.62
475.282	576.62
475.501	576.62
475.72	599.62
475.939	582.62
476.158	589.62
476.377	576.62
476.596	573.62
476.814	590.62
477.033	611.62
477.252	630.62
477.471	596.62
477.69	622.62
477.908	615.62
478.127	619.62
478.346	629.62
478.564	633.62
478.783	634.62
479.002	658.62
479.22	671.62
479.439	681.62
479.658	664.62
479.876	686.62
480.095	680.62
480.313	742.62
480.532	721.62
480.751	720.62
480.969	728.62
481.188	731.62
481.406	685.62
481.624	673.62
481.843	682.62
482.061	652.62
482.28	680.62
482.498	666.62
482.717	665.62
482.935	691.62
483.153	657.62
483.372	658.62
483.59	674.62
483.808	653.62
484.027	653.62
484.245	681.62
484.463	678.62
484.681	667.62
484.9	658.62
485.118	664.62
485.336	676.62
485.554	693.62
485.772	714.62
485.99	691.62
486.209	697.62
486.427	695.62
486.645	724.62
486.863	740.62
487.081	713.62
487.299	720.62
487.517	710.62
487.735	727.62
487.953	712.62
488.171	737.62
488.389	708.62
488.607	714.62
488.825	725.62
489.043	710.62
489.261	736.62
489.479	719.62
489.696	740.62
489.914	747.62
490.132	760.62
490.35	760.62
490.568	770.62
490.786	737.62
491.003	805.62
491.221	793.62
491.439	791.62
491.657	797.62
491.874	830.62
492.092	845.62
492.31	793.62
492.527	819.62
492.745	806.62
492.963	825.62
493.18	803.62
493.398	823.62
493.615	833.62
493.833	828.62
494.05	831.62
494.268	821.62
494.485	845.62
494.703	857.62
494.92	815.62
495.138	863.62
495.355	843.62
495.573	844.62
495.79	878.62
496.008	878.62
496.225	890.62
496.442	857.62
496.66	872.62
496.877	889.62
497.094	857.62
497.312	877.62
497.529	887.62
497.746	870.62
497.963	921.62
498.181	935.62
498.398	944.62
498.615	978.62
498.832	991.62
499.049	1007.62
499.267	1021.62
499.484	1047.62
499.701	1077.62
499.918	1145.62
500.135	1195.62
500.352	1225.62
500.569	1245.62
500.786	1232.62
501.003	1232.62
501.22	1189.62
501.437	1140.62
501.654	1104.62
