Data from 1988.PennyLincolnUp.Lamp.En5.5.200Scan.071819.P2_HRD10591_17-18-27-976.txt Node
Date: Thu Jul 18 17:18:27 EDT 2019
User: cochatt
Spectrometer: HR+D1059
Trigger mode: 1
Integration Time (sec): 1.000000E-1
Scans to average: 1
Electric dark correction enabled: true
Nonlinearity correction enabled: false
Boxcar width: 0
XAxis mode: Wavelengths
Number of Pixels in Spectrum: 2048
>>>>>Begin Spectral Data<<<<<
223.165	-0.44
223.4	-0.44
223.635	-0.44
223.869	-21.44
224.104	-20.44
224.338	-11.44
224.573	-7.44
224.808	-15.44
225.042	1.56
225.277	-23.44
225.511	-8.44
225.746	4.56
225.98	11.56
226.215	15.56
226.449	19.56
226.683	16.56
226.918	15.56
227.152	23.56
227.387	45.56
227.621	41.56
227.856	43.56
228.09	47.56
228.324	55.56
228.559	63.56
228.793	80.56
229.027	92.56
229.262	111.56
229.496	104.56
229.73	140.56
229.964	140.56
230.199	112.56
230.433	93.56
230.667	92.56
230.901	78.56
231.136	104.56
231.37	107.56
231.604	102.56
231.838	97.56
232.072	111.56
232.306	104.56
232.541	128.56
232.775	108.56
233.009	105.56
233.243	110.56
233.477	113.56
233.711	116.56
233.945	109.56
234.179	110.56
234.413	118.56
234.647	102.56
234.881	123.56
235.115	106.56
235.349	102.56
235.583	107.56
235.817	123.56
236.051	123.56
236.285	107.56
236.519	128.56
236.753	127.56
236.987	127.56
237.221	158.56
237.455	172.56
237.689	158.56
237.922	127.56
238.156	123.56
238.39	120.56
238.624	111.56
238.858	122.56
239.091	110.56
239.325	117.56
239.559	121.56
239.793	120.56
240.027	122.56
240.26	126.56
240.494	126.56
240.728	147.56
240.961	138.56
241.195	144.56
241.429	137.56
241.662	109.56
241.896	135.56
242.13	119.56
242.363	119.56
242.597	129.56
242.83	124.56
243.064	128.56
243.298	131.56
243.531	124.56
243.765	132.56
243.998	131.56
244.232	147.56
244.465	135.56
244.699	141.56
244.932	128.56
245.166	116.56
245.399	139.56
245.633	148.56
245.866	143.56
246.099	134.56
246.333	132.56
246.566	148.56
246.8	154.56
247.033	148.56
247.266	142.56
247.5	148.56
247.733	144.56
247.966	155.56
248.2	159.56
248.433	164.56
248.666	160.56
248.899	158.56
249.133	187.56
249.366	178.56
249.599	175.56
249.832	164.56
250.066	158.56
250.299	165.56
250.532	172.56
250.765	183.56
250.998	192.56
251.231	204.56
251.465	195.56
251.698	191.56
251.931	180.56
252.164	161.56
252.397	180.56
252.63	187.56
252.863	188.56
253.096	180.56
253.329	207.56
253.562	188.56
253.795	198.56
254.028	191.56
254.261	201.56
254.494	213.56
254.727	222.56
254.96	226.56
255.193	234.56
255.426	224.56
255.659	198.56
255.892	193.56
256.124	190.56
256.357	190.56
256.59	181.56
256.823	182.56
257.056	188.56
257.289	178.56
257.521	197.56
257.754	203.56
257.987	181.56
258.22	190.56
258.452	190.56
258.685	200.56
258.918	174.56
259.151	175.56
259.383	204.56
259.616	191.56
259.849	204.56
260.081	207.56
260.314	206.56
260.547	216.56
260.779	216.56
261.012	218.56
261.244	208.56
261.477	202.56
261.71	198.56
261.942	204.56
262.175	192.56
262.407	193.56
262.64	191.56
262.872	198.56
263.105	182.56
263.337	204.56
263.57	186.56
263.802	199.56
264.035	189.56
264.267	188.56
264.499	189.56
264.732	205.56
264.964	190.56
265.197	198.56
265.429	210.56
265.661	194.56
265.894	200.56
266.126	205.56
266.358	196.56
266.591	202.56
266.823	210.56
267.055	219.56
267.287	218.56
267.52	198.56
267.752	202.56
267.984	206.56
268.216	206.56
268.448	218.56
268.681	214.56
268.913	228.56
269.145	212.56
269.377	233.56
269.609	248.56
269.841	240.56
270.073	240.56
270.306	242.56
270.538	262.56
270.77	260.56
271.002	263.56
271.234	268.56
271.466	248.56
271.698	264.56
271.93	276.56
272.162	261.56
272.394	284.56
272.626	258.56
272.858	258.56
273.09	251.56
273.322	262.56
273.553	237.56
273.785	243.56
274.017	242.56
274.249	257.56
274.481	248.56
274.713	257.56
274.945	252.56
275.176	242.56
275.408	249.56
275.64	241.56
275.872	230.56
276.104	236.56
276.335	245.56
276.567	248.56
276.799	267.56
277.031	255.56
277.262	285.56
277.494	282.56
277.726	254.56
277.957	259.56
278.189	252.56
278.421	232.56
278.652	262.56
278.884	239.56
279.115	262.56
279.347	242.56
279.579	261.56
279.81	260.56
280.042	258.56
280.273	258.56
280.505	243.56
280.736	236.56
280.968	264.56
281.199	260.56
281.431	259.56
281.662	243.56
281.894	259.56
282.125	265.56
282.356	259.56
282.588	269.56
282.819	250.56
283.051	270.56
283.282	237.56
283.513	275.56
283.745	265.56
283.976	258.56
284.207	258.56
284.439	271.56
284.67	266.56
284.901	271.56
285.132	266.56
285.364	269.56
285.595	267.56
285.826	258.56
286.057	265.56
286.288	276.56
286.52	274.56
286.751	257.56
286.982	251.56
287.213	267.56
287.444	296.56
287.675	268.56
287.906	281.56
288.138	285.56
288.369	280.56
288.6	280.56
288.831	272.56
289.062	291.56
289.293	292.56
289.524	279.56
289.755	278.56
289.986	276.56
290.217	256.56
290.448	263.56
290.679	262.56
290.91	262.56
291.141	285.56
291.371	284.56
291.602	262.56
291.833	258.56
292.064	276.56
292.295	279.56
292.526	284.56
292.757	279.56
292.987	274.56
293.218	280.56
293.449	283.56
293.68	277.56
293.91	292.56
294.141	278.56
294.372	270.56
294.603	269.56
294.833	282.56
295.064	273.56
295.295	296.56
295.525	278.56
295.756	284.56
295.987	306.56
296.217	299.56
296.448	310.56
296.679	300.56
296.909	292.56
297.14	291.56
297.37	294.56
297.601	282.56
297.831	281.56
298.062	285.56
298.292	282.56
298.523	299.56
298.753	294.56
298.984	300.56
299.214	299.56
299.445	295.56
299.675	286.56
299.905	304.56
300.136	308.56
300.366	282.56
300.597	280.56
300.827	292.56
301.057	311.56
301.288	306.56
301.518	325.56
301.748	290.56
301.979	316.56
302.209	295.56
302.439	306.56
302.669	309.56
302.9	314.56
303.13	310.56
303.36	322.56
303.59	304.56
303.82	326.56
304.051	324.56
304.281	318.56
304.511	326.56
304.741	323.56
304.971	308.56
305.201	315.56
305.431	297.56
305.661	318.56
305.891	304.56
306.121	318.56
306.352	303.56
306.582	311.56
306.812	326.56
307.042	296.56
307.272	301.56
307.502	306.56
307.731	326.56
307.961	322.56
308.191	332.56
308.421	336.56
308.651	338.56
308.881	329.56
309.111	324.56
309.341	325.56
309.571	314.56
309.8	315.56
310.03	341.56
310.26	329.56
310.49	349.56
310.72	345.56
310.949	332.56
311.179	362.56
311.409	356.56
311.639	332.56
311.868	335.56
312.098	372.56
312.328	351.56
312.557	363.56
312.787	361.56
313.017	360.56
313.246	353.56
313.476	364.56
313.706	342.56
313.935	356.56
314.165	353.56
314.394	358.56
314.624	379.56
314.853	370.56
315.083	359.56
315.312	357.56
315.542	351.56
315.771	363.56
316.001	359.56
316.23	344.56
316.46	344.56
316.689	359.56
316.919	346.56
317.148	368.56
317.377	377.56
317.607	376.56
317.836	354.56
318.065	362.56
318.295	350.56
318.524	349.56
318.753	362.56
318.983	367.56
319.212	364.56
319.441	364.56
319.67	355.56
319.9	351.56
320.129	355.56
320.358	364.56
320.587	343.56
320.816	355.56
321.046	379.56
321.275	367.56
321.504	352.56
321.733	377.56
321.962	363.56
322.191	388.56
322.42	389.56
322.649	412.56
322.878	430.56
323.108	387.56
323.337	410.56
323.566	436.56
323.795	455.56
324.024	466.56
324.253	569.56
324.482	730.56
324.71	1122.56
324.939	1627.56
325.168	1397.56
325.397	724.56
325.626	555.56
325.855	451.56
326.084	464.56
326.313	444.56
326.542	444.56
326.77	465.56
326.999	522.56
327.228	692.56
327.457	1018.56
327.686	1218.56
327.914	816.56
328.143	573.56
328.372	520.56
328.6	478.56
328.829	460.56
329.058	487.56
329.287	494.56
329.515	461.56
329.744	423.56
329.972	434.56
330.201	442.56
330.43	452.56
330.658	471.56
330.887	514.56
331.115	505.56
331.344	465.56
331.572	429.56
331.801	418.56
332.03	438.56
332.258	413.56
332.486	434.56
332.715	398.56
332.943	421.56
333.172	415.56
333.4	424.56
333.629	429.56
333.857	430.56
334.085	455.56
334.314	437.56
334.542	420.56
334.771	431.56
334.999	427.56
335.227	449.56
335.455	412.56
335.684	436.56
335.912	424.56
336.14	408.56
336.369	415.56
336.597	423.56
336.825	419.56
337.053	415.56
337.281	424.56
337.51	426.56
337.738	418.56
337.966	424.56
338.194	421.56
338.422	413.56
338.65	434.56
338.878	414.56
339.106	400.56
339.334	404.56
339.562	424.56
339.79	404.56
340.018	405.56
340.246	399.56
340.474	422.56
340.702	428.56
340.93	408.56
341.158	400.56
341.386	396.56
341.614	398.56
341.842	422.56
342.07	406.56
342.298	422.56
342.526	401.56
342.754	405.56
342.981	392.56
343.209	388.56
343.437	390.56
343.665	392.56
343.893	421.56
344.12	414.56
344.348	415.56
344.576	418.56
344.804	430.56
345.031	427.56
345.259	429.56
345.487	404.56
345.714	400.56
345.942	414.56
346.17	419.56
346.397	404.56
346.625	394.56
346.853	395.56
347.08	400.56
347.308	371.56
347.535	400.56
347.763	408.56
347.99	381.56
348.218	385.56
348.445	388.56
348.673	395.56
348.9	407.56
349.128	392.56
349.355	385.56
349.583	386.56
349.81	406.56
350.037	384.56
350.265	382.56
350.492	384.56
350.72	390.56
350.947	408.56
351.174	370.56
351.402	392.56
351.629	380.56
351.856	399.56
352.083	413.56
352.311	420.56
352.538	416.56
352.765	396.56
352.992	398.56
353.22	384.56
353.447	389.56
353.674	370.56
353.901	358.56
354.128	376.56
354.355	374.56
354.583	367.56
354.81	377.56
355.037	370.56
355.264	376.56
355.491	394.56
355.718	391.56
355.945	382.56
356.172	379.56
356.399	392.56
356.626	374.56
356.853	351.56
357.08	358.56
357.307	388.56
357.534	370.56
357.761	379.56
357.988	366.56
358.215	375.56
358.441	395.56
358.668	379.56
358.895	376.56
359.122	377.56
359.349	380.56
359.576	387.56
359.802	386.56
360.029	402.56
360.256	413.56
360.483	405.56
360.709	405.56
360.936	394.56
361.163	386.56
361.39	400.56
361.616	391.56
361.843	395.56
362.07	390.56
362.296	416.56
362.523	396.56
362.749	397.56
362.976	400.56
363.203	398.56
363.429	384.56
363.656	387.56
363.882	390.56
364.109	379.56
364.335	377.56
364.562	377.56
364.788	397.56
365.015	423.56
365.241	395.56
365.468	380.56
365.694	364.56
365.92	398.56
366.147	380.56
366.373	382.56
366.599	388.56
366.826	386.56
367.052	376.56
367.278	387.56
367.505	379.56
367.731	387.56
367.957	398.56
368.184	396.56
368.41	407.56
368.636	398.56
368.862	396.56
369.089	386.56
369.315	378.56
369.541	396.56
369.767	388.56
369.993	389.56
370.219	363.56
370.445	380.56
370.672	374.56
370.898	396.56
371.124	394.56
371.35	384.56
371.576	400.56
371.802	397.56
372.028	393.56
372.254	394.56
372.48	386.56
372.706	397.56
372.932	381.56
373.158	395.56
373.384	399.56
373.61	391.56
373.835	400.56
374.061	378.56
374.287	391.56
374.513	406.56
374.739	414.56
374.965	390.56
375.191	398.56
375.416	400.56
375.642	414.56
375.868	403.56
376.094	397.56
376.319	407.56
376.545	396.56
376.771	392.56
376.997	407.56
377.222	382.56
377.448	393.56
377.674	396.56
377.899	390.56
378.125	403.56
378.35	376.56
378.576	398.56
378.802	399.56
379.027	398.56
379.253	386.56
379.478	386.56
379.704	390.56
379.929	391.56
380.155	381.56
380.38	422.56
380.606	400.56
380.831	389.56
381.057	396.56
381.282	398.56
381.507	398.56
381.733	415.56
381.958	395.56
382.184	394.56
382.409	407.56
382.634	431.56
382.86	425.56
383.085	392.56
383.31	396.56
383.535	434.56
383.761	413.56
383.986	425.56
384.211	424.56
384.436	411.56
384.662	414.56
384.887	418.56
385.112	437.56
385.337	434.56
385.562	424.56
385.787	421.56
386.013	446.56
386.238	428.56
386.463	446.56
386.688	440.56
386.913	424.56
387.138	431.56
387.363	431.56
387.588	450.56
387.813	426.56
388.038	444.56
388.263	459.56
388.488	447.56
388.713	437.56
388.938	430.56
389.163	432.56
389.387	435.56
389.612	432.56
389.837	423.56
390.062	430.56
390.287	445.56
390.512	416.56
390.736	447.56
390.961	460.56
391.186	450.56
391.411	428.56
391.636	450.56
391.86	444.56
392.085	435.56
392.31	451.56
392.534	444.56
392.759	445.56
392.984	447.56
393.208	442.56
393.433	445.56
393.658	457.56
393.882	439.56
394.107	444.56
394.331	445.56
394.556	444.56
394.78	450.56
395.005	447.56
395.229	425.56
395.454	455.56
395.678	444.56
395.903	456.56
396.127	478.56
396.352	474.56
396.576	470.56
396.801	476.56
397.025	459.56
397.249	468.56
397.474	455.56
397.698	454.56
397.922	457.56
398.147	486.56
398.371	503.56
398.595	504.56
398.82	492.56
399.044	516.56
399.268	518.56
399.492	549.56
399.717	559.56
399.941	591.56
400.165	619.56
400.389	606.56
400.613	562.56
400.837	525.56
401.062	522.56
401.286	515.56
401.51	500.56
401.734	484.56
401.958	483.56
402.182	509.56
402.406	519.56
402.63	521.56
402.854	505.56
403.078	506.56
403.302	516.56
403.526	508.56
403.75	494.56
403.974	481.56
404.198	507.56
404.422	494.56
404.645	515.56
404.869	533.56
405.093	524.56
405.317	553.56
405.541	580.56
405.765	525.56
405.988	547.56
406.212	516.56
406.436	535.56
406.66	541.56
406.883	547.56
407.107	576.56
407.331	605.56
407.555	672.56
407.778	657.56
408.002	593.56
408.226	543.56
408.449	582.56
408.673	568.56
408.896	576.56
409.12	609.56
409.344	602.56
409.567	557.56
409.791	526.56
410.014	549.56
410.238	536.56
410.461	542.56
410.685	512.56
410.908	524.56
411.132	543.56
411.355	582.56
411.578	556.56
411.802	541.56
412.025	504.56
412.249	525.56
412.472	510.56
412.695	519.56
412.919	514.56
413.142	493.56
413.365	485.56
413.589	482.56
413.812	475.56
414.035	492.56
414.258	499.56
414.482	486.56
414.705	477.56
414.928	491.56
415.151	484.56
415.374	492.56
415.597	494.56
415.821	469.56
416.044	488.56
416.267	503.56
416.49	496.56
416.713	486.56
416.936	493.56
417.159	455.56
417.382	488.56
417.605	502.56
417.828	501.56
418.051	493.56
418.274	488.56
418.497	479.56
418.72	491.56
418.943	499.56
419.166	506.56
419.389	526.56
419.611	525.56
419.834	527.56
420.057	523.56
420.28	492.56
420.503	482.56
420.726	493.56
420.948	486.56
421.171	535.56
421.394	574.56
421.617	522.56
421.839	485.56
422.062	498.56
422.285	527.56
422.507	572.56
422.73	649.56
422.953	619.56
423.175	564.56
423.398	503.56
423.621	527.56
423.843	524.56
424.066	557.56
424.288	541.56
424.511	570.56
424.733	607.56
424.956	657.56
425.178	630.56
425.401	644.56
425.623	651.56
425.846	558.56
426.068	544.56
426.291	524.56
426.513	540.56
426.735	533.56
426.958	546.56
427.18	626.56
427.402	752.56
427.625	823.56
427.847	686.56
428.069	616.56
428.292	527.56
428.514	525.56
428.736	503.56
428.958	492.56
429.181	490.56
429.403	492.56
429.625	515.56
429.847	524.56
430.069	571.56
430.292	557.56
430.514	522.56
430.736	467.56
430.958	480.56
431.18	489.56
431.402	483.56
431.624	451.56
431.846	448.56
432.068	464.56
432.29	488.56
432.512	480.56
432.734	498.56
432.956	469.56
433.178	491.56
433.4	479.56
433.622	480.56
433.844	476.56
434.066	471.56
434.287	474.56
434.509	464.56
434.731	498.56
434.953	492.56
435.175	476.56
435.397	523.56
435.618	549.56
435.84	560.56
436.062	630.56
436.284	730.56
436.505	601.56
436.727	555.56
436.949	514.56
437.17	490.56
437.392	498.56
437.614	479.56
437.835	516.56
438.057	601.56
438.278	664.56
438.5	694.56
438.721	783.56
438.943	745.56
439.165	569.56
439.386	527.56
439.608	530.56
439.829	527.56
440.05	532.56
440.272	581.56
440.493	551.56
440.715	496.56
440.936	512.56
441.158	507.56
441.379	482.56
441.6	507.56
441.822	508.56
442.043	562.56
442.264	626.56
442.486	663.56
442.707	558.56
442.928	567.56
443.149	538.56
443.371	549.56
443.592	596.56
443.813	694.56
444.034	745.56
444.255	610.56
444.476	546.56
444.698	524.56
444.919	528.56
445.14	632.56
445.361	591.56
445.582	565.56
445.803	615.56
446.024	703.56
446.245	676.56
446.466	644.56
446.687	556.56
446.908	536.56
447.129	495.56
447.35	498.56
447.571	473.56
447.792	498.56
448.013	496.56
448.234	506.56
448.455	542.56
448.675	638.56
448.896	748.56
449.117	636.56
449.338	597.56
449.559	732.56
449.779	807.56
450	619.56
450.221	539.56
450.442	504.56
450.662	479.56
450.883	488.56
451.104	514.56
451.324	466.56
451.545	456.56
451.766	457.56
451.986	457.56
452.207	445.56
452.428	448.56
452.648	460.56
452.869	428.56
453.089	453.56
453.31	456.56
453.53	441.56
453.751	445.56
453.971	427.56
454.192	454.56
454.412	452.56
454.633	447.56
454.853	442.56
455.073	432.56
455.294	448.56
455.514	473.56
455.734	509.56
455.955	446.56
456.175	428.56
456.395	429.56
456.616	426.56
456.836	417.56
457.056	384.56
457.276	422.56
457.497	441.56
457.717	425.56
457.937	430.56
458.157	446.56
458.377	448.56
458.598	461.56
458.818	495.56
459.038	533.56
459.258	590.56
459.478	487.56
459.698	479.56
459.918	470.56
460.138	474.56
460.358	496.56
460.578	487.56
460.798	484.56
461.018	494.56
461.238	480.56
461.458	495.56
461.678	481.56
461.898	494.56
462.118	485.56
462.338	495.56
462.558	508.56
462.777	526.56
462.997	533.56
463.217	546.56
463.437	555.56
463.657	542.56
463.876	525.56
464.096	530.56
464.316	526.56
464.536	521.56
464.755	528.56
464.975	503.56
465.195	570.56
465.414	565.56
465.634	522.56
465.854	488.56
466.073	484.56
466.293	476.56
466.512	462.56
466.732	473.56
466.951	467.56
467.171	472.56
467.391	466.56
467.61	469.56
467.829	489.56
468.049	441.56
468.268	436.56
468.488	446.56
468.707	464.56
468.927	458.56
469.146	449.56
469.365	459.56
469.585	470.56
469.804	447.56
470.023	455.56
470.243	461.56
470.462	472.56
470.681	471.56
470.901	480.56
471.12	467.56
471.339	487.56
471.558	483.56
471.777	461.56
471.997	463.56
472.216	464.56
472.435	470.56
472.654	466.56
472.873	453.56
473.092	468.56
473.311	462.56
473.53	472.56
473.749	452.56
473.968	511.56
474.187	579.56
474.406	579.56
474.625	509.56
474.844	485.56
475.063	471.56
475.282	474.56
475.501	467.56
475.72	474.56
475.939	482.56
476.158	483.56
476.377	456.56
476.596	499.56
476.814	504.56
477.033	506.56
477.252	493.56
477.471	512.56
477.69	505.56
477.908	522.56
478.127	517.56
478.346	517.56
478.564	526.56
478.783	528.56
479.002	533.56
479.22	542.56
479.439	552.56
479.658	559.56
479.876	548.56
480.095	563.56
480.313	589.56
480.532	575.56
480.751	557.56
480.969	570.56
481.188	588.56
481.406	573.56
481.624	573.56
481.843	562.56
482.061	565.56
482.28	584.56
482.498	553.56
482.717	542.56
482.935	573.56
483.153	550.56
483.372	542.56
483.59	565.56
483.808	557.56
484.027	556.56
484.245	547.56
484.463	547.56
484.681	558.56
484.9	557.56
485.118	573.56
485.336	548.56
485.554	560.56
485.772	578.56
485.99	560.56
486.209	572.56
486.427	564.56
486.645	583.56
486.863	599.56
487.081	591.56
487.299	601.56
487.517	598.56
487.735	568.56
487.953	590.56
488.171	603.56
488.389	583.56
488.607	600.56
488.825	584.56
489.043	566.56
489.261	587.56
489.479	599.56
489.696	587.56
489.914	587.56
490.132	601.56
490.35	610.56
490.568	600.56
490.786	633.56
491.003	622.56
491.221	626.56
491.439	626.56
491.657	629.56
491.874	641.56
492.092	665.56
492.31	656.56
492.527	632.56
492.745	648.56
492.963	653.56
493.18	656.56
493.398	654.56
493.615	653.56
493.833	650.56
494.05	658.56
494.268	642.56
494.485	672.56
494.703	690.56
494.92	663.56
495.138	654.56
495.355	681.56
495.573	684.56
495.79	674.56
496.008	688.56
496.225	719.56
496.442	696.56
496.66	656.56
496.877	724.56
497.094	702.56
497.312	694.56
497.529	695.56
497.746	697.56
497.963	728.56
498.181	748.56
498.398	771.56
498.615	777.56
498.832	802.56
499.049	815.56
499.267	854.56
499.484	854.56
499.701	899.56
499.918	910.56
500.135	979.56
500.352	1012.56
500.569	1014.56
500.786	1054.56
501.003	1010.56
501.22	999.56
501.437	938.56
501.654	924.56
501.871	888.56
502.088	872.56
