Data from 1988.PennyLincolnUp.Lamp.En5.5.200Scan.071819.P2_HRD10591_17-20-01-972.txt Node
Date: Thu Jul 18 17:20:01 EDT 2019
User: cochatt
Spectrometer: HR+D1059
Trigger mode: 1
Integration Time (sec): 1.000000E-1
Scans to average: 1
Electric dark correction enabled: true
Nonlinearity correction enabled: false
Boxcar width: 0
XAxis mode: Wavelengths
Number of Pixels in Spectrum: 2048
>>>>>Begin Spectral Data<<<<<
223.165	-12.75
223.4	-12.75
223.635	-12.75
223.869	-12.75
224.104	-13.75
224.338	-12.75
224.573	4.25
224.808	-22.75
225.042	-7.75
225.277	-7.75
225.511	-5.75
225.746	-4.75
225.98	-5.75
226.215	21.25
226.449	15.25
226.683	22.25
226.918	18.25
227.152	25.25
227.387	32.25
227.621	38.25
227.856	40.25
228.09	45.25
228.324	52.25
228.559	68.25
228.793	68.25
229.027	84.25
229.262	106.25
229.496	116.25
229.73	138.25
229.964	166.25
230.199	137.25
230.433	118.25
230.667	114.25
230.901	118.25
231.136	106.25
231.37	112.25
231.604	118.25
231.838	116.25
232.072	116.25
232.306	116.25
232.541	124.25
232.775	109.25
233.009	109.25
233.243	113.25
233.477	112.25
233.711	115.25
233.945	106.25
234.179	120.25
234.413	116.25
234.647	124.25
234.881	105.25
235.115	119.25
235.349	142.25
235.583	114.25
235.817	117.25
236.051	125.25
236.285	141.25
236.519	121.25
236.753	128.25
236.987	153.25
237.221	188.25
237.455	257.25
237.689	222.25
237.922	163.25
238.156	138.25
238.39	141.25
238.624	116.25
238.858	134.25
239.091	124.25
239.325	120.25
239.559	141.25
239.793	148.25
240.027	150.25
240.26	146.25
240.494	173.25
240.728	162.25
240.961	152.25
241.195	161.25
241.429	141.25
241.662	142.25
241.896	136.25
242.13	129.25
242.363	146.25
242.597	127.25
242.83	159.25
243.064	142.25
243.298	154.25
243.531	144.25
243.765	139.25
243.998	145.25
244.232	141.25
244.465	156.25
244.699	158.25
244.932	164.25
245.166	160.25
245.399	148.25
245.633	145.25
245.866	152.25
246.099	158.25
246.333	165.25
246.566	160.25
246.8	148.25
247.033	179.25
247.266	162.25
247.5	166.25
247.733	166.25
247.966	172.25
248.2	163.25
248.433	184.25
248.666	190.25
248.899	201.25
249.133	219.25
249.366	213.25
249.599	210.25
249.832	208.25
250.066	185.25
250.299	197.25
250.532	194.25
250.765	196.25
250.998	220.25
251.231	228.25
251.465	237.25
251.698	217.25
251.931	213.25
252.164	202.25
252.397	200.25
252.63	212.25
252.863	212.25
253.096	220.25
253.329	245.25
253.562	227.25
253.795	223.25
254.028	234.25
254.261	233.25
254.494	224.25
254.727	269.25
254.96	287.25
255.193	292.25
255.426	273.25
255.659	236.25
255.892	246.25
256.124	239.25
256.357	237.25
256.59	208.25
256.823	218.25
257.056	199.25
257.289	231.25
257.521	227.25
257.754	228.25
257.987	216.25
258.22	208.25
258.452	227.25
258.685	207.25
258.918	230.25
259.151	201.25
259.383	225.25
259.616	237.25
259.849	238.25
260.081	245.25
260.314	263.25
260.547	286.25
260.779	260.25
261.012	253.25
261.244	243.25
261.477	229.25
261.71	220.25
261.942	219.25
262.175	231.25
262.407	243.25
262.64	218.25
262.872	232.25
263.105	244.25
263.337	232.25
263.57	229.25
263.802	220.25
264.035	235.25
264.267	215.25
264.499	221.25
264.732	233.25
264.964	224.25
265.197	226.25
265.429	227.25
265.661	231.25
265.894	226.25
266.126	227.25
266.358	220.25
266.591	228.25
266.823	244.25
267.055	243.25
267.287	225.25
267.52	256.25
267.752	245.25
267.984	230.25
268.216	243.25
268.448	245.25
268.681	245.25
268.913	234.25
269.145	278.25
269.377	289.25
269.609	275.25
269.841	279.25
270.073	286.25
270.306	300.25
270.538	328.25
270.77	332.25
271.002	325.25
271.234	330.25
271.466	331.25
271.698	340.25
271.93	335.25
272.162	343.25
272.394	333.25
272.626	310.25
272.858	300.25
273.09	292.25
273.322	285.25
273.553	267.25
273.785	262.25
274.017	285.25
274.249	290.25
274.481	288.25
274.713	278.25
274.945	300.25
275.176	283.25
275.408	284.25
275.64	269.25
275.872	267.25
276.104	285.25
276.335	265.25
276.567	294.25
276.799	302.25
277.031	316.25
277.262	328.25
277.494	328.25
277.726	318.25
277.957	321.25
278.189	298.25
278.421	277.25
278.652	284.25
278.884	281.25
279.115	284.25
279.347	269.25
279.579	278.25
279.81	282.25
280.042	291.25
280.273	282.25
280.505	294.25
280.736	266.25
280.968	284.25
281.199	283.25
281.431	293.25
281.662	280.25
281.894	270.25
282.125	286.25
282.356	306.25
282.588	333.25
282.819	322.25
283.051	314.25
283.282	294.25
283.513	294.25
283.745	269.25
283.976	301.25
284.207	301.25
284.439	314.25
284.67	302.25
284.901	300.25
285.132	292.25
285.364	288.25
285.595	293.25
285.826	296.25
286.057	311.25
286.288	301.25
286.52	304.25
286.751	299.25
286.982	304.25
287.213	304.25
287.444	293.25
287.675	313.25
287.906	318.25
288.138	315.25
288.369	311.25
288.6	331.25
288.831	319.25
289.062	315.25
289.293	304.25
289.524	295.25
289.755	307.25
289.986	308.25
290.217	284.25
290.448	322.25
290.679	302.25
290.91	298.25
291.141	322.25
291.371	312.25
291.602	304.25
291.833	306.25
292.064	311.25
292.295	317.25
292.526	312.25
292.757	313.25
292.987	325.25
293.218	307.25
293.449	300.25
293.68	322.25
293.91	308.25
294.141	314.25
294.372	321.25
294.603	317.25
294.833	316.25
295.064	323.25
295.295	306.25
295.525	309.25
295.756	334.25
295.987	332.25
296.217	352.25
296.448	341.25
296.679	332.25
296.909	318.25
297.14	328.25
297.37	321.25
297.601	342.25
297.831	330.25
298.062	316.25
298.292	324.25
298.523	337.25
298.753	320.25
298.984	321.25
299.214	332.25
299.445	336.25
299.675	332.25
299.905	344.25
300.136	330.25
300.366	331.25
300.597	339.25
300.827	324.25
301.057	358.25
301.288	357.25
301.518	348.25
301.748	342.25
301.979	346.25
302.209	350.25
302.439	343.25
302.669	360.25
302.9	357.25
303.13	362.25
303.36	354.25
303.59	371.25
303.82	363.25
304.051	376.25
304.281	361.25
304.511	355.25
304.741	348.25
304.971	353.25
305.201	352.25
305.431	356.25
305.661	349.25
305.891	352.25
306.121	365.25
306.352	368.25
306.582	357.25
306.812	364.25
307.042	386.25
307.272	368.25
307.502	360.25
307.731	348.25
307.961	353.25
308.191	372.25
308.421	372.25
308.651	365.25
308.881	346.25
309.111	376.25
309.341	372.25
309.571	393.25
309.8	378.25
310.03	402.25
310.26	388.25
310.49	428.25
310.72	427.25
310.949	438.25
311.179	421.25
311.409	406.25
311.639	408.25
311.868	410.25
312.098	414.25
312.328	415.25
312.557	412.25
312.787	429.25
313.017	432.25
313.246	414.25
313.476	418.25
313.706	440.25
313.935	410.25
314.165	424.25
314.394	432.25
314.624	445.25
314.853	429.25
315.083	421.25
315.312	406.25
315.542	412.25
315.771	410.25
316.001	416.25
316.23	411.25
316.46	418.25
316.689	394.25
316.919	432.25
317.148	413.25
317.377	432.25
317.607	423.25
317.836	410.25
318.065	428.25
318.295	420.25
318.524	423.25
318.753	401.25
318.983	413.25
319.212	436.25
319.441	448.25
319.67	420.25
319.9	420.25
320.129	436.25
320.358	429.25
320.587	420.25
320.816	450.25
321.046	421.25
321.275	441.25
321.504	439.25
321.733	436.25
321.962	466.25
322.191	469.25
322.42	465.25
322.649	489.25
322.878	487.25
323.108	503.25
323.337	550.25
323.566	534.25
323.795	552.25
324.024	632.25
324.253	770.25
324.482	1058.25
324.71	1668.25
324.939	2504.25
325.168	2178.25
325.397	1083.25
325.626	738.25
325.855	588.25
326.084	572.25
326.313	556.25
326.542	553.25
326.77	606.25
326.999	734.25
327.228	955.25
327.457	1520.25
327.686	1868.25
327.914	1234.25
328.143	814.25
328.372	705.25
328.6	635.25
328.829	614.25
329.058	638.25
329.287	635.25
329.515	609.25
329.744	543.25
329.972	541.25
330.201	546.25
330.43	566.25
330.658	604.25
330.887	673.25
331.115	627.25
331.344	562.25
331.572	532.25
331.801	527.25
332.03	542.25
332.258	518.25
332.486	491.25
332.715	502.25
332.943	492.25
333.172	504.25
333.4	501.25
333.629	509.25
333.857	517.25
334.085	501.25
334.314	492.25
334.542	493.25
334.771	526.25
334.999	516.25
335.227	526.25
335.455	485.25
335.684	493.25
335.912	506.25
336.14	500.25
336.369	484.25
336.597	490.25
336.825	497.25
337.053	477.25
337.281	485.25
337.51	472.25
337.738	500.25
337.966	493.25
338.194	485.25
338.422	511.25
338.65	475.25
338.878	476.25
339.106	451.25
339.334	484.25
339.562	477.25
339.79	461.25
340.018	501.25
340.246	469.25
340.474	476.25
340.702	490.25
340.93	474.25
341.158	478.25
341.386	477.25
341.614	489.25
341.842	477.25
342.07	482.25
342.298	480.25
342.526	479.25
342.754	454.25
342.981	457.25
343.209	461.25
343.437	497.25
343.665	468.25
343.893	482.25
344.12	465.25
344.348	487.25
344.576	492.25
344.804	514.25
345.031	488.25
345.259	508.25
345.487	501.25
345.714	499.25
345.942	466.25
346.17	467.25
346.397	474.25
346.625	480.25
346.853	470.25
347.08	453.25
347.308	478.25
347.535	463.25
347.763	496.25
347.99	476.25
348.218	478.25
348.445	445.25
348.673	468.25
348.9	463.25
349.128	458.25
349.355	466.25
349.583	445.25
349.81	468.25
350.037	460.25
350.265	457.25
350.492	474.25
350.72	444.25
350.947	448.25
351.174	453.25
351.402	468.25
351.629	498.25
351.856	477.25
352.083	488.25
352.311	487.25
352.538	502.25
352.765	485.25
352.992	481.25
353.22	466.25
353.447	480.25
353.674	469.25
353.901	457.25
354.128	442.25
354.355	444.25
354.583	458.25
354.81	447.25
355.037	443.25
355.264	426.25
355.491	432.25
355.718	420.25
355.945	403.25
356.172	415.25
356.399	434.25
356.626	438.25
356.853	456.25
357.08	459.25
357.307	429.25
357.534	462.25
357.761	452.25
357.988	436.25
358.215	442.25
358.441	408.25
358.668	438.25
358.895	453.25
359.122	462.25
359.349	452.25
359.576	468.25
359.802	492.25
360.029	519.25
360.256	537.25
360.483	515.25
360.709	486.25
360.936	466.25
361.163	466.25
361.39	486.25
361.616	467.25
361.843	446.25
362.07	470.25
362.296	496.25
362.523	472.25
362.749	475.25
362.976	467.25
363.203	446.25
363.429	461.25
363.656	461.25
363.882	472.25
364.109	473.25
364.335	426.25
364.562	454.25
364.788	442.25
365.015	454.25
365.241	433.25
365.468	462.25
365.694	460.25
365.92	469.25
366.147	448.25
366.373	462.25
366.599	440.25
366.826	458.25
367.052	444.25
367.278	448.25
367.505	447.25
367.731	438.25
367.957	441.25
368.184	459.25
368.41	468.25
368.636	478.25
368.862	461.25
369.089	490.25
369.315	482.25
369.541	451.25
369.767	457.25
369.993	455.25
370.219	439.25
370.445	432.25
370.672	435.25
370.898	439.25
371.124	468.25
371.35	440.25
371.576	440.25
371.802	431.25
372.028	440.25
372.254	457.25
372.48	468.25
372.706	444.25
372.932	449.25
373.158	472.25
373.384	452.25
373.61	470.25
373.835	462.25
374.061	441.25
374.287	435.25
374.513	468.25
374.739	452.25
374.965	463.25
375.191	450.25
375.416	482.25
375.642	461.25
375.868	478.25
376.094	466.25
376.319	447.25
376.545	475.25
376.771	440.25
376.997	452.25
377.222	462.25
377.448	448.25
377.674	471.25
377.899	451.25
378.125	446.25
378.35	449.25
378.576	441.25
378.802	434.25
379.027	474.25
379.253	458.25
379.478	417.25
379.704	460.25
379.929	425.25
380.155	466.25
380.38	463.25
380.606	461.25
380.831	459.25
381.057	454.25
381.282	456.25
381.507	440.25
381.733	466.25
381.958	467.25
382.184	468.25
382.409	456.25
382.634	463.25
382.86	460.25
383.085	446.25
383.31	464.25
383.535	484.25
383.761	474.25
383.986	493.25
384.211	477.25
384.436	490.25
384.662	481.25
384.887	522.25
385.112	489.25
385.337	485.25
385.562	508.25
385.787	498.25
386.013	512.25
386.238	516.25
386.463	509.25
386.688	503.25
386.913	509.25
387.138	500.25
387.363	512.25
387.588	512.25
387.813	508.25
388.038	527.25
388.263	518.25
388.488	501.25
388.713	517.25
388.938	509.25
389.163	509.25
389.387	508.25
389.612	492.25
389.837	498.25
390.062	492.25
390.287	498.25
390.512	506.25
390.736	519.25
390.961	522.25
391.186	504.25
391.411	522.25
391.636	510.25
391.86	528.25
392.085	528.25
392.31	519.25
392.534	524.25
392.759	518.25
392.984	520.25
393.208	515.25
393.433	532.25
393.658	508.25
393.882	507.25
394.107	506.25
394.331	512.25
394.556	518.25
394.78	521.25
395.005	508.25
395.229	499.25
395.454	524.25
395.678	532.25
395.903	544.25
396.127	550.25
396.352	576.25
396.576	530.25
396.801	534.25
397.025	522.25
397.249	535.25
397.474	543.25
397.698	569.25
397.922	569.25
398.147	549.25
398.371	569.25
398.595	580.25
398.82	594.25
399.044	591.25
399.268	631.25
399.492	632.25
399.717	661.25
399.941	698.25
400.165	742.25
400.389	729.25
400.613	669.25
400.837	642.25
401.062	652.25
401.286	602.25
401.51	566.25
401.734	581.25
401.958	595.25
402.182	590.25
402.406	592.25
402.63	598.25
402.854	594.25
403.078	599.25
403.302	601.25
403.526	616.25
403.75	650.25
403.974	612.25
404.198	600.25
404.422	606.25
404.645	607.25
404.869	598.25
405.093	632.25
405.317	669.25
405.541	662.25
405.765	633.25
405.988	629.25
406.212	638.25
406.436	653.25
406.66	701.25
406.883	660.25
407.107	677.25
407.331	723.25
407.555	842.25
407.778	824.25
408.002	759.25
408.226	674.25
408.449	673.25
408.673	657.25
408.896	709.25
409.12	765.25
409.344	734.25
409.567	642.25
409.791	622.25
410.014	642.25
410.238	613.25
410.461	601.25
410.685	616.25
410.908	621.25
411.132	662.25
411.355	718.25
411.578	677.25
411.802	644.25
412.025	611.25
412.249	635.25
412.472	628.25
412.695	619.25
412.919	607.25
413.142	584.25
413.365	602.25
413.589	606.25
413.812	588.25
414.035	585.25
414.258	591.25
414.482	584.25
414.705	582.25
414.928	584.25
415.151	578.25
415.374	572.25
415.597	606.25
415.821	582.25
416.044	601.25
416.267	570.25
416.49	599.25
416.713	570.25
416.936	582.25
417.159	578.25
417.382	590.25
417.605	587.25
417.828	610.25
418.051	616.25
418.274	605.25
418.497	609.25
418.72	580.25
418.943	584.25
419.166	617.25
419.389	616.25
419.611	614.25
419.834	603.25
420.057	593.25
420.28	617.25
420.503	608.25
420.726	599.25
420.948	603.25
421.171	653.25
421.394	727.25
421.617	608.25
421.839	606.25
422.062	626.25
422.285	624.25
422.507	701.25
422.73	793.25
422.953	733.25
423.175	667.25
423.398	631.25
423.621	625.25
423.843	668.25
424.066	675.25
424.288	670.25
424.511	682.25
424.733	739.25
424.956	827.25
425.178	799.25
425.401	814.25
425.623	812.25
425.846	720.25
426.068	681.25
426.291	650.25
426.513	656.25
426.735	662.25
426.958	718.25
427.18	780.25
427.402	970.25
427.625	1034.25
427.847	918.25
428.069	772.25
428.292	690.25
428.514	642.25
428.736	608.25
428.958	596.25
429.181	594.25
429.403	586.25
429.625	619.25
429.847	656.25
430.069	736.25
430.292	725.25
430.514	627.25
430.736	581.25
430.958	609.25
431.18	553.25
431.402	562.25
431.624	563.25
431.846	584.25
432.068	576.25
432.29	581.25
432.512	562.25
432.734	577.25
432.956	592.25
433.178	602.25
433.4	595.25
433.622	570.25
433.844	567.25
434.066	561.25
434.287	579.25
434.509	578.25
434.731	579.25
434.953	592.25
435.175	602.25
435.397	637.25
435.618	651.25
435.84	698.25
436.062	823.25
436.284	895.25
436.505	743.25
436.727	645.25
436.949	637.25
437.17	611.25
437.392	603.25
437.614	602.25
437.835	645.25
438.057	772.25
438.278	897.25
438.5	889.25
438.721	985.25
438.943	946.25
439.165	738.25
439.386	679.25
439.608	675.25
439.829	647.25
440.05	694.25
440.272	735.25
440.493	722.25
440.715	653.25
440.936	633.25
441.158	622.25
441.379	601.25
441.6	634.25
441.822	648.25
442.043	702.25
442.264	801.25
442.486	828.25
442.707	735.25
442.928	660.25
443.149	706.25
443.371	720.25
443.592	740.25
443.813	891.25
444.034	935.25
444.255	763.25
444.476	701.25
444.698	662.25
444.919	677.25
445.14	787.25
445.361	724.25
445.582	717.25
445.803	780.25
446.024	929.25
446.245	905.25
446.466	813.25
446.687	692.25
446.908	664.25
447.129	624.25
447.35	618.25
447.571	611.25
447.792	596.25
448.013	614.25
448.234	630.25
448.455	681.25
448.675	807.25
448.896	954.25
449.117	844.25
449.338	753.25
449.559	871.25
449.779	1000.25
450	827.25
450.221	644.25
450.442	597.25
450.662	626.25
450.883	614.25
451.104	628.25
451.324	600.25
451.545	570.25
451.766	579.25
451.986	564.25
452.207	529.25
452.428	518.25
452.648	528.25
452.869	515.25
453.089	548.25
453.31	576.25
453.53	549.25
453.751	532.25
453.971	514.25
454.192	553.25
454.412	547.25
454.633	531.25
454.853	545.25
455.073	536.25
455.294	570.25
455.514	644.25
455.734	636.25
455.955	544.25
456.175	507.25
456.395	506.25
456.616	521.25
456.836	506.25
457.056	518.25
457.276	484.25
457.497	490.25
457.717	520.25
457.937	533.25
458.157	530.25
458.377	539.25
458.598	557.25
458.818	593.25
459.038	717.25
459.258	748.25
459.478	624.25
459.698	600.25
459.918	570.25
460.138	589.25
460.358	589.25
460.578	587.25
460.798	576.25
461.018	600.25
461.238	581.25
461.458	581.25
461.678	614.25
461.898	624.25
462.118	564.25
462.338	589.25
462.558	614.25
462.777	620.25
462.997	611.25
463.217	647.25
463.437	668.25
463.657	658.25
463.876	649.25
464.096	618.25
464.316	628.25
464.536	658.25
464.755	640.25
464.975	642.25
465.195	672.25
465.414	754.25
465.634	686.25
465.854	606.25
466.073	577.25
466.293	569.25
466.512	545.25
466.732	550.25
466.951	573.25
467.171	553.25
467.391	576.25
467.61	573.25
467.829	601.25
468.049	576.25
468.268	549.25
468.488	554.25
468.707	532.25
468.927	570.25
469.146	540.25
469.365	526.25
469.585	536.25
469.804	568.25
470.023	541.25
470.243	573.25
470.462	578.25
470.681	580.25
470.901	586.25
471.12	571.25
471.339	567.25
471.558	588.25
471.777	564.25
471.997	543.25
472.216	552.25
472.435	553.25
472.654	538.25
472.873	521.25
473.092	550.25
473.311	537.25
473.53	553.25
473.749	583.25
473.968	616.25
474.187	740.25
474.406	777.25
474.625	606.25
474.844	603.25
475.063	583.25
475.282	561.25
475.501	568.25
475.72	586.25
475.939	577.25
476.158	586.25
476.377	605.25
476.596	586.25
476.814	593.25
477.033	599.25
477.252	610.25
477.471	597.25
477.69	608.25
477.908	602.25
478.127	610.25
478.346	636.25
478.564	613.25
478.783	644.25
479.002	658.25
479.22	629.25
479.439	663.25
479.658	664.25
479.876	691.25
480.095	698.25
480.313	736.25
480.532	719.25
480.751	685.25
480.969	659.25
481.188	694.25
481.406	701.25
481.624	704.25
481.843	676.25
482.061	654.25
482.28	672.25
482.498	654.25
482.717	650.25
482.935	634.25
483.153	621.25
483.372	662.25
483.59	669.25
483.808	641.25
484.027	682.25
484.245	667.25
484.463	682.25
484.681	692.25
484.9	673.25
485.118	664.25
485.336	679.25
485.554	691.25
485.772	694.25
485.99	700.25
486.209	675.25
486.427	696.25
486.645	717.25
486.863	728.25
487.081	740.25
487.299	742.25
487.517	684.25
487.735	718.25
487.953	696.25
488.171	710.25
488.389	694.25
488.607	721.25
488.825	704.25
489.043	710.25
489.261	728.25
489.479	712.25
489.696	726.25
489.914	704.25
490.132	742.25
490.35	734.25
490.568	761.25
490.786	760.25
491.003	774.25
491.221	786.25
491.439	800.25
491.657	791.25
491.874	770.25
492.092	802.25
492.31	807.25
492.527	809.25
492.745	797.25
492.963	800.25
493.18	804.25
493.398	835.25
493.615	836.25
493.833	830.25
494.05	849.25
494.268	853.25
494.485	839.25
494.703	826.25
494.92	837.25
495.138	841.25
495.355	841.25
495.573	826.25
495.79	847.25
496.008	852.25
496.225	852.25
496.442	850.25
496.66	860.25
496.877	850.25
497.094	867.25
497.312	869.25
497.529	883.25
497.746	900.25
497.963	895.25
498.181	915.25
498.398	912.25
498.615	980.25
498.832	992.25
499.049	972.25
499.267	1044.25
499.484	1046.25
499.701	1088.25
499.918	1108.25
500.135	1156.25
500.352	1211.25
500.569	1239.25
500.786	1234.25
501.003	1211.25
501.22	1204.25
501.437	1163.25
501.654	1101.25
