Data from 1988.PennyLincolnUp.Lamp.En5.5.200Scan.071819.P2_HRD10591_17-18-23-971.txt Node
Date: Thu Jul 18 17:18:23 EDT 2019
User: cochatt
Spectrometer: HR+D1059
Trigger mode: 1
Integration Time (sec): 1.000000E-1
Scans to average: 1
Electric dark correction enabled: true
Nonlinearity correction enabled: false
Boxcar width: 0
XAxis mode: Wavelengths
Number of Pixels in Spectrum: 2048
>>>>>Begin Spectral Data<<<<<
223.165	-9.69
223.4	-9.69
223.635	-9.69
223.869	-14.69
224.104	-26.69
224.338	-12.69
224.573	-11.69
224.808	-8.69
225.042	-5.69
225.277	-2.69
225.511	-2.69
225.746	6.31
225.98	1.31
226.215	11.31
226.449	20.31
226.683	17.31
226.918	9.31
227.152	29.31
227.387	32.31
227.621	21.31
227.856	50.31
228.09	37.31
228.324	45.31
228.559	54.31
228.793	61.31
229.027	78.31
229.262	101.31
229.496	91.31
229.73	104.31
229.964	123.31
230.199	117.31
230.433	102.31
230.667	99.31
230.901	106.31
231.136	92.31
231.37	101.31
231.604	94.31
231.838	100.31
232.072	101.31
232.306	108.31
232.541	99.31
232.775	118.31
233.009	108.31
233.243	124.31
233.477	109.31
233.711	117.31
233.945	123.31
234.179	100.31
234.413	116.31
234.647	113.31
234.881	108.31
235.115	110.31
235.349	113.31
235.583	122.31
235.817	104.31
236.051	112.31
236.285	110.31
236.519	115.31
236.753	118.31
236.987	120.31
237.221	136.31
237.455	181.31
237.689	146.31
237.922	128.31
238.156	113.31
238.39	113.31
238.624	113.31
238.858	112.31
239.091	109.31
239.325	102.31
239.559	124.31
239.793	119.31
240.027	132.31
240.26	127.31
240.494	126.31
240.728	122.31
240.961	118.31
241.195	124.31
241.429	136.31
241.662	117.31
241.896	110.31
242.13	123.31
242.363	117.31
242.597	102.31
242.83	128.31
243.064	128.31
243.298	122.31
243.531	136.31
243.765	125.31
243.998	130.31
244.232	114.31
244.465	117.31
244.699	123.31
244.932	124.31
245.166	129.31
245.399	124.31
245.633	144.31
245.866	122.31
246.099	133.31
246.333	125.31
246.566	153.31
246.8	128.31
247.033	154.31
247.266	133.31
247.5	140.31
247.733	143.31
247.966	148.31
248.2	131.31
248.433	153.31
248.666	158.31
248.899	157.31
249.133	164.31
249.366	169.31
249.599	169.31
249.832	158.31
250.066	160.31
250.299	158.31
250.532	162.31
250.765	160.31
250.998	169.31
251.231	170.31
251.465	189.31
251.698	176.31
251.931	158.31
252.164	168.31
252.397	177.31
252.63	164.31
252.863	170.31
253.096	169.31
253.329	187.31
253.562	172.31
253.795	171.31
254.028	184.31
254.261	168.31
254.494	188.31
254.727	205.31
254.96	204.31
255.193	218.31
255.426	192.31
255.659	195.31
255.892	170.31
256.124	181.31
256.357	180.31
256.59	182.31
256.823	177.31
257.056	180.31
257.289	181.31
257.521	180.31
257.754	176.31
257.987	178.31
258.22	170.31
258.452	172.31
258.685	170.31
258.918	182.31
259.151	196.31
259.383	169.31
259.616	177.31
259.849	185.31
260.081	172.31
260.314	203.31
260.547	215.31
260.779	205.31
261.012	195.31
261.244	183.31
261.477	212.31
261.71	185.31
261.942	178.31
262.175	213.31
262.407	207.31
262.64	190.31
262.872	183.31
263.105	182.31
263.337	184.31
263.57	194.31
263.802	184.31
264.035	189.31
264.267	195.31
264.499	188.31
264.732	182.31
264.964	189.31
265.197	190.31
265.429	190.31
265.661	187.31
265.894	195.31
266.126	187.31
266.358	193.31
266.591	190.31
266.823	201.31
267.055	193.31
267.287	204.31
267.52	196.31
267.752	189.31
267.984	190.31
268.216	191.31
268.448	215.31
268.681	186.31
268.913	207.31
269.145	207.31
269.377	214.31
269.609	222.31
269.841	206.31
270.073	204.31
270.306	214.31
270.538	245.31
270.77	244.31
271.002	229.31
271.234	228.31
271.466	236.31
271.698	258.31
271.93	235.31
272.162	264.31
272.394	242.31
272.626	234.31
272.858	245.31
273.09	222.31
273.322	235.31
273.553	233.31
273.785	218.31
274.017	234.31
274.249	233.31
274.481	231.31
274.713	231.31
274.945	233.31
275.176	242.31
275.408	229.31
275.64	240.31
275.872	224.31
276.104	227.31
276.335	233.31
276.567	219.31
276.799	229.31
277.031	247.31
277.262	254.31
277.494	265.31
277.726	232.31
277.957	230.31
278.189	236.31
278.421	222.31
278.652	230.31
278.884	222.31
279.115	236.31
279.347	240.31
279.579	246.31
279.81	236.31
280.042	232.31
280.273	226.31
280.505	235.31
280.736	235.31
280.968	236.31
281.199	243.31
281.431	244.31
281.662	243.31
281.894	237.31
282.125	238.31
282.356	249.31
282.588	262.31
282.819	255.31
283.051	236.31
283.282	234.31
283.513	235.31
283.745	246.31
283.976	260.31
284.207	248.31
284.439	255.31
284.67	237.31
284.901	236.31
285.132	234.31
285.364	246.31
285.595	253.31
285.826	251.31
286.057	258.31
286.288	242.31
286.52	241.31
286.751	272.31
286.982	254.31
287.213	257.31
287.444	256.31
287.675	246.31
287.906	258.31
288.138	269.31
288.369	259.31
288.6	237.31
288.831	246.31
289.062	263.31
289.293	262.31
289.524	250.31
289.755	240.31
289.986	255.31
290.217	265.31
290.448	248.31
290.679	258.31
290.91	261.31
291.141	261.31
291.371	276.31
291.602	258.31
291.833	280.31
292.064	260.31
292.295	257.31
292.526	266.31
292.757	251.31
292.987	251.31
293.218	248.31
293.449	260.31
293.68	260.31
293.91	264.31
294.141	248.31
294.372	252.31
294.603	262.31
294.833	266.31
295.064	288.31
295.295	272.31
295.525	278.31
295.756	269.31
295.987	260.31
296.217	284.31
296.448	278.31
296.679	267.31
296.909	266.31
297.14	259.31
297.37	277.31
297.601	273.31
297.831	262.31
298.062	272.31
298.292	267.31
298.523	290.31
298.753	292.31
298.984	275.31
299.214	288.31
299.445	298.31
299.675	274.31
299.905	290.31
300.136	265.31
300.366	280.31
300.597	264.31
300.827	278.31
301.057	272.31
301.288	288.31
301.518	282.31
301.748	296.31
301.979	284.31
302.209	290.31
302.439	289.31
302.669	288.31
302.9	278.31
303.13	268.31
303.36	294.31
303.59	312.31
303.82	308.31
304.051	293.31
304.281	299.31
304.511	294.31
304.741	282.31
304.971	292.31
305.201	278.31
305.431	307.31
305.661	315.31
305.891	268.31
306.121	299.31
306.352	313.31
306.582	304.31
306.812	297.31
307.042	306.31
307.272	304.31
307.502	312.31
307.731	283.31
307.961	293.31
308.191	291.31
308.421	305.31
308.651	307.31
308.881	292.31
309.111	325.31
309.341	325.31
309.571	312.31
309.8	291.31
310.03	321.31
310.26	312.31
310.49	304.31
310.72	308.31
310.949	314.31
311.179	339.31
311.409	324.31
311.639	339.31
311.868	316.31
312.098	320.31
312.328	340.31
312.557	334.31
312.787	336.31
313.017	318.31
313.246	325.31
313.476	333.31
313.706	329.31
313.935	345.31
314.165	346.31
314.394	341.31
314.624	331.31
314.853	331.31
315.083	315.31
315.312	326.31
315.542	324.31
315.771	320.31
316.001	328.31
316.23	334.31
316.46	323.31
316.689	319.31
316.919	328.31
317.148	341.31
317.377	341.31
317.607	339.31
317.836	338.31
318.065	339.31
318.295	351.31
318.524	341.31
318.753	333.31
318.983	334.31
319.212	327.31
319.441	321.31
319.67	349.31
319.9	328.31
320.129	327.31
320.358	341.31
320.587	345.31
320.816	347.31
321.046	347.31
321.275	362.31
321.504	361.31
321.733	340.31
321.962	357.31
322.191	355.31
322.42	366.31
322.649	359.31
322.878	386.31
323.108	357.31
323.337	375.31
323.566	406.31
323.795	426.31
324.024	450.31
324.253	501.31
324.482	644.31
324.71	982.31
324.939	1400.31
325.168	1200.31
325.397	609.31
325.626	463.31
325.855	428.31
326.084	384.31
326.313	373.31
326.542	384.31
326.77	415.31
326.999	458.31
327.228	602.31
327.457	874.31
327.686	1015.31
327.914	720.31
328.143	500.31
328.372	457.31
328.6	406.31
328.829	408.31
329.058	428.31
329.287	405.31
329.515	414.31
329.744	402.31
329.972	388.31
330.201	387.31
330.43	413.31
330.658	426.31
330.887	435.31
331.115	434.31
331.344	404.31
331.572	392.31
331.801	385.31
332.03	401.31
332.258	396.31
332.486	390.31
332.715	388.31
332.943	393.31
333.172	397.31
333.4	395.31
333.629	418.31
333.857	406.31
334.085	389.31
334.314	414.31
334.542	406.31
334.771	421.31
334.999	416.31
335.227	408.31
335.455	392.31
335.684	385.31
335.912	385.31
336.14	390.31
336.369	408.31
336.597	392.31
336.825	394.31
337.053	384.31
337.281	406.31
337.51	395.31
337.738	410.31
337.966	399.31
338.194	389.31
338.422	405.31
338.65	415.31
338.878	374.31
339.106	378.31
339.334	396.31
339.562	375.31
339.79	404.31
340.018	384.31
340.246	361.31
340.474	366.31
340.702	373.31
340.93	378.31
341.158	358.31
341.386	390.31
341.614	370.31
341.842	382.31
342.07	387.31
342.298	360.31
342.526	356.31
342.754	376.31
342.981	411.31
343.209	374.31
343.437	384.31
343.665	379.31
343.893	394.31
344.12	404.31
344.348	352.31
344.576	388.31
344.804	403.31
345.031	397.31
345.259	400.31
345.487	373.31
345.714	369.31
345.942	378.31
346.17	361.31
346.397	366.31
346.625	365.31
346.853	360.31
347.08	386.31
347.308	361.31
347.535	372.31
347.763	374.31
347.99	384.31
348.218	352.31
348.445	364.31
348.673	381.31
348.9	358.31
349.128	372.31
349.355	368.31
349.583	360.31
349.81	343.31
350.037	352.31
350.265	380.31
350.492	384.31
350.72	376.31
350.947	346.31
351.174	352.31
351.402	396.31
351.629	392.31
351.856	374.31
352.083	365.31
352.311	382.31
352.538	382.31
352.765	364.31
352.992	356.31
353.22	388.31
353.447	359.31
353.674	373.31
353.901	344.31
354.128	338.31
354.355	362.31
354.583	357.31
354.81	351.31
355.037	350.31
355.264	364.31
355.491	364.31
355.718	336.31
355.945	350.31
356.172	360.31
356.399	353.31
356.626	357.31
356.853	345.31
357.08	382.31
357.307	361.31
357.534	349.31
357.761	339.31
357.988	357.31
358.215	375.31
358.441	380.31
358.668	366.31
358.895	372.31
359.122	352.31
359.349	374.31
359.576	354.31
359.802	371.31
360.029	387.31
360.256	385.31
360.483	393.31
360.709	360.31
360.936	378.31
361.163	372.31
361.39	380.31
361.616	353.31
361.843	372.31
362.07	371.31
362.296	381.31
362.523	379.31
362.749	382.31
362.976	361.31
363.203	357.31
363.429	360.31
363.656	355.31
363.882	339.31
364.109	353.31
364.335	361.31
364.562	361.31
364.788	352.31
365.015	379.31
365.241	365.31
365.468	377.31
365.694	361.31
365.92	373.31
366.147	357.31
366.373	329.31
366.599	336.31
366.826	350.31
367.052	357.31
367.278	363.31
367.505	364.31
367.731	364.31
367.957	364.31
368.184	386.31
368.41	365.31
368.636	370.31
368.862	374.31
369.089	367.31
369.315	385.31
369.541	365.31
369.767	374.31
369.993	380.31
370.219	370.31
370.445	361.31
370.672	361.31
370.898	371.31
371.124	352.31
371.35	378.31
371.576	360.31
371.802	368.31
372.028	368.31
372.254	369.31
372.48	373.31
372.706	339.31
372.932	368.31
373.158	362.31
373.384	372.31
373.61	378.31
373.835	383.31
374.061	388.31
374.287	377.31
374.513	380.31
374.739	368.31
374.965	384.31
375.191	376.31
375.416	370.31
375.642	366.31
375.868	377.31
376.094	379.31
376.319	369.31
376.545	378.31
376.771	371.31
376.997	362.31
377.222	384.31
377.448	361.31
377.674	379.31
377.899	349.31
378.125	362.31
378.35	384.31
378.576	384.31
378.802	375.31
379.027	378.31
379.253	370.31
379.478	366.31
379.704	364.31
379.929	378.31
380.155	372.31
380.38	364.31
380.606	386.31
380.831	365.31
381.057	372.31
381.282	374.31
381.507	374.31
381.733	372.31
381.958	386.31
382.184	383.31
382.409	386.31
382.634	381.31
382.86	380.31
383.085	385.31
383.31	377.31
383.535	392.31
383.761	408.31
383.986	387.31
384.211	396.31
384.436	387.31
384.662	421.31
384.887	422.31
385.112	404.31
385.337	407.31
385.562	410.31
385.787	422.31
386.013	428.31
386.238	421.31
386.463	421.31
386.688	413.31
386.913	407.31
387.138	442.31
387.363	432.31
387.588	417.31
387.813	394.31
388.038	402.31
388.263	404.31
388.488	398.31
388.713	412.31
388.938	426.31
389.163	418.31
389.387	404.31
389.612	397.31
389.837	393.31
390.062	412.31
390.287	410.31
390.512	418.31
390.736	409.31
390.961	412.31
391.186	423.31
391.411	427.31
391.636	414.31
391.86	435.31
392.085	440.31
392.31	411.31
392.534	423.31
392.759	437.31
392.984	432.31
393.208	425.31
393.433	445.31
393.658	425.31
393.882	414.31
394.107	427.31
394.331	396.31
394.556	404.31
394.78	414.31
395.005	419.31
395.229	394.31
395.454	427.31
395.678	428.31
395.903	437.31
396.127	461.31
396.352	451.31
396.576	449.31
396.801	428.31
397.025	453.31
397.249	455.31
397.474	439.31
397.698	449.31
397.922	438.31
398.147	451.31
398.371	477.31
398.595	454.31
398.82	469.31
399.044	478.31
399.268	500.31
399.492	518.31
399.717	544.31
399.941	577.31
400.165	576.31
400.389	602.31
400.613	526.31
400.837	502.31
401.062	471.31
401.286	474.31
401.51	474.31
401.734	468.31
401.958	475.31
402.182	472.31
402.406	462.31
402.63	477.31
402.854	472.31
403.078	470.31
403.302	475.31
403.526	500.31
403.75	489.31
403.974	477.31
404.198	478.31
404.422	493.31
404.645	459.31
404.869	476.31
405.093	488.31
405.317	506.31
405.541	550.31
405.765	526.31
405.988	501.31
406.212	496.31
406.436	501.31
406.66	515.31
406.883	514.31
407.107	546.31
407.331	567.31
407.555	615.31
407.778	614.31
408.002	560.31
408.226	541.31
408.449	544.31
408.673	538.31
408.896	561.31
409.12	598.31
409.344	553.31
409.567	509.31
409.791	492.31
410.014	489.31
410.238	482.31
410.461	500.31
410.685	478.31
410.908	490.31
411.132	515.31
411.355	524.31
411.578	520.31
411.802	481.31
412.025	471.31
412.249	481.31
412.472	487.31
412.695	478.31
412.919	474.31
413.142	470.31
413.365	444.31
413.589	468.31
413.812	463.31
414.035	475.31
414.258	460.31
414.482	440.31
414.705	451.31
414.928	454.31
415.151	458.31
415.374	468.31
415.597	474.31
415.821	452.31
416.044	461.31
416.267	468.31
416.49	458.31
416.713	430.31
416.936	444.31
417.159	454.31
417.382	443.31
417.605	438.31
417.828	472.31
418.051	471.31
418.274	488.31
418.497	465.31
418.72	473.31
418.943	464.31
419.166	465.31
419.389	472.31
419.611	484.31
419.834	490.31
420.057	476.31
420.28	467.31
420.503	459.31
420.726	459.31
420.948	474.31
421.171	523.31
421.394	529.31
421.617	497.31
421.839	494.31
422.062	488.31
422.285	493.31
422.507	510.31
422.73	578.31
422.953	572.31
423.175	505.31
423.398	472.31
423.621	468.31
423.843	505.31
424.066	478.31
424.288	503.31
424.511	510.31
424.733	561.31
424.956	634.31
425.178	586.31
425.401	582.31
425.623	602.31
425.846	533.31
426.068	489.31
426.291	480.31
426.513	477.31
426.735	484.31
426.958	509.31
427.18	587.31
427.402	682.31
427.625	752.31
427.847	628.31
428.069	554.31
428.292	485.31
428.514	480.31
428.736	487.31
428.958	468.31
429.181	446.31
429.403	467.31
429.625	487.31
429.847	498.31
430.069	548.31
430.292	532.31
430.514	468.31
430.736	460.31
430.958	438.31
431.18	421.31
431.402	455.31
431.624	438.31
431.846	446.31
432.068	443.31
432.29	448.31
432.512	429.31
432.734	467.31
432.956	453.31
433.178	465.31
433.4	474.31
433.622	473.31
433.844	458.31
434.066	445.31
434.287	451.31
434.509	439.31
434.731	463.31
434.953	456.31
435.175	476.31
435.397	501.31
435.618	484.31
435.84	520.31
436.062	582.31
436.284	669.31
436.505	551.31
436.727	486.31
436.949	489.31
437.17	469.31
437.392	438.31
437.614	474.31
437.835	497.31
438.057	564.31
438.278	618.31
438.5	628.31
438.721	693.31
438.943	658.31
439.165	545.31
439.386	503.31
439.608	499.31
439.829	485.31
440.05	512.31
440.272	536.31
440.493	519.31
440.715	481.31
440.936	473.31
441.158	472.31
441.379	485.31
441.6	492.31
441.822	468.31
442.043	517.31
442.264	578.31
442.486	610.31
442.707	546.31
442.928	523.31
443.149	520.31
443.371	498.31
443.592	527.31
443.813	624.31
444.034	670.31
444.255	555.31
444.476	512.31
444.698	509.31
444.919	512.31
445.14	604.31
445.361	564.31
445.582	554.31
445.803	574.31
446.024	624.31
446.245	624.31
446.466	607.31
446.687	522.31
446.908	504.31
447.129	484.31
447.35	464.31
447.571	458.31
447.792	450.31
448.013	444.31
448.234	480.31
448.455	501.31
448.675	586.31
448.896	672.31
449.117	594.31
449.338	561.31
449.559	642.31
449.779	744.31
450	592.31
450.221	480.31
450.442	459.31
450.662	449.31
450.883	440.31
451.104	460.31
451.324	460.31
451.545	411.31
451.766	446.31
451.986	405.31
452.207	402.31
452.428	414.31
452.648	416.31
452.869	410.31
453.089	412.31
453.31	407.31
453.53	432.31
453.751	400.31
453.971	420.31
454.192	414.31
454.412	413.31
454.633	407.31
454.853	409.31
455.073	402.31
455.294	427.31
455.514	456.31
455.734	458.31
455.955	407.31
456.175	410.31
456.395	395.31
456.616	416.31
456.836	397.31
457.056	392.31
457.276	390.31
457.497	404.31
457.717	398.31
457.937	405.31
458.157	411.31
458.377	431.31
458.598	427.31
458.818	472.31
459.038	490.31
459.258	517.31
459.478	475.31
459.698	437.31
459.918	459.31
460.138	440.31
460.358	461.31
460.578	465.31
460.798	459.31
461.018	501.31
461.238	448.31
461.458	480.31
461.678	463.31
461.898	481.31
462.118	476.31
462.338	479.31
462.558	520.31
462.777	508.31
462.997	500.31
463.217	493.31
463.437	507.31
463.657	502.31
463.876	502.31
464.096	490.31
464.316	500.31
464.536	485.31
464.755	496.31
464.975	512.31
465.195	510.31
465.414	527.31
465.634	487.31
465.854	463.31
466.073	467.31
466.293	463.31
466.512	460.31
466.732	434.31
466.951	438.31
467.171	444.31
467.391	446.31
467.61	457.31
467.829	436.31
468.049	426.31
468.268	418.31
468.488	435.31
468.707	434.31
468.927	429.31
469.146	436.31
469.365	434.31
469.585	436.31
469.804	434.31
470.023	427.31
470.243	437.31
470.462	464.31
470.681	438.31
470.901	466.31
471.12	449.31
471.339	431.31
471.558	433.31
471.777	438.31
471.997	448.31
472.216	445.31
472.435	431.31
472.654	430.31
472.873	429.31
473.092	447.31
473.311	452.31
473.53	444.31
473.749	455.31
473.968	460.31
474.187	539.31
474.406	566.31
474.625	459.31
474.844	466.31
475.063	459.31
475.282	436.31
475.501	457.31
475.72	458.31
475.939	477.31
476.158	451.31
476.377	466.31
476.596	476.31
476.814	488.31
477.033	461.31
477.252	472.31
477.471	456.31
477.69	465.31
477.908	502.31
478.127	489.31
478.346	482.31
478.564	508.31
478.783	490.31
479.002	494.31
479.22	498.31
479.439	514.31
479.658	492.31
479.876	525.31
480.095	524.31
480.313	523.31
480.532	557.31
480.751	526.31
480.969	544.31
481.188	560.31
481.406	534.31
481.624	544.31
481.843	528.31
482.061	513.31
482.28	524.31
482.498	515.31
482.717	525.31
482.935	522.31
483.153	528.31
483.372	523.31
483.59	520.31
483.808	524.31
484.027	505.31
484.245	537.31
484.463	530.31
484.681	522.31
484.9	537.31
485.118	530.31
485.336	530.31
485.554	539.31
485.772	553.31
485.99	541.31
486.209	552.31
486.427	559.31
486.645	554.31
486.863	560.31
487.081	558.31
487.299	541.31
487.517	575.31
487.735	544.31
487.953	555.31
488.171	552.31
488.389	557.31
488.607	578.31
488.825	561.31
489.043	550.31
489.261	526.31
489.479	550.31
489.696	546.31
489.914	567.31
490.132	564.31
490.35	575.31
490.568	568.31
490.786	572.31
491.003	569.31
491.221	566.31
491.439	584.31
491.657	613.31
491.874	590.31
492.092	598.31
492.31	614.31
492.527	625.31
492.745	589.31
492.963	596.31
493.18	597.31
493.398	629.31
493.615	604.31
493.833	634.31
494.05	636.31
494.268	627.31
494.485	612.31
494.703	629.31
494.92	636.31
495.138	654.31
495.355	643.31
495.573	643.31
495.79	642.31
496.008	650.31
496.225	639.31
496.442	655.31
496.66	647.31
496.877	658.31
497.094	658.31
497.312	684.31
497.529	678.31
497.746	676.31
497.963	711.31
498.181	700.31
498.398	692.31
498.615	740.31
498.832	747.31
499.049	736.31
499.267	780.31
499.484	824.31
499.701	846.31
499.918	883.31
500.135	912.31
500.352	916.31
500.569	973.31
500.786	966.31
501.003	940.31
501.22	945.31
501.437	876.31
501.654	849.31
501.871	826.31
502.088	839.31
