Data from 1988.PennyLincolnUp.Lamp.En5.5.200Scan.071819.P2_HRD10591_17-21-23-972.txt Node
Date: Thu Jul 18 17:21:23 EDT 2019
User: cochatt
Spectrometer: HR+D1059
Trigger mode: 1
Integration Time (sec): 1.000000E-1
Scans to average: 1
Electric dark correction enabled: true
Nonlinearity correction enabled: false
Boxcar width: 0
XAxis mode: Wavelengths
Number of Pixels in Spectrum: 2048
>>>>>Begin Spectral Data<<<<<
223.165	-19.38
223.4	-19.38
223.635	-19.38
223.869	-11.38
224.104	-23.38
224.338	-17.38
224.573	-14.38
224.808	-17.38
225.042	-14.38
225.277	3.62
225.511	5.62
225.746	17.62
225.98	3.62
226.215	9.62
226.449	18.62
226.683	9.62
226.918	29.62
227.152	19.62
227.387	32.62
227.621	36.62
227.856	39.62
228.09	36.62
228.324	46.62
228.559	58.62
228.793	55.62
229.027	116.62
229.262	102.62
229.496	112.62
229.73	126.62
229.964	159.62
230.199	118.62
230.433	121.62
230.667	116.62
230.901	116.62
231.136	134.62
231.37	131.62
231.604	119.62
231.838	116.62
232.072	117.62
232.306	111.62
232.541	118.62
232.775	103.62
233.009	112.62
233.243	118.62
233.477	130.62
233.711	118.62
233.945	126.62
234.179	126.62
234.413	116.62
234.647	115.62
234.881	123.62
235.115	128.62
235.349	120.62
235.583	123.62
235.817	130.62
236.051	124.62
236.285	124.62
236.519	141.62
236.753	126.62
236.987	145.62
237.221	185.62
237.455	259.62
237.689	204.62
237.922	148.62
238.156	127.62
238.39	125.62
238.624	129.62
238.858	116.62
239.091	129.62
239.325	138.62
239.559	127.62
239.793	126.62
240.027	136.62
240.26	146.62
240.494	160.62
240.728	161.62
240.961	164.62
241.195	152.62
241.429	153.62
241.662	142.62
241.896	141.62
242.13	146.62
242.363	133.62
242.597	152.62
242.83	150.62
243.064	153.62
243.298	160.62
243.531	138.62
243.765	146.62
243.998	150.62
244.232	151.62
244.465	158.62
244.699	152.62
244.932	147.62
245.166	161.62
245.399	162.62
245.633	163.62
245.866	166.62
246.099	154.62
246.333	149.62
246.566	161.62
246.8	147.62
247.033	140.62
247.266	168.62
247.5	172.62
247.733	190.62
247.966	178.62
248.2	186.62
248.433	178.62
248.666	192.62
248.899	187.62
249.133	210.62
249.366	212.62
249.599	208.62
249.832	214.62
250.066	199.62
250.299	194.62
250.532	201.62
250.765	208.62
250.998	230.62
251.231	227.62
251.465	242.62
251.698	212.62
251.931	210.62
252.164	211.62
252.397	212.62
252.63	204.62
252.863	222.62
253.096	223.62
253.329	252.62
253.562	248.62
253.795	223.62
254.028	225.62
254.261	235.62
254.494	247.62
254.727	264.62
254.96	312.62
255.193	285.62
255.426	270.62
255.659	264.62
255.892	235.62
256.124	241.62
256.357	246.62
256.59	257.62
256.823	223.62
257.056	234.62
257.289	225.62
257.521	204.62
257.754	234.62
257.987	223.62
258.22	222.62
258.452	238.62
258.685	227.62
258.918	234.62
259.151	242.62
259.383	242.62
259.616	226.62
259.849	227.62
260.081	244.62
260.314	263.62
260.547	278.62
260.779	255.62
261.012	266.62
261.244	246.62
261.477	229.62
261.71	233.62
261.942	237.62
262.175	266.62
262.407	248.62
262.64	228.62
262.872	242.62
263.105	229.62
263.337	215.62
263.57	218.62
263.802	210.62
264.035	213.62
264.267	215.62
264.499	238.62
264.732	231.62
264.964	224.62
265.197	228.62
265.429	231.62
265.661	237.62
265.894	235.62
266.126	221.62
266.358	227.62
266.591	238.62
266.823	238.62
267.055	243.62
267.287	245.62
267.52	231.62
267.752	227.62
267.984	239.62
268.216	252.62
268.448	243.62
268.681	264.62
268.913	275.62
269.145	281.62
269.377	299.62
269.609	270.62
269.841	278.62
270.073	286.62
270.306	309.62
270.538	337.62
270.77	347.62
271.002	333.62
271.234	323.62
271.466	314.62
271.698	316.62
271.93	342.62
272.162	337.62
272.394	355.62
272.626	326.62
272.858	320.62
273.09	288.62
273.322	282.62
273.553	275.62
273.785	286.62
274.017	280.62
274.249	288.62
274.481	290.62
274.713	291.62
274.945	282.62
275.176	288.62
275.408	287.62
275.64	288.62
275.872	278.62
276.104	310.62
276.335	285.62
276.567	298.62
276.799	298.62
277.031	346.62
277.262	351.62
277.494	358.62
277.726	323.62
277.957	300.62
278.189	290.62
278.421	310.62
278.652	302.62
278.884	291.62
279.115	280.62
279.347	278.62
279.579	287.62
279.81	273.62
280.042	273.62
280.273	284.62
280.505	283.62
280.736	288.62
280.968	271.62
281.199	268.62
281.431	296.62
281.662	276.62
281.894	294.62
282.125	290.62
282.356	294.62
282.588	317.62
282.819	357.62
283.051	297.62
283.282	286.62
283.513	289.62
283.745	292.62
283.976	314.62
284.207	305.62
284.439	323.62
284.67	300.62
284.901	310.62
285.132	318.62
285.364	319.62
285.595	299.62
285.826	311.62
286.057	288.62
286.288	295.62
286.52	296.62
286.751	299.62
286.982	322.62
287.213	317.62
287.444	305.62
287.675	310.62
287.906	307.62
288.138	344.62
288.369	336.62
288.6	321.62
288.831	318.62
289.062	336.62
289.293	312.62
289.524	312.62
289.755	310.62
289.986	338.62
290.217	318.62
290.448	296.62
290.679	338.62
290.91	328.62
291.141	291.62
291.371	317.62
291.602	319.62
291.833	315.62
292.064	318.62
292.295	324.62
292.526	320.62
292.757	328.62
292.987	310.62
293.218	319.62
293.449	327.62
293.68	324.62
293.91	321.62
294.141	326.62
294.372	307.62
294.603	319.62
294.833	308.62
295.064	309.62
295.295	323.62
295.525	325.62
295.756	317.62
295.987	331.62
296.217	338.62
296.448	356.62
296.679	352.62
296.909	313.62
297.14	336.62
297.37	323.62
297.601	351.62
297.831	322.62
298.062	338.62
298.292	351.62
298.523	327.62
298.753	336.62
298.984	347.62
299.214	338.62
299.445	337.62
299.675	312.62
299.905	346.62
300.136	328.62
300.366	352.62
300.597	347.62
300.827	347.62
301.057	339.62
301.288	356.62
301.518	352.62
301.748	358.62
301.979	350.62
302.209	357.62
302.439	356.62
302.669	366.62
302.9	360.62
303.13	350.62
303.36	358.62
303.59	378.62
303.82	380.62
304.051	360.62
304.281	352.62
304.511	360.62
304.741	375.62
304.971	363.62
305.201	367.62
305.431	358.62
305.661	375.62
305.891	358.62
306.121	363.62
306.352	348.62
306.582	368.62
306.812	356.62
307.042	366.62
307.272	362.62
307.502	373.62
307.731	376.62
307.961	352.62
308.191	374.62
308.421	377.62
308.651	377.62
308.881	362.62
309.111	390.62
309.341	368.62
309.571	393.62
309.8	408.62
310.03	403.62
310.26	435.62
310.49	407.62
310.72	429.62
310.949	462.62
311.179	438.62
311.409	425.62
311.639	396.62
311.868	422.62
312.098	420.62
312.328	418.62
312.557	434.62
312.787	454.62
313.017	459.62
313.246	441.62
313.476	432.62
313.706	407.62
313.935	442.62
314.165	454.62
314.394	463.62
314.624	451.62
314.853	444.62
315.083	446.62
315.312	423.62
315.542	412.62
315.771	411.62
316.001	424.62
316.23	400.62
316.46	417.62
316.689	419.62
316.919	405.62
317.148	444.62
317.377	433.62
317.607	427.62
317.836	422.62
318.065	410.62
318.295	426.62
318.524	436.62
318.753	415.62
318.983	425.62
319.212	422.62
319.441	422.62
319.67	442.62
319.9	421.62
320.129	426.62
320.358	431.62
320.587	419.62
320.816	417.62
321.046	450.62
321.275	455.62
321.504	467.62
321.733	462.62
321.962	467.62
322.191	465.62
322.42	466.62
322.649	498.62
322.878	523.62
323.108	519.62
323.337	567.62
323.566	552.62
323.795	619.62
324.024	667.62
324.253	808.62
324.482	1120.62
324.71	1849.62
324.939	2690.62
325.168	2276.62
325.397	1162.62
325.626	790.62
325.855	631.62
326.084	578.62
326.313	571.62
326.542	585.62
326.77	634.62
326.999	746.62
327.228	1036.62
327.457	1594.62
327.686	2023.62
327.914	1330.62
328.143	842.62
328.372	721.62
328.6	658.62
328.829	629.62
329.058	661.62
329.287	672.62
329.515	632.62
329.744	568.62
329.972	563.62
330.201	573.62
330.43	619.62
330.658	631.62
330.887	664.62
331.115	660.62
331.344	592.62
331.572	552.62
331.801	566.62
332.03	578.62
332.258	539.62
332.486	517.62
332.715	523.62
332.943	518.62
333.172	506.62
333.4	528.62
333.629	543.62
333.857	541.62
334.085	537.62
334.314	531.62
334.542	539.62
334.771	565.62
334.999	529.62
335.227	544.62
335.455	516.62
335.684	506.62
335.912	526.62
336.14	492.62
336.369	529.62
336.597	518.62
336.825	517.62
337.053	483.62
337.281	470.62
337.51	477.62
337.738	477.62
337.966	483.62
338.194	512.62
338.422	519.62
338.65	502.62
338.878	502.62
339.106	487.62
339.334	472.62
339.562	489.62
339.79	474.62
340.018	496.62
340.246	500.62
340.474	497.62
340.702	482.62
340.93	481.62
341.158	484.62
341.386	492.62
341.614	503.62
341.842	506.62
342.07	499.62
342.298	472.62
342.526	460.62
342.754	462.62
342.981	473.62
343.209	485.62
343.437	501.62
343.665	501.62
343.893	502.62
344.12	496.62
344.348	518.62
344.576	499.62
344.804	488.62
345.031	516.62
345.259	523.62
345.487	518.62
345.714	506.62
345.942	490.62
346.17	496.62
346.397	479.62
346.625	490.62
346.853	452.62
347.08	472.62
347.308	462.62
347.535	473.62
347.763	516.62
347.99	487.62
348.218	483.62
348.445	509.62
348.673	491.62
348.9	486.62
349.128	462.62
349.355	470.62
349.583	464.62
349.81	451.62
350.037	456.62
350.265	465.62
350.492	467.62
350.72	470.62
350.947	453.62
351.174	476.62
351.402	475.62
351.629	494.62
351.856	473.62
352.083	508.62
352.311	490.62
352.538	502.62
352.765	526.62
352.992	496.62
353.22	458.62
353.447	447.62
353.674	464.62
353.901	436.62
354.128	450.62
354.355	452.62
354.583	431.62
354.81	448.62
355.037	454.62
355.264	438.62
355.491	434.62
355.718	448.62
355.945	439.62
356.172	453.62
356.399	434.62
356.626	453.62
356.853	454.62
357.08	432.62
357.307	458.62
357.534	455.62
357.761	445.62
357.988	457.62
358.215	441.62
358.441	448.62
358.668	464.62
358.895	477.62
359.122	475.62
359.349	473.62
359.576	472.62
359.802	504.62
360.029	518.62
360.256	532.62
360.483	527.62
360.709	498.62
360.936	488.62
361.163	469.62
361.39	481.62
361.616	487.62
361.843	457.62
362.07	469.62
362.296	487.62
362.523	474.62
362.749	485.62
362.976	456.62
363.203	456.62
363.429	483.62
363.656	470.62
363.882	466.62
364.109	471.62
364.335	453.62
364.562	437.62
364.788	475.62
365.015	479.62
365.241	472.62
365.468	468.62
365.694	480.62
365.92	462.62
366.147	467.62
366.373	463.62
366.599	443.62
366.826	454.62
367.052	438.62
367.278	450.62
367.505	463.62
367.731	472.62
367.957	472.62
368.184	457.62
368.41	480.62
368.636	467.62
368.862	482.62
369.089	501.62
369.315	441.62
369.541	451.62
369.767	455.62
369.993	467.62
370.219	460.62
370.445	459.62
370.672	457.62
370.898	460.62
371.124	442.62
371.35	471.62
371.576	438.62
371.802	471.62
372.028	448.62
372.254	458.62
372.48	453.62
372.706	432.62
372.932	427.62
373.158	468.62
373.384	442.62
373.61	458.62
373.835	486.62
374.061	467.62
374.287	487.62
374.513	474.62
374.739	471.62
374.965	483.62
375.191	476.62
375.416	464.62
375.642	454.62
375.868	490.62
376.094	457.62
376.319	459.62
376.545	467.62
376.771	468.62
376.997	457.62
377.222	460.62
377.448	472.62
377.674	451.62
377.899	430.62
378.125	462.62
378.35	459.62
378.576	469.62
378.802	450.62
379.027	479.62
379.253	459.62
379.478	432.62
379.704	469.62
379.929	447.62
380.155	461.62
380.38	438.62
380.606	446.62
380.831	462.62
381.057	476.62
381.282	453.62
381.507	472.62
381.733	472.62
381.958	450.62
382.184	452.62
382.409	457.62
382.634	482.62
382.86	491.62
383.085	483.62
383.31	482.62
383.535	487.62
383.761	482.62
383.986	483.62
384.211	467.62
384.436	481.62
384.662	489.62
384.887	497.62
385.112	498.62
385.337	524.62
385.562	501.62
385.787	507.62
386.013	502.62
386.238	532.62
386.463	524.62
386.688	501.62
386.913	518.62
387.138	500.62
387.363	514.62
387.588	512.62
387.813	496.62
388.038	514.62
388.263	491.62
388.488	503.62
388.713	492.62
388.938	504.62
389.163	515.62
389.387	514.62
389.612	505.62
389.837	530.62
390.062	510.62
390.287	524.62
390.512	511.62
390.736	503.62
390.961	520.62
391.186	517.62
391.411	531.62
391.636	522.62
391.86	536.62
392.085	522.62
392.31	538.62
392.534	553.62
392.759	553.62
392.984	507.62
393.208	509.62
393.433	516.62
393.658	521.62
393.882	518.62
394.107	514.62
394.331	515.62
394.556	522.62
394.78	554.62
395.005	543.62
395.229	529.62
395.454	542.62
395.678	539.62
395.903	568.62
396.127	606.62
396.352	579.62
396.576	558.62
396.801	545.62
397.025	547.62
397.249	551.62
397.474	562.62
397.698	546.62
397.922	556.62
398.147	595.62
398.371	596.62
398.595	587.62
398.82	575.62
399.044	591.62
399.268	632.62
399.492	662.62
399.717	720.62
399.941	755.62
400.165	747.62
400.389	729.62
400.613	689.62
400.837	624.62
401.062	610.62
401.286	605.62
401.51	600.62
401.734	624.62
401.958	606.62
402.182	598.62
402.406	622.62
402.63	628.62
402.854	613.62
403.078	594.62
403.302	603.62
403.526	631.62
403.75	634.62
403.974	613.62
404.198	633.62
404.422	623.62
404.645	595.62
404.869	636.62
405.093	634.62
405.317	686.62
405.541	723.62
405.765	690.62
405.988	630.62
406.212	636.62
406.436	696.62
406.66	691.62
406.883	671.62
407.107	707.62
407.331	754.62
407.555	833.62
407.778	834.62
408.002	737.62
408.226	696.62
408.449	696.62
408.673	689.62
408.896	707.62
409.12	760.62
409.344	715.62
409.567	674.62
409.791	666.62
410.014	647.62
410.238	618.62
410.461	619.62
410.685	656.62
410.908	677.62
411.132	698.62
411.355	718.62
411.578	684.62
411.802	615.62
412.025	602.62
412.249	632.62
412.472	660.62
412.695	692.62
412.919	651.62
413.142	623.62
413.365	611.62
413.589	624.62
413.812	587.62
414.035	604.62
414.258	594.62
414.482	586.62
414.705	570.62
414.928	603.62
415.151	584.62
415.374	580.62
415.597	579.62
415.821	582.62
416.044	590.62
416.267	580.62
416.49	586.62
416.713	561.62
416.936	594.62
417.159	611.62
417.382	569.62
417.605	592.62
417.828	595.62
418.051	635.62
418.274	607.62
418.497	577.62
418.72	582.62
418.943	582.62
419.166	600.62
419.389	624.62
419.611	624.62
419.834	635.62
420.057	630.62
420.28	618.62
420.503	631.62
420.726	620.62
420.948	615.62
421.171	670.62
421.394	707.62
421.617	662.62
421.839	626.62
422.062	631.62
422.285	636.62
422.507	723.62
422.73	802.62
422.953	805.62
423.175	671.62
423.398	655.62
423.621	652.62
423.843	671.62
424.066	688.62
424.288	641.62
424.511	686.62
424.733	743.62
424.956	841.62
425.178	832.62
425.401	792.62
425.623	838.62
425.846	692.62
426.068	672.62
426.291	666.62
426.513	652.62
426.735	664.62
426.958	721.62
427.18	838.62
427.402	978.62
427.625	1063.62
427.847	928.62
428.069	771.62
428.292	686.62
428.514	657.62
428.736	663.62
428.958	644.62
429.181	619.62
429.403	626.62
429.625	616.62
429.847	682.62
430.069	746.62
430.292	724.62
430.514	646.62
430.736	608.62
430.958	608.62
431.18	599.62
431.402	570.62
431.624	580.62
431.846	591.62
432.068	578.62
432.29	591.62
432.512	598.62
432.734	585.62
432.956	592.62
433.178	590.62
433.4	625.62
433.622	596.62
433.844	573.62
434.066	607.62
434.287	579.62
434.509	633.62
434.731	602.62
434.953	631.62
435.175	644.62
435.397	660.62
435.618	684.62
435.84	729.62
436.062	832.62
436.284	932.62
436.505	755.62
436.727	706.62
436.949	631.62
437.17	593.62
437.392	627.62
437.614	607.62
437.835	682.62
438.057	784.62
438.278	916.62
438.5	909.62
438.721	1019.62
438.943	988.62
439.165	784.62
439.386	683.62
439.608	686.62
439.829	667.62
440.05	718.62
440.272	762.62
440.493	712.62
440.715	646.62
440.936	637.62
441.158	611.62
441.379	633.62
441.6	632.62
441.822	662.62
442.043	706.62
442.264	821.62
442.486	873.62
442.707	745.62
442.928	682.62
443.149	697.62
443.371	710.62
443.592	766.62
443.813	876.62
444.034	952.62
444.255	778.62
444.476	716.62
444.698	682.62
444.919	691.62
445.14	819.62
445.361	738.62
445.582	706.62
445.803	794.62
446.024	916.62
446.245	942.62
446.466	856.62
446.687	745.62
446.908	664.62
447.129	626.62
447.35	618.62
447.571	622.62
447.792	603.62
448.013	611.62
448.234	644.62
448.455	711.62
448.675	856.62
448.896	967.62
449.117	806.62
449.338	788.62
449.559	931.62
449.779	1078.62
450	842.62
450.221	690.62
450.442	622.62
450.662	592.62
450.883	608.62
451.104	622.62
451.324	622.62
451.545	573.62
451.766	583.62
451.986	546.62
452.207	561.62
452.428	548.62
452.648	564.62
452.869	562.62
453.089	555.62
453.31	585.62
453.53	567.62
453.751	551.62
453.971	553.62
454.192	562.62
454.412	574.62
454.633	540.62
454.853	559.62
455.073	549.62
455.294	620.62
455.514	667.62
455.734	634.62
455.955	561.62
456.175	521.62
456.395	522.62
456.616	525.62
456.836	499.62
457.056	522.62
457.276	498.62
457.497	520.62
457.717	537.62
457.937	536.62
458.157	520.62
458.377	531.62
458.598	572.62
458.818	632.62
459.038	733.62
459.258	763.62
459.478	642.62
459.698	601.62
459.918	590.62
460.138	583.62
460.358	578.62
460.578	580.62
460.798	601.62
461.018	607.62
461.238	629.62
461.458	588.62
461.678	603.62
461.898	607.62
462.118	598.62
462.338	608.62
462.558	627.62
462.777	646.62
462.997	645.62
463.217	656.62
463.437	656.62
463.657	653.62
463.876	625.62
464.096	647.62
464.316	667.62
464.536	644.62
464.755	650.62
464.975	656.62
465.195	679.62
465.414	777.62
465.634	698.62
465.854	643.62
466.073	608.62
466.293	585.62
466.512	602.62
466.732	564.62
466.951	561.62
467.171	558.62
467.391	584.62
467.61	592.62
467.829	573.62
468.049	588.62
468.268	567.62
468.488	555.62
468.707	545.62
468.927	570.62
469.146	570.62
469.365	563.62
469.585	563.62
469.804	567.62
470.023	579.62
470.243	557.62
470.462	584.62
470.681	601.62
470.901	586.62
471.12	588.62
471.339	573.62
471.558	567.62
471.777	600.62
471.997	529.62
472.216	552.62
472.435	586.62
472.654	575.62
472.873	546.62
473.092	553.62
473.311	567.62
473.53	562.62
473.749	578.62
473.968	618.62
474.187	757.62
474.406	766.62
474.625	643.62
474.844	630.62
475.063	607.62
475.282	581.62
475.501	588.62
475.72	583.62
475.939	585.62
476.158	593.62
476.377	590.62
476.596	626.62
476.814	594.62
477.033	623.62
477.252	606.62
477.471	608.62
477.69	622.62
477.908	631.62
478.127	625.62
478.346	618.62
478.564	648.62
478.783	634.62
479.002	654.62
479.22	668.62
479.439	678.62
479.658	699.62
479.876	710.62
480.095	716.62
480.313	733.62
480.532	704.62
480.751	708.62
480.969	692.62
481.188	719.62
481.406	740.62
481.624	710.62
481.843	664.62
482.061	684.62
482.28	680.62
482.498	674.62
482.717	664.62
482.935	681.62
483.153	669.62
483.372	667.62
483.59	680.62
483.808	652.62
484.027	656.62
484.245	682.62
484.463	696.62
484.681	683.62
484.9	690.62
485.118	684.62
485.336	688.62
485.554	683.62
485.772	720.62
485.99	706.62
486.209	714.62
486.427	719.62
486.645	695.62
486.863	731.62
487.081	729.62
487.299	722.62
487.517	725.62
487.735	719.62
487.953	745.62
488.171	718.62
488.389	731.62
488.607	732.62
488.825	717.62
489.043	740.62
489.261	730.62
489.479	736.62
489.696	769.62
489.914	768.62
490.132	738.62
490.35	777.62
490.568	754.62
490.786	771.62
491.003	761.62
491.221	805.62
491.439	806.62
491.657	825.62
491.874	840.62
492.092	815.62
492.31	828.62
492.527	836.62
492.745	807.62
492.963	844.62
493.18	843.62
493.398	871.62
493.615	842.62
493.833	865.62
494.05	831.62
494.268	871.62
494.485	867.62
494.703	860.62
494.92	864.62
495.138	835.62
495.355	842.62
495.573	860.62
495.79	883.62
496.008	857.62
496.225	849.62
496.442	847.62
496.66	876.62
496.877	851.62
497.094	894.62
497.312	887.62
497.529	900.62
497.746	912.62
497.963	935.62
498.181	926.62
498.398	962.62
498.615	983.62
498.832	982.62
499.049	1014.62
499.267	1034.62
499.484	1057.62
499.701	1091.62
499.918	1136.62
500.135	1193.62
500.352	1217.62
500.569	1262.62
500.786	1223.62
501.003	1227.62
501.22	1208.62
501.437	1152.62
501.654	1118.62
