Data from 1988.PennyLincolnUp.Lamp.En5.5.200Scan.071819.P2_HRD10591_17-20-03-971.txt Node
Date: Thu Jul 18 17:20:03 EDT 2019
User: cochatt
Spectrometer: HR+D1059
Trigger mode: 1
Integration Time (sec): 1.000000E-1
Scans to average: 1
Electric dark correction enabled: true
Nonlinearity correction enabled: false
Boxcar width: 0
XAxis mode: Wavelengths
Number of Pixels in Spectrum: 2048
>>>>>Begin Spectral Data<<<<<
223.165	-25.75
223.4	-25.75
223.635	-25.75
223.869	-29.75
224.104	-7.75
224.338	-0.75
224.573	-16.75
224.808	-24.75
225.042	-11.75
225.277	-9.75
225.511	3.25
225.746	-4.75
225.98	11.25
226.215	16.25
226.449	2.25
226.683	22.25
226.918	34.25
227.152	42.25
227.387	47.25
227.621	40.25
227.856	46.25
228.09	55.25
228.324	46.25
228.559	52.25
228.793	86.25
229.027	94.25
229.262	112.25
229.496	137.25
229.73	134.25
229.964	176.25
230.199	136.25
230.433	110.25
230.667	118.25
230.901	111.25
231.136	121.25
231.37	138.25
231.604	100.25
231.838	111.25
232.072	96.25
232.306	118.25
232.541	108.25
232.775	130.25
233.009	106.25
233.243	118.25
233.477	124.25
233.711	116.25
233.945	131.25
234.179	119.25
234.413	123.25
234.647	127.25
234.881	114.25
235.115	114.25
235.349	120.25
235.583	128.25
235.817	115.25
236.051	127.25
236.285	151.25
236.519	119.25
236.753	132.25
236.987	155.25
237.221	202.25
237.455	247.25
237.689	189.25
237.922	167.25
238.156	146.25
238.39	144.25
238.624	138.25
238.858	117.25
239.091	135.25
239.325	138.25
239.559	125.25
239.793	138.25
240.027	139.25
240.26	146.25
240.494	167.25
240.728	156.25
240.961	164.25
241.195	156.25
241.429	152.25
241.662	140.25
241.896	138.25
242.13	159.25
242.363	149.25
242.597	139.25
242.83	160.25
243.064	150.25
243.298	146.25
243.531	154.25
243.765	139.25
243.998	136.25
244.232	150.25
244.465	139.25
244.699	165.25
244.932	146.25
245.166	153.25
245.399	146.25
245.633	147.25
245.866	151.25
246.099	150.25
246.333	153.25
246.566	150.25
246.8	159.25
247.033	157.25
247.266	163.25
247.5	167.25
247.733	162.25
247.966	191.25
248.2	196.25
248.433	183.25
248.666	174.25
248.899	210.25
249.133	201.25
249.366	216.25
249.599	224.25
249.832	200.25
250.066	192.25
250.299	175.25
250.532	178.25
250.765	197.25
250.998	215.25
251.231	217.25
251.465	211.25
251.698	213.25
251.931	201.25
252.164	207.25
252.397	200.25
252.63	216.25
252.863	204.25
253.096	192.25
253.329	227.25
253.562	219.25
253.795	226.25
254.028	226.25
254.261	221.25
254.494	221.25
254.727	255.25
254.96	292.25
255.193	278.25
255.426	252.25
255.659	214.25
255.892	234.25
256.124	222.25
256.357	219.25
256.59	209.25
256.823	230.25
257.056	207.25
257.289	211.25
257.521	216.25
257.754	230.25
257.987	230.25
258.22	235.25
258.452	193.25
258.685	211.25
258.918	213.25
259.151	234.25
259.383	239.25
259.616	250.25
259.849	235.25
260.081	242.25
260.314	258.25
260.547	289.25
260.779	257.25
261.012	231.25
261.244	246.25
261.477	245.25
261.71	232.25
261.942	233.25
262.175	253.25
262.407	238.25
262.64	230.25
262.872	219.25
263.105	243.25
263.337	218.25
263.57	228.25
263.802	236.25
264.035	223.25
264.267	204.25
264.499	207.25
264.732	223.25
264.964	221.25
265.197	207.25
265.429	227.25
265.661	225.25
265.894	238.25
266.126	214.25
266.358	237.25
266.591	223.25
266.823	226.25
267.055	232.25
267.287	237.25
267.52	260.25
267.752	255.25
267.984	247.25
268.216	239.25
268.448	239.25
268.681	254.25
268.913	258.25
269.145	248.25
269.377	279.25
269.609	282.25
269.841	282.25
270.073	300.25
270.306	299.25
270.538	341.25
270.77	330.25
271.002	315.25
271.234	295.25
271.466	302.25
271.698	307.25
271.93	326.25
272.162	310.25
272.394	318.25
272.626	314.25
272.858	306.25
273.09	280.25
273.322	283.25
273.553	285.25
273.785	291.25
274.017	274.25
274.249	277.25
274.481	266.25
274.713	285.25
274.945	280.25
275.176	274.25
275.408	280.25
275.64	264.25
275.872	287.25
276.104	280.25
276.335	278.25
276.567	286.25
276.799	308.25
277.031	309.25
277.262	318.25
277.494	333.25
277.726	311.25
277.957	297.25
278.189	296.25
278.421	290.25
278.652	293.25
278.884	280.25
279.115	278.25
279.347	271.25
279.579	294.25
279.81	290.25
280.042	287.25
280.273	274.25
280.505	288.25
280.736	279.25
280.968	269.25
281.199	266.25
281.431	278.25
281.662	308.25
281.894	275.25
282.125	279.25
282.356	285.25
282.588	322.25
282.819	322.25
283.051	303.25
283.282	297.25
283.513	273.25
283.745	287.25
283.976	304.25
284.207	290.25
284.439	284.25
284.67	309.25
284.901	298.25
285.132	290.25
285.364	303.25
285.595	283.25
285.826	285.25
286.057	283.25
286.288	299.25
286.52	285.25
286.751	278.25
286.982	304.25
287.213	294.25
287.444	301.25
287.675	312.25
287.906	301.25
288.138	322.25
288.369	306.25
288.6	311.25
288.831	308.25
289.062	299.25
289.293	326.25
289.524	311.25
289.755	308.25
289.986	307.25
290.217	302.25
290.448	300.25
290.679	296.25
290.91	316.25
291.141	303.25
291.371	303.25
291.602	307.25
291.833	296.25
292.064	306.25
292.295	314.25
292.526	314.25
292.757	303.25
292.987	315.25
293.218	311.25
293.449	314.25
293.68	308.25
293.91	303.25
294.141	321.25
294.372	324.25
294.603	309.25
294.833	322.25
295.064	323.25
295.295	322.25
295.525	300.25
295.756	298.25
295.987	318.25
296.217	342.25
296.448	370.25
296.679	331.25
296.909	320.25
297.14	322.25
297.37	322.25
297.601	328.25
297.831	324.25
298.062	322.25
298.292	328.25
298.523	323.25
298.753	316.25
298.984	318.25
299.214	326.25
299.445	327.25
299.675	324.25
299.905	329.25
300.136	322.25
300.366	332.25
300.597	363.25
300.827	347.25
301.057	331.25
301.288	354.25
301.518	341.25
301.748	343.25
301.979	343.25
302.209	364.25
302.439	362.25
302.669	346.25
302.9	363.25
303.13	350.25
303.36	334.25
303.59	373.25
303.82	349.25
304.051	351.25
304.281	335.25
304.511	343.25
304.741	357.25
304.971	359.25
305.201	336.25
305.431	355.25
305.661	359.25
305.891	346.25
306.121	356.25
306.352	356.25
306.582	353.25
306.812	337.25
307.042	357.25
307.272	362.25
307.502	347.25
307.731	355.25
307.961	348.25
308.191	346.25
308.421	359.25
308.651	354.25
308.881	355.25
309.111	358.25
309.341	376.25
309.571	383.25
309.8	401.25
310.03	399.25
310.26	389.25
310.49	384.25
310.72	405.25
310.949	428.25
311.179	446.25
311.409	427.25
311.639	403.25
311.868	406.25
312.098	417.25
312.328	396.25
312.557	413.25
312.787	438.25
313.017	425.25
313.246	430.25
313.476	422.25
313.706	413.25
313.935	407.25
314.165	421.25
314.394	416.25
314.624	448.25
314.853	429.25
315.083	427.25
315.312	391.25
315.542	398.25
315.771	398.25
316.001	386.25
316.23	422.25
316.46	391.25
316.689	410.25
316.919	400.25
317.148	411.25
317.377	416.25
317.607	400.25
317.836	399.25
318.065	423.25
318.295	418.25
318.524	413.25
318.753	404.25
318.983	418.25
319.212	390.25
319.441	434.25
319.67	441.25
319.9	422.25
320.129	429.25
320.358	426.25
320.587	414.25
320.816	424.25
321.046	414.25
321.275	416.25
321.504	414.25
321.733	422.25
321.962	428.25
322.191	449.25
322.42	472.25
322.649	474.25
322.878	494.25
323.108	499.25
323.337	533.25
323.566	539.25
323.795	572.25
324.024	628.25
324.253	733.25
324.482	1081.25
324.71	1686.25
324.939	2456.25
325.168	2094.25
325.397	1096.25
325.626	734.25
325.855	612.25
326.084	554.25
326.313	549.25
326.542	572.25
326.77	595.25
326.999	721.25
327.228	937.25
327.457	1478.25
327.686	1850.25
327.914	1180.25
328.143	770.25
328.372	691.25
328.6	658.25
328.829	596.25
329.058	610.25
329.287	608.25
329.515	630.25
329.744	559.25
329.972	545.25
330.201	532.25
330.43	534.25
330.658	597.25
330.887	605.25
331.115	607.25
331.344	582.25
331.572	536.25
331.801	524.25
332.03	539.25
332.258	515.25
332.486	488.25
332.715	488.25
332.943	503.25
333.172	488.25
333.4	480.25
333.629	491.25
333.857	486.25
334.085	486.25
334.314	532.25
334.542	524.25
334.771	517.25
334.999	493.25
335.227	478.25
335.455	470.25
335.684	492.25
335.912	491.25
336.14	478.25
336.369	487.25
336.597	489.25
336.825	482.25
337.053	474.25
337.281	483.25
337.51	470.25
337.738	481.25
337.966	468.25
338.194	471.25
338.422	499.25
338.65	470.25
338.878	477.25
339.106	484.25
339.334	457.25
339.562	452.25
339.79	506.25
340.018	479.25
340.246	472.25
340.474	474.25
340.702	473.25
340.93	461.25
341.158	487.25
341.386	488.25
341.614	468.25
341.842	444.25
342.07	478.25
342.298	463.25
342.526	482.25
342.754	452.25
342.981	452.25
343.209	477.25
343.437	467.25
343.665	465.25
343.893	461.25
344.12	486.25
344.348	474.25
344.576	474.25
344.804	476.25
345.031	478.25
345.259	498.25
345.487	492.25
345.714	478.25
345.942	482.25
346.17	441.25
346.397	442.25
346.625	447.25
346.853	442.25
347.08	432.25
347.308	440.25
347.535	477.25
347.763	486.25
347.99	471.25
348.218	485.25
348.445	489.25
348.673	479.25
348.9	469.25
349.128	456.25
349.355	438.25
349.583	454.25
349.81	419.25
350.037	448.25
350.265	432.25
350.492	459.25
350.72	442.25
350.947	462.25
351.174	464.25
351.402	473.25
351.629	465.25
351.856	450.25
352.083	476.25
352.311	485.25
352.538	485.25
352.765	481.25
352.992	479.25
353.22	466.25
353.447	454.25
353.674	454.25
353.901	443.25
354.128	408.25
354.355	467.25
354.583	467.25
354.81	436.25
355.037	432.25
355.264	440.25
355.491	428.25
355.718	404.25
355.945	419.25
356.172	431.25
356.399	403.25
356.626	442.25
356.853	436.25
357.08	414.25
357.307	427.25
357.534	442.25
357.761	430.25
357.988	438.25
358.215	440.25
358.441	425.25
358.668	428.25
358.895	435.25
359.122	452.25
359.349	445.25
359.576	468.25
359.802	479.25
360.029	489.25
360.256	520.25
360.483	503.25
360.709	465.25
360.936	476.25
361.163	467.25
361.39	486.25
361.616	452.25
361.843	438.25
362.07	456.25
362.296	471.25
362.523	452.25
362.749	454.25
362.976	444.25
363.203	438.25
363.429	441.25
363.656	468.25
363.882	456.25
364.109	430.25
364.335	434.25
364.562	451.25
364.788	424.25
365.015	436.25
365.241	440.25
365.468	441.25
365.694	472.25
365.92	476.25
366.147	422.25
366.373	436.25
366.599	409.25
366.826	438.25
367.052	427.25
367.278	457.25
367.505	438.25
367.731	454.25
367.957	439.25
368.184	428.25
368.41	451.25
368.636	440.25
368.862	469.25
369.089	452.25
369.315	431.25
369.541	442.25
369.767	429.25
369.993	453.25
370.219	462.25
370.445	445.25
370.672	436.25
370.898	438.25
371.124	452.25
371.35	445.25
371.576	429.25
371.802	438.25
372.028	440.25
372.254	459.25
372.48	431.25
372.706	458.25
372.932	458.25
373.158	446.25
373.384	442.25
373.61	443.25
373.835	454.25
374.061	447.25
374.287	467.25
374.513	450.25
374.739	462.25
374.965	448.25
375.191	434.25
375.416	474.25
375.642	473.25
375.868	453.25
376.094	453.25
376.319	458.25
376.545	456.25
376.771	440.25
376.997	454.25
377.222	447.25
377.448	463.25
377.674	450.25
377.899	456.25
378.125	445.25
378.35	420.25
378.576	442.25
378.802	441.25
379.027	465.25
379.253	454.25
379.478	423.25
379.704	455.25
379.929	444.25
380.155	450.25
380.38	450.25
380.606	446.25
380.831	444.25
381.057	460.25
381.282	453.25
381.507	450.25
381.733	472.25
381.958	438.25
382.184	456.25
382.409	443.25
382.634	446.25
382.86	463.25
383.085	479.25
383.31	460.25
383.535	430.25
383.761	460.25
383.986	450.25
384.211	460.25
384.436	492.25
384.662	488.25
384.887	490.25
385.112	476.25
385.337	486.25
385.562	480.25
385.787	489.25
386.013	514.25
386.238	515.25
386.463	482.25
386.688	498.25
386.913	474.25
387.138	478.25
387.363	469.25
387.588	500.25
387.813	490.25
388.038	470.25
388.263	512.25
388.488	502.25
388.713	510.25
388.938	501.25
389.163	506.25
389.387	514.25
389.612	482.25
389.837	498.25
390.062	474.25
390.287	476.25
390.512	477.25
390.736	514.25
390.961	496.25
391.186	522.25
391.411	494.25
391.636	521.25
391.86	532.25
392.085	547.25
392.31	484.25
392.534	533.25
392.759	490.25
392.984	514.25
393.208	491.25
393.433	493.25
393.658	523.25
393.882	508.25
394.107	510.25
394.331	524.25
394.556	498.25
394.78	501.25
395.005	516.25
395.229	520.25
395.454	513.25
395.678	529.25
395.903	531.25
396.127	543.25
396.352	543.25
396.576	529.25
396.801	533.25
397.025	527.25
397.249	528.25
397.474	524.25
397.698	532.25
397.922	563.25
398.147	552.25
398.371	578.25
398.595	574.25
398.82	578.25
399.044	581.25
399.268	616.25
399.492	638.25
399.717	679.25
399.941	694.25
400.165	748.25
400.389	733.25
400.613	682.25
400.837	612.25
401.062	618.25
401.286	572.25
401.51	583.25
401.734	584.25
401.958	573.25
402.182	583.25
402.406	599.25
402.63	582.25
402.854	582.25
403.078	593.25
403.302	586.25
403.526	615.25
403.75	627.25
403.974	585.25
404.198	618.25
404.422	583.25
404.645	598.25
404.869	619.25
405.093	626.25
405.317	664.25
405.541	669.25
405.765	646.25
405.988	640.25
406.212	635.25
406.436	645.25
406.66	670.25
406.883	668.25
407.107	666.25
407.331	737.25
407.555	817.25
407.778	807.25
408.002	701.25
408.226	672.25
408.449	668.25
408.673	668.25
408.896	681.25
409.12	738.25
409.344	688.25
409.567	645.25
409.791	616.25
410.014	606.25
410.238	595.25
410.461	602.25
410.685	615.25
410.908	626.25
411.132	658.25
411.355	709.25
411.578	662.25
411.802	615.25
412.025	605.25
412.249	591.25
412.472	627.25
412.695	624.25
412.919	612.25
413.142	574.25
413.365	598.25
413.589	582.25
413.812	558.25
414.035	570.25
414.258	575.25
414.482	549.25
414.705	572.25
414.928	582.25
415.151	570.25
415.374	587.25
415.597	546.25
415.821	566.25
416.044	530.25
416.267	550.25
416.49	579.25
416.713	580.25
416.936	591.25
417.159	571.25
417.382	562.25
417.605	576.25
417.828	582.25
418.051	574.25
418.274	594.25
418.497	570.25
418.72	559.25
418.943	554.25
419.166	588.25
419.389	637.25
419.611	602.25
419.834	599.25
420.057	601.25
420.28	607.25
420.503	590.25
420.726	592.25
420.948	593.25
421.171	648.25
421.394	676.25
421.617	613.25
421.839	601.25
422.062	608.25
422.285	606.25
422.507	657.25
422.73	772.25
422.953	724.25
423.175	654.25
423.398	602.25
423.621	620.25
423.843	632.25
424.066	642.25
424.288	660.25
424.511	659.25
424.733	716.25
424.956	808.25
425.178	794.25
425.401	779.25
425.623	798.25
425.846	698.25
426.068	664.25
426.291	626.25
426.513	628.25
426.735	627.25
426.958	694.25
427.18	810.25
427.402	940.25
427.625	1014.25
427.847	889.25
428.069	755.25
428.292	674.25
428.514	642.25
428.736	610.25
428.958	607.25
429.181	594.25
429.403	600.25
429.625	611.25
429.847	630.25
430.069	707.25
430.292	712.25
430.514	612.25
430.736	601.25
430.958	602.25
431.18	557.25
431.402	572.25
431.624	566.25
431.846	570.25
432.068	567.25
432.29	570.25
432.512	570.25
432.734	580.25
432.956	583.25
433.178	576.25
433.4	596.25
433.622	578.25
433.844	564.25
434.066	572.25
434.287	576.25
434.509	549.25
434.731	588.25
434.953	593.25
435.175	605.25
435.397	643.25
435.618	630.25
435.84	670.25
436.062	800.25
436.284	886.25
436.505	730.25
436.727	657.25
436.949	607.25
437.17	598.25
437.392	595.25
437.614	595.25
437.835	654.25
438.057	763.25
438.278	845.25
438.5	872.25
438.721	942.25
438.943	929.25
439.165	742.25
439.386	678.25
439.608	653.25
439.829	640.25
440.05	658.25
440.272	742.25
440.493	715.25
440.715	650.25
440.936	614.25
441.158	612.25
441.379	589.25
441.6	600.25
441.822	647.25
442.043	668.25
442.264	788.25
442.486	832.25
442.707	730.25
442.928	674.25
443.149	679.25
443.371	692.25
443.592	735.25
443.813	847.25
444.034	914.25
444.255	750.25
444.476	674.25
444.698	647.25
444.919	659.25
445.14	758.25
445.361	704.25
445.582	676.25
445.803	748.25
446.024	874.25
446.245	892.25
446.466	799.25
446.687	682.25
446.908	638.25
447.129	606.25
447.35	571.25
447.571	597.25
447.792	578.25
448.013	594.25
448.234	628.25
448.455	690.25
448.675	806.25
448.896	920.25
449.117	774.25
449.338	745.25
449.559	863.25
449.779	967.25
450	790.25
450.221	660.25
450.442	598.25
450.662	586.25
450.883	580.25
451.104	593.25
451.324	598.25
451.545	562.25
451.766	567.25
451.986	552.25
452.207	538.25
452.428	528.25
452.648	539.25
452.869	527.25
453.089	526.25
453.31	544.25
453.53	555.25
453.751	512.25
453.971	546.25
454.192	542.25
454.412	543.25
454.633	533.25
454.853	532.25
455.073	510.25
455.294	558.25
455.514	637.25
455.734	634.25
455.955	537.25
456.175	503.25
456.395	489.25
456.616	484.25
456.836	505.25
457.056	504.25
457.276	480.25
457.497	510.25
457.717	507.25
457.937	520.25
458.157	502.25
458.377	527.25
458.598	564.25
458.818	613.25
459.038	666.25
459.258	724.25
459.478	632.25
459.698	599.25
459.918	576.25
460.138	566.25
460.358	588.25
460.578	566.25
460.798	581.25
461.018	581.25
461.238	600.25
461.458	596.25
461.678	599.25
461.898	593.25
462.118	604.25
462.338	579.25
462.558	575.25
462.777	591.25
462.997	626.25
463.217	634.25
463.437	619.25
463.657	619.25
463.876	610.25
464.096	605.25
464.316	595.25
464.536	622.25
464.755	618.25
464.975	634.25
465.195	655.25
465.414	744.25
465.634	670.25
465.854	616.25
466.073	581.25
466.293	580.25
466.512	562.25
466.732	551.25
466.951	537.25
467.171	548.25
467.391	551.25
467.61	541.25
467.829	568.25
468.049	564.25
468.268	553.25
468.488	543.25
468.707	532.25
468.927	536.25
469.146	531.25
469.365	539.25
469.585	537.25
469.804	552.25
470.023	558.25
470.243	545.25
470.462	557.25
470.681	578.25
470.901	555.25
471.12	570.25
471.339	552.25
471.558	550.25
471.777	554.25
471.997	555.25
472.216	553.25
472.435	550.25
472.654	541.25
472.873	536.25
473.092	547.25
473.311	557.25
473.53	580.25
473.749	576.25
473.968	602.25
474.187	694.25
474.406	743.25
474.625	625.25
474.844	599.25
475.063	564.25
475.282	567.25
475.501	553.25
475.72	568.25
475.939	570.25
476.158	578.25
476.377	582.25
476.596	583.25
476.814	588.25
477.033	605.25
477.252	590.25
477.471	610.25
477.69	599.25
477.908	624.25
478.127	616.25
478.346	618.25
478.564	636.25
478.783	624.25
479.002	620.25
479.22	632.25
479.439	646.25
479.658	644.25
479.876	680.25
480.095	684.25
480.313	709.25
480.532	678.25
480.751	669.25
480.969	666.25
481.188	676.25
481.406	686.25
481.624	644.25
481.843	671.25
482.061	647.25
482.28	650.25
482.498	650.25
482.717	637.25
482.935	667.25
483.153	639.25
483.372	650.25
483.59	659.25
483.808	670.25
484.027	644.25
484.245	623.25
484.463	664.25
484.681	657.25
484.9	675.25
485.118	672.25
485.336	679.25
485.554	655.25
485.772	672.25
485.99	678.25
486.209	687.25
486.427	702.25
486.645	708.25
486.863	708.25
487.081	700.25
487.299	698.25
487.517	696.25
487.735	711.25
487.953	719.25
488.171	693.25
488.389	686.25
488.607	717.25
488.825	694.25
489.043	693.25
489.261	725.25
489.479	704.25
489.696	722.25
489.914	671.25
490.132	720.25
490.35	722.25
490.568	733.25
490.786	735.25
491.003	767.25
491.221	762.25
491.439	768.25
491.657	791.25
491.874	805.25
492.092	776.25
492.31	801.25
492.527	798.25
492.745	797.25
492.963	789.25
493.18	800.25
493.398	828.25
493.615	792.25
493.833	811.25
494.05	827.25
494.268	820.25
494.485	805.25
494.703	813.25
494.92	807.25
495.138	799.25
495.355	804.25
495.573	819.25
495.79	821.25
496.008	822.25
496.225	822.25
496.442	820.25
496.66	863.25
496.877	851.25
497.094	837.25
497.312	871.25
497.529	873.25
497.746	881.25
497.963	870.25
498.181	908.25
498.398	922.25
498.615	921.25
498.832	925.25
499.049	930.25
499.267	991.25
499.484	1046.25
499.701	1061.25
499.918	1099.25
500.135	1127.25
500.352	1161.25
500.569	1183.25
500.786	1197.25
501.003	1175.25
501.22	1149.25
501.437	1117.25
501.654	1094.25
