Data from 1988.PennyLincolnUp.Lamp.En5.5.200Scan.071819.P2_HRD10591_17-20-21-973.txt Node
Date: Thu Jul 18 17:20:21 EDT 2019
User: cochatt
Spectrometer: HR+D1059
Trigger mode: 1
Integration Time (sec): 1.000000E-1
Scans to average: 1
Electric dark correction enabled: true
Nonlinearity correction enabled: false
Boxcar width: 0
XAxis mode: Wavelengths
Number of Pixels in Spectrum: 2048
>>>>>Begin Spectral Data<<<<<
223.165	-8.81
223.4	-8.81
223.635	-8.81
223.869	-14.81
224.104	-11.81
224.338	-4.81
224.573	-19.81
224.808	-10.81
225.042	-12.81
225.277	-9.81
225.511	-17.81
225.746	17.19
225.98	-4.81
226.215	15.19
226.449	19.19
226.683	11.19
226.918	25.19
227.152	28.19
227.387	36.19
227.621	39.19
227.856	43.19
228.09	47.19
228.324	50.19
228.559	42.19
228.793	67.19
229.027	109.19
229.262	113.19
229.496	141.19
229.73	137.19
229.964	158.19
230.199	156.19
230.433	125.19
230.667	130.19
230.901	121.19
231.136	130.19
231.37	120.19
231.604	104.19
231.838	108.19
232.072	110.19
232.306	101.19
232.541	110.19
232.775	106.19
233.009	110.19
233.243	102.19
233.477	115.19
233.711	119.19
233.945	136.19
234.179	127.19
234.413	137.19
234.647	129.19
234.881	116.19
235.115	134.19
235.349	144.19
235.583	134.19
235.817	118.19
236.051	148.19
236.285	128.19
236.519	132.19
236.753	141.19
236.987	156.19
237.221	188.19
237.455	257.19
237.689	205.19
237.922	157.19
238.156	149.19
238.39	137.19
238.624	142.19
238.858	126.19
239.091	137.19
239.325	113.19
239.559	133.19
239.793	142.19
240.027	126.19
240.26	142.19
240.494	158.19
240.728	167.19
240.961	150.19
241.195	155.19
241.429	139.19
241.662	135.19
241.896	150.19
242.13	141.19
242.363	130.19
242.597	137.19
242.83	153.19
243.064	148.19
243.298	138.19
243.531	132.19
243.765	129.19
243.998	146.19
244.232	154.19
244.465	142.19
244.699	137.19
244.932	165.19
245.166	163.19
245.399	154.19
245.633	149.19
245.866	166.19
246.099	166.19
246.333	147.19
246.566	152.19
246.8	167.19
247.033	153.19
247.266	152.19
247.5	186.19
247.733	183.19
247.966	183.19
248.2	177.19
248.433	184.19
248.666	172.19
248.899	202.19
249.133	195.19
249.366	234.19
249.599	207.19
249.832	185.19
250.066	188.19
250.299	198.19
250.532	191.19
250.765	214.19
250.998	220.19
251.231	237.19
251.465	233.19
251.698	207.19
251.931	203.19
252.164	190.19
252.397	209.19
252.63	215.19
252.863	212.19
253.096	237.19
253.329	237.19
253.562	228.19
253.795	247.19
254.028	223.19
254.261	241.19
254.494	216.19
254.727	273.19
254.96	294.19
255.193	292.19
255.426	249.19
255.659	229.19
255.892	232.19
256.124	237.19
256.357	223.19
256.59	219.19
256.823	210.19
257.056	206.19
257.289	211.19
257.521	217.19
257.754	220.19
257.987	227.19
258.22	221.19
258.452	229.19
258.685	215.19
258.918	226.19
259.151	227.19
259.383	229.19
259.616	249.19
259.849	231.19
260.081	247.19
260.314	272.19
260.547	287.19
260.779	279.19
261.012	243.19
261.244	257.19
261.477	265.19
261.71	247.19
261.942	255.19
262.175	226.19
262.407	246.19
262.64	239.19
262.872	231.19
263.105	237.19
263.337	258.19
263.57	226.19
263.802	234.19
264.035	215.19
264.267	219.19
264.499	216.19
264.732	229.19
264.964	229.19
265.197	219.19
265.429	228.19
265.661	222.19
265.894	228.19
266.126	226.19
266.358	237.19
266.591	224.19
266.823	219.19
267.055	235.19
267.287	243.19
267.52	234.19
267.752	241.19
267.984	255.19
268.216	242.19
268.448	247.19
268.681	261.19
268.913	253.19
269.145	275.19
269.377	286.19
269.609	293.19
269.841	274.19
270.073	291.19
270.306	314.19
270.538	342.19
270.77	336.19
271.002	315.19
271.234	300.19
271.466	315.19
271.698	340.19
271.93	350.19
272.162	331.19
272.394	342.19
272.626	348.19
272.858	317.19
273.09	298.19
273.322	305.19
273.553	285.19
273.785	299.19
274.017	282.19
274.249	289.19
274.481	277.19
274.713	289.19
274.945	297.19
275.176	307.19
275.408	283.19
275.64	285.19
275.872	284.19
276.104	275.19
276.335	291.19
276.567	282.19
276.799	288.19
277.031	329.19
277.262	342.19
277.494	342.19
277.726	321.19
277.957	298.19
278.189	317.19
278.421	300.19
278.652	292.19
278.884	284.19
279.115	295.19
279.347	311.19
279.579	300.19
279.81	309.19
280.042	286.19
280.273	294.19
280.505	283.19
280.736	271.19
280.968	282.19
281.199	284.19
281.431	298.19
281.662	302.19
281.894	310.19
282.125	311.19
282.356	330.19
282.588	319.19
282.819	351.19
283.051	294.19
283.282	276.19
283.513	295.19
283.745	307.19
283.976	313.19
284.207	295.19
284.439	313.19
284.67	297.19
284.901	305.19
285.132	303.19
285.364	293.19
285.595	298.19
285.826	323.19
286.057	313.19
286.288	307.19
286.52	296.19
286.751	293.19
286.982	302.19
287.213	303.19
287.444	310.19
287.675	305.19
287.906	330.19
288.138	333.19
288.369	325.19
288.6	316.19
288.831	328.19
289.062	334.19
289.293	330.19
289.524	315.19
289.755	296.19
289.986	311.19
290.217	313.19
290.448	327.19
290.679	315.19
290.91	309.19
291.141	307.19
291.371	317.19
291.602	315.19
291.833	321.19
292.064	313.19
292.295	316.19
292.526	309.19
292.757	330.19
292.987	323.19
293.218	314.19
293.449	293.19
293.68	317.19
293.91	322.19
294.141	335.19
294.372	310.19
294.603	332.19
294.833	334.19
295.064	323.19
295.295	323.19
295.525	318.19
295.756	328.19
295.987	334.19
296.217	373.19
296.448	365.19
296.679	343.19
296.909	322.19
297.14	334.19
297.37	342.19
297.601	332.19
297.831	337.19
298.062	327.19
298.292	343.19
298.523	335.19
298.753	335.19
298.984	355.19
299.214	327.19
299.445	320.19
299.675	336.19
299.905	337.19
300.136	354.19
300.366	341.19
300.597	327.19
300.827	357.19
301.057	350.19
301.288	338.19
301.518	366.19
301.748	354.19
301.979	367.19
302.209	350.19
302.439	354.19
302.669	346.19
302.9	360.19
303.13	354.19
303.36	363.19
303.59	354.19
303.82	362.19
304.051	381.19
304.281	373.19
304.511	340.19
304.741	357.19
304.971	354.19
305.201	366.19
305.431	373.19
305.661	353.19
305.891	351.19
306.121	358.19
306.352	358.19
306.582	366.19
306.812	369.19
307.042	373.19
307.272	367.19
307.502	379.19
307.731	363.19
307.961	369.19
308.191	363.19
308.421	369.19
308.651	374.19
308.881	379.19
309.111	391.19
309.341	392.19
309.571	389.19
309.8	391.19
310.03	410.19
310.26	416.19
310.49	403.19
310.72	412.19
310.949	447.19
311.179	427.19
311.409	431.19
311.639	422.19
311.868	406.19
312.098	435.19
312.328	447.19
312.557	457.19
312.787	477.19
313.017	463.19
313.246	438.19
313.476	417.19
313.706	418.19
313.935	431.19
314.165	450.19
314.394	443.19
314.624	420.19
314.853	429.19
315.083	433.19
315.312	413.19
315.542	419.19
315.771	420.19
316.001	416.19
316.23	416.19
316.46	414.19
316.689	393.19
316.919	418.19
317.148	415.19
317.377	450.19
317.607	439.19
317.836	429.19
318.065	410.19
318.295	414.19
318.524	397.19
318.753	428.19
318.983	419.19
319.212	424.19
319.441	424.19
319.67	427.19
319.9	427.19
320.129	430.19
320.358	426.19
320.587	429.19
320.816	435.19
321.046	449.19
321.275	456.19
321.504	451.19
321.733	453.19
321.962	479.19
322.191	497.19
322.42	464.19
322.649	499.19
322.878	516.19
323.108	527.19
323.337	534.19
323.566	562.19
323.795	588.19
324.024	633.19
324.253	795.19
324.482	1145.19
324.71	1775.19
324.939	2646.19
325.168	2269.19
325.397	1155.19
325.626	775.19
325.855	639.19
326.084	603.19
326.313	572.19
326.542	596.19
326.77	635.19
326.999	744.19
327.228	1027.19
327.457	1606.19
327.686	1916.19
327.914	1267.19
328.143	794.19
328.372	699.19
328.6	670.19
328.829	617.19
329.058	673.19
329.287	671.19
329.515	599.19
329.744	557.19
329.972	540.19
330.201	558.19
330.43	594.19
330.658	629.19
330.887	666.19
331.115	675.19
331.344	569.19
331.572	555.19
331.801	541.19
332.03	548.19
332.258	527.19
332.486	526.19
332.715	496.19
332.943	476.19
333.172	486.19
333.4	516.19
333.629	565.19
333.857	539.19
334.085	545.19
334.314	490.19
334.542	536.19
334.771	556.19
334.999	560.19
335.227	540.19
335.455	514.19
335.684	527.19
335.912	513.19
336.14	521.19
336.369	498.19
336.597	510.19
336.825	498.19
337.053	502.19
337.281	495.19
337.51	486.19
337.738	511.19
337.966	499.19
338.194	505.19
338.422	509.19
338.65	473.19
338.878	488.19
339.106	476.19
339.334	481.19
339.562	471.19
339.79	485.19
340.018	463.19
340.246	489.19
340.474	491.19
340.702	514.19
340.93	469.19
341.158	477.19
341.386	480.19
341.614	486.19
341.842	505.19
342.07	477.19
342.298	477.19
342.526	462.19
342.754	481.19
342.981	469.19
343.209	474.19
343.437	484.19
343.665	506.19
343.893	513.19
344.12	525.19
344.348	497.19
344.576	509.19
344.804	486.19
345.031	516.19
345.259	521.19
345.487	511.19
345.714	489.19
345.942	494.19
346.17	480.19
346.397	476.19
346.625	482.19
346.853	486.19
347.08	460.19
347.308	490.19
347.535	481.19
347.763	468.19
347.99	493.19
348.218	473.19
348.445	472.19
348.673	470.19
348.9	478.19
349.128	474.19
349.355	445.19
349.583	464.19
349.81	448.19
350.037	460.19
350.265	465.19
350.492	450.19
350.72	463.19
350.947	455.19
351.174	471.19
351.402	495.19
351.629	470.19
351.856	488.19
352.083	477.19
352.311	520.19
352.538	505.19
352.765	508.19
352.992	467.19
353.22	484.19
353.447	470.19
353.674	471.19
353.901	459.19
354.128	449.19
354.355	447.19
354.583	458.19
354.81	444.19
355.037	458.19
355.264	448.19
355.491	442.19
355.718	441.19
355.945	445.19
356.172	444.19
356.399	452.19
356.626	436.19
356.853	438.19
357.08	456.19
357.307	449.19
357.534	431.19
357.761	437.19
357.988	441.19
358.215	426.19
358.441	441.19
358.668	451.19
358.895	446.19
359.122	434.19
359.349	482.19
359.576	473.19
359.802	490.19
360.029	531.19
360.256	542.19
360.483	531.19
360.709	487.19
360.936	483.19
361.163	479.19
361.39	496.19
361.616	498.19
361.843	498.19
362.07	472.19
362.296	492.19
362.523	475.19
362.749	478.19
362.976	472.19
363.203	450.19
363.429	451.19
363.656	471.19
363.882	479.19
364.109	462.19
364.335	465.19
364.562	489.19
364.788	468.19
365.015	468.19
365.241	456.19
365.468	477.19
365.694	467.19
365.92	457.19
366.147	455.19
366.373	470.19
366.599	430.19
366.826	449.19
367.052	459.19
367.278	473.19
367.505	459.19
367.731	443.19
367.957	463.19
368.184	455.19
368.41	460.19
368.636	467.19
368.862	484.19
369.089	458.19
369.315	462.19
369.541	467.19
369.767	457.19
369.993	465.19
370.219	460.19
370.445	457.19
370.672	463.19
370.898	466.19
371.124	458.19
371.35	461.19
371.576	470.19
371.802	441.19
372.028	447.19
372.254	465.19
372.48	445.19
372.706	464.19
372.932	486.19
373.158	478.19
373.384	468.19
373.61	473.19
373.835	444.19
374.061	467.19
374.287	477.19
374.513	499.19
374.739	470.19
374.965	459.19
375.191	471.19
375.416	468.19
375.642	456.19
375.868	470.19
376.094	453.19
376.319	462.19
376.545	458.19
376.771	459.19
376.997	451.19
377.222	456.19
377.448	458.19
377.674	451.19
377.899	473.19
378.125	459.19
378.35	449.19
378.576	448.19
378.802	443.19
379.027	457.19
379.253	468.19
379.478	475.19
379.704	455.19
379.929	451.19
380.155	473.19
380.38	460.19
380.606	488.19
380.831	445.19
381.057	463.19
381.282	447.19
381.507	456.19
381.733	466.19
381.958	482.19
382.184	481.19
382.409	485.19
382.634	484.19
382.86	489.19
383.085	469.19
383.31	477.19
383.535	483.19
383.761	481.19
383.986	498.19
384.211	473.19
384.436	500.19
384.662	486.19
384.887	503.19
385.112	495.19
385.337	515.19
385.562	505.19
385.787	522.19
386.013	499.19
386.238	534.19
386.463	517.19
386.688	534.19
386.913	515.19
387.138	517.19
387.363	521.19
387.588	496.19
387.813	510.19
388.038	531.19
388.263	519.19
388.488	477.19
388.713	490.19
388.938	515.19
389.163	527.19
389.387	517.19
389.612	497.19
389.837	503.19
390.062	490.19
390.287	537.19
390.512	492.19
390.736	509.19
390.961	519.19
391.186	509.19
391.411	524.19
391.636	504.19
391.86	512.19
392.085	546.19
392.31	534.19
392.534	536.19
392.759	534.19
392.984	517.19
393.208	539.19
393.433	529.19
393.658	482.19
393.882	533.19
394.107	510.19
394.331	545.19
394.556	512.19
394.78	543.19
395.005	534.19
395.229	511.19
395.454	531.19
395.678	544.19
395.903	537.19
396.127	557.19
396.352	574.19
396.576	555.19
396.801	547.19
397.025	530.19
397.249	543.19
397.474	553.19
397.698	577.19
397.922	582.19
398.147	582.19
398.371	598.19
398.595	582.19
398.82	589.19
399.044	610.19
399.268	635.19
399.492	640.19
399.717	664.19
399.941	701.19
400.165	727.19
400.389	732.19
400.613	699.19
400.837	645.19
401.062	607.19
401.286	613.19
401.51	594.19
401.734	595.19
401.958	606.19
402.182	600.19
402.406	594.19
402.63	604.19
402.854	609.19
403.078	629.19
403.302	619.19
403.526	630.19
403.75	620.19
403.974	630.19
404.198	626.19
404.422	613.19
404.645	629.19
404.869	643.19
405.093	658.19
405.317	676.19
405.541	718.19
405.765	671.19
405.988	630.19
406.212	675.19
406.436	675.19
406.66	707.19
406.883	689.19
407.107	710.19
407.331	734.19
407.555	849.19
407.778	809.19
408.002	775.19
408.226	723.19
408.449	705.19
408.673	697.19
408.896	718.19
409.12	778.19
409.344	740.19
409.567	660.19
409.791	660.19
410.014	646.19
410.238	610.19
410.461	640.19
410.685	630.19
410.908	628.19
411.132	686.19
411.355	711.19
411.578	699.19
411.802	662.19
412.025	617.19
412.249	607.19
412.472	641.19
412.695	643.19
412.919	635.19
413.142	614.19
413.365	591.19
413.589	584.19
413.812	591.19
414.035	589.19
414.258	577.19
414.482	566.19
414.705	618.19
414.928	597.19
415.151	591.19
415.374	593.19
415.597	585.19
415.821	611.19
416.044	587.19
416.267	591.19
416.49	598.19
416.713	594.19
416.936	595.19
417.159	581.19
417.382	581.19
417.605	582.19
417.828	600.19
418.051	623.19
418.274	607.19
418.497	597.19
418.72	574.19
418.943	604.19
419.166	602.19
419.389	633.19
419.611	645.19
419.834	622.19
420.057	627.19
420.28	612.19
420.503	601.19
420.726	605.19
420.948	597.19
421.171	673.19
421.394	704.19
421.617	638.19
421.839	626.19
422.062	627.19
422.285	646.19
422.507	715.19
422.73	811.19
422.953	757.19
423.175	658.19
423.398	626.19
423.621	643.19
423.843	671.19
424.066	690.19
424.288	660.19
424.511	694.19
424.733	767.19
424.956	828.19
425.178	808.19
425.401	795.19
425.623	825.19
425.846	730.19
426.068	661.19
426.291	652.19
426.513	669.19
426.735	656.19
426.958	710.19
427.18	837.19
427.402	967.19
427.625	1048.19
427.847	929.19
428.069	758.19
428.292	711.19
428.514	683.19
428.736	659.19
428.958	628.19
429.181	597.19
429.403	612.19
429.625	655.19
429.847	662.19
430.069	749.19
430.292	753.19
430.514	639.19
430.736	622.19
430.958	621.19
431.18	585.19
431.402	588.19
431.624	568.19
431.846	595.19
432.068	585.19
432.29	581.19
432.512	592.19
432.734	607.19
432.956	586.19
433.178	615.19
433.4	602.19
433.622	601.19
433.844	575.19
434.066	587.19
434.287	587.19
434.509	599.19
434.731	591.19
434.953	591.19
435.175	635.19
435.397	653.19
435.618	664.19
435.84	705.19
436.062	808.19
436.284	933.19
436.505	771.19
436.727	691.19
436.949	648.19
437.17	613.19
437.392	631.19
437.614	625.19
437.835	678.19
438.057	807.19
438.278	935.19
438.5	903.19
438.721	980.19
438.943	975.19
439.165	790.19
439.386	681.19
439.608	691.19
439.829	679.19
440.05	697.19
440.272	745.19
440.493	708.19
440.715	661.19
440.936	654.19
441.158	627.19
441.379	605.19
441.6	636.19
441.822	655.19
442.043	716.19
442.264	843.19
442.486	860.19
442.707	734.19
442.928	676.19
443.149	697.19
443.371	737.19
443.592	776.19
443.813	905.19
444.034	969.19
444.255	782.19
444.476	706.19
444.698	673.19
444.919	677.19
445.14	782.19
445.361	748.19
445.582	754.19
445.803	817.19
446.024	893.19
446.245	926.19
446.466	839.19
446.687	701.19
446.908	665.19
447.129	634.19
447.35	635.19
447.571	615.19
447.792	606.19
448.013	616.19
448.234	644.19
448.455	729.19
448.675	834.19
448.896	968.19
449.117	801.19
449.338	789.19
449.559	906.19
449.779	1016.19
450	818.19
450.221	668.19
450.442	629.19
450.662	605.19
450.883	600.19
451.104	607.19
451.324	614.19
451.545	585.19
451.766	559.19
451.986	564.19
452.207	568.19
452.428	537.19
452.648	568.19
452.869	548.19
453.089	573.19
453.31	581.19
453.53	546.19
453.751	533.19
453.971	563.19
454.192	562.19
454.412	558.19
454.633	555.19
454.853	545.19
455.073	541.19
455.294	582.19
455.514	650.19
455.734	647.19
455.955	563.19
456.175	528.19
456.395	502.19
456.616	518.19
456.836	519.19
457.056	497.19
457.276	503.19
457.497	523.19
457.717	535.19
457.937	547.19
458.157	532.19
458.377	525.19
458.598	563.19
458.818	651.19
459.038	724.19
459.258	733.19
459.478	627.19
459.698	598.19
459.918	576.19
460.138	591.19
460.358	575.19
460.578	589.19
460.798	584.19
461.018	590.19
461.238	588.19
461.458	586.19
461.678	580.19
461.898	591.19
462.118	607.19
462.338	589.19
462.558	616.19
462.777	626.19
462.997	657.19
463.217	646.19
463.437	656.19
463.657	643.19
463.876	624.19
464.096	633.19
464.316	641.19
464.536	646.19
464.755	632.19
464.975	630.19
465.195	697.19
465.414	783.19
465.634	682.19
465.854	644.19
466.073	610.19
466.293	597.19
466.512	578.19
466.732	571.19
466.951	586.19
467.171	572.19
467.391	568.19
467.61	595.19
467.829	581.19
468.049	572.19
468.268	536.19
468.488	550.19
468.707	549.19
468.927	542.19
469.146	554.19
469.365	581.19
469.585	558.19
469.804	553.19
470.023	566.19
470.243	595.19
470.462	583.19
470.681	615.19
470.901	589.19
471.12	578.19
471.339	587.19
471.558	586.19
471.777	606.19
471.997	557.19
472.216	557.19
472.435	581.19
472.654	571.19
472.873	540.19
473.092	565.19
473.311	557.19
473.53	579.19
473.749	581.19
473.968	619.19
474.187	751.19
474.406	780.19
474.625	637.19
474.844	596.19
475.063	585.19
475.282	577.19
475.501	588.19
475.72	605.19
475.939	605.19
476.158	617.19
476.377	569.19
476.596	577.19
476.814	597.19
477.033	604.19
477.252	612.19
477.471	614.19
477.69	615.19
477.908	638.19
478.127	626.19
478.346	615.19
478.564	626.19
478.783	639.19
479.002	667.19
479.22	670.19
479.439	676.19
479.658	697.19
479.876	684.19
480.095	679.19
480.313	761.19
480.532	732.19
480.751	712.19
480.969	710.19
481.188	713.19
481.406	722.19
481.624	724.19
481.843	691.19
482.061	674.19
482.28	670.19
482.498	654.19
482.717	652.19
482.935	680.19
483.153	661.19
483.372	655.19
483.59	672.19
483.808	662.19
484.027	678.19
484.245	679.19
484.463	675.19
484.681	677.19
484.9	677.19
485.118	687.19
485.336	698.19
485.554	708.19
485.772	718.19
485.99	705.19
486.209	713.19
486.427	723.19
486.645	711.19
486.863	749.19
487.081	715.19
487.299	711.19
487.517	724.19
487.735	726.19
487.953	758.19
488.171	703.19
488.389	727.19
488.607	757.19
488.825	715.19
489.043	698.19
489.261	728.19
489.479	727.19
489.696	753.19
489.914	760.19
490.132	738.19
490.35	757.19
490.568	767.19
490.786	778.19
491.003	769.19
491.221	767.19
491.439	812.19
491.657	784.19
491.874	817.19
492.092	806.19
492.31	820.19
492.527	823.19
492.745	802.19
492.963	846.19
493.18	835.19
493.398	843.19
493.615	835.19
493.833	847.19
494.05	858.19
494.268	857.19
494.485	837.19
494.703	851.19
494.92	885.19
495.138	849.19
495.355	887.19
495.573	890.19
495.79	883.19
496.008	863.19
496.225	886.19
496.442	862.19
496.66	882.19
496.877	885.19
497.094	882.19
497.312	904.19
497.529	877.19
497.746	895.19
497.963	892.19
498.181	939.19
498.398	972.19
498.615	975.19
498.832	1002.19
499.049	1022.19
499.267	1008.19
499.484	1070.19
499.701	1101.19
499.918	1124.19
500.135	1173.19
500.352	1241.19
500.569	1220.19
500.786	1249.19
501.003	1215.19
501.22	1211.19
501.437	1180.19
501.654	1169.19
