Data from 1988.PennyLincolnUp.Lamp.En5.5.200Scan.071819.P2_HRD10591_17-20-41-972.txt Node
Date: Thu Jul 18 17:20:41 EDT 2019
User: cochatt
Spectrometer: HR+D1059
Trigger mode: 1
Integration Time (sec): 1.000000E-1
Scans to average: 1
Electric dark correction enabled: true
Nonlinearity correction enabled: false
Boxcar width: 0
XAxis mode: Wavelengths
Number of Pixels in Spectrum: 2048
>>>>>Begin Spectral Data<<<<<
223.165	-25.38
223.4	-25.38
223.635	-25.38
223.869	-13.38
224.104	-2.38
224.338	-4.38
224.573	3.62
224.808	-29.38
225.042	-15.38
225.277	-3.38
225.511	-11.38
225.746	-4.38
225.98	4.62
226.215	11.62
226.449	8.62
226.683	11.62
226.918	34.62
227.152	34.62
227.387	39.62
227.621	51.62
227.856	40.62
228.09	56.62
228.324	60.62
228.559	52.62
228.793	71.62
229.027	100.62
229.262	103.62
229.496	126.62
229.73	123.62
229.964	158.62
230.199	147.62
230.433	120.62
230.667	106.62
230.901	133.62
231.136	112.62
231.37	120.62
231.604	111.62
231.838	105.62
232.072	118.62
232.306	121.62
232.541	121.62
232.775	129.62
233.009	122.62
233.243	104.62
233.477	122.62
233.711	126.62
233.945	122.62
234.179	118.62
234.413	94.62
234.647	107.62
234.881	128.62
235.115	118.62
235.349	128.62
235.583	133.62
235.817	123.62
236.051	135.62
236.285	141.62
236.519	124.62
236.753	147.62
236.987	145.62
237.221	210.62
237.455	275.62
237.689	207.62
237.922	142.62
238.156	121.62
238.39	138.62
238.624	129.62
238.858	135.62
239.091	139.62
239.325	127.62
239.559	146.62
239.793	134.62
240.027	131.62
240.26	158.62
240.494	154.62
240.728	171.62
240.961	154.62
241.195	158.62
241.429	143.62
241.662	148.62
241.896	137.62
242.13	139.62
242.363	150.62
242.597	142.62
242.83	149.62
243.064	146.62
243.298	137.62
243.531	132.62
243.765	131.62
243.998	147.62
244.232	152.62
244.465	138.62
244.699	148.62
244.932	160.62
245.166	148.62
245.399	149.62
245.633	168.62
245.866	140.62
246.099	167.62
246.333	163.62
246.566	150.62
246.8	161.62
247.033	173.62
247.266	179.62
247.5	170.62
247.733	195.62
247.966	194.62
248.2	180.62
248.433	184.62
248.666	185.62
248.899	196.62
249.133	191.62
249.366	213.62
249.599	211.62
249.832	178.62
250.066	193.62
250.299	199.62
250.532	181.62
250.765	200.62
250.998	240.62
251.231	233.62
251.465	228.62
251.698	215.62
251.931	202.62
252.164	199.62
252.397	198.62
252.63	213.62
252.863	205.62
253.096	215.62
253.329	238.62
253.562	254.62
253.795	239.62
254.028	229.62
254.261	231.62
254.494	234.62
254.727	272.62
254.96	296.62
255.193	287.62
255.426	279.62
255.659	239.62
255.892	243.62
256.124	225.62
256.357	227.62
256.59	213.62
256.823	222.62
257.056	238.62
257.289	212.62
257.521	204.62
257.754	208.62
257.987	226.62
258.22	223.62
258.452	212.62
258.685	210.62
258.918	223.62
259.151	217.62
259.383	214.62
259.616	234.62
259.849	213.62
260.081	240.62
260.314	257.62
260.547	267.62
260.779	256.62
261.012	255.62
261.244	231.62
261.477	229.62
261.71	229.62
261.942	229.62
262.175	248.62
262.407	256.62
262.64	237.62
262.872	217.62
263.105	231.62
263.337	222.62
263.57	220.62
263.802	223.62
264.035	218.62
264.267	214.62
264.499	231.62
264.732	240.62
264.964	236.62
265.197	235.62
265.429	228.62
265.661	216.62
265.894	226.62
266.126	220.62
266.358	233.62
266.591	208.62
266.823	227.62
267.055	241.62
267.287	257.62
267.52	251.62
267.752	242.62
267.984	254.62
268.216	242.62
268.448	251.62
268.681	235.62
268.913	259.62
269.145	286.62
269.377	292.62
269.609	287.62
269.841	282.62
270.073	292.62
270.306	310.62
270.538	342.62
270.77	340.62
271.002	305.62
271.234	323.62
271.466	317.62
271.698	329.62
271.93	329.62
272.162	335.62
272.394	344.62
272.626	325.62
272.858	304.62
273.09	287.62
273.322	285.62
273.553	288.62
273.785	269.62
274.017	285.62
274.249	282.62
274.481	284.62
274.713	290.62
274.945	281.62
275.176	282.62
275.408	284.62
275.64	288.62
275.872	276.62
276.104	276.62
276.335	283.62
276.567	282.62
276.799	296.62
277.031	316.62
277.262	330.62
277.494	346.62
277.726	300.62
277.957	307.62
278.189	301.62
278.421	295.62
278.652	296.62
278.884	265.62
279.115	273.62
279.347	283.62
279.579	291.62
279.81	275.62
280.042	293.62
280.273	283.62
280.505	284.62
280.736	288.62
280.968	274.62
281.199	270.62
281.431	303.62
281.662	286.62
281.894	278.62
282.125	288.62
282.356	315.62
282.588	328.62
282.819	311.62
283.051	308.62
283.282	288.62
283.513	300.62
283.745	298.62
283.976	318.62
284.207	310.62
284.439	295.62
284.67	303.62
284.901	297.62
285.132	295.62
285.364	313.62
285.595	289.62
285.826	299.62
286.057	305.62
286.288	294.62
286.52	303.62
286.751	300.62
286.982	295.62
287.213	291.62
287.444	302.62
287.675	296.62
287.906	318.62
288.138	338.62
288.369	334.62
288.6	323.62
288.831	318.62
289.062	318.62
289.293	313.62
289.524	304.62
289.755	290.62
289.986	306.62
290.217	311.62
290.448	294.62
290.679	321.62
290.91	292.62
291.141	317.62
291.371	320.62
291.602	309.62
291.833	304.62
292.064	292.62
292.295	307.62
292.526	312.62
292.757	323.62
292.987	336.62
293.218	316.62
293.449	322.62
293.68	313.62
293.91	311.62
294.141	313.62
294.372	311.62
294.603	311.62
294.833	313.62
295.064	315.62
295.295	307.62
295.525	330.62
295.756	302.62
295.987	318.62
296.217	358.62
296.448	366.62
296.679	342.62
296.909	324.62
297.14	324.62
297.37	329.62
297.601	327.62
297.831	320.62
298.062	335.62
298.292	318.62
298.523	342.62
298.753	326.62
298.984	315.62
299.214	342.62
299.445	353.62
299.675	346.62
299.905	332.62
300.136	338.62
300.366	342.62
300.597	314.62
300.827	332.62
301.057	345.62
301.288	360.62
301.518	373.62
301.748	344.62
301.979	368.62
302.209	347.62
302.439	357.62
302.669	342.62
302.9	331.62
303.13	340.62
303.36	376.62
303.59	368.62
303.82	370.62
304.051	381.62
304.281	360.62
304.511	354.62
304.741	368.62
304.971	350.62
305.201	373.62
305.431	350.62
305.661	358.62
305.891	358.62
306.121	352.62
306.352	359.62
306.582	375.62
306.812	370.62
307.042	344.62
307.272	366.62
307.502	359.62
307.731	359.62
307.961	386.62
308.191	363.62
308.421	360.62
308.651	359.62
308.881	347.62
309.111	372.62
309.341	357.62
309.571	364.62
309.8	400.62
310.03	407.62
310.26	394.62
310.49	411.62
310.72	401.62
310.949	409.62
311.179	436.62
311.409	423.62
311.639	418.62
311.868	404.62
312.098	420.62
312.328	420.62
312.557	430.62
312.787	454.62
313.017	442.62
313.246	418.62
313.476	407.62
313.706	413.62
313.935	425.62
314.165	452.62
314.394	455.62
314.624	421.62
314.853	427.62
315.083	432.62
315.312	413.62
315.542	391.62
315.771	406.62
316.001	412.62
316.23	414.62
316.46	410.62
316.689	426.62
316.919	426.62
317.148	432.62
317.377	412.62
317.607	425.62
317.836	440.62
318.065	429.62
318.295	403.62
318.524	409.62
318.753	419.62
318.983	403.62
319.212	410.62
319.441	426.62
319.67	432.62
319.9	406.62
320.129	420.62
320.358	415.62
320.587	411.62
320.816	440.62
321.046	450.62
321.275	450.62
321.504	444.62
321.733	442.62
321.962	454.62
322.191	483.62
322.42	470.62
322.649	500.62
322.878	492.62
323.108	534.62
323.337	524.62
323.566	558.62
323.795	606.62
324.024	651.62
324.253	770.62
324.482	1103.62
324.71	1726.62
324.939	2572.62
325.168	2263.62
325.397	1106.62
325.626	762.62
325.855	613.62
326.084	576.62
326.313	565.62
326.542	588.62
326.77	597.62
326.999	724.62
327.228	1005.62
327.457	1570.62
327.686	1951.62
327.914	1278.62
328.143	796.62
328.372	668.62
328.6	637.62
328.829	630.62
329.058	630.62
329.287	667.62
329.515	628.62
329.744	587.62
329.972	532.62
330.201	571.62
330.43	579.62
330.658	628.62
330.887	673.62
331.115	651.62
331.344	581.62
331.572	531.62
331.801	552.62
332.03	524.62
332.258	531.62
332.486	512.62
332.715	494.62
332.943	488.62
333.172	488.62
333.4	490.62
333.629	497.62
333.857	530.62
334.085	516.62
334.314	510.62
334.542	519.62
334.771	539.62
334.999	524.62
335.227	520.62
335.455	517.62
335.684	529.62
335.912	493.62
336.14	515.62
336.369	490.62
336.597	496.62
336.825	519.62
337.053	499.62
337.281	499.62
337.51	463.62
337.738	510.62
337.966	484.62
338.194	503.62
338.422	497.62
338.65	484.62
338.878	473.62
339.106	486.62
339.334	475.62
339.562	489.62
339.79	461.62
340.018	466.62
340.246	483.62
340.474	486.62
340.702	469.62
340.93	444.62
341.158	510.62
341.386	489.62
341.614	490.62
341.842	482.62
342.07	464.62
342.298	475.62
342.526	474.62
342.754	478.62
342.981	439.62
343.209	456.62
343.437	464.62
343.665	487.62
343.893	470.62
344.12	502.62
344.348	471.62
344.576	495.62
344.804	499.62
345.031	496.62
345.259	514.62
345.487	504.62
345.714	483.62
345.942	486.62
346.17	484.62
346.397	497.62
346.625	483.62
346.853	479.62
347.08	480.62
347.308	475.62
347.535	482.62
347.763	500.62
347.99	488.62
348.218	477.62
348.445	488.62
348.673	487.62
348.9	489.62
349.128	459.62
349.355	457.62
349.583	451.62
349.81	448.62
350.037	457.62
350.265	462.62
350.492	437.62
350.72	455.62
350.947	456.62
351.174	462.62
351.402	474.62
351.629	484.62
351.856	483.62
352.083	491.62
352.311	502.62
352.538	491.62
352.765	482.62
352.992	466.62
353.22	481.62
353.447	478.62
353.674	462.62
353.901	440.62
354.128	463.62
354.355	449.62
354.583	453.62
354.81	446.62
355.037	432.62
355.264	430.62
355.491	434.62
355.718	424.62
355.945	422.62
356.172	434.62
356.399	419.62
356.626	418.62
356.853	431.62
357.08	423.62
357.307	453.62
357.534	438.62
357.761	457.62
357.988	440.62
358.215	452.62
358.441	433.62
358.668	436.62
358.895	443.62
359.122	464.62
359.349	452.62
359.576	458.62
359.802	513.62
360.029	532.62
360.256	547.62
360.483	514.62
360.709	487.62
360.936	480.62
361.163	484.62
361.39	459.62
361.616	481.62
361.843	471.62
362.07	478.62
362.296	466.62
362.523	479.62
362.749	466.62
362.976	472.62
363.203	447.62
363.429	450.62
363.656	449.62
363.882	455.62
364.109	453.62
364.335	445.62
364.562	472.62
364.788	456.62
365.015	463.62
365.241	459.62
365.468	454.62
365.694	460.62
365.92	472.62
366.147	462.62
366.373	455.62
366.599	458.62
366.826	470.62
367.052	439.62
367.278	438.62
367.505	437.62
367.731	454.62
367.957	443.62
368.184	466.62
368.41	468.62
368.636	454.62
368.862	463.62
369.089	452.62
369.315	454.62
369.541	445.62
369.767	450.62
369.993	440.62
370.219	480.62
370.445	430.62
370.672	458.62
370.898	455.62
371.124	455.62
371.35	451.62
371.576	481.62
371.802	456.62
372.028	448.62
372.254	462.62
372.48	459.62
372.706	456.62
372.932	461.62
373.158	464.62
373.384	464.62
373.61	459.62
373.835	470.62
374.061	462.62
374.287	478.62
374.513	458.62
374.739	460.62
374.965	470.62
375.191	480.62
375.416	469.62
375.642	475.62
375.868	457.62
376.094	485.62
376.319	475.62
376.545	443.62
376.771	456.62
376.997	456.62
377.222	446.62
377.448	436.62
377.674	437.62
377.899	456.62
378.125	463.62
378.35	481.62
378.576	459.62
378.802	441.62
379.027	443.62
379.253	457.62
379.478	444.62
379.704	458.62
379.929	433.62
380.155	438.62
380.38	484.62
380.606	481.62
380.831	451.62
381.057	462.62
381.282	451.62
381.507	446.62
381.733	467.62
381.958	459.62
382.184	465.62
382.409	468.62
382.634	470.62
382.86	465.62
383.085	471.62
383.31	482.62
383.535	474.62
383.761	492.62
383.986	479.62
384.211	491.62
384.436	476.62
384.662	481.62
384.887	491.62
385.112	501.62
385.337	500.62
385.562	478.62
385.787	498.62
386.013	518.62
386.238	525.62
386.463	528.62
386.688	523.62
386.913	498.62
387.138	509.62
387.363	507.62
387.588	497.62
387.813	510.62
388.038	513.62
388.263	504.62
388.488	525.62
388.713	543.62
388.938	520.62
389.163	515.62
389.387	517.62
389.612	510.62
389.837	497.62
390.062	508.62
390.287	512.62
390.512	508.62
390.736	511.62
390.961	522.62
391.186	518.62
391.411	506.62
391.636	510.62
391.86	513.62
392.085	531.62
392.31	517.62
392.534	519.62
392.759	531.62
392.984	523.62
393.208	517.62
393.433	511.62
393.658	526.62
393.882	495.62
394.107	500.62
394.331	528.62
394.556	516.62
394.78	516.62
395.005	519.62
395.229	506.62
395.454	530.62
395.678	516.62
395.903	542.62
396.127	567.62
396.352	573.62
396.576	562.62
396.801	530.62
397.025	548.62
397.249	517.62
397.474	536.62
397.698	549.62
397.922	577.62
398.147	558.62
398.371	582.62
398.595	568.62
398.82	576.62
399.044	594.62
399.268	616.62
399.492	626.62
399.717	672.62
399.941	720.62
400.165	735.62
400.389	751.62
400.613	678.62
400.837	634.62
401.062	583.62
401.286	603.62
401.51	598.62
401.734	580.62
401.958	602.62
402.182	592.62
402.406	611.62
402.63	626.62
402.854	617.62
403.078	584.62
403.302	584.62
403.526	605.62
403.75	618.62
403.974	618.62
404.198	602.62
404.422	623.62
404.645	618.62
404.869	615.62
405.093	647.62
405.317	687.62
405.541	702.62
405.765	656.62
405.988	632.62
406.212	629.62
406.436	642.62
406.66	654.62
406.883	652.62
407.107	717.62
407.331	724.62
407.555	820.62
407.778	840.62
408.002	727.62
408.226	704.62
408.449	687.62
408.673	675.62
408.896	690.62
409.12	750.62
409.344	722.62
409.567	646.62
409.791	624.62
410.014	616.62
410.238	636.62
410.461	618.62
410.685	604.62
410.908	632.62
411.132	682.62
411.355	715.62
411.578	685.62
411.802	634.62
412.025	618.62
412.249	610.62
412.472	602.62
412.695	646.62
412.919	627.62
413.142	585.62
413.365	599.62
413.589	587.62
413.812	575.62
414.035	600.62
414.258	588.62
414.482	576.62
414.705	593.62
414.928	588.62
415.151	570.62
415.374	564.62
415.597	580.62
415.821	583.62
416.044	571.62
416.267	586.62
416.49	580.62
416.713	568.62
416.936	588.62
417.159	565.62
417.382	570.62
417.605	564.62
417.828	615.62
418.051	610.62
418.274	592.62
418.497	591.62
418.72	590.62
418.943	568.62
419.166	606.62
419.389	627.62
419.611	628.62
419.834	610.62
420.057	617.62
420.28	600.62
420.503	606.62
420.726	602.62
420.948	614.62
421.171	642.62
421.394	721.62
421.617	644.62
421.839	598.62
422.062	616.62
422.285	640.62
422.507	694.62
422.73	774.62
422.953	764.62
423.175	674.62
423.398	635.62
423.621	634.62
423.843	688.62
424.066	680.62
424.288	660.62
424.511	657.62
424.733	745.62
424.956	820.62
425.178	810.62
425.401	793.62
425.623	833.62
425.846	703.62
426.068	668.62
426.291	629.62
426.513	639.62
426.735	665.62
426.958	724.62
427.18	828.62
427.402	967.62
427.625	1058.62
427.847	916.62
428.069	784.62
428.292	704.62
428.514	663.62
428.736	627.62
428.958	628.62
429.181	607.62
429.403	617.62
429.625	630.62
429.847	642.62
430.069	750.62
430.292	709.62
430.514	633.62
430.736	606.62
430.958	598.62
431.18	595.62
431.402	568.62
431.624	561.62
431.846	574.62
432.068	555.62
432.29	559.62
432.512	580.62
432.734	576.62
432.956	555.62
433.178	569.62
433.4	590.62
433.622	595.62
433.844	599.62
434.066	562.62
434.287	568.62
434.509	580.62
434.731	611.62
434.953	602.62
435.175	622.62
435.397	648.62
435.618	646.62
435.84	699.62
436.062	811.62
436.284	910.62
436.505	774.62
436.727	674.62
436.949	618.62
437.17	631.62
437.392	631.62
437.614	634.62
437.835	645.62
438.057	780.62
438.278	888.62
438.5	908.62
438.721	994.62
438.943	965.62
439.165	772.62
439.386	692.62
439.608	667.62
439.829	646.62
440.05	691.62
440.272	750.62
440.493	697.62
440.715	641.62
440.936	647.62
441.158	624.62
441.379	609.62
441.6	636.62
441.822	642.62
442.043	730.62
442.264	775.62
442.486	847.62
442.707	736.62
442.928	660.62
443.149	675.62
443.371	704.62
443.592	764.62
443.813	887.62
444.034	972.62
444.255	774.62
444.476	696.62
444.698	684.62
444.919	664.62
445.14	786.62
445.361	703.62
445.582	702.62
445.803	801.62
446.024	892.62
446.245	907.62
446.466	851.62
446.687	708.62
446.908	655.62
447.129	622.62
447.35	632.62
447.571	596.62
447.792	598.62
448.013	608.62
448.234	631.62
448.455	698.62
448.675	820.62
448.896	945.62
449.117	823.62
449.338	748.62
449.559	889.62
449.779	1018.62
450	817.62
450.221	688.62
450.442	623.62
450.662	601.62
450.883	611.62
451.104	638.62
451.324	585.62
451.545	560.62
451.766	534.62
451.986	544.62
452.207	530.62
452.428	543.62
452.648	549.62
452.869	535.62
453.089	562.62
453.31	556.62
453.53	547.62
453.751	553.62
453.971	549.62
454.192	563.62
454.412	559.62
454.633	516.62
454.853	530.62
455.073	558.62
455.294	586.62
455.514	656.62
455.734	656.62
455.955	548.62
456.175	524.62
456.395	515.62
456.616	503.62
456.836	511.62
457.056	522.62
457.276	486.62
457.497	528.62
457.717	517.62
457.937	525.62
458.157	550.62
458.377	524.62
458.598	546.62
458.818	606.62
459.038	704.62
459.258	735.62
459.478	631.62
459.698	596.62
459.918	570.62
460.138	583.62
460.358	542.62
460.578	586.62
460.798	588.62
461.018	590.62
461.238	610.62
461.458	599.62
461.678	591.62
461.898	584.62
462.118	606.62
462.338	582.62
462.558	631.62
462.777	626.62
462.997	625.62
463.217	652.62
463.437	636.62
463.657	615.62
463.876	638.62
464.096	648.62
464.316	617.62
464.536	634.62
464.755	617.62
464.975	637.62
465.195	690.62
465.414	769.62
465.634	697.62
465.854	643.62
466.073	617.62
466.293	571.62
466.512	565.62
466.732	579.62
466.951	555.62
467.171	545.62
467.391	565.62
467.61	570.62
467.829	582.62
468.049	555.62
468.268	549.62
468.488	534.62
468.707	538.62
468.927	533.62
469.146	554.62
469.365	545.62
469.585	545.62
469.804	563.62
470.023	590.62
470.243	566.62
470.462	566.62
470.681	604.62
470.901	585.62
471.12	565.62
471.339	556.62
471.558	557.62
471.777	569.62
471.997	572.62
472.216	543.62
472.435	580.62
472.654	557.62
472.873	550.62
473.092	574.62
473.311	554.62
473.53	582.62
473.749	578.62
473.968	612.62
474.187	732.62
474.406	778.62
474.625	623.62
474.844	588.62
475.063	566.62
475.282	576.62
475.501	586.62
475.72	567.62
475.939	566.62
476.158	600.62
476.377	589.62
476.596	595.62
476.814	595.62
477.033	615.62
477.252	588.62
477.471	614.62
477.69	588.62
477.908	626.62
478.127	624.62
478.346	627.62
478.564	635.62
478.783	616.62
479.002	633.62
479.22	654.62
479.439	682.62
479.658	667.62
479.876	686.62
480.095	683.62
480.313	714.62
480.532	703.62
480.751	689.62
480.969	688.62
481.188	717.62
481.406	716.62
481.624	679.62
481.843	686.62
482.061	673.62
482.28	653.62
482.498	663.62
482.717	662.62
482.935	668.62
483.153	660.62
483.372	668.62
483.59	664.62
483.808	673.62
484.027	672.62
484.245	682.62
484.463	675.62
484.681	680.62
484.9	695.62
485.118	696.62
485.336	676.62
485.554	688.62
485.772	712.62
485.99	707.62
486.209	699.62
486.427	720.62
486.645	677.62
486.863	716.62
487.081	716.62
487.299	728.62
487.517	700.62
487.735	702.62
487.953	721.62
488.171	729.62
488.389	716.62
488.607	738.62
488.825	724.62
489.043	720.62
489.261	721.62
489.479	726.62
489.696	706.62
489.914	723.62
490.132	723.62
490.35	752.62
490.568	762.62
490.786	737.62
491.003	765.62
491.221	809.62
491.439	788.62
491.657	809.62
491.874	809.62
492.092	796.62
492.31	805.62
492.527	822.62
492.745	786.62
492.963	838.62
493.18	832.62
493.398	834.62
493.615	820.62
493.833	855.62
494.05	836.62
494.268	827.62
494.485	833.62
494.703	841.62
494.92	830.62
495.138	839.62
495.355	847.62
495.573	857.62
495.79	843.62
496.008	831.62
496.225	854.62
496.442	850.62
496.66	850.62
496.877	839.62
497.094	864.62
497.312	884.62
497.529	894.62
497.746	915.62
497.963	890.62
498.181	932.62
498.398	937.62
498.615	964.62
498.832	984.62
499.049	981.62
499.267	1006.62
499.484	1040.62
499.701	1052.62
499.918	1122.62
500.135	1155.62
500.352	1178.62
500.569	1245.62
500.786	1244.62
501.003	1222.62
501.22	1190.62
501.437	1140.62
501.654	1115.62
