Data from 1988.PennyLincolnUp.Lamp.En5.5.200Scan.071819.P2_HRD10591_17-19-11-971.txt Node
Date: Thu Jul 18 17:19:11 EDT 2019
User: cochatt
Spectrometer: HR+D1059
Trigger mode: 1
Integration Time (sec): 1.000000E-1
Scans to average: 1
Electric dark correction enabled: true
Nonlinearity correction enabled: false
Boxcar width: 0
XAxis mode: Wavelengths
Number of Pixels in Spectrum: 2048
>>>>>Begin Spectral Data<<<<<
223.165	-25.81
223.4	-25.81
223.635	-25.81
223.869	-17.81
224.104	-18.81
224.338	-11.81
224.573	-11.81
224.808	-26.81
225.042	-13.81
225.277	3.19
225.511	1.19
225.746	11.19
225.98	13.19
226.215	-9.81
226.449	15.19
226.683	33.19
226.918	30.19
227.152	29.19
227.387	21.19
227.621	25.19
227.856	37.19
228.09	26.19
228.324	54.19
228.559	45.19
228.793	64.19
229.027	97.19
229.262	104.19
229.496	90.19
229.73	133.19
229.964	137.19
230.199	122.19
230.433	121.19
230.667	116.19
230.901	102.19
231.136	107.19
231.37	104.19
231.604	127.19
231.838	108.19
232.072	103.19
232.306	108.19
232.541	110.19
232.775	117.19
233.009	113.19
233.243	111.19
233.477	120.19
233.711	110.19
233.945	114.19
234.179	105.19
234.413	102.19
234.647	110.19
234.881	114.19
235.115	110.19
235.349	115.19
235.583	123.19
235.817	111.19
236.051	115.19
236.285	116.19
236.519	119.19
236.753	122.19
236.987	151.19
237.221	177.19
237.455	218.19
237.689	193.19
237.922	139.19
238.156	128.19
238.39	129.19
238.624	121.19
238.858	120.19
239.091	131.19
239.325	122.19
239.559	130.19
239.793	134.19
240.027	146.19
240.26	131.19
240.494	163.19
240.728	150.19
240.961	133.19
241.195	140.19
241.429	142.19
241.662	151.19
241.896	147.19
242.13	125.19
242.363	126.19
242.597	135.19
242.83	142.19
243.064	133.19
243.298	138.19
243.531	137.19
243.765	132.19
243.998	132.19
244.232	127.19
244.465	137.19
244.699	140.19
244.932	137.19
245.166	129.19
245.399	132.19
245.633	151.19
245.866	147.19
246.099	145.19
246.333	134.19
246.566	159.19
246.8	147.19
247.033	136.19
247.266	145.19
247.5	164.19
247.733	174.19
247.966	175.19
248.2	174.19
248.433	170.19
248.666	161.19
248.899	170.19
249.133	196.19
249.366	211.19
249.599	187.19
249.832	196.19
250.066	170.19
250.299	178.19
250.532	165.19
250.765	197.19
250.998	216.19
251.231	214.19
251.465	215.19
251.698	192.19
251.931	202.19
252.164	191.19
252.397	186.19
252.63	194.19
252.863	184.19
253.096	195.19
253.329	205.19
253.562	215.19
253.795	214.19
254.028	214.19
254.261	206.19
254.494	213.19
254.727	234.19
254.96	264.19
255.193	260.19
255.426	249.19
255.659	238.19
255.892	225.19
256.124	214.19
256.357	208.19
256.59	203.19
256.823	198.19
257.056	193.19
257.289	192.19
257.521	206.19
257.754	203.19
257.987	210.19
258.22	205.19
258.452	197.19
258.685	198.19
258.918	182.19
259.151	202.19
259.383	224.19
259.616	210.19
259.849	200.19
260.081	232.19
260.314	240.19
260.547	258.19
260.779	231.19
261.012	227.19
261.244	213.19
261.477	239.19
261.71	212.19
261.942	229.19
262.175	253.19
262.407	216.19
262.64	199.19
262.872	221.19
263.105	221.19
263.337	199.19
263.57	192.19
263.802	211.19
264.035	211.19
264.267	204.19
264.499	201.19
264.732	211.19
264.964	218.19
265.197	197.19
265.429	201.19
265.661	213.19
265.894	207.19
266.126	230.19
266.358	221.19
266.591	218.19
266.823	224.19
267.055	222.19
267.287	215.19
267.52	216.19
267.752	221.19
267.984	230.19
268.216	234.19
268.448	239.19
268.681	242.19
268.913	239.19
269.145	258.19
269.377	275.19
269.609	261.19
269.841	265.19
270.073	272.19
270.306	277.19
270.538	314.19
270.77	290.19
271.002	310.19
271.234	298.19
271.466	277.19
271.698	288.19
271.93	301.19
272.162	331.19
272.394	311.19
272.626	294.19
272.858	287.19
273.09	255.19
273.322	268.19
273.553	270.19
273.785	265.19
274.017	269.19
274.249	273.19
274.481	267.19
274.713	254.19
274.945	285.19
275.176	263.19
275.408	277.19
275.64	246.19
275.872	250.19
276.104	269.19
276.335	265.19
276.567	278.19
276.799	281.19
277.031	281.19
277.262	298.19
277.494	302.19
277.726	277.19
277.957	290.19
278.189	272.19
278.421	271.19
278.652	260.19
278.884	270.19
279.115	272.19
279.347	284.19
279.579	275.19
279.81	280.19
280.042	270.19
280.273	271.19
280.505	287.19
280.736	275.19
280.968	265.19
281.199	260.19
281.431	263.19
281.662	267.19
281.894	278.19
282.125	258.19
282.356	278.19
282.588	301.19
282.819	294.19
283.051	291.19
283.282	276.19
283.513	267.19
283.745	283.19
283.976	287.19
284.207	272.19
284.439	272.19
284.67	265.19
284.901	259.19
285.132	274.19
285.364	273.19
285.595	271.19
285.826	274.19
286.057	280.19
286.288	286.19
286.52	273.19
286.751	286.19
286.982	283.19
287.213	277.19
287.444	289.19
287.675	295.19
287.906	308.19
288.138	305.19
288.369	323.19
288.6	288.19
288.831	314.19
289.062	290.19
289.293	298.19
289.524	308.19
289.755	307.19
289.986	283.19
290.217	301.19
290.448	300.19
290.679	295.19
290.91	296.19
291.141	282.19
291.371	288.19
291.602	299.19
291.833	292.19
292.064	271.19
292.295	298.19
292.526	297.19
292.757	312.19
292.987	296.19
293.218	287.19
293.449	298.19
293.68	286.19
293.91	298.19
294.141	282.19
294.372	286.19
294.603	285.19
294.833	301.19
295.064	285.19
295.295	297.19
295.525	279.19
295.756	306.19
295.987	303.19
296.217	339.19
296.448	333.19
296.679	318.19
296.909	313.19
297.14	317.19
297.37	333.19
297.601	308.19
297.831	306.19
298.062	312.19
298.292	314.19
298.523	315.19
298.753	307.19
298.984	322.19
299.214	306.19
299.445	297.19
299.675	311.19
299.905	301.19
300.136	321.19
300.366	329.19
300.597	315.19
300.827	321.19
301.057	332.19
301.288	346.19
301.518	346.19
301.748	332.19
301.979	330.19
302.209	343.19
302.439	335.19
302.669	339.19
302.9	321.19
303.13	328.19
303.36	324.19
303.59	334.19
303.82	342.19
304.051	344.19
304.281	329.19
304.511	341.19
304.741	335.19
304.971	337.19
305.201	341.19
305.431	327.19
305.661	318.19
305.891	331.19
306.121	344.19
306.352	327.19
306.582	360.19
306.812	335.19
307.042	345.19
307.272	329.19
307.502	331.19
307.731	346.19
307.961	351.19
308.191	340.19
308.421	337.19
308.651	357.19
308.881	331.19
309.111	352.19
309.341	367.19
309.571	371.19
309.8	353.19
310.03	354.19
310.26	370.19
310.49	371.19
310.72	383.19
310.949	402.19
311.179	411.19
311.409	408.19
311.639	393.19
311.868	411.19
312.098	371.19
312.328	394.19
312.557	415.19
312.787	403.19
313.017	402.19
313.246	404.19
313.476	417.19
313.706	365.19
313.935	399.19
314.165	395.19
314.394	384.19
314.624	414.19
314.853	419.19
315.083	379.19
315.312	384.19
315.542	401.19
315.771	371.19
316.001	387.19
316.23	396.19
316.46	389.19
316.689	377.19
316.919	401.19
317.148	395.19
317.377	396.19
317.607	395.19
317.836	401.19
318.065	393.19
318.295	388.19
318.524	396.19
318.753	381.19
318.983	393.19
319.212	398.19
319.441	386.19
319.67	397.19
319.9	382.19
320.129	398.19
320.358	378.19
320.587	400.19
320.816	383.19
321.046	409.19
321.275	423.19
321.504	421.19
321.733	429.19
321.962	413.19
322.191	433.19
322.42	456.19
322.649	466.19
322.878	471.19
323.108	478.19
323.337	486.19
323.566	507.19
323.795	539.19
324.024	585.19
324.253	749.19
324.482	1009.19
324.71	1608.19
324.939	2330.19
325.168	1967.19
325.397	1023.19
325.626	681.19
325.855	567.19
326.084	534.19
326.313	518.19
326.542	543.19
326.77	571.19
326.999	651.19
327.228	948.19
327.457	1410.19
327.686	1690.19
327.914	1156.19
328.143	747.19
328.372	633.19
328.6	616.19
328.829	583.19
329.058	583.19
329.287	596.19
329.515	550.19
329.744	515.19
329.972	502.19
330.201	523.19
330.43	534.19
330.658	575.19
330.887	609.19
331.115	624.19
331.344	521.19
331.572	525.19
331.801	525.19
332.03	511.19
332.258	493.19
332.486	484.19
332.715	453.19
332.943	454.19
333.172	466.19
333.4	479.19
333.629	473.19
333.857	488.19
334.085	490.19
334.314	484.19
334.542	470.19
334.771	462.19
334.999	454.19
335.227	478.19
335.455	484.19
335.684	471.19
335.912	474.19
336.14	465.19
336.369	470.19
336.597	469.19
336.825	454.19
337.053	455.19
337.281	465.19
337.51	439.19
337.738	459.19
337.966	452.19
338.194	456.19
338.422	473.19
338.65	469.19
338.878	464.19
339.106	432.19
339.334	432.19
339.562	424.19
339.79	439.19
340.018	453.19
340.246	438.19
340.474	434.19
340.702	455.19
340.93	454.19
341.158	464.19
341.386	443.19
341.614	470.19
341.842	464.19
342.07	435.19
342.298	447.19
342.526	432.19
342.754	432.19
342.981	435.19
343.209	434.19
343.437	440.19
343.665	462.19
343.893	456.19
344.12	482.19
344.348	451.19
344.576	459.19
344.804	451.19
345.031	472.19
345.259	475.19
345.487	462.19
345.714	438.19
345.942	439.19
346.17	444.19
346.397	447.19
346.625	447.19
346.853	431.19
347.08	442.19
347.308	439.19
347.535	448.19
347.763	445.19
347.99	451.19
348.218	444.19
348.445	458.19
348.673	462.19
348.9	411.19
349.128	423.19
349.355	411.19
349.583	423.19
349.81	407.19
350.037	415.19
350.265	416.19
350.492	419.19
350.72	387.19
350.947	416.19
351.174	455.19
351.402	445.19
351.629	439.19
351.856	450.19
352.083	433.19
352.311	433.19
352.538	447.19
352.765	460.19
352.992	453.19
353.22	455.19
353.447	446.19
353.674	429.19
353.901	394.19
354.128	441.19
354.355	431.19
354.583	404.19
354.81	406.19
355.037	406.19
355.264	396.19
355.491	393.19
355.718	407.19
355.945	410.19
356.172	399.19
356.399	405.19
356.626	414.19
356.853	394.19
357.08	379.19
357.307	394.19
357.534	398.19
357.761	408.19
357.988	434.19
358.215	420.19
358.441	418.19
358.668	417.19
358.895	410.19
359.122	411.19
359.349	434.19
359.576	447.19
359.802	438.19
360.029	473.19
360.256	506.19
360.483	474.19
360.709	446.19
360.936	455.19
361.163	427.19
361.39	431.19
361.616	448.19
361.843	457.19
362.07	454.19
362.296	433.19
362.523	405.19
362.749	442.19
362.976	420.19
363.203	443.19
363.429	417.19
363.656	413.19
363.882	396.19
364.109	418.19
364.335	404.19
364.562	423.19
364.788	433.19
365.015	405.19
365.241	409.19
365.468	413.19
365.694	448.19
365.92	437.19
366.147	409.19
366.373	417.19
366.599	417.19
366.826	412.19
367.052	436.19
367.278	399.19
367.505	408.19
367.731	413.19
367.957	429.19
368.184	405.19
368.41	395.19
368.636	423.19
368.862	433.19
369.089	438.19
369.315	429.19
369.541	440.19
369.767	423.19
369.993	423.19
370.219	410.19
370.445	412.19
370.672	409.19
370.898	411.19
371.124	439.19
371.35	415.19
371.576	399.19
371.802	418.19
372.028	420.19
372.254	419.19
372.48	409.19
372.706	447.19
372.932	409.19
373.158	421.19
373.384	413.19
373.61	415.19
373.835	403.19
374.061	432.19
374.287	438.19
374.513	434.19
374.739	431.19
374.965	414.19
375.191	409.19
375.416	427.19
375.642	419.19
375.868	449.19
376.094	433.19
376.319	433.19
376.545	430.19
376.771	394.19
376.997	425.19
377.222	423.19
377.448	423.19
377.674	434.19
377.899	394.19
378.125	416.19
378.35	401.19
378.576	406.19
378.802	413.19
379.027	393.19
379.253	406.19
379.478	383.19
379.704	416.19
379.929	395.19
380.155	403.19
380.38	395.19
380.606	411.19
380.831	413.19
381.057	417.19
381.282	421.19
381.507	416.19
381.733	422.19
381.958	419.19
382.184	428.19
382.409	427.19
382.634	417.19
382.86	422.19
383.085	428.19
383.31	434.19
383.535	442.19
383.761	442.19
383.986	418.19
384.211	432.19
384.436	429.19
384.662	441.19
384.887	435.19
385.112	445.19
385.337	419.19
385.562	465.19
385.787	442.19
386.013	453.19
386.238	477.19
386.463	454.19
386.688	466.19
386.913	461.19
387.138	452.19
387.363	433.19
387.588	461.19
387.813	433.19
388.038	447.19
388.263	453.19
388.488	469.19
388.713	455.19
388.938	447.19
389.163	486.19
389.387	463.19
389.612	450.19
389.837	461.19
390.062	459.19
390.287	458.19
390.512	472.19
390.736	442.19
390.961	446.19
391.186	445.19
391.411	458.19
391.636	447.19
391.86	454.19
392.085	447.19
392.31	485.19
392.534	482.19
392.759	462.19
392.984	442.19
393.208	444.19
393.433	475.19
393.658	477.19
393.882	449.19
394.107	459.19
394.331	466.19
394.556	457.19
394.78	451.19
395.005	475.19
395.229	461.19
395.454	466.19
395.678	464.19
395.903	474.19
396.127	507.19
396.352	516.19
396.576	489.19
396.801	484.19
397.025	490.19
397.249	474.19
397.474	474.19
397.698	506.19
397.922	479.19
398.147	513.19
398.371	536.19
398.595	501.19
398.82	509.19
399.044	530.19
399.268	565.19
399.492	583.19
399.717	594.19
399.941	633.19
400.165	659.19
400.389	658.19
400.613	603.19
400.837	554.19
401.062	546.19
401.286	525.19
401.51	511.19
401.734	522.19
401.958	541.19
402.182	535.19
402.406	557.19
402.63	545.19
402.854	525.19
403.078	542.19
403.302	552.19
403.526	547.19
403.75	534.19
403.974	566.19
404.198	545.19
404.422	533.19
404.645	548.19
404.869	543.19
405.093	545.19
405.317	593.19
405.541	605.19
405.765	577.19
405.988	544.19
406.212	577.19
406.436	593.19
406.66	615.19
406.883	592.19
407.107	615.19
407.331	673.19
407.555	738.19
407.778	721.19
408.002	666.19
408.226	619.19
408.449	615.19
408.673	597.19
408.896	607.19
409.12	659.19
409.344	647.19
409.567	577.19
409.791	550.19
410.014	567.19
410.238	555.19
410.461	554.19
410.685	561.19
410.908	547.19
411.132	623.19
411.355	637.19
411.578	629.19
411.802	575.19
412.025	535.19
412.249	560.19
412.472	554.19
412.695	550.19
412.919	542.19
413.142	542.19
413.365	522.19
413.589	535.19
413.812	526.19
414.035	524.19
414.258	517.19
414.482	528.19
414.705	521.19
414.928	514.19
415.151	525.19
415.374	503.19
415.597	498.19
415.821	503.19
416.044	510.19
416.267	544.19
416.49	507.19
416.713	525.19
416.936	523.19
417.159	520.19
417.382	509.19
417.605	511.19
417.828	528.19
418.051	500.19
418.274	530.19
418.497	527.19
418.72	539.19
418.943	505.19
419.166	532.19
419.389	540.19
419.611	547.19
419.834	546.19
420.057	574.19
420.28	528.19
420.503	524.19
420.726	520.19
420.948	586.19
421.171	593.19
421.394	647.19
421.617	566.19
421.839	533.19
422.062	550.19
422.285	545.19
422.507	635.19
422.73	678.19
422.953	681.19
423.175	577.19
423.398	576.19
423.621	535.19
423.843	557.19
424.066	591.19
424.288	578.19
424.511	597.19
424.733	675.19
424.956	742.19
425.178	715.19
425.401	721.19
425.623	733.19
425.846	639.19
426.068	583.19
426.291	583.19
426.513	581.19
426.735	575.19
426.958	623.19
427.18	710.19
427.402	866.19
427.625	933.19
427.847	798.19
428.069	677.19
428.292	608.19
428.514	575.19
428.736	551.19
428.958	551.19
429.181	521.19
429.403	535.19
429.625	542.19
429.847	607.19
430.069	639.19
430.292	647.19
430.514	554.19
430.736	530.19
430.958	527.19
431.18	515.19
431.402	519.19
431.624	482.19
431.846	495.19
432.068	513.19
432.29	494.19
432.512	508.19
432.734	515.19
432.956	517.19
433.178	537.19
433.4	538.19
433.622	497.19
433.844	511.19
434.066	522.19
434.287	498.19
434.509	519.19
434.731	535.19
434.953	522.19
435.175	541.19
435.397	591.19
435.618	593.19
435.84	606.19
436.062	726.19
436.284	822.19
436.505	650.19
436.727	592.19
436.949	563.19
437.17	529.19
437.392	547.19
437.614	523.19
437.835	587.19
438.057	671.19
438.278	787.19
438.5	789.19
438.721	902.19
438.943	838.19
439.165	656.19
439.386	599.19
439.608	575.19
439.829	579.19
440.05	614.19
440.272	633.19
440.493	615.19
440.715	556.19
440.936	571.19
441.158	518.19
441.379	543.19
441.6	575.19
441.822	575.19
442.043	631.19
442.264	699.19
442.486	739.19
442.707	646.19
442.928	591.19
443.149	598.19
443.371	616.19
443.592	634.19
443.813	771.19
444.034	836.19
444.255	685.19
444.476	609.19
444.698	606.19
444.919	582.19
445.14	673.19
445.361	626.19
445.582	638.19
445.803	680.19
446.024	761.19
446.245	793.19
446.466	724.19
446.687	645.19
446.908	584.19
447.129	549.19
447.35	534.19
447.571	539.19
447.792	539.19
448.013	559.19
448.234	563.19
448.455	618.19
448.675	755.19
448.896	849.19
449.117	737.19
449.338	690.19
449.559	799.19
449.779	907.19
450	691.19
450.221	574.19
450.442	554.19
450.662	529.19
450.883	535.19
451.104	564.19
451.324	539.19
451.545	513.19
451.766	511.19
451.986	494.19
452.207	479.19
452.428	477.19
452.648	467.19
452.869	471.19
453.089	478.19
453.31	496.19
453.53	501.19
453.751	471.19
453.971	485.19
454.192	502.19
454.412	497.19
454.633	499.19
454.853	487.19
455.073	473.19
455.294	494.19
455.514	589.19
455.734	566.19
455.955	505.19
456.175	462.19
456.395	431.19
456.616	465.19
456.836	459.19
457.056	439.19
457.276	438.19
457.497	450.19
457.717	458.19
457.937	464.19
458.157	477.19
458.377	474.19
458.598	473.19
458.818	560.19
459.038	645.19
459.258	641.19
459.478	584.19
459.698	528.19
459.918	511.19
460.138	547.19
460.358	539.19
460.578	500.19
460.798	526.19
461.018	525.19
461.238	519.19
461.458	536.19
461.678	530.19
461.898	508.19
462.118	515.19
462.338	529.19
462.558	553.19
462.777	561.19
462.997	550.19
463.217	579.19
463.437	574.19
463.657	562.19
463.876	541.19
464.096	561.19
464.316	566.19
464.536	577.19
464.755	573.19
464.975	572.19
465.195	602.19
465.414	705.19
465.634	609.19
465.854	570.19
466.073	533.19
466.293	515.19
466.512	501.19
466.732	513.19
466.951	498.19
467.171	482.19
467.391	511.19
467.61	513.19
467.829	519.19
468.049	535.19
468.268	495.19
468.488	490.19
468.707	481.19
468.927	503.19
469.146	481.19
469.365	498.19
469.585	475.19
469.804	497.19
470.023	513.19
470.243	502.19
470.462	499.19
470.681	536.19
470.901	534.19
471.12	522.19
471.339	515.19
471.558	490.19
471.777	525.19
471.997	490.19
472.216	495.19
472.435	496.19
472.654	489.19
472.873	475.19
473.092	489.19
473.311	477.19
473.53	498.19
473.749	507.19
473.968	548.19
474.187	658.19
474.406	659.19
474.625	564.19
474.844	525.19
475.063	521.19
475.282	535.19
475.501	495.19
475.72	513.19
475.939	517.19
476.158	536.19
476.377	522.19
476.596	506.19
476.814	527.19
477.033	516.19
477.252	562.19
477.471	544.19
477.69	541.19
477.908	566.19
478.127	548.19
478.346	546.19
478.564	567.19
478.783	596.19
479.002	586.19
479.22	578.19
479.439	600.19
479.658	623.19
479.876	599.19
480.095	612.19
480.313	645.19
480.532	607.19
480.751	617.19
480.969	614.19
481.188	626.19
481.406	629.19
481.624	605.19
481.843	599.19
482.061	599.19
482.28	591.19
482.498	578.19
482.717	591.19
482.935	569.19
483.153	576.19
483.372	590.19
483.59	606.19
483.808	576.19
484.027	576.19
484.245	586.19
484.463	593.19
484.681	593.19
484.9	623.19
485.118	597.19
485.336	598.19
485.554	625.19
485.772	593.19
485.99	609.19
486.209	611.19
486.427	608.19
486.645	634.19
486.863	630.19
487.081	628.19
487.299	652.19
487.517	646.19
487.735	622.19
487.953	641.19
488.171	617.19
488.389	627.19
488.607	635.19
488.825	648.19
489.043	641.19
489.261	647.19
489.479	636.19
489.696	611.19
489.914	622.19
490.132	641.19
490.35	647.19
490.568	663.19
490.786	670.19
491.003	675.19
491.221	675.19
491.439	725.19
491.657	713.19
491.874	693.19
492.092	716.19
492.31	713.19
492.527	701.19
492.745	694.19
492.963	724.19
493.18	711.19
493.398	727.19
493.615	731.19
493.833	722.19
494.05	727.19
494.268	719.19
494.485	729.19
494.703	725.19
494.92	726.19
495.138	738.19
495.355	769.19
495.573	734.19
495.79	758.19
496.008	737.19
496.225	750.19
496.442	761.19
496.66	738.19
496.877	748.19
497.094	769.19
497.312	772.19
497.529	773.19
497.746	803.19
497.963	784.19
498.181	806.19
498.398	841.19
498.615	855.19
498.832	855.19
499.049	882.19
499.267	897.19
499.484	915.19
499.701	945.19
499.918	983.19
500.135	1038.19
500.352	1056.19
500.569	1094.19
500.786	1069.19
501.003	1032.19
501.22	1041.19
501.437	1033.19
501.654	952.19
501.871	962.19
