Data from 1988.PennyLincolnUp.Lamp.En5.5.200Scan.071819.P2_HRD10591_17-18-16-974.txt Node
Date: Thu Jul 18 17:18:16 EDT 2019
User: cochatt
Spectrometer: HR+D1059
Trigger mode: 1
Integration Time (sec): 1.000000E-1
Scans to average: 1
Electric dark correction enabled: true
Nonlinearity correction enabled: false
Boxcar width: 0
XAxis mode: Wavelengths
Number of Pixels in Spectrum: 2048
>>>>>Begin Spectral Data<<<<<
223.165	-22.62
223.4	-22.62
223.635	-22.62
223.869	-11.62
224.104	-9.62
224.338	-13.62
224.573	0.38
224.808	-15.62
225.042	-4.62
225.277	0.38
225.511	3.38
225.746	-3.62
225.98	-17.62
226.215	3.38
226.449	4.38
226.683	23.38
226.918	34.38
227.152	29.38
227.387	32.38
227.621	32.38
227.856	44.38
228.09	52.38
228.324	44.38
228.559	44.38
228.793	54.38
229.027	80.38
229.262	89.38
229.496	91.38
229.73	126.38
229.964	131.38
230.199	125.38
230.433	107.38
230.667	93.38
230.901	112.38
231.136	103.38
231.37	98.38
231.604	105.38
231.838	106.38
232.072	108.38
232.306	109.38
232.541	110.38
232.775	99.38
233.009	100.38
233.243	108.38
233.477	104.38
233.711	99.38
233.945	112.38
234.179	108.38
234.413	118.38
234.647	114.38
234.881	94.38
235.115	102.38
235.349	107.38
235.583	127.38
235.817	106.38
236.051	100.38
236.285	97.38
236.519	108.38
236.753	106.38
236.987	123.38
237.221	158.38
237.455	180.38
237.689	152.38
237.922	120.38
238.156	103.38
238.39	115.38
238.624	109.38
238.858	105.38
239.091	109.38
239.325	121.38
239.559	122.38
239.793	115.38
240.027	114.38
240.26	125.38
240.494	127.38
240.728	124.38
240.961	120.38
241.195	112.38
241.429	118.38
241.662	116.38
241.896	106.38
242.13	102.38
242.363	113.38
242.597	110.38
242.83	112.38
243.064	118.38
243.298	127.38
243.531	115.38
243.765	128.38
243.998	118.38
244.232	118.38
244.465	123.38
244.699	121.38
244.932	111.38
245.166	105.38
245.399	103.38
245.633	113.38
245.866	124.38
246.099	117.38
246.333	136.38
246.566	132.38
246.8	122.38
247.033	132.38
247.266	108.38
247.5	121.38
247.733	132.38
247.966	134.38
248.2	137.38
248.433	152.38
248.666	140.38
248.899	147.38
249.133	148.38
249.366	158.38
249.599	143.38
249.832	132.38
250.066	140.38
250.299	136.38
250.532	144.38
250.765	153.38
250.998	161.38
251.231	178.38
251.465	171.38
251.698	167.38
251.931	162.38
252.164	164.38
252.397	141.38
252.63	151.38
252.863	155.38
253.096	145.38
253.329	166.38
253.562	170.38
253.795	172.38
254.028	163.38
254.261	155.38
254.494	170.38
254.727	178.38
254.96	197.38
255.193	177.38
255.426	181.38
255.659	161.38
255.892	166.38
256.124	160.38
256.357	157.38
256.59	160.38
256.823	151.38
257.056	153.38
257.289	157.38
257.521	138.38
257.754	140.38
257.987	157.38
258.22	170.38
258.452	149.38
258.685	160.38
258.918	150.38
259.151	160.38
259.383	168.38
259.616	173.38
259.849	161.38
260.081	188.38
260.314	192.38
260.547	193.38
260.779	177.38
261.012	150.38
261.244	172.38
261.477	161.38
261.71	176.38
261.942	188.38
262.175	178.38
262.407	178.38
262.64	158.38
262.872	170.38
263.105	189.38
263.337	173.38
263.57	164.38
263.802	153.38
264.035	170.38
264.267	162.38
264.499	172.38
264.732	157.38
264.964	174.38
265.197	150.38
265.429	160.38
265.661	147.38
265.894	164.38
266.126	169.38
266.358	166.38
266.591	161.38
266.823	176.38
267.055	164.38
267.287	182.38
267.52	160.38
267.752	149.38
267.984	171.38
268.216	167.38
268.448	168.38
268.681	189.38
268.913	178.38
269.145	189.38
269.377	206.38
269.609	191.38
269.841	202.38
270.073	197.38
270.306	210.38
270.538	204.38
270.77	219.38
271.002	219.38
271.234	193.38
271.466	195.38
271.698	221.38
271.93	217.38
272.162	222.38
272.394	229.38
272.626	224.38
272.858	197.38
273.09	202.38
273.322	198.38
273.553	201.38
273.785	196.38
274.017	213.38
274.249	213.38
274.481	204.38
274.713	192.38
274.945	199.38
275.176	207.38
275.408	208.38
275.64	191.38
275.872	201.38
276.104	203.38
276.335	205.38
276.567	201.38
276.799	210.38
277.031	236.38
277.262	229.38
277.494	240.38
277.726	209.38
277.957	205.38
278.189	211.38
278.421	214.38
278.652	208.38
278.884	202.38
279.115	219.38
279.347	264.38
279.579	317.38
279.81	373.38
280.042	337.38
280.273	288.38
280.505	306.38
280.736	278.38
280.968	205.38
281.199	202.38
281.431	211.38
281.662	204.38
281.894	212.38
282.125	222.38
282.356	211.38
282.588	232.38
282.819	235.38
283.051	202.38
283.282	205.38
283.513	201.38
283.745	201.38
283.976	214.38
284.207	206.38
284.439	198.38
284.67	216.38
284.901	219.38
285.132	227.38
285.364	238.38
285.595	235.38
285.826	210.38
286.057	221.38
286.288	217.38
286.52	205.38
286.751	207.38
286.982	193.38
287.213	214.38
287.444	211.38
287.675	201.38
287.906	227.38
288.138	230.38
288.369	260.38
288.6	250.38
288.831	229.38
289.062	227.38
289.293	229.38
289.524	210.38
289.755	211.38
289.986	207.38
290.217	215.38
290.448	204.38
290.679	205.38
290.91	199.38
291.141	200.38
291.371	214.38
291.602	192.38
291.833	216.38
292.064	232.38
292.295	203.38
292.526	192.38
292.757	197.38
292.987	211.38
293.218	210.38
293.449	216.38
293.68	216.38
293.91	205.38
294.141	213.38
294.372	206.38
294.603	222.38
294.833	232.38
295.064	215.38
295.295	209.38
295.525	214.38
295.756	212.38
295.987	226.38
296.217	256.38
296.448	250.38
296.679	219.38
296.909	213.38
297.14	207.38
297.37	233.38
297.601	209.38
297.831	205.38
298.062	213.38
298.292	225.38
298.523	225.38
298.753	229.38
298.984	244.38
299.214	227.38
299.445	216.38
299.675	224.38
299.905	250.38
300.136	242.38
300.366	230.38
300.597	209.38
300.827	235.38
301.057	235.38
301.288	259.38
301.518	251.38
301.748	210.38
301.979	232.38
302.209	232.38
302.439	253.38
302.669	219.38
302.9	259.38
303.13	238.38
303.36	243.38
303.59	245.38
303.82	254.38
304.051	257.38
304.281	262.38
304.511	221.38
304.741	239.38
304.971	249.38
305.201	228.38
305.431	247.38
305.661	248.38
305.891	256.38
306.121	241.38
306.352	249.38
306.582	243.38
306.812	247.38
307.042	240.38
307.272	244.38
307.502	246.38
307.731	264.38
307.961	269.38
308.191	251.38
308.421	245.38
308.651	263.38
308.881	260.38
309.111	268.38
309.341	266.38
309.571	293.38
309.8	299.38
310.03	294.38
310.26	298.38
310.49	292.38
310.72	293.38
310.949	300.38
311.179	298.38
311.409	282.38
311.639	286.38
311.868	293.38
312.098	287.38
312.328	296.38
312.557	311.38
312.787	296.38
313.017	311.38
313.246	298.38
313.476	272.38
313.706	272.38
313.935	292.38
314.165	289.38
314.394	301.38
314.624	300.38
314.853	300.38
315.083	274.38
315.312	276.38
315.542	280.38
315.771	262.38
316.001	272.38
316.23	310.38
316.46	286.38
316.689	273.38
316.919	282.38
317.148	302.38
317.377	288.38
317.607	307.38
317.836	315.38
318.065	296.38
318.295	311.38
318.524	292.38
318.753	278.38
318.983	270.38
319.212	280.38
319.441	285.38
319.67	296.38
319.9	286.38
320.129	293.38
320.358	282.38
320.587	265.38
320.816	304.38
321.046	304.38
321.275	306.38
321.504	315.38
321.733	299.38
321.962	302.38
322.191	306.38
322.42	330.38
322.649	344.38
322.878	351.38
323.108	372.38
323.337	394.38
323.566	412.38
323.795	456.38
324.024	461.38
324.253	652.38
324.482	952.38
324.71	1515.38
324.939	2030.38
325.168	1662.38
325.397	822.38
325.626	541.38
325.855	446.38
326.084	413.38
326.313	386.38
326.542	417.38
326.77	449.38
326.999	568.38
327.228	826.38
327.457	1305.38
327.686	1481.38
327.914	925.38
328.143	591.38
328.372	482.38
328.6	440.38
328.829	439.38
329.058	445.38
329.287	440.38
329.515	411.38
329.744	368.38
329.972	361.38
330.201	359.38
330.43	403.38
330.658	435.38
330.887	474.38
331.115	448.38
331.344	396.38
331.572	380.38
331.801	373.38
332.03	365.38
332.258	342.38
332.486	317.38
332.715	334.38
332.943	321.38
333.172	321.38
333.4	329.38
333.629	326.38
333.857	341.38
334.085	322.38
334.314	338.38
334.542	332.38
334.771	352.38
334.999	344.38
335.227	339.38
335.455	355.38
335.684	334.38
335.912	342.38
336.14	332.38
336.369	330.38
336.597	363.38
336.825	340.38
337.053	330.38
337.281	331.38
337.51	336.38
337.738	320.38
337.966	353.38
338.194	327.38
338.422	328.38
338.65	325.38
338.878	329.38
339.106	325.38
339.334	338.38
339.562	323.38
339.79	305.38
340.018	300.38
340.246	311.38
340.474	329.38
340.702	338.38
340.93	315.38
341.158	325.38
341.386	324.38
341.614	333.38
341.842	361.38
342.07	302.38
342.298	309.38
342.526	304.38
342.754	302.38
342.981	299.38
343.209	307.38
343.437	320.38
343.665	315.38
343.893	324.38
344.12	334.38
344.348	326.38
344.576	321.38
344.804	334.38
345.031	344.38
345.259	334.38
345.487	314.38
345.714	316.38
345.942	313.38
346.17	337.38
346.397	333.38
346.625	332.38
346.853	310.38
347.08	307.38
347.308	323.38
347.535	318.38
347.763	348.38
347.99	347.38
348.218	321.38
348.445	321.38
348.673	312.38
348.9	307.38
349.128	300.38
349.355	294.38
349.583	306.38
349.81	308.38
350.037	305.38
350.265	301.38
350.492	306.38
350.72	311.38
350.947	339.38
351.174	336.38
351.402	326.38
351.629	341.38
351.856	320.38
352.083	331.38
352.311	359.38
352.538	358.38
352.765	358.38
352.992	325.38
353.22	300.38
353.447	296.38
353.674	306.38
353.901	289.38
354.128	286.38
354.355	278.38
354.583	295.38
354.81	296.38
355.037	291.38
355.264	276.38
355.491	263.38
355.718	282.38
355.945	290.38
356.172	288.38
356.399	265.38
356.626	283.38
356.853	296.38
357.08	306.38
357.307	306.38
357.534	285.38
357.761	289.38
357.988	307.38
358.215	323.38
358.441	297.38
358.668	290.38
358.895	306.38
359.122	286.38
359.349	306.38
359.576	313.38
359.802	337.38
360.029	373.38
360.256	381.38
360.483	332.38
360.709	322.38
360.936	317.38
361.163	330.38
361.39	310.38
361.616	335.38
361.843	328.38
362.07	325.38
362.296	321.38
362.523	312.38
362.749	307.38
362.976	320.38
363.203	299.38
363.429	299.38
363.656	302.38
363.882	284.38
364.109	290.38
364.335	284.38
364.562	306.38
364.788	284.38
365.015	306.38
365.241	304.38
365.468	307.38
365.694	295.38
365.92	311.38
366.147	309.38
366.373	283.38
366.599	302.38
366.826	310.38
367.052	270.38
367.278	281.38
367.505	270.38
367.731	294.38
367.957	304.38
368.184	296.38
368.41	282.38
368.636	299.38
368.862	314.38
369.089	286.38
369.315	291.38
369.541	295.38
369.767	278.38
369.993	289.38
370.219	279.38
370.445	287.38
370.672	291.38
370.898	285.38
371.124	285.38
371.35	308.38
371.576	288.38
371.802	297.38
372.028	290.38
372.254	277.38
372.48	286.38
372.706	292.38
372.932	293.38
373.158	308.38
373.384	301.38
373.61	300.38
373.835	317.38
374.061	325.38
374.287	286.38
374.513	288.38
374.739	287.38
374.965	321.38
375.191	308.38
375.416	294.38
375.642	284.38
375.868	294.38
376.094	312.38
376.319	285.38
376.545	276.38
376.771	287.38
376.997	288.38
377.222	288.38
377.448	281.38
377.674	275.38
377.899	262.38
378.125	272.38
378.35	291.38
378.576	292.38
378.802	267.38
379.027	282.38
379.253	288.38
379.478	284.38
379.704	292.38
379.929	288.38
380.155	289.38
380.38	301.38
380.606	288.38
380.831	277.38
381.057	287.38
381.282	291.38
381.507	312.38
381.733	297.38
381.958	304.38
382.184	321.38
382.409	312.38
382.634	317.38
382.86	308.38
383.085	308.38
383.31	305.38
383.535	312.38
383.761	306.38
383.986	316.38
384.211	315.38
384.436	310.38
384.662	310.38
384.887	321.38
385.112	323.38
385.337	347.38
385.562	304.38
385.787	334.38
386.013	349.38
386.238	344.38
386.463	348.38
386.688	339.38
386.913	308.38
387.138	312.38
387.363	322.38
387.588	312.38
387.813	320.38
388.038	328.38
388.263	341.38
388.488	320.38
388.713	328.38
388.938	298.38
389.163	309.38
389.387	314.38
389.612	304.38
389.837	295.38
390.062	300.38
390.287	323.38
390.512	297.38
390.736	320.38
390.961	326.38
391.186	282.38
391.411	298.38
391.636	300.38
391.86	316.38
392.085	310.38
392.31	329.38
392.534	320.38
392.759	342.38
392.984	348.38
393.208	445.38
393.433	576.38
393.658	598.38
393.882	388.38
394.107	345.38
394.331	348.38
394.556	357.38
394.78	333.38
395.005	321.38
395.229	314.38
395.454	315.38
395.678	324.38
395.903	344.38
396.127	386.38
396.352	436.38
396.576	410.38
396.801	419.38
397.025	515.38
397.249	413.38
397.474	337.38
397.698	337.38
397.922	344.38
398.147	331.38
398.371	355.38
398.595	346.38
398.82	340.38
399.044	344.38
399.268	348.38
399.492	345.38
399.717	387.38
399.941	400.38
400.165	392.38
400.389	430.38
400.613	381.38
400.837	373.38
401.062	358.38
401.286	334.38
401.51	321.38
401.734	351.38
401.958	363.38
402.182	349.38
402.406	359.38
402.63	346.38
402.854	346.38
403.078	352.38
403.302	361.38
403.526	359.38
403.75	353.38
403.974	356.38
404.198	328.38
404.422	368.38
404.645	347.38
404.869	348.38
405.093	340.38
405.317	364.38
405.541	391.38
405.765	378.38
405.988	353.38
406.212	396.38
406.436	390.38
406.66	421.38
406.883	397.38
407.107	418.38
407.331	432.38
407.555	477.38
407.778	456.38
408.002	416.38
408.226	389.38
408.449	381.38
408.673	404.38
408.896	402.38
409.12	436.38
409.344	413.38
409.567	376.38
409.791	344.38
410.014	360.38
410.238	362.38
410.461	353.38
410.685	344.38
410.908	364.38
411.132	394.38
411.355	407.38
411.578	395.38
411.802	339.38
412.025	328.38
412.249	348.38
412.472	354.38
412.695	368.38
412.919	340.38
413.142	328.38
413.365	332.38
413.589	351.38
413.812	346.38
414.035	332.38
414.258	321.38
414.482	330.38
414.705	323.38
414.928	323.38
415.151	343.38
415.374	329.38
415.597	329.38
415.821	347.38
416.044	342.38
416.267	343.38
416.49	347.38
416.713	325.38
416.936	324.38
417.159	308.38
417.382	333.38
417.605	324.38
417.828	345.38
418.051	351.38
418.274	342.38
418.497	347.38
418.72	359.38
418.943	340.38
419.166	337.38
419.389	360.38
419.611	347.38
419.834	353.38
420.057	353.38
420.28	350.38
420.503	361.38
420.726	338.38
420.948	334.38
421.171	388.38
421.394	394.38
421.617	381.38
421.839	352.38
422.062	343.38
422.285	362.38
422.507	398.38
422.73	471.38
422.953	474.38
423.175	380.38
423.398	354.38
423.621	357.38
423.843	375.38
424.066	369.38
424.288	372.38
424.511	391.38
424.733	402.38
424.956	470.38
425.178	461.38
425.401	432.38
425.623	461.38
425.846	376.38
426.068	370.38
426.291	380.38
426.513	377.38
426.735	383.38
426.958	405.38
427.18	465.38
427.402	558.38
427.625	618.38
427.847	565.38
428.069	436.38
428.292	402.38
428.514	377.38
428.736	355.38
428.958	364.38
429.181	356.38
429.403	355.38
429.625	360.38
429.847	382.38
430.069	436.38
430.292	428.38
430.514	361.38
430.736	354.38
430.958	344.38
431.18	346.38
431.402	336.38
431.624	338.38
431.846	328.38
432.068	311.38
432.29	317.38
432.512	326.38
432.734	339.38
432.956	323.38
433.178	345.38
433.4	346.38
433.622	346.38
433.844	342.38
434.066	320.38
434.287	324.38
434.509	329.38
434.731	331.38
434.953	326.38
435.175	334.38
435.397	364.38
435.618	372.38
435.84	405.38
436.062	479.38
436.284	507.38
436.505	422.38
436.727	384.38
436.949	363.38
437.17	361.38
437.392	374.38
437.614	380.38
437.835	392.38
438.057	481.38
438.278	532.38
438.5	514.38
438.721	570.38
438.943	507.38
439.165	418.38
439.386	388.38
439.608	389.38
439.829	392.38
440.05	406.38
440.272	428.38
440.493	427.38
440.715	386.38
440.936	361.38
441.158	356.38
441.379	357.38
441.6	374.38
441.822	382.38
442.043	422.38
442.264	464.38
442.486	501.38
442.707	393.38
442.928	400.38
443.149	387.38
443.371	415.38
443.592	453.38
443.813	485.38
444.034	523.38
444.255	451.38
444.476	417.38
444.698	384.38
444.919	388.38
445.14	486.38
445.361	437.38
445.582	427.38
445.803	504.38
446.024	557.38
446.245	556.38
446.466	501.38
446.687	421.38
446.908	409.38
447.129	380.38
447.35	362.38
447.571	364.38
447.792	331.38
448.013	374.38
448.234	365.38
448.455	404.38
448.675	482.38
448.896	566.38
449.117	470.38
449.338	427.38
449.559	514.38
449.779	552.38
450	443.38
450.221	396.38
450.442	379.38
450.662	339.38
450.883	372.38
451.104	386.38
451.324	372.38
451.545	356.38
451.766	334.38
451.986	322.38
452.207	334.38
452.428	333.38
452.648	334.38
452.869	334.38
453.089	330.38
453.31	351.38
453.53	342.38
453.751	322.38
453.971	323.38
454.192	364.38
454.412	368.38
454.633	331.38
454.853	315.38
455.073	318.38
455.294	355.38
455.514	386.38
455.734	382.38
455.955	324.38
456.175	290.38
456.395	287.38
456.616	300.38
456.836	295.38
457.056	312.38
457.276	285.38
457.497	296.38
457.717	324.38
457.937	315.38
458.157	322.38
458.377	333.38
458.598	346.38
458.818	403.38
459.038	450.38
459.258	436.38
459.478	367.38
459.698	367.38
459.918	346.38
460.138	340.38
460.358	330.38
460.578	338.38
460.798	350.38
461.018	355.38
461.238	336.38
461.458	334.38
461.678	338.38
461.898	338.38
462.118	327.38
462.338	325.38
462.558	344.38
462.777	356.38
462.997	356.38
463.217	360.38
463.437	366.38
463.657	371.38
463.876	359.38
464.096	358.38
464.316	372.38
464.536	361.38
464.755	362.38
464.975	370.38
465.195	424.38
465.414	502.38
465.634	412.38
465.854	382.38
466.073	386.38
466.293	354.38
466.512	332.38
466.732	325.38
466.951	335.38
467.171	332.38
467.391	337.38
467.61	329.38
467.829	358.38
468.049	329.38
468.268	333.38
468.488	331.38
468.707	329.38
468.927	339.38
469.146	318.38
469.365	338.38
469.585	340.38
469.804	340.38
470.023	351.38
470.243	331.38
470.462	331.38
470.681	353.38
470.901	347.38
471.12	341.38
471.339	316.38
471.558	332.38
471.777	335.38
471.997	319.38
472.216	317.38
472.435	310.38
472.654	327.38
472.873	325.38
473.092	319.38
473.311	353.38
473.53	327.38
473.749	332.38
473.968	378.38
474.187	426.38
474.406	460.38
474.625	359.38
474.844	359.38
475.063	332.38
475.282	368.38
475.501	337.38
475.72	340.38
475.939	330.38
476.158	353.38
476.377	361.38
476.596	345.38
476.814	357.38
477.033	352.38
477.252	359.38
477.471	349.38
477.69	346.38
477.908	369.38
478.127	369.38
478.346	350.38
478.564	372.38
478.783	356.38
479.002	374.38
479.22	394.38
479.439	390.38
479.658	425.38
479.876	394.38
480.095	415.38
480.313	423.38
480.532	402.38
480.751	397.38
480.969	394.38
481.188	417.38
481.406	408.38
481.624	403.38
481.843	380.38
482.061	384.38
482.28	394.38
482.498	363.38
482.717	368.38
482.935	375.38
483.153	380.38
483.372	393.38
483.59	404.38
483.808	400.38
484.027	396.38
484.245	390.38
484.463	410.38
484.681	408.38
484.9	409.38
485.118	425.38
485.336	402.38
485.554	398.38
485.772	394.38
485.99	412.38
486.209	406.38
486.427	396.38
486.645	395.38
486.863	459.38
487.081	440.38
487.299	421.38
487.517	414.38
487.735	434.38
487.953	421.38
488.171	421.38
488.389	399.38
488.607	437.38
488.825	427.38
489.043	404.38
489.261	429.38
489.479	416.38
489.696	420.38
489.914	435.38
490.132	419.38
490.35	440.38
490.568	429.38
490.786	442.38
491.003	425.38
491.221	446.38
491.439	436.38
491.657	429.38
491.874	446.38
492.092	468.38
492.31	438.38
492.527	483.38
492.745	445.38
492.963	480.38
493.18	460.38
493.398	459.38
493.615	468.38
493.833	459.38
494.05	468.38
494.268	449.38
494.485	456.38
494.703	468.38
494.92	464.38
495.138	489.38
495.355	467.38
495.573	458.38
495.79	468.38
496.008	483.38
496.225	475.38
496.442	482.38
496.66	479.38
496.877	455.38
497.094	457.38
497.312	474.38
497.529	468.38
497.746	490.38
497.963	487.38
498.181	512.38
498.398	530.38
498.615	535.38
498.832	515.38
499.049	511.38
499.267	528.38
499.484	537.38
499.701	569.38
499.918	585.38
500.135	606.38
500.352	653.38
500.569	604.38
500.786	608.38
501.003	633.38
501.22	605.38
501.437	604.38
501.654	596.38
501.871	613.38
502.088	582.38
