Data from 1988.PennyLincolnUp.Lamp.En5.5.200Scan.071819.P2_HRD10591_17-19-29-972.txt Node
Date: Thu Jul 18 17:19:29 EDT 2019
User: cochatt
Spectrometer: HR+D1059
Trigger mode: 1
Integration Time (sec): 1.000000E-1
Scans to average: 1
Electric dark correction enabled: true
Nonlinearity correction enabled: false
Boxcar width: 0
XAxis mode: Wavelengths
Number of Pixels in Spectrum: 2048
>>>>>Begin Spectral Data<<<<<
223.165	-12.06
223.4	-12.06
223.635	-12.06
223.869	-12.06
224.104	-23.06
224.338	-17.06
224.573	-4.06
224.808	-11.06
225.042	-1.06
225.277	-12.06
225.511	-9.06
225.746	2.94
225.98	4.94
226.215	14.94
226.449	3.94
226.683	2.94
226.918	33.94
227.152	37.94
227.387	37.94
227.621	35.94
227.856	34.94
228.09	42.94
228.324	50.94
228.559	50.94
228.793	68.94
229.027	88.94
229.262	111.94
229.496	100.94
229.73	138.94
229.964	146.94
230.199	152.94
230.433	120.94
230.667	103.94
230.901	111.94
231.136	111.94
231.37	104.94
231.604	115.94
231.838	108.94
232.072	109.94
232.306	125.94
232.541	109.94
232.775	127.94
233.009	122.94
233.243	124.94
233.477	111.94
233.711	119.94
233.945	119.94
234.179	102.94
234.413	134.94
234.647	114.94
234.881	120.94
235.115	119.94
235.349	130.94
235.583	121.94
235.817	109.94
236.051	132.94
236.285	132.94
236.519	129.94
236.753	134.94
236.987	155.94
237.221	183.94
237.455	237.94
237.689	187.94
237.922	138.94
238.156	138.94
238.39	128.94
238.624	140.94
238.858	122.94
239.091	114.94
239.325	144.94
239.559	106.94
239.793	121.94
240.027	138.94
240.26	141.94
240.494	162.94
240.728	157.94
240.961	153.94
241.195	158.94
241.429	158.94
241.662	128.94
241.896	142.94
242.13	133.94
242.363	134.94
242.597	155.94
242.83	162.94
243.064	130.94
243.298	134.94
243.531	144.94
243.765	139.94
243.998	143.94
244.232	149.94
244.465	157.94
244.699	144.94
244.932	148.94
245.166	147.94
245.399	137.94
245.633	133.94
245.866	141.94
246.099	150.94
246.333	145.94
246.566	131.94
246.8	140.94
247.033	155.94
247.266	179.94
247.5	168.94
247.733	158.94
247.966	166.94
248.2	184.94
248.433	178.94
248.666	173.94
248.899	168.94
249.133	194.94
249.366	200.94
249.599	198.94
249.832	183.94
250.066	182.94
250.299	183.94
250.532	181.94
250.765	192.94
250.998	232.94
251.231	213.94
251.465	199.94
251.698	207.94
251.931	181.94
252.164	200.94
252.397	190.94
252.63	194.94
252.863	224.94
253.096	219.94
253.329	213.94
253.562	226.94
253.795	200.94
254.028	213.94
254.261	221.94
254.494	223.94
254.727	240.94
254.96	263.94
255.193	258.94
255.426	245.94
255.659	239.94
255.892	206.94
256.124	205.94
256.357	212.94
256.59	209.94
256.823	204.94
257.056	212.94
257.289	207.94
257.521	204.94
257.754	198.94
257.987	217.94
258.22	207.94
258.452	208.94
258.685	212.94
258.918	206.94
259.151	217.94
259.383	208.94
259.616	219.94
259.849	219.94
260.081	211.94
260.314	234.94
260.547	268.94
260.779	247.94
261.012	244.94
261.244	239.94
261.477	213.94
261.71	215.94
261.942	227.94
262.175	239.94
262.407	251.94
262.64	212.94
262.872	207.94
263.105	212.94
263.337	212.94
263.57	195.94
263.802	210.94
264.035	212.94
264.267	225.94
264.499	224.94
264.732	216.94
264.964	208.94
265.197	224.94
265.429	215.94
265.661	218.94
265.894	209.94
266.126	226.94
266.358	207.94
266.591	209.94
266.823	232.94
267.055	212.94
267.287	254.94
267.52	233.94
267.752	229.94
267.984	204.94
268.216	233.94
268.448	234.94
268.681	235.94
268.913	233.94
269.145	263.94
269.377	268.94
269.609	277.94
269.841	274.94
270.073	274.94
270.306	289.94
270.538	304.94
270.77	306.94
271.002	293.94
271.234	312.94
271.466	299.94
271.698	294.94
271.93	303.94
272.162	311.94
272.394	306.94
272.626	285.94
272.858	298.94
273.09	286.94
273.322	263.94
273.553	268.94
273.785	260.94
274.017	257.94
274.249	264.94
274.481	268.94
274.713	250.94
274.945	253.94
275.176	263.94
275.408	275.94
275.64	262.94
275.872	275.94
276.104	263.94
276.335	274.94
276.567	281.94
276.799	287.94
277.031	290.94
277.262	324.94
277.494	327.94
277.726	307.94
277.957	282.94
278.189	286.94
278.421	281.94
278.652	262.94
278.884	283.94
279.115	256.94
279.347	274.94
279.579	275.94
279.81	275.94
280.042	268.94
280.273	264.94
280.505	278.94
280.736	267.94
280.968	261.94
281.199	249.94
281.431	281.94
281.662	284.94
281.894	274.94
282.125	274.94
282.356	291.94
282.588	297.94
282.819	307.94
283.051	268.94
283.282	280.94
283.513	296.94
283.745	285.94
283.976	284.94
284.207	285.94
284.439	287.94
284.67	280.94
284.901	282.94
285.132	284.94
285.364	276.94
285.595	272.94
285.826	281.94
286.057	278.94
286.288	279.94
286.52	288.94
286.751	285.94
286.982	284.94
287.213	282.94
287.444	301.94
287.675	300.94
287.906	299.94
288.138	318.94
288.369	314.94
288.6	306.94
288.831	303.94
289.062	286.94
289.293	280.94
289.524	295.94
289.755	311.94
289.986	298.94
290.217	302.94
290.448	299.94
290.679	291.94
290.91	301.94
291.141	298.94
291.371	293.94
291.602	282.94
291.833	283.94
292.064	294.94
292.295	290.94
292.526	297.94
292.757	300.94
292.987	290.94
293.218	289.94
293.449	280.94
293.68	309.94
293.91	292.94
294.141	286.94
294.372	295.94
294.603	296.94
294.833	323.94
295.064	306.94
295.295	318.94
295.525	306.94
295.756	322.94
295.987	314.94
296.217	322.94
296.448	320.94
296.679	320.94
296.909	302.94
297.14	306.94
297.37	307.94
297.601	316.94
297.831	316.94
298.062	320.94
298.292	313.94
298.523	325.94
298.753	304.94
298.984	288.94
299.214	312.94
299.445	316.94
299.675	319.94
299.905	334.94
300.136	326.94
300.366	321.94
300.597	328.94
300.827	325.94
301.057	319.94
301.288	338.94
301.518	331.94
301.748	334.94
301.979	360.94
302.209	350.94
302.439	334.94
302.669	335.94
302.9	323.94
303.13	321.94
303.36	343.94
303.59	331.94
303.82	352.94
304.051	353.94
304.281	333.94
304.511	347.94
304.741	323.94
304.971	318.94
305.201	330.94
305.431	346.94
305.661	345.94
305.891	327.94
306.121	351.94
306.352	327.94
306.582	339.94
306.812	343.94
307.042	331.94
307.272	338.94
307.502	324.94
307.731	357.94
307.961	343.94
308.191	342.94
308.421	354.94
308.651	349.94
308.881	366.94
309.111	363.94
309.341	378.94
309.571	357.94
309.8	378.94
310.03	378.94
310.26	389.94
310.49	386.94
310.72	390.94
310.949	391.94
311.179	423.94
311.409	390.94
311.639	384.94
311.868	379.94
312.098	383.94
312.328	391.94
312.557	410.94
312.787	436.94
313.017	428.94
313.246	411.94
313.476	389.94
313.706	383.94
313.935	367.94
314.165	402.94
314.394	404.94
314.624	412.94
314.853	399.94
315.083	387.94
315.312	388.94
315.542	376.94
315.771	379.94
316.001	388.94
316.23	390.94
316.46	380.94
316.689	384.94
316.919	391.94
317.148	407.94
317.377	426.94
317.607	413.94
317.836	398.94
318.065	398.94
318.295	383.94
318.524	386.94
318.753	384.94
318.983	394.94
319.212	391.94
319.441	394.94
319.67	408.94
319.9	409.94
320.129	386.94
320.358	384.94
320.587	400.94
320.816	429.94
321.046	420.94
321.275	419.94
321.504	418.94
321.733	411.94
321.962	453.94
322.191	447.94
322.42	432.94
322.649	475.94
322.878	482.94
323.108	465.94
323.337	482.94
323.566	512.94
323.795	546.94
324.024	602.94
324.253	714.94
324.482	1045.94
324.71	1653.94
324.939	2387.94
325.168	2039.94
325.397	1005.94
325.626	683.94
325.855	598.94
326.084	544.94
326.313	513.94
326.542	546.94
326.77	590.94
326.999	684.94
327.228	951.94
327.457	1414.94
327.686	1728.94
327.914	1158.94
328.143	751.94
328.372	646.94
328.6	600.94
328.829	576.94
329.058	594.94
329.287	581.94
329.515	570.94
329.744	520.94
329.972	500.94
330.201	522.94
330.43	538.94
330.658	541.94
330.887	631.94
331.115	599.94
331.344	528.94
331.572	503.94
331.801	507.94
332.03	504.94
332.258	480.94
332.486	464.94
332.715	475.94
332.943	458.94
333.172	470.94
333.4	456.94
333.629	471.94
333.857	488.94
334.085	466.94
334.314	480.94
334.542	502.94
334.771	483.94
334.999	474.94
335.227	456.94
335.455	448.94
335.684	483.94
335.912	463.94
336.14	441.94
336.369	451.94
336.597	469.94
336.825	458.94
337.053	447.94
337.281	464.94
337.51	461.94
337.738	472.94
337.966	460.94
338.194	462.94
338.422	455.94
338.65	451.94
338.878	471.94
339.106	420.94
339.334	450.94
339.562	458.94
339.79	447.94
340.018	432.94
340.246	445.94
340.474	469.94
340.702	460.94
340.93	437.94
341.158	465.94
341.386	445.94
341.614	467.94
341.842	452.94
342.07	446.94
342.298	440.94
342.526	431.94
342.754	424.94
342.981	427.94
343.209	417.94
343.437	432.94
343.665	455.94
343.893	446.94
344.12	481.94
344.348	450.94
344.576	450.94
344.804	452.94
345.031	464.94
345.259	476.94
345.487	453.94
345.714	438.94
345.942	454.94
346.17	448.94
346.397	439.94
346.625	435.94
346.853	445.94
347.08	427.94
347.308	462.94
347.535	435.94
347.763	458.94
347.99	446.94
348.218	427.94
348.445	455.94
348.673	445.94
348.9	422.94
349.128	438.94
349.355	440.94
349.583	429.94
349.81	395.94
350.037	418.94
350.265	392.94
350.492	439.94
350.72	412.94
350.947	417.94
351.174	434.94
351.402	442.94
351.629	438.94
351.856	429.94
352.083	452.94
352.311	434.94
352.538	462.94
352.765	460.94
352.992	447.94
353.22	414.94
353.447	431.94
353.674	425.94
353.901	404.94
354.128	396.94
354.355	410.94
354.583	410.94
354.81	419.94
355.037	411.94
355.264	411.94
355.491	393.94
355.718	410.94
355.945	394.94
356.172	408.94
356.399	402.94
356.626	390.94
356.853	392.94
357.08	409.94
357.307	414.94
357.534	393.94
357.761	384.94
357.988	401.94
358.215	407.94
358.441	398.94
358.668	408.94
358.895	402.94
359.122	392.94
359.349	416.94
359.576	444.94
359.802	464.94
360.029	479.94
360.256	505.94
360.483	468.94
360.709	438.94
360.936	455.94
361.163	439.94
361.39	429.94
361.616	426.94
361.843	410.94
362.07	424.94
362.296	423.94
362.523	438.94
362.749	424.94
362.976	413.94
363.203	413.94
363.429	418.94
363.656	431.94
363.882	413.94
364.109	411.94
364.335	415.94
364.562	408.94
364.788	420.94
365.015	422.94
365.241	415.94
365.468	410.94
365.694	423.94
365.92	414.94
366.147	416.94
366.373	422.94
366.599	403.94
366.826	415.94
367.052	380.94
367.278	394.94
367.505	400.94
367.731	413.94
367.957	407.94
368.184	410.94
368.41	414.94
368.636	421.94
368.862	408.94
369.089	430.94
369.315	424.94
369.541	406.94
369.767	424.94
369.993	414.94
370.219	429.94
370.445	420.94
370.672	423.94
370.898	418.94
371.124	414.94
371.35	423.94
371.576	425.94
371.802	401.94
372.028	400.94
372.254	418.94
372.48	416.94
372.706	419.94
372.932	424.94
373.158	426.94
373.384	424.94
373.61	428.94
373.835	414.94
374.061	410.94
374.287	432.94
374.513	412.94
374.739	418.94
374.965	431.94
375.191	427.94
375.416	428.94
375.642	412.94
375.868	419.94
376.094	404.94
376.319	415.94
376.545	408.94
376.771	411.94
376.997	414.94
377.222	413.94
377.448	411.94
377.674	415.94
377.899	411.94
378.125	396.94
378.35	411.94
378.576	404.94
378.802	410.94
379.027	400.94
379.253	428.94
379.478	441.94
379.704	403.94
379.929	392.94
380.155	411.94
380.38	418.94
380.606	432.94
380.831	394.94
381.057	401.94
381.282	425.94
381.507	411.94
381.733	423.94
381.958	410.94
382.184	428.94
382.409	423.94
382.634	407.94
382.86	453.94
383.085	419.94
383.31	435.94
383.535	415.94
383.761	434.94
383.986	440.94
384.211	420.94
384.436	424.94
384.662	438.94
384.887	431.94
385.112	444.94
385.337	438.94
385.562	453.94
385.787	459.94
386.013	436.94
386.238	462.94
386.463	454.94
386.688	455.94
386.913	456.94
387.138	437.94
387.363	464.94
387.588	417.94
387.813	438.94
388.038	451.94
388.263	459.94
388.488	443.94
388.713	450.94
388.938	440.94
389.163	478.94
389.387	448.94
389.612	454.94
389.837	462.94
390.062	445.94
390.287	444.94
390.512	447.94
390.736	461.94
390.961	474.94
391.186	459.94
391.411	443.94
391.636	430.94
391.86	460.94
392.085	470.94
392.31	477.94
392.534	450.94
392.759	473.94
392.984	448.94
393.208	445.94
393.433	484.94
393.658	460.94
393.882	477.94
394.107	459.94
394.331	467.94
394.556	454.94
394.78	460.94
395.005	479.94
395.229	468.94
395.454	475.94
395.678	460.94
395.903	473.94
396.127	525.94
396.352	513.94
396.576	495.94
396.801	475.94
397.025	470.94
397.249	474.94
397.474	491.94
397.698	479.94
397.922	495.94
398.147	504.94
398.371	517.94
398.595	487.94
398.82	507.94
399.044	531.94
399.268	551.94
399.492	574.94
399.717	607.94
399.941	650.94
400.165	652.94
400.389	651.94
400.613	595.94
400.837	544.94
401.062	533.94
401.286	544.94
401.51	544.94
401.734	508.94
401.958	534.94
402.182	503.94
402.406	530.94
402.63	551.94
402.854	538.94
403.078	541.94
403.302	538.94
403.526	528.94
403.75	560.94
403.974	577.94
404.198	540.94
404.422	550.94
404.645	522.94
404.869	550.94
405.093	553.94
405.317	583.94
405.541	601.94
405.765	586.94
405.988	557.94
406.212	579.94
406.436	606.94
406.66	617.94
406.883	592.94
407.107	616.94
407.331	659.94
407.555	710.94
407.778	727.94
408.002	672.94
408.226	606.94
408.449	597.94
408.673	576.94
408.896	610.94
409.12	660.94
409.344	654.94
409.567	586.94
409.791	553.94
410.014	557.94
410.238	563.94
410.461	564.94
410.685	546.94
410.908	563.94
411.132	599.94
411.355	620.94
411.578	616.94
411.802	558.94
412.025	553.94
412.249	549.94
412.472	556.94
412.695	580.94
412.919	563.94
413.142	532.94
413.365	537.94
413.589	505.94
413.812	514.94
414.035	508.94
414.258	512.94
414.482	516.94
414.705	526.94
414.928	539.94
415.151	511.94
415.374	512.94
415.597	521.94
415.821	479.94
416.044	522.94
416.267	524.94
416.49	522.94
416.713	491.94
416.936	516.94
417.159	524.94
417.382	512.94
417.605	506.94
417.828	526.94
418.051	528.94
418.274	508.94
418.497	518.94
418.72	522.94
418.943	509.94
419.166	550.94
419.389	546.94
419.611	556.94
419.834	535.94
420.057	560.94
420.28	541.94
420.503	529.94
420.726	532.94
420.948	549.94
421.171	571.94
421.394	612.94
421.617	546.94
421.839	536.94
422.062	550.94
422.285	555.94
422.507	598.94
422.73	698.94
422.953	664.94
423.175	595.94
423.398	554.94
423.621	568.94
423.843	560.94
424.066	570.94
424.288	585.94
424.511	590.94
424.733	664.94
424.956	744.94
425.178	698.94
425.401	702.94
425.623	730.94
425.846	616.94
426.068	580.94
426.291	585.94
426.513	555.94
426.735	582.94
426.958	640.94
427.18	716.94
427.402	846.94
427.625	921.94
427.847	788.94
428.069	672.94
428.292	609.94
428.514	569.94
428.736	549.94
428.958	546.94
429.181	561.94
429.403	569.94
429.625	543.94
429.847	576.94
430.069	647.94
430.292	637.94
430.514	551.94
430.736	544.94
430.958	519.94
431.18	510.94
431.402	516.94
431.624	500.94
431.846	483.94
432.068	504.94
432.29	524.94
432.512	529.94
432.734	532.94
432.956	514.94
433.178	520.94
433.4	541.94
433.622	511.94
433.844	512.94
434.066	502.94
434.287	519.94
434.509	517.94
434.731	517.94
434.953	518.94
435.175	532.94
435.397	571.94
435.618	576.94
435.84	636.94
436.062	726.94
436.284	810.94
436.505	677.94
436.727	594.94
436.949	552.94
437.17	548.94
437.392	543.94
437.614	552.94
437.835	608.94
438.057	690.94
438.278	803.94
438.5	796.94
438.721	846.94
438.943	825.94
439.165	664.94
439.386	617.94
439.608	604.94
439.829	588.94
440.05	603.94
440.272	637.94
440.493	623.94
440.715	577.94
440.936	573.94
441.158	555.94
441.379	546.94
441.6	551.94
441.822	574.94
442.043	624.94
442.264	665.94
442.486	776.94
442.707	634.94
442.928	583.94
443.149	598.94
443.371	622.94
443.592	672.94
443.813	782.94
444.034	824.94
444.255	679.94
444.476	613.94
444.698	587.94
444.919	590.94
445.14	655.94
445.361	612.94
445.582	613.94
445.803	699.94
446.024	786.94
446.245	826.94
446.466	742.94
446.687	636.94
446.908	570.94
447.129	557.94
447.35	546.94
447.571	523.94
447.792	515.94
448.013	556.94
448.234	575.94
448.455	613.94
448.675	752.94
448.896	850.94
449.117	719.94
449.338	702.94
449.559	808.94
449.779	924.94
450	721.94
450.221	590.94
450.442	551.94
450.662	514.94
450.883	546.94
451.104	562.94
451.324	521.94
451.545	510.94
451.766	517.94
451.986	492.94
452.207	472.94
452.428	464.94
452.648	474.94
452.869	477.94
453.089	466.94
453.31	492.94
453.53	503.94
453.751	476.94
453.971	494.94
454.192	513.94
454.412	487.94
454.633	491.94
454.853	499.94
455.073	470.94
455.294	487.94
455.514	567.94
455.734	550.94
455.955	462.94
456.175	464.94
456.395	452.94
456.616	431.94
456.836	455.94
457.056	462.94
457.276	448.94
457.497	441.94
457.717	457.94
457.937	463.94
458.157	458.94
458.377	450.94
458.598	475.94
458.818	546.94
459.038	619.94
459.258	649.94
459.478	577.94
459.698	514.94
459.918	524.94
460.138	523.94
460.358	514.94
460.578	515.94
460.798	531.94
461.018	546.94
461.238	538.94
461.458	537.94
461.678	483.94
461.898	525.94
462.118	530.94
462.338	546.94
462.558	540.94
462.777	534.94
462.997	567.94
463.217	580.94
463.437	562.94
463.657	598.94
463.876	555.94
464.096	554.94
464.316	539.94
464.536	556.94
464.755	543.94
464.975	573.94
465.195	598.94
465.414	669.94
465.634	591.94
465.854	537.94
466.073	539.94
466.293	509.94
466.512	509.94
466.732	493.94
466.951	494.94
467.171	502.94
467.391	506.94
467.61	511.94
467.829	523.94
468.049	503.94
468.268	507.94
468.488	475.94
468.707	475.94
468.927	460.94
469.146	473.94
469.365	482.94
469.585	490.94
469.804	487.94
470.023	480.94
470.243	498.94
470.462	484.94
470.681	538.94
470.901	516.94
471.12	490.94
471.339	504.94
471.558	483.94
471.777	502.94
471.997	505.94
472.216	488.94
472.435	478.94
472.654	483.94
472.873	475.94
473.092	504.94
473.311	494.94
473.53	476.94
473.749	504.94
473.968	564.94
474.187	656.94
474.406	667.94
474.625	584.94
474.844	503.94
475.063	502.94
475.282	517.94
475.501	492.94
475.72	502.94
475.939	503.94
476.158	536.94
476.377	522.94
476.596	493.94
476.814	526.94
477.033	532.94
477.252	538.94
477.471	543.94
477.69	532.94
477.908	550.94
478.127	538.94
478.346	548.94
478.564	556.94
478.783	585.94
479.002	572.94
479.22	557.94
479.439	586.94
479.658	591.94
479.876	607.94
480.095	629.94
480.313	647.94
480.532	627.94
480.751	619.94
480.969	590.94
481.188	613.94
481.406	618.94
481.624	587.94
481.843	585.94
482.061	580.94
482.28	604.94
482.498	580.94
482.717	574.94
482.935	572.94
483.153	578.94
483.372	573.94
483.59	575.94
483.808	581.94
484.027	563.94
484.245	578.94
484.463	602.94
484.681	584.94
484.9	597.94
485.118	598.94
485.336	587.94
485.554	622.94
485.772	613.94
485.99	626.94
486.209	598.94
486.427	608.94
486.645	611.94
486.863	640.94
487.081	654.94
487.299	651.94
487.517	632.94
487.735	624.94
487.953	650.94
488.171	638.94
488.389	642.94
488.607	630.94
488.825	639.94
489.043	634.94
489.261	637.94
489.479	640.94
489.696	647.94
489.914	642.94
490.132	654.94
490.35	636.94
490.568	644.94
490.786	632.94
491.003	689.94
491.221	679.94
491.439	698.94
491.657	702.94
491.874	707.94
492.092	702.94
492.31	737.94
492.527	718.94
492.745	696.94
492.963	757.94
493.18	724.94
493.398	735.94
493.615	715.94
493.833	723.94
494.05	716.94
494.268	706.94
494.485	724.94
494.703	731.94
494.92	736.94
495.138	732.94
495.355	732.94
495.573	741.94
495.79	764.94
496.008	741.94
496.225	726.94
496.442	757.94
496.66	742.94
496.877	732.94
497.094	751.94
497.312	777.94
497.529	768.94
497.746	774.94
497.963	748.94
498.181	812.94
498.398	842.94
498.615	832.94
498.832	831.94
499.049	866.94
499.267	863.94
499.484	910.94
499.701	900.94
499.918	958.94
500.135	992.94
500.352	1034.94
500.569	1052.94
500.786	1055.94
501.003	1061.94
501.22	999.94
501.437	992.94
501.654	957.94
501.871	972.94
