Data from 1988.PennyLincolnUp.Lamp.En5.5.200Scan.071819.P2_HRD10591_17-19-02-973.txt Node
Date: Thu Jul 18 17:19:02 EDT 2019
User: cochatt
Spectrometer: HR+D1059
Trigger mode: 1
Integration Time (sec): 1.000000E-1
Scans to average: 1
Electric dark correction enabled: true
Nonlinearity correction enabled: false
Boxcar width: 0
XAxis mode: Wavelengths
Number of Pixels in Spectrum: 2048
>>>>>Begin Spectral Data<<<<<
223.165	15.94
223.4	15.94
223.635	15.94
223.869	-12.06
224.104	-26.06
224.338	-14.06
224.573	-11.06
224.808	-11.06
225.042	-8.06
225.277	-14.06
225.511	-14.06
225.746	10.94
225.98	1.94
226.215	17.94
226.449	22.94
226.683	14.94
226.918	10.94
227.152	14.94
227.387	40.94
227.621	48.94
227.856	41.94
228.09	40.94
228.324	47.94
228.559	55.94
228.793	67.94
229.027	88.94
229.262	89.94
229.496	125.94
229.73	139.94
229.964	146.94
230.199	109.94
230.433	111.94
230.667	108.94
230.901	110.94
231.136	105.94
231.37	125.94
231.604	111.94
231.838	116.94
232.072	108.94
232.306	109.94
232.541	124.94
232.775	127.94
233.009	109.94
233.243	126.94
233.477	118.94
233.711	102.94
233.945	125.94
234.179	120.94
234.413	124.94
234.647	127.94
234.881	119.94
235.115	117.94
235.349	121.94
235.583	118.94
235.817	120.94
236.051	118.94
236.285	132.94
236.519	125.94
236.753	123.94
236.987	141.94
237.221	170.94
237.455	216.94
237.689	181.94
237.922	138.94
238.156	118.94
238.39	145.94
238.624	118.94
238.858	123.94
239.091	136.94
239.325	135.94
239.559	123.94
239.793	143.94
240.027	135.94
240.26	137.94
240.494	163.94
240.728	168.94
240.961	151.94
241.195	137.94
241.429	152.94
241.662	125.94
241.896	133.94
242.13	144.94
242.363	129.94
242.597	144.94
242.83	139.94
243.064	159.94
243.298	134.94
243.531	145.94
243.765	158.94
243.998	137.94
244.232	144.94
244.465	149.94
244.699	153.94
244.932	131.94
245.166	140.94
245.399	143.94
245.633	139.94
245.866	165.94
246.099	139.94
246.333	154.94
246.566	151.94
246.8	159.94
247.033	152.94
247.266	149.94
247.5	170.94
247.733	167.94
247.966	161.94
248.2	165.94
248.433	184.94
248.666	174.94
248.899	176.94
249.133	192.94
249.366	187.94
249.599	190.94
249.832	181.94
250.066	175.94
250.299	177.94
250.532	180.94
250.765	189.94
250.998	213.94
251.231	209.94
251.465	205.94
251.698	200.94
251.931	194.94
252.164	202.94
252.397	201.94
252.63	193.94
252.863	200.94
253.096	184.94
253.329	231.94
253.562	219.94
253.795	207.94
254.028	215.94
254.261	193.94
254.494	224.94
254.727	245.94
254.96	272.94
255.193	255.94
255.426	238.94
255.659	221.94
255.892	232.94
256.124	221.94
256.357	218.94
256.59	201.94
256.823	199.94
257.056	205.94
257.289	204.94
257.521	209.94
257.754	198.94
257.987	188.94
258.22	205.94
258.452	209.94
258.685	208.94
258.918	215.94
259.151	219.94
259.383	217.94
259.616	232.94
259.849	225.94
260.081	235.94
260.314	229.94
260.547	250.94
260.779	237.94
261.012	215.94
261.244	229.94
261.477	223.94
261.71	229.94
261.942	221.94
262.175	234.94
262.407	228.94
262.64	214.94
262.872	206.94
263.105	213.94
263.337	218.94
263.57	223.94
263.802	212.94
264.035	206.94
264.267	188.94
264.499	217.94
264.732	209.94
264.964	215.94
265.197	216.94
265.429	217.94
265.661	215.94
265.894	218.94
266.126	199.94
266.358	209.94
266.591	218.94
266.823	209.94
267.055	224.94
267.287	221.94
267.52	232.94
267.752	229.94
267.984	226.94
268.216	234.94
268.448	238.94
268.681	220.94
268.913	244.94
269.145	257.94
269.377	274.94
269.609	274.94
269.841	262.94
270.073	280.94
270.306	267.94
270.538	291.94
270.77	310.94
271.002	314.94
271.234	276.94
271.466	283.94
271.698	307.94
271.93	302.94
272.162	311.94
272.394	298.94
272.626	290.94
272.858	301.94
273.09	253.94
273.322	278.94
273.553	251.94
273.785	263.94
274.017	256.94
274.249	280.94
274.481	268.94
274.713	283.94
274.945	261.94
275.176	253.94
275.408	274.94
275.64	252.94
275.872	269.94
276.104	262.94
276.335	264.94
276.567	284.94
276.799	264.94
277.031	302.94
277.262	301.94
277.494	304.94
277.726	284.94
277.957	284.94
278.189	285.94
278.421	274.94
278.652	262.94
278.884	278.94
279.115	262.94
279.347	269.94
279.579	275.94
279.81	271.94
280.042	265.94
280.273	271.94
280.505	249.94
280.736	267.94
280.968	265.94
281.199	271.94
281.431	273.94
281.662	263.94
281.894	279.94
282.125	278.94
282.356	295.94
282.588	304.94
282.819	305.94
283.051	302.94
283.282	268.94
283.513	288.94
283.745	294.94
283.976	250.94
284.207	281.94
284.439	282.94
284.67	295.94
284.901	289.94
285.132	277.94
285.364	272.94
285.595	285.94
285.826	289.94
286.057	274.94
286.288	269.94
286.52	283.94
286.751	267.94
286.982	276.94
287.213	280.94
287.444	283.94
287.675	287.94
287.906	299.94
288.138	290.94
288.369	308.94
288.6	301.94
288.831	299.94
289.062	304.94
289.293	305.94
289.524	297.94
289.755	300.94
289.986	289.94
290.217	288.94
290.448	287.94
290.679	288.94
290.91	297.94
291.141	291.94
291.371	293.94
291.602	290.94
291.833	293.94
292.064	285.94
292.295	280.94
292.526	293.94
292.757	273.94
292.987	295.94
293.218	297.94
293.449	300.94
293.68	282.94
293.91	304.94
294.141	288.94
294.372	303.94
294.603	290.94
294.833	285.94
295.064	297.94
295.295	310.94
295.525	299.94
295.756	307.94
295.987	317.94
296.217	319.94
296.448	336.94
296.679	302.94
296.909	327.94
297.14	299.94
297.37	303.94
297.601	296.94
297.831	312.94
298.062	308.94
298.292	317.94
298.523	313.94
298.753	317.94
298.984	323.94
299.214	320.94
299.445	304.94
299.675	324.94
299.905	323.94
300.136	323.94
300.366	321.94
300.597	315.94
300.827	321.94
301.057	325.94
301.288	340.94
301.518	319.94
301.748	329.94
301.979	358.94
302.209	330.94
302.439	327.94
302.669	329.94
302.9	327.94
303.13	332.94
303.36	341.94
303.59	341.94
303.82	333.94
304.051	347.94
304.281	352.94
304.511	343.94
304.741	330.94
304.971	336.94
305.201	334.94
305.431	342.94
305.661	336.94
305.891	333.94
306.121	338.94
306.352	325.94
306.582	353.94
306.812	337.94
307.042	340.94
307.272	362.94
307.502	328.94
307.731	348.94
307.961	352.94
308.191	346.94
308.421	346.94
308.651	349.94
308.881	343.94
309.111	341.94
309.341	357.94
309.571	366.94
309.8	357.94
310.03	379.94
310.26	377.94
310.49	373.94
310.72	371.94
310.949	391.94
311.179	420.94
311.409	382.94
311.639	379.94
311.868	388.94
312.098	382.94
312.328	389.94
312.557	405.94
312.787	415.94
313.017	406.94
313.246	397.94
313.476	385.94
313.706	382.94
313.935	382.94
314.165	407.94
314.394	408.94
314.624	397.94
314.853	389.94
315.083	397.94
315.312	378.94
315.542	389.94
315.771	373.94
316.001	387.94
316.23	377.94
316.46	374.94
316.689	396.94
316.919	391.94
317.148	379.94
317.377	390.94
317.607	407.94
317.836	385.94
318.065	384.94
318.295	376.94
318.524	382.94
318.753	381.94
318.983	389.94
319.212	385.94
319.441	415.94
319.67	402.94
319.9	398.94
320.129	383.94
320.358	379.94
320.587	392.94
320.816	423.94
321.046	419.94
321.275	406.94
321.504	415.94
321.733	412.94
321.962	423.94
322.191	445.94
322.42	427.94
322.649	444.94
322.878	469.94
323.108	463.94
323.337	476.94
323.566	495.94
323.795	555.94
324.024	585.94
324.253	698.94
324.482	983.94
324.71	1524.94
324.939	2247.94
325.168	1934.94
325.397	964.94
325.626	667.94
325.855	541.94
326.084	529.94
326.313	495.94
326.542	528.94
326.77	563.94
326.999	674.94
327.228	913.94
327.457	1351.94
327.686	1646.94
327.914	1071.94
328.143	711.94
328.372	625.94
328.6	587.94
328.829	573.94
329.058	560.94
329.287	589.94
329.515	572.94
329.744	507.94
329.972	496.94
330.201	495.94
330.43	534.94
330.658	552.94
330.887	594.94
331.115	575.94
331.344	511.94
331.572	499.94
331.801	494.94
332.03	481.94
332.258	490.94
332.486	482.94
332.715	454.94
332.943	460.94
333.172	457.94
333.4	464.94
333.629	463.94
333.857	463.94
334.085	481.94
334.314	487.94
334.542	482.94
334.771	494.94
334.999	471.94
335.227	470.94
335.455	469.94
335.684	455.94
335.912	441.94
336.14	459.94
336.369	461.94
336.597	487.94
336.825	452.94
337.053	463.94
337.281	453.94
337.51	435.94
337.738	468.94
337.966	431.94
338.194	437.94
338.422	447.94
338.65	445.94
338.878	453.94
339.106	450.94
339.334	443.94
339.562	448.94
339.79	448.94
340.018	430.94
340.246	428.94
340.474	428.94
340.702	435.94
340.93	459.94
341.158	452.94
341.386	431.94
341.614	460.94
341.842	424.94
342.07	449.94
342.298	447.94
342.526	418.94
342.754	471.94
342.981	445.94
343.209	436.94
343.437	447.94
343.665	455.94
343.893	458.94
344.12	448.94
344.348	447.94
344.576	469.94
344.804	467.94
345.031	467.94
345.259	456.94
345.487	457.94
345.714	436.94
345.942	436.94
346.17	430.94
346.397	430.94
346.625	430.94
346.853	424.94
347.08	453.94
347.308	431.94
347.535	448.94
347.763	459.94
347.99	442.94
348.218	472.94
348.445	455.94
348.673	431.94
348.9	437.94
349.128	441.94
349.355	392.94
349.583	411.94
349.81	416.94
350.037	407.94
350.265	432.94
350.492	432.94
350.72	413.94
350.947	437.94
351.174	455.94
351.402	437.94
351.629	439.94
351.856	424.94
352.083	441.94
352.311	448.94
352.538	455.94
352.765	445.94
352.992	451.94
353.22	421.94
353.447	425.94
353.674	438.94
353.901	403.94
354.128	416.94
354.355	398.94
354.583	414.94
354.81	404.94
355.037	408.94
355.264	411.94
355.491	397.94
355.718	396.94
355.945	398.94
356.172	385.94
356.399	386.94
356.626	397.94
356.853	422.94
357.08	402.94
357.307	409.94
357.534	400.94
357.761	409.94
357.988	397.94
358.215	410.94
358.441	422.94
358.668	407.94
358.895	429.94
359.122	416.94
359.349	407.94
359.576	428.94
359.802	437.94
360.029	487.94
360.256	486.94
360.483	453.94
360.709	416.94
360.936	452.94
361.163	443.94
361.39	443.94
361.616	427.94
361.843	442.94
362.07	448.94
362.296	447.94
362.523	416.94
362.749	415.94
362.976	408.94
363.203	421.94
363.429	413.94
363.656	425.94
363.882	417.94
364.109	415.94
364.335	410.94
364.562	414.94
364.788	429.94
365.015	413.94
365.241	430.94
365.468	422.94
365.694	413.94
365.92	428.94
366.147	414.94
366.373	403.94
366.599	424.94
366.826	399.94
367.052	406.94
367.278	407.94
367.505	420.94
367.731	414.94
367.957	418.94
368.184	439.94
368.41	433.94
368.636	413.94
368.862	415.94
369.089	418.94
369.315	406.94
369.541	416.94
369.767	419.94
369.993	417.94
370.219	409.94
370.445	384.94
370.672	399.94
370.898	416.94
371.124	411.94
371.35	421.94
371.576	417.94
371.802	410.94
372.028	387.94
372.254	409.94
372.48	436.94
372.706	422.94
372.932	405.94
373.158	410.94
373.384	414.94
373.61	404.94
373.835	406.94
374.061	421.94
374.287	397.94
374.513	419.94
374.739	408.94
374.965	436.94
375.191	413.94
375.416	431.94
375.642	413.94
375.868	423.94
376.094	419.94
376.319	404.94
376.545	417.94
376.771	426.94
376.997	403.94
377.222	405.94
377.448	420.94
377.674	414.94
377.899	424.94
378.125	417.94
378.35	404.94
378.576	413.94
378.802	416.94
379.027	404.94
379.253	405.94
379.478	394.94
379.704	429.94
379.929	393.94
380.155	409.94
380.38	430.94
380.606	415.94
380.831	393.94
381.057	423.94
381.282	406.94
381.507	408.94
381.733	406.94
381.958	418.94
382.184	433.94
382.409	424.94
382.634	422.94
382.86	438.94
383.085	445.94
383.31	424.94
383.535	431.94
383.761	437.94
383.986	441.94
384.211	432.94
384.436	437.94
384.662	457.94
384.887	438.94
385.112	420.94
385.337	434.94
385.562	447.94
385.787	438.94
386.013	450.94
386.238	470.94
386.463	460.94
386.688	437.94
386.913	434.94
387.138	456.94
387.363	481.94
387.588	458.94
387.813	460.94
388.038	448.94
388.263	447.94
388.488	459.94
388.713	461.94
388.938	449.94
389.163	448.94
389.387	459.94
389.612	455.94
389.837	441.94
390.062	460.94
390.287	439.94
390.512	455.94
390.736	449.94
390.961	500.94
391.186	463.94
391.411	440.94
391.636	469.94
391.86	468.94
392.085	459.94
392.31	461.94
392.534	486.94
392.759	471.94
392.984	472.94
393.208	464.94
393.433	464.94
393.658	435.94
393.882	447.94
394.107	463.94
394.331	457.94
394.556	470.94
394.78	479.94
395.005	455.94
395.229	479.94
395.454	473.94
395.678	473.94
395.903	502.94
396.127	535.94
396.352	499.94
396.576	478.94
396.801	486.94
397.025	489.94
397.249	487.94
397.474	485.94
397.698	491.94
397.922	502.94
398.147	495.94
398.371	520.94
398.595	519.94
398.82	527.94
399.044	526.94
399.268	568.94
399.492	574.94
399.717	604.94
399.941	636.94
400.165	663.94
400.389	649.94
400.613	598.94
400.837	553.94
401.062	547.94
401.286	527.94
401.51	535.94
401.734	514.94
401.958	529.94
402.182	554.94
402.406	537.94
402.63	552.94
402.854	549.94
403.078	530.94
403.302	551.94
403.526	545.94
403.75	555.94
403.974	552.94
404.198	508.94
404.422	536.94
404.645	573.94
404.869	569.94
405.093	572.94
405.317	595.94
405.541	604.94
405.765	581.94
405.988	558.94
406.212	577.94
406.436	589.94
406.66	613.94
406.883	590.94
407.107	611.94
407.331	653.94
407.555	705.94
407.778	730.94
408.002	643.94
408.226	617.94
408.449	603.94
408.673	591.94
408.896	612.94
409.12	665.94
409.344	650.94
409.567	571.94
409.791	573.94
410.014	549.94
410.238	541.94
410.461	544.94
410.685	548.94
410.908	559.94
411.132	597.94
411.355	614.94
411.578	603.94
411.802	567.94
412.025	532.94
412.249	533.94
412.472	536.94
412.695	552.94
412.919	552.94
413.142	511.94
413.365	534.94
413.589	536.94
413.812	502.94
414.035	521.94
414.258	502.94
414.482	508.94
414.705	528.94
414.928	524.94
415.151	505.94
415.374	511.94
415.597	519.94
415.821	509.94
416.044	511.94
416.267	518.94
416.49	531.94
416.713	508.94
416.936	519.94
417.159	491.94
417.382	538.94
417.605	537.94
417.828	517.94
418.051	547.94
418.274	530.94
418.497	526.94
418.72	518.94
418.943	492.94
419.166	513.94
419.389	541.94
419.611	533.94
419.834	527.94
420.057	538.94
420.28	525.94
420.503	507.94
420.726	512.94
420.948	543.94
421.171	588.94
421.394	616.94
421.617	523.94
421.839	553.94
422.062	538.94
422.285	569.94
422.507	607.94
422.73	663.94
422.953	647.94
423.175	600.94
423.398	568.94
423.621	565.94
423.843	563.94
424.066	568.94
424.288	566.94
424.511	580.94
424.733	653.94
424.956	720.94
425.178	705.94
425.401	688.94
425.623	701.94
425.846	609.94
426.068	582.94
426.291	575.94
426.513	564.94
426.735	583.94
426.958	629.94
427.18	683.94
427.402	835.94
427.625	921.94
427.847	803.94
428.069	658.94
428.292	623.94
428.514	564.94
428.736	553.94
428.958	536.94
429.181	544.94
429.403	517.94
429.625	547.94
429.847	579.94
430.069	624.94
430.292	624.94
430.514	572.94
430.736	521.94
430.958	537.94
431.18	502.94
431.402	503.94
431.624	523.94
431.846	512.94
432.068	482.94
432.29	527.94
432.512	495.94
432.734	519.94
432.956	507.94
433.178	536.94
433.4	544.94
433.622	541.94
433.844	517.94
434.066	503.94
434.287	481.94
434.509	520.94
434.731	529.94
434.953	523.94
435.175	544.94
435.397	581.94
435.618	571.94
435.84	608.94
436.062	722.94
436.284	787.94
436.505	663.94
436.727	602.94
436.949	547.94
437.17	533.94
437.392	528.94
437.614	539.94
437.835	597.94
438.057	696.94
438.278	792.94
438.5	759.94
438.721	859.94
438.943	819.94
439.165	634.94
439.386	608.94
439.608	575.94
439.829	587.94
440.05	579.94
440.272	648.94
440.493	617.94
440.715	591.94
440.936	563.94
441.158	550.94
441.379	543.94
441.6	559.94
441.822	566.94
442.043	599.94
442.264	719.94
442.486	765.94
442.707	620.94
442.928	616.94
443.149	606.94
443.371	609.94
443.592	648.94
443.813	751.94
444.034	820.94
444.255	661.94
444.476	613.94
444.698	590.94
444.919	599.94
445.14	645.94
445.361	620.94
445.582	610.94
445.803	711.94
446.024	783.94
446.245	801.94
446.466	706.94
446.687	611.94
446.908	574.94
447.129	549.94
447.35	552.94
447.571	553.94
447.792	528.94
448.013	548.94
448.234	563.94
448.455	588.94
448.675	715.94
448.896	844.94
449.117	717.94
449.338	672.94
449.559	825.94
449.779	910.94
450	701.94
450.221	586.94
450.442	541.94
450.662	510.94
450.883	524.94
451.104	545.94
451.324	523.94
451.545	492.94
451.766	503.94
451.986	486.94
452.207	465.94
452.428	466.94
452.648	483.94
452.869	486.94
453.089	477.94
453.31	491.94
453.53	484.94
453.751	482.94
453.971	476.94
454.192	480.94
454.412	479.94
454.633	478.94
454.853	483.94
455.073	497.94
455.294	499.94
455.514	569.94
455.734	559.94
455.955	476.94
456.175	475.94
456.395	441.94
456.616	442.94
456.836	447.94
457.056	448.94
457.276	459.94
457.497	457.94
457.717	453.94
457.937	423.94
458.157	470.94
458.377	480.94
458.598	482.94
458.818	536.94
459.038	622.94
459.258	657.94
459.478	550.94
459.698	521.94
459.918	520.94
460.138	505.94
460.358	520.94
460.578	515.94
460.798	529.94
461.018	529.94
461.238	524.94
461.458	537.94
461.678	511.94
461.898	547.94
462.118	518.94
462.338	501.94
462.558	522.94
462.777	566.94
462.997	551.94
463.217	572.94
463.437	598.94
463.657	583.94
463.876	573.94
464.096	568.94
464.316	577.94
464.536	591.94
464.755	544.94
464.975	568.94
465.195	598.94
465.414	693.94
465.634	613.94
465.854	553.94
466.073	556.94
466.293	494.94
466.512	484.94
466.732	499.94
466.951	507.94
467.171	487.94
467.391	472.94
467.61	515.94
467.829	512.94
468.049	519.94
468.268	490.94
468.488	491.94
468.707	481.94
468.927	501.94
469.146	478.94
469.365	479.94
469.585	480.94
469.804	492.94
470.023	503.94
470.243	496.94
470.462	513.94
470.681	540.94
470.901	535.94
471.12	478.94
471.339	483.94
471.558	499.94
471.777	515.94
471.997	495.94
472.216	497.94
472.435	483.94
472.654	500.94
472.873	495.94
473.092	490.94
473.311	486.94
473.53	487.94
473.749	525.94
473.968	559.94
474.187	638.94
474.406	670.94
474.625	564.94
474.844	517.94
475.063	499.94
475.282	506.94
475.501	517.94
475.72	524.94
475.939	514.94
476.158	521.94
476.377	534.94
476.596	523.94
476.814	544.94
477.033	544.94
477.252	534.94
477.471	541.94
477.69	527.94
477.908	527.94
478.127	553.94
478.346	564.94
478.564	552.94
478.783	543.94
479.002	567.94
479.22	578.94
479.439	591.94
479.658	574.94
479.876	593.94
480.095	599.94
480.313	619.94
480.532	616.94
480.751	596.94
480.969	612.94
481.188	601.94
481.406	609.94
481.624	613.94
481.843	569.94
482.061	548.94
482.28	571.94
482.498	573.94
482.717	587.94
482.935	579.94
483.153	576.94
483.372	571.94
483.59	592.94
483.808	592.94
484.027	584.94
484.245	597.94
484.463	606.94
484.681	601.94
484.9	587.94
485.118	618.94
485.336	593.94
485.554	589.94
485.772	621.94
485.99	604.94
486.209	585.94
486.427	635.94
486.645	616.94
486.863	637.94
487.081	616.94
487.299	620.94
487.517	610.94
487.735	609.94
487.953	626.94
488.171	611.94
488.389	618.94
488.607	641.94
488.825	625.94
489.043	615.94
489.261	641.94
489.479	629.94
489.696	611.94
489.914	637.94
490.132	640.94
490.35	673.94
490.568	657.94
490.786	652.94
491.003	671.94
491.221	684.94
491.439	695.94
491.657	675.94
491.874	710.94
492.092	707.94
492.31	711.94
492.527	700.94
492.745	719.94
492.963	672.94
493.18	687.94
493.398	721.94
493.615	721.94
493.833	747.94
494.05	735.94
494.268	709.94
494.485	747.94
494.703	713.94
494.92	738.94
495.138	697.94
495.355	721.94
495.573	742.94
495.79	740.94
496.008	745.94
496.225	736.94
496.442	737.94
496.66	740.94
496.877	746.94
497.094	738.94
497.312	759.94
497.529	787.94
497.746	771.94
497.963	793.94
498.181	831.94
498.398	828.94
498.615	840.94
498.832	867.94
499.049	879.94
499.267	862.94
499.484	932.94
499.701	957.94
499.918	965.94
500.135	1001.94
500.352	1060.94
500.569	1071.94
500.786	1071.94
501.003	1056.94
501.22	1020.94
501.437	1004.94
501.654	958.94
501.871	967.94
