Data from 1988.PennyLincolnUp.Lamp.En5.5.200Scan.071819.P2_HRD10591_17-19-12-972.txt Node
Date: Thu Jul 18 17:19:12 EDT 2019
User: cochatt
Spectrometer: HR+D1059
Trigger mode: 1
Integration Time (sec): 1.000000E-1
Scans to average: 1
Electric dark correction enabled: true
Nonlinearity correction enabled: false
Boxcar width: 0
XAxis mode: Wavelengths
Number of Pixels in Spectrum: 2048
>>>>>Begin Spectral Data<<<<<
223.165	-19.56
223.4	-19.56
223.635	-19.56
223.869	-2.56
224.104	-27.56
224.338	-13.56
224.573	-18.56
224.808	-17.56
225.042	-16.56
225.277	-3.56
225.511	1.44
225.746	16.44
225.98	-9.56
226.215	11.44
226.449	21.44
226.683	16.44
226.918	19.44
227.152	42.44
227.387	36.44
227.621	51.44
227.856	31.44
228.09	57.44
228.324	44.44
228.559	58.44
228.793	71.44
229.027	85.44
229.262	117.44
229.496	97.44
229.73	123.44
229.964	164.44
230.199	128.44
230.433	129.44
230.667	112.44
230.901	104.44
231.136	108.44
231.37	99.44
231.604	122.44
231.838	93.44
232.072	117.44
232.306	118.44
232.541	106.44
232.775	113.44
233.009	116.44
233.243	112.44
233.477	113.44
233.711	126.44
233.945	123.44
234.179	127.44
234.413	118.44
234.647	107.44
234.881	102.44
235.115	105.44
235.349	123.44
235.583	123.44
235.817	129.44
236.051	128.44
236.285	114.44
236.519	129.44
236.753	123.44
236.987	140.44
237.221	198.44
237.455	221.44
237.689	191.44
237.922	154.44
238.156	151.44
238.39	119.44
238.624	125.44
238.858	120.44
239.091	124.44
239.325	147.44
239.559	125.44
239.793	140.44
240.027	119.44
240.26	142.44
240.494	153.44
240.728	151.44
240.961	152.44
241.195	131.44
241.429	135.44
241.662	126.44
241.896	132.44
242.13	143.44
242.363	141.44
242.597	130.44
242.83	136.44
243.064	145.44
243.298	133.44
243.531	151.44
243.765	135.44
243.998	132.44
244.232	149.44
244.465	159.44
244.699	165.44
244.932	149.44
245.166	135.44
245.399	161.44
245.633	156.44
245.866	158.44
246.099	151.44
246.333	132.44
246.566	151.44
246.8	154.44
247.033	157.44
247.266	164.44
247.5	176.44
247.733	171.44
247.966	155.44
248.2	162.44
248.433	177.44
248.666	181.44
248.899	179.44
249.133	203.44
249.366	207.44
249.599	194.44
249.832	199.44
250.066	186.44
250.299	196.44
250.532	170.44
250.765	195.44
250.998	226.44
251.231	222.44
251.465	214.44
251.698	199.44
251.931	181.44
252.164	203.44
252.397	192.44
252.63	197.44
252.863	207.44
253.096	195.44
253.329	236.44
253.562	239.44
253.795	213.44
254.028	219.44
254.261	208.44
254.494	227.44
254.727	253.44
254.96	281.44
255.193	251.44
255.426	240.44
255.659	223.44
255.892	231.44
256.124	218.44
256.357	215.44
256.59	216.44
256.823	204.44
257.056	217.44
257.289	192.44
257.521	204.44
257.754	212.44
257.987	199.44
258.22	201.44
258.452	212.44
258.685	208.44
258.918	187.44
259.151	216.44
259.383	220.44
259.616	215.44
259.849	223.44
260.081	229.44
260.314	249.44
260.547	264.44
260.779	265.44
261.012	235.44
261.244	231.44
261.477	220.44
261.71	219.44
261.942	218.44
262.175	226.44
262.407	235.44
262.64	216.44
262.872	208.44
263.105	218.44
263.337	212.44
263.57	214.44
263.802	200.44
264.035	198.44
264.267	196.44
264.499	224.44
264.732	228.44
264.964	214.44
265.197	219.44
265.429	228.44
265.661	226.44
265.894	197.44
266.126	232.44
266.358	216.44
266.591	224.44
266.823	226.44
267.055	228.44
267.287	235.44
267.52	223.44
267.752	231.44
267.984	226.44
268.216	216.44
268.448	229.44
268.681	255.44
268.913	237.44
269.145	257.44
269.377	272.44
269.609	271.44
269.841	259.44
270.073	268.44
270.306	295.44
270.538	314.44
270.77	305.44
271.002	288.44
271.234	298.44
271.466	314.44
271.698	299.44
271.93	321.44
272.162	313.44
272.394	313.44
272.626	312.44
272.858	295.44
273.09	289.44
273.322	265.44
273.553	266.44
273.785	273.44
274.017	270.44
274.249	272.44
274.481	264.44
274.713	259.44
274.945	264.44
275.176	288.44
275.408	289.44
275.64	276.44
275.872	267.44
276.104	266.44
276.335	278.44
276.567	265.44
276.799	307.44
277.031	287.44
277.262	318.44
277.494	307.44
277.726	276.44
277.957	291.44
278.189	270.44
278.421	279.44
278.652	264.44
278.884	279.44
279.115	281.44
279.347	283.44
279.579	270.44
279.81	265.44
280.042	268.44
280.273	270.44
280.505	281.44
280.736	280.44
280.968	272.44
281.199	270.44
281.431	265.44
281.662	280.44
281.894	293.44
282.125	270.44
282.356	301.44
282.588	305.44
282.819	304.44
283.051	298.44
283.282	291.44
283.513	286.44
283.745	297.44
283.976	291.44
284.207	284.44
284.439	277.44
284.67	299.44
284.901	280.44
285.132	292.44
285.364	277.44
285.595	275.44
285.826	282.44
286.057	294.44
286.288	264.44
286.52	296.44
286.751	300.44
286.982	301.44
287.213	269.44
287.444	290.44
287.675	320.44
287.906	322.44
288.138	314.44
288.369	325.44
288.6	320.44
288.831	311.44
289.062	306.44
289.293	288.44
289.524	289.44
289.755	281.44
289.986	305.44
290.217	284.44
290.448	287.44
290.679	299.44
290.91	309.44
291.141	292.44
291.371	289.44
291.602	307.44
291.833	293.44
292.064	303.44
292.295	292.44
292.526	295.44
292.757	291.44
292.987	284.44
293.218	289.44
293.449	320.44
293.68	311.44
293.91	294.44
294.141	292.44
294.372	297.44
294.603	306.44
294.833	298.44
295.064	299.44
295.295	311.44
295.525	313.44
295.756	323.44
295.987	311.44
296.217	349.44
296.448	338.44
296.679	328.44
296.909	308.44
297.14	322.44
297.37	314.44
297.601	310.44
297.831	311.44
298.062	322.44
298.292	336.44
298.523	333.44
298.753	311.44
298.984	335.44
299.214	323.44
299.445	324.44
299.675	323.44
299.905	329.44
300.136	337.44
300.366	316.44
300.597	342.44
300.827	340.44
301.057	338.44
301.288	328.44
301.518	340.44
301.748	348.44
301.979	344.44
302.209	342.44
302.439	352.44
302.669	346.44
302.9	347.44
303.13	335.44
303.36	356.44
303.59	346.44
303.82	357.44
304.051	355.44
304.281	333.44
304.511	348.44
304.741	345.44
304.971	346.44
305.201	333.44
305.431	348.44
305.661	332.44
305.891	326.44
306.121	355.44
306.352	331.44
306.582	341.44
306.812	340.44
307.042	330.44
307.272	337.44
307.502	327.44
307.731	344.44
307.961	356.44
308.191	328.44
308.421	358.44
308.651	378.44
308.881	349.44
309.111	359.44
309.341	364.44
309.571	373.44
309.8	385.44
310.03	387.44
310.26	393.44
310.49	373.44
310.72	406.44
310.949	411.44
311.179	428.44
311.409	384.44
311.639	390.44
311.868	397.44
312.098	397.44
312.328	392.44
312.557	413.44
312.787	421.44
313.017	420.44
313.246	395.44
313.476	380.44
313.706	378.44
313.935	393.44
314.165	413.44
314.394	426.44
314.624	391.44
314.853	377.44
315.083	398.44
315.312	402.44
315.542	380.44
315.771	398.44
316.001	405.44
316.23	378.44
316.46	385.44
316.689	415.44
316.919	392.44
317.148	404.44
317.377	418.44
317.607	412.44
317.836	419.44
318.065	407.44
318.295	397.44
318.524	392.44
318.753	395.44
318.983	395.44
319.212	414.44
319.441	393.44
319.67	417.44
319.9	416.44
320.129	412.44
320.358	411.44
320.587	407.44
320.816	407.44
321.046	418.44
321.275	411.44
321.504	419.44
321.733	423.44
321.962	441.44
322.191	439.44
322.42	464.44
322.649	466.44
322.878	475.44
323.108	483.44
323.337	514.44
323.566	531.44
323.795	569.44
324.024	623.44
324.253	771.44
324.482	1037.44
324.71	1633.44
324.939	2351.44
325.168	1972.44
325.397	1043.44
325.626	693.44
325.855	612.44
326.084	540.44
326.313	547.44
326.542	544.44
326.77	575.44
326.999	674.44
327.228	945.44
327.457	1407.44
327.686	1760.44
327.914	1151.44
328.143	756.44
328.372	668.44
328.6	603.44
328.829	575.44
329.058	596.44
329.287	642.44
329.515	596.44
329.744	549.44
329.972	487.44
330.201	515.44
330.43	533.44
330.658	585.44
330.887	648.44
331.115	645.44
331.344	564.44
331.572	517.44
331.801	515.44
332.03	521.44
332.258	492.44
332.486	474.44
332.715	462.44
332.943	486.44
333.172	446.44
333.4	471.44
333.629	481.44
333.857	496.44
334.085	475.44
334.314	467.44
334.542	490.44
334.771	487.44
334.999	505.44
335.227	485.44
335.455	469.44
335.684	461.44
335.912	458.44
336.14	483.44
336.369	475.44
336.597	459.44
336.825	466.44
337.053	471.44
337.281	451.44
337.51	484.44
337.738	460.44
337.966	467.44
338.194	466.44
338.422	486.44
338.65	467.44
338.878	448.44
339.106	458.44
339.334	448.44
339.562	445.44
339.79	475.44
340.018	438.44
340.246	448.44
340.474	465.44
340.702	453.44
340.93	458.44
341.158	434.44
341.386	437.44
341.614	465.44
341.842	454.44
342.07	455.44
342.298	464.44
342.526	447.44
342.754	444.44
342.981	440.44
343.209	437.44
343.437	424.44
343.665	438.44
343.893	456.44
344.12	459.44
344.348	458.44
344.576	453.44
344.804	484.44
345.031	466.44
345.259	464.44
345.487	490.44
345.714	443.44
345.942	442.44
346.17	445.44
346.397	442.44
346.625	461.44
346.853	435.44
347.08	458.44
347.308	477.44
347.535	453.44
347.763	456.44
347.99	442.44
348.218	448.44
348.445	451.44
348.673	457.44
348.9	452.44
349.128	440.44
349.355	439.44
349.583	433.44
349.81	417.44
350.037	440.44
350.265	431.44
350.492	427.44
350.72	443.44
350.947	421.44
351.174	431.44
351.402	441.44
351.629	451.44
351.856	439.44
352.083	458.44
352.311	443.44
352.538	465.44
352.765	453.44
352.992	447.44
353.22	460.44
353.447	441.44
353.674	439.44
353.901	408.44
354.128	413.44
354.355	416.44
354.583	424.44
354.81	409.44
355.037	401.44
355.264	411.44
355.491	421.44
355.718	405.44
355.945	416.44
356.172	413.44
356.399	411.44
356.626	414.44
356.853	411.44
357.08	405.44
357.307	409.44
357.534	397.44
357.761	409.44
357.988	413.44
358.215	429.44
358.441	421.44
358.668	418.44
358.895	412.44
359.122	434.44
359.349	424.44
359.576	449.44
359.802	468.44
360.029	500.44
360.256	509.44
360.483	480.44
360.709	447.44
360.936	447.44
361.163	438.44
361.39	445.44
361.616	454.44
361.843	425.44
362.07	434.44
362.296	441.44
362.523	435.44
362.749	441.44
362.976	422.44
363.203	434.44
363.429	405.44
363.656	435.44
363.882	411.44
364.109	410.44
364.335	423.44
364.562	413.44
364.788	421.44
365.015	416.44
365.241	402.44
365.468	412.44
365.694	423.44
365.92	413.44
366.147	425.44
366.373	406.44
366.599	407.44
366.826	411.44
367.052	399.44
367.278	422.44
367.505	440.44
367.731	426.44
367.957	412.44
368.184	428.44
368.41	430.44
368.636	406.44
368.862	433.44
369.089	431.44
369.315	432.44
369.541	414.44
369.767	428.44
369.993	417.44
370.219	423.44
370.445	437.44
370.672	429.44
370.898	437.44
371.124	423.44
371.35	417.44
371.576	418.44
371.802	421.44
372.028	399.44
372.254	411.44
372.48	427.44
372.706	412.44
372.932	420.44
373.158	423.44
373.384	409.44
373.61	429.44
373.835	436.44
374.061	418.44
374.287	428.44
374.513	425.44
374.739	440.44
374.965	436.44
375.191	443.44
375.416	425.44
375.642	426.44
375.868	418.44
376.094	423.44
376.319	431.44
376.545	432.44
376.771	418.44
376.997	401.44
377.222	390.44
377.448	397.44
377.674	410.44
377.899	395.44
378.125	428.44
378.35	403.44
378.576	407.44
378.802	411.44
379.027	408.44
379.253	428.44
379.478	410.44
379.704	416.44
379.929	433.44
380.155	433.44
380.38	426.44
380.606	405.44
380.831	413.44
381.057	423.44
381.282	424.44
381.507	435.44
381.733	425.44
381.958	410.44
382.184	428.44
382.409	437.44
382.634	452.44
382.86	428.44
383.085	433.44
383.31	428.44
383.535	447.44
383.761	424.44
383.986	419.44
384.211	441.44
384.436	435.44
384.662	455.44
384.887	448.44
385.112	456.44
385.337	459.44
385.562	441.44
385.787	446.44
386.013	470.44
386.238	474.44
386.463	454.44
386.688	475.44
386.913	467.44
387.138	471.44
387.363	467.44
387.588	443.44
387.813	461.44
388.038	461.44
388.263	461.44
388.488	464.44
388.713	460.44
388.938	463.44
389.163	488.44
389.387	461.44
389.612	453.44
389.837	460.44
390.062	464.44
390.287	456.44
390.512	480.44
390.736	459.44
390.961	457.44
391.186	464.44
391.411	480.44
391.636	480.44
391.86	453.44
392.085	475.44
392.31	463.44
392.534	467.44
392.759	459.44
392.984	492.44
393.208	453.44
393.433	474.44
393.658	484.44
393.882	463.44
394.107	465.44
394.331	468.44
394.556	459.44
394.78	459.44
395.005	449.44
395.229	437.44
395.454	486.44
395.678	484.44
395.903	496.44
396.127	515.44
396.352	515.44
396.576	501.44
396.801	483.44
397.025	482.44
397.249	500.44
397.474	504.44
397.698	512.44
397.922	509.44
398.147	535.44
398.371	530.44
398.595	551.44
398.82	536.44
399.044	544.44
399.268	570.44
399.492	597.44
399.717	625.44
399.941	628.44
400.165	671.44
400.389	658.44
400.613	589.44
400.837	577.44
401.062	572.44
401.286	537.44
401.51	517.44
401.734	529.44
401.958	541.44
402.182	542.44
402.406	531.44
402.63	584.44
402.854	546.44
403.078	539.44
403.302	564.44
403.526	572.44
403.75	570.44
403.974	554.44
404.198	555.44
404.422	549.44
404.645	549.44
404.869	550.44
405.093	588.44
405.317	611.44
405.541	643.44
405.765	598.44
405.988	584.44
406.212	579.44
406.436	589.44
406.66	619.44
406.883	575.44
407.107	631.44
407.331	649.44
407.555	740.44
407.778	738.44
408.002	653.44
408.226	633.44
408.449	622.44
408.673	608.44
408.896	624.44
409.12	661.44
409.344	634.44
409.567	589.44
409.791	580.44
410.014	562.44
410.238	542.44
410.461	577.44
410.685	561.44
410.908	576.44
411.132	598.44
411.355	637.44
411.578	617.44
411.802	563.44
412.025	549.44
412.249	550.44
412.472	549.44
412.695	563.44
412.919	567.44
413.142	512.44
413.365	525.44
413.589	530.44
413.812	559.44
414.035	523.44
414.258	511.44
414.482	503.44
414.705	519.44
414.928	518.44
415.151	527.44
415.374	530.44
415.597	516.44
415.821	520.44
416.044	512.44
416.267	524.44
416.49	535.44
416.713	487.44
416.936	525.44
417.159	489.44
417.382	530.44
417.605	533.44
417.828	535.44
418.051	546.44
418.274	537.44
418.497	499.44
418.72	553.44
418.943	527.44
419.166	546.44
419.389	577.44
419.611	543.44
419.834	545.44
420.057	541.44
420.28	553.44
420.503	522.44
420.726	543.44
420.948	536.44
421.171	589.44
421.394	652.44
421.617	572.44
421.839	531.44
422.062	549.44
422.285	569.44
422.507	626.44
422.73	703.44
422.953	680.44
423.175	607.44
423.398	572.44
423.621	572.44
423.843	564.44
424.066	592.44
424.288	572.44
424.511	615.44
424.733	641.44
424.956	749.44
425.178	726.44
425.401	700.44
425.623	751.44
425.846	633.44
426.068	599.44
426.291	585.44
426.513	599.44
426.735	602.44
426.958	636.44
427.18	709.44
427.402	859.44
427.625	962.44
427.847	810.44
428.069	679.44
428.292	604.44
428.514	581.44
428.736	559.44
428.958	552.44
429.181	550.44
429.403	521.44
429.625	553.44
429.847	599.44
430.069	669.44
430.292	654.44
430.514	563.44
430.736	539.44
430.958	525.44
431.18	508.44
431.402	527.44
431.624	489.44
431.846	511.44
432.068	509.44
432.29	516.44
432.512	499.44
432.734	540.44
432.956	526.44
433.178	531.44
433.4	569.44
433.622	509.44
433.844	522.44
434.066	523.44
434.287	525.44
434.509	548.44
434.731	533.44
434.953	535.44
435.175	570.44
435.397	601.44
435.618	606.44
435.84	610.44
436.062	729.44
436.284	793.44
436.505	667.44
436.727	600.44
436.949	573.44
437.17	563.44
437.392	526.44
437.614	575.44
437.835	586.44
438.057	693.44
438.278	805.44
438.5	785.44
438.721	888.44
438.943	833.44
439.165	674.44
439.386	595.44
439.608	601.44
439.829	600.44
440.05	624.44
440.272	653.44
440.493	633.44
440.715	604.44
440.936	559.44
441.158	577.44
441.379	543.44
441.6	559.44
441.822	582.44
442.043	625.44
442.264	724.44
442.486	767.44
442.707	647.44
442.928	608.44
443.149	614.44
443.371	647.44
443.592	680.44
443.813	777.44
444.034	839.44
444.255	679.44
444.476	613.44
444.698	609.44
444.919	599.44
445.14	667.44
445.361	613.44
445.582	632.44
445.803	707.44
446.024	815.44
446.245	830.44
446.466	741.44
446.687	636.44
446.908	615.44
447.129	581.44
447.35	544.44
447.571	545.44
447.792	539.44
448.013	540.44
448.234	544.44
448.455	612.44
448.675	744.44
448.896	858.44
449.117	700.44
449.338	680.44
449.559	807.44
449.779	921.44
450	719.44
450.221	580.44
450.442	560.44
450.662	545.44
450.883	543.44
451.104	554.44
451.324	523.44
451.545	514.44
451.766	523.44
451.986	481.44
452.207	482.44
452.428	472.44
452.648	508.44
452.869	486.44
453.089	497.44
453.31	503.44
453.53	489.44
453.751	504.44
453.971	481.44
454.192	514.44
454.412	514.44
454.633	486.44
454.853	469.44
455.073	467.44
455.294	493.44
455.514	575.44
455.734	566.44
455.955	495.44
456.175	483.44
456.395	481.44
456.616	456.44
456.836	468.44
457.056	485.44
457.276	447.44
457.497	447.44
457.717	456.44
457.937	470.44
458.157	465.44
458.377	491.44
458.598	516.44
458.818	563.44
459.038	646.44
459.258	679.44
459.478	563.44
459.698	549.44
459.918	518.44
460.138	515.44
460.358	520.44
460.578	541.44
460.798	519.44
461.018	553.44
461.238	536.44
461.458	528.44
461.678	515.44
461.898	543.44
462.118	532.44
462.338	567.44
462.558	573.44
462.777	542.44
462.997	578.44
463.217	573.44
463.437	586.44
463.657	568.44
463.876	572.44
464.096	587.44
464.316	563.44
464.536	566.44
464.755	556.44
464.975	553.44
465.195	613.44
465.414	671.44
465.634	614.44
465.854	559.44
466.073	524.44
466.293	540.44
466.512	536.44
466.732	512.44
466.951	502.44
467.171	501.44
467.391	521.44
467.61	524.44
467.829	535.44
468.049	519.44
468.268	488.44
468.488	496.44
468.707	505.44
468.927	485.44
469.146	472.44
469.365	491.44
469.585	495.44
469.804	491.44
470.023	521.44
470.243	518.44
470.462	504.44
470.681	517.44
470.901	533.44
471.12	517.44
471.339	513.44
471.558	499.44
471.777	487.44
471.997	501.44
472.216	487.44
472.435	524.44
472.654	491.44
472.873	475.44
473.092	487.44
473.311	501.44
473.53	509.44
473.749	513.44
473.968	549.44
474.187	648.44
474.406	665.44
474.625	572.44
474.844	524.44
475.063	522.44
475.282	497.44
475.501	521.44
475.72	514.44
475.939	519.44
476.158	537.44
476.377	527.44
476.596	529.44
476.814	545.44
477.033	529.44
477.252	552.44
477.471	568.44
477.69	559.44
477.908	529.44
478.127	560.44
478.346	571.44
478.564	576.44
478.783	578.44
479.002	594.44
479.22	589.44
479.439	594.44
479.658	584.44
479.876	615.44
480.095	629.44
480.313	654.44
480.532	623.44
480.751	611.44
480.969	623.44
481.188	619.44
481.406	625.44
481.624	627.44
481.843	594.44
482.061	584.44
482.28	575.44
482.498	584.44
482.717	581.44
482.935	592.44
483.153	594.44
483.372	592.44
483.59	583.44
483.808	589.44
484.027	595.44
484.245	586.44
484.463	604.44
484.681	599.44
484.9	599.44
485.118	620.44
485.336	610.44
485.554	607.44
485.772	621.44
485.99	609.44
486.209	612.44
486.427	648.44
486.645	643.44
486.863	643.44
487.081	626.44
487.299	667.44
487.517	649.44
487.735	648.44
487.953	653.44
488.171	623.44
488.389	633.44
488.607	615.44
488.825	643.44
489.043	629.44
489.261	658.44
489.479	644.44
489.696	640.44
489.914	662.44
490.132	654.44
490.35	665.44
490.568	663.44
490.786	671.44
491.003	699.44
491.221	673.44
491.439	675.44
491.657	694.44
491.874	718.44
492.092	721.44
492.31	729.44
492.527	722.44
492.745	709.44
492.963	737.44
493.18	711.44
493.398	723.44
493.615	733.44
493.833	727.44
494.05	767.44
494.268	727.44
494.485	740.44
494.703	732.44
494.92	757.44
495.138	741.44
495.355	747.44
495.573	757.44
495.79	748.44
496.008	743.44
496.225	755.44
496.442	779.44
496.66	763.44
496.877	771.44
497.094	777.44
497.312	781.44
497.529	785.44
497.746	789.44
497.963	805.44
498.181	823.44
498.398	819.44
498.615	848.44
498.832	858.44
499.049	887.44
499.267	869.44
499.484	913.44
499.701	931.44
499.918	989.44
500.135	1025.44
500.352	1083.44
500.569	1085.44
500.786	1101.44
501.003	1083.44
501.22	1063.44
501.437	1013.44
501.654	1009.44
501.871	985.44
