Data from 1988.PennyLincolnUp.Lamp.En5.5.200Scan.071819.P2_HRD10591_17-18-29-971.txt Node
Date: Thu Jul 18 17:18:29 EDT 2019
User: cochatt
Spectrometer: HR+D1059
Trigger mode: 1
Integration Time (sec): 1.000000E-1
Scans to average: 1
Electric dark correction enabled: true
Nonlinearity correction enabled: false
Boxcar width: 0
XAxis mode: Wavelengths
Number of Pixels in Spectrum: 2048
>>>>>Begin Spectral Data<<<<<
223.165	-10.62
223.4	-10.62
223.635	-10.62
223.869	-8.62
224.104	-10.62
224.338	-4.62
224.573	-15.62
224.808	-14.62
225.042	-5.62
225.277	-13.62
225.511	6.38
225.746	-7.62
225.98	4.38
226.215	11.38
226.449	6.38
226.683	27.38
226.918	10.38
227.152	25.38
227.387	34.38
227.621	40.38
227.856	40.38
228.09	34.38
228.324	49.38
228.559	29.38
228.793	62.38
229.027	90.38
229.262	93.38
229.496	99.38
229.73	105.38
229.964	121.38
230.199	114.38
230.433	103.38
230.667	104.38
230.901	96.38
231.136	114.38
231.37	110.38
231.604	98.38
231.838	98.38
232.072	111.38
232.306	105.38
232.541	102.38
232.775	97.38
233.009	115.38
233.243	111.38
233.477	103.38
233.711	110.38
233.945	113.38
234.179	124.38
234.413	104.38
234.647	103.38
234.881	111.38
235.115	110.38
235.349	118.38
235.583	122.38
235.817	110.38
236.051	110.38
236.285	118.38
236.519	130.38
236.753	111.38
236.987	144.38
237.221	166.38
237.455	201.38
237.689	158.38
237.922	125.38
238.156	111.38
238.39	115.38
238.624	122.38
238.858	109.38
239.091	114.38
239.325	116.38
239.559	119.38
239.793	110.38
240.027	123.38
240.26	122.38
240.494	149.38
240.728	135.38
240.961	139.38
241.195	123.38
241.429	124.38
241.662	131.38
241.896	126.38
242.13	118.38
242.363	116.38
242.597	130.38
242.83	133.38
243.064	120.38
243.298	128.38
243.531	123.38
243.765	132.38
243.998	125.38
244.232	141.38
244.465	139.38
244.699	120.38
244.932	123.38
245.166	132.38
245.399	150.38
245.633	141.38
245.866	129.38
246.099	124.38
246.333	144.38
246.566	145.38
246.8	143.38
247.033	146.38
247.266	132.38
247.5	155.38
247.733	155.38
247.966	157.38
248.2	180.38
248.433	151.38
248.666	168.38
248.899	168.38
249.133	171.38
249.366	172.38
249.599	171.38
249.832	176.38
250.066	168.38
250.299	165.38
250.532	163.38
250.765	164.38
250.998	187.38
251.231	199.38
251.465	193.38
251.698	188.38
251.931	177.38
252.164	169.38
252.397	182.38
252.63	158.38
252.863	169.38
253.096	183.38
253.329	203.38
253.562	196.38
253.795	187.38
254.028	202.38
254.261	189.38
254.494	204.38
254.727	217.38
254.96	231.38
255.193	227.38
255.426	184.38
255.659	210.38
255.892	204.38
256.124	201.38
256.357	190.38
256.59	198.38
256.823	191.38
257.056	193.38
257.289	181.38
257.521	184.38
257.754	193.38
257.987	199.38
258.22	187.38
258.452	189.38
258.685	187.38
258.918	190.38
259.151	180.38
259.383	192.38
259.616	199.38
259.849	215.38
260.081	212.38
260.314	220.38
260.547	252.38
260.779	213.38
261.012	201.38
261.244	206.38
261.477	203.38
261.71	208.38
261.942	192.38
262.175	211.38
262.407	198.38
262.64	192.38
262.872	189.38
263.105	215.38
263.337	186.38
263.57	197.38
263.802	198.38
264.035	195.38
264.267	186.38
264.499	201.38
264.732	186.38
264.964	194.38
265.197	185.38
265.429	197.38
265.661	187.38
265.894	183.38
266.126	191.38
266.358	190.38
266.591	185.38
266.823	205.38
267.055	202.38
267.287	209.38
267.52	210.38
267.752	218.38
267.984	199.38
268.216	198.38
268.448	208.38
268.681	213.38
268.913	227.38
269.145	238.38
269.377	230.38
269.609	244.38
269.841	250.38
270.073	239.38
270.306	253.38
270.538	259.38
270.77	288.38
271.002	270.38
271.234	250.38
271.466	246.38
271.698	252.38
271.93	280.38
272.162	276.38
272.394	270.38
272.626	260.38
272.858	227.38
273.09	246.38
273.322	256.38
273.553	247.38
273.785	248.38
274.017	232.38
274.249	244.38
274.481	222.38
274.713	232.38
274.945	240.38
275.176	256.38
275.408	250.38
275.64	235.38
275.872	245.38
276.104	249.38
276.335	247.38
276.567	243.38
276.799	258.38
277.031	282.38
277.262	289.38
277.494	276.38
277.726	266.38
277.957	270.38
278.189	260.38
278.421	247.38
278.652	246.38
278.884	235.38
279.115	262.38
279.347	254.38
279.579	241.38
279.81	238.38
280.042	233.38
280.273	256.38
280.505	245.38
280.736	234.38
280.968	250.38
281.199	251.38
281.431	244.38
281.662	255.38
281.894	267.38
282.125	262.38
282.356	257.38
282.588	267.38
282.819	276.38
283.051	263.38
283.282	255.38
283.513	259.38
283.745	246.38
283.976	251.38
284.207	263.38
284.439	272.38
284.67	263.38
284.901	246.38
285.132	233.38
285.364	267.38
285.595	264.38
285.826	257.38
286.057	246.38
286.288	272.38
286.52	263.38
286.751	258.38
286.982	263.38
287.213	264.38
287.444	265.38
287.675	287.38
287.906	253.38
288.138	267.38
288.369	278.38
288.6	270.38
288.831	283.38
289.062	283.38
289.293	272.38
289.524	259.38
289.755	251.38
289.986	280.38
290.217	276.38
290.448	269.38
290.679	265.38
290.91	269.38
291.141	270.38
291.371	281.38
291.602	291.38
291.833	284.38
292.064	267.38
292.295	274.38
292.526	272.38
292.757	279.38
292.987	289.38
293.218	266.38
293.449	287.38
293.68	276.38
293.91	282.38
294.141	282.38
294.372	279.38
294.603	260.38
294.833	275.38
295.064	288.38
295.295	278.38
295.525	254.38
295.756	278.38
295.987	295.38
296.217	291.38
296.448	309.38
296.679	280.38
296.909	279.38
297.14	277.38
297.37	291.38
297.601	310.38
297.831	303.38
298.062	281.38
298.292	282.38
298.523	285.38
298.753	273.38
298.984	293.38
299.214	274.38
299.445	290.38
299.675	303.38
299.905	310.38
300.136	289.38
300.366	304.38
300.597	279.38
300.827	291.38
301.057	299.38
301.288	314.38
301.518	324.38
301.748	304.38
301.979	300.38
302.209	289.38
302.439	313.38
302.669	310.38
302.9	303.38
303.13	303.38
303.36	320.38
303.59	324.38
303.82	330.38
304.051	340.38
304.281	328.38
304.511	308.38
304.741	316.38
304.971	320.38
305.201	294.38
305.431	305.38
305.661	298.38
305.891	307.38
306.121	315.38
306.352	324.38
306.582	299.38
306.812	305.38
307.042	319.38
307.272	313.38
307.502	306.38
307.731	314.38
307.961	319.38
308.191	316.38
308.421	323.38
308.651	338.38
308.881	314.38
309.111	308.38
309.341	318.38
309.571	327.38
309.8	312.38
310.03	358.38
310.26	336.38
310.49	333.38
310.72	353.38
310.949	355.38
311.179	348.38
311.409	337.38
311.639	342.38
311.868	356.38
312.098	339.38
312.328	358.38
312.557	330.38
312.787	360.38
313.017	368.38
313.246	366.38
313.476	349.38
313.706	362.38
313.935	350.38
314.165	363.38
314.394	371.38
314.624	348.38
314.853	358.38
315.083	350.38
315.312	352.38
315.542	348.38
315.771	348.38
316.001	360.38
316.23	352.38
316.46	359.38
316.689	351.38
316.919	356.38
317.148	347.38
317.377	353.38
317.607	347.38
317.836	336.38
318.065	338.38
318.295	344.38
318.524	365.38
318.753	357.38
318.983	345.38
319.212	351.38
319.441	368.38
319.67	376.38
319.9	355.38
320.129	364.38
320.358	373.38
320.587	354.38
320.816	372.38
321.046	374.38
321.275	379.38
321.504	378.38
321.733	379.38
321.962	360.38
322.191	392.38
322.42	387.38
322.649	406.38
322.878	390.38
323.108	412.38
323.337	434.38
323.566	442.38
323.795	474.38
324.024	478.38
324.253	572.38
324.482	775.38
324.71	1160.38
324.939	1679.38
325.168	1415.38
325.397	754.38
325.626	551.38
325.855	475.38
326.084	459.38
326.313	427.38
326.542	418.38
326.77	465.38
326.999	533.38
327.228	700.38
327.457	1038.38
327.686	1264.38
327.914	852.38
328.143	571.38
328.372	510.38
328.6	468.38
328.829	456.38
329.058	471.38
329.287	476.38
329.515	452.38
329.744	450.38
329.972	425.38
330.201	431.38
330.43	422.38
330.658	458.38
330.887	504.38
331.115	503.38
331.344	440.38
331.572	436.38
331.801	438.38
332.03	437.38
332.258	434.38
332.486	412.38
332.715	406.38
332.943	422.38
333.172	427.38
333.4	418.38
333.629	446.38
333.857	431.38
334.085	440.38
334.314	414.38
334.542	424.38
334.771	426.38
334.999	425.38
335.227	432.38
335.455	447.38
335.684	445.38
335.912	432.38
336.14	407.38
336.369	408.38
336.597	430.38
336.825	427.38
337.053	406.38
337.281	409.38
337.51	416.38
337.738	420.38
337.966	403.38
338.194	409.38
338.422	414.38
338.65	420.38
338.878	388.38
339.106	424.38
339.334	400.38
339.562	431.38
339.79	408.38
340.018	406.38
340.246	410.38
340.474	430.38
340.702	411.38
340.93	405.38
341.158	416.38
341.386	396.38
341.614	410.38
341.842	406.38
342.07	410.38
342.298	395.38
342.526	388.38
342.754	383.38
342.981	391.38
343.209	408.38
343.437	421.38
343.665	422.38
343.893	409.38
344.12	435.38
344.348	428.38
344.576	414.38
344.804	434.38
345.031	411.38
345.259	434.38
345.487	419.38
345.714	409.38
345.942	405.38
346.17	419.38
346.397	380.38
346.625	402.38
346.853	388.38
347.08	387.38
347.308	388.38
347.535	402.38
347.763	399.38
347.99	408.38
348.218	402.38
348.445	404.38
348.673	423.38
348.9	392.38
349.128	386.38
349.355	372.38
349.583	398.38
349.81	382.38
350.037	388.38
350.265	379.38
350.492	383.38
350.72	381.38
350.947	384.38
351.174	386.38
351.402	406.38
351.629	400.38
351.856	405.38
352.083	391.38
352.311	404.38
352.538	406.38
352.765	420.38
352.992	381.38
353.22	398.38
353.447	382.38
353.674	383.38
353.901	379.38
354.128	392.38
354.355	373.38
354.583	354.38
354.81	380.38
355.037	374.38
355.264	361.38
355.491	378.38
355.718	380.38
355.945	382.38
356.172	393.38
356.399	387.38
356.626	367.38
356.853	376.38
357.08	364.38
357.307	377.38
357.534	386.38
357.761	372.38
357.988	370.38
358.215	383.38
358.441	370.38
358.668	378.38
358.895	369.38
359.122	386.38
359.349	395.38
359.576	383.38
359.802	402.38
360.029	427.38
360.256	428.38
360.483	401.38
360.709	403.38
360.936	403.38
361.163	393.38
361.39	397.38
361.616	401.38
361.843	385.38
362.07	387.38
362.296	367.38
362.523	384.38
362.749	399.38
362.976	370.38
363.203	387.38
363.429	384.38
363.656	392.38
363.882	379.38
364.109	382.38
364.335	400.38
364.562	400.38
364.788	379.38
365.015	381.38
365.241	382.38
365.468	417.38
365.694	379.38
365.92	395.38
366.147	383.38
366.373	391.38
366.599	386.38
366.826	396.38
367.052	378.38
367.278	384.38
367.505	393.38
367.731	374.38
367.957	391.38
368.184	391.38
368.41	387.38
368.636	410.38
368.862	400.38
369.089	385.38
369.315	373.38
369.541	395.38
369.767	395.38
369.993	394.38
370.219	383.38
370.445	395.38
370.672	411.38
370.898	379.38
371.124	388.38
371.35	394.38
371.576	395.38
371.802	385.38
372.028	394.38
372.254	386.38
372.48	384.38
372.706	380.38
372.932	393.38
373.158	410.38
373.384	376.38
373.61	375.38
373.835	402.38
374.061	392.38
374.287	419.38
374.513	412.38
374.739	406.38
374.965	411.38
375.191	412.38
375.416	398.38
375.642	384.38
375.868	387.38
376.094	403.38
376.319	407.38
376.545	391.38
376.771	393.38
376.997	370.38
377.222	381.38
377.448	383.38
377.674	371.38
377.899	380.38
378.125	370.38
378.35	382.38
378.576	383.38
378.802	389.38
379.027	379.38
379.253	390.38
379.478	384.38
379.704	397.38
379.929	379.38
380.155	405.38
380.38	393.38
380.606	395.38
380.831	403.38
381.057	390.38
381.282	392.38
381.507	383.38
381.733	394.38
381.958	393.38
382.184	393.38
382.409	401.38
382.634	400.38
382.86	394.38
383.085	422.38
383.31	412.38
383.535	420.38
383.761	390.38
383.986	439.38
384.211	423.38
384.436	415.38
384.662	424.38
384.887	399.38
385.112	437.38
385.337	410.38
385.562	419.38
385.787	395.38
386.013	432.38
386.238	441.38
386.463	423.38
386.688	433.38
386.913	430.38
387.138	424.38
387.363	436.38
387.588	450.38
387.813	425.38
388.038	428.38
388.263	420.38
388.488	431.38
388.713	441.38
388.938	415.38
389.163	435.38
389.387	441.38
389.612	441.38
389.837	415.38
390.062	421.38
390.287	434.38
390.512	420.38
390.736	416.38
390.961	431.38
391.186	424.38
391.411	417.38
391.636	458.38
391.86	443.38
392.085	450.38
392.31	449.38
392.534	420.38
392.759	457.38
392.984	435.38
393.208	464.38
393.433	444.38
393.658	441.38
393.882	444.38
394.107	461.38
394.331	443.38
394.556	402.38
394.78	443.38
395.005	442.38
395.229	424.38
395.454	434.38
395.678	446.38
395.903	441.38
396.127	471.38
396.352	481.38
396.576	459.38
396.801	451.38
397.025	458.38
397.249	456.38
397.474	458.38
397.698	466.38
397.922	481.38
398.147	502.38
398.371	486.38
398.595	489.38
398.82	476.38
399.044	502.38
399.268	522.38
399.492	547.38
399.717	549.38
399.941	593.38
400.165	610.38
400.389	580.38
400.613	558.38
400.837	530.38
401.062	488.38
401.286	506.38
401.51	497.38
401.734	511.38
401.958	500.38
402.182	494.38
402.406	491.38
402.63	502.38
402.854	502.38
403.078	504.38
403.302	495.38
403.526	507.38
403.75	522.38
403.974	500.38
404.198	474.38
404.422	495.38
404.645	508.38
404.869	502.38
405.093	541.38
405.317	545.38
405.541	574.38
405.765	547.38
405.988	532.38
406.212	539.38
406.436	543.38
406.66	568.38
406.883	539.38
407.107	570.38
407.331	597.38
407.555	668.38
407.778	681.38
408.002	604.38
408.226	560.38
408.449	569.38
408.673	580.38
408.896	602.38
409.12	632.38
409.344	604.38
409.567	540.38
409.791	516.38
410.014	521.38
410.238	531.38
410.461	532.38
410.685	526.38
410.908	547.38
411.132	555.38
411.355	582.38
411.578	563.38
411.802	520.38
412.025	513.38
412.249	514.38
412.472	505.38
412.695	511.38
412.919	508.38
413.142	508.38
413.365	507.38
413.589	498.38
413.812	480.38
414.035	475.38
414.258	480.38
414.482	479.38
414.705	499.38
414.928	495.38
415.151	499.38
415.374	489.38
415.597	482.38
415.821	484.38
416.044	486.38
416.267	481.38
416.49	466.38
416.713	487.38
416.936	490.38
417.159	460.38
417.382	482.38
417.605	490.38
417.828	481.38
418.051	500.38
418.274	476.38
418.497	480.38
418.72	471.38
418.943	469.38
419.166	512.38
419.389	524.38
419.611	503.38
419.834	519.38
420.057	500.38
420.28	498.38
420.503	501.38
420.726	503.38
420.948	514.38
421.171	543.38
421.394	578.38
421.617	506.38
421.839	504.38
422.062	484.38
422.285	498.38
422.507	558.38
422.73	626.38
422.953	593.38
423.175	528.38
423.398	525.38
423.621	496.38
423.843	529.38
424.066	544.38
424.288	519.38
424.511	536.38
424.733	598.38
424.956	657.38
425.178	654.38
425.401	636.38
425.623	690.38
425.846	582.38
426.068	546.38
426.291	514.38
426.513	521.38
426.735	544.38
426.958	582.38
427.18	643.38
427.402	766.38
427.625	815.38
427.847	691.38
428.069	580.38
428.292	549.38
428.514	509.38
428.736	514.38
428.958	493.38
429.181	491.38
429.403	475.38
429.625	510.38
429.847	549.38
430.069	587.38
430.292	593.38
430.514	512.38
430.736	481.38
430.958	494.38
431.18	482.38
431.402	487.38
431.624	472.38
431.846	482.38
432.068	463.38
432.29	466.38
432.512	486.38
432.734	469.38
432.956	507.38
433.178	468.38
433.4	485.38
433.622	488.38
433.844	466.38
434.066	472.38
434.287	480.38
434.509	478.38
434.731	494.38
434.953	489.38
435.175	494.38
435.397	527.38
435.618	535.38
435.84	583.38
436.062	651.38
436.284	696.38
436.505	597.38
436.727	579.38
436.949	528.38
437.17	497.38
437.392	506.38
437.614	476.38
437.835	529.38
438.057	592.38
438.278	708.38
438.5	710.38
438.721	752.38
438.943	746.38
439.165	607.38
439.386	531.38
439.608	512.38
439.829	519.38
440.05	562.38
440.272	594.38
440.493	548.38
440.715	504.38
440.936	512.38
441.158	489.38
441.379	484.38
441.6	532.38
441.822	515.38
442.043	563.38
442.264	627.38
442.486	681.38
442.707	582.38
442.928	534.38
443.149	562.38
443.371	539.38
443.592	610.38
443.813	673.38
444.034	734.38
444.255	618.38
444.476	552.38
444.698	546.38
444.919	538.38
445.14	630.38
445.361	583.38
445.582	562.38
445.803	620.38
446.024	707.38
446.245	732.38
446.466	629.38
446.687	575.38
446.908	530.38
447.129	508.38
447.35	504.38
447.571	483.38
447.792	491.38
448.013	506.38
448.234	503.38
448.455	532.38
448.675	638.38
448.896	747.38
449.117	654.38
449.338	628.38
449.559	705.38
449.779	822.38
450	643.38
450.221	530.38
450.442	487.38
450.662	486.38
450.883	473.38
451.104	472.38
451.324	480.38
451.545	452.38
451.766	468.38
451.986	435.38
452.207	441.38
452.428	439.38
452.648	453.38
452.869	447.38
453.089	445.38
453.31	457.38
453.53	473.38
453.751	434.38
453.971	426.38
454.192	474.38
454.412	447.38
454.633	423.38
454.853	459.38
455.073	441.38
455.294	475.38
455.514	532.38
455.734	508.38
455.955	449.38
456.175	432.38
456.395	440.38
456.616	410.38
456.836	421.38
457.056	414.38
457.276	409.38
457.497	428.38
457.717	427.38
457.937	438.38
458.157	420.38
458.377	439.38
458.598	419.38
458.818	498.38
459.038	540.38
459.258	579.38
459.478	498.38
459.698	476.38
459.918	475.38
460.138	474.38
460.358	491.38
460.578	484.38
460.798	480.38
461.018	488.38
461.238	510.38
461.458	494.38
461.678	494.38
461.898	509.38
462.118	489.38
462.338	494.38
462.558	505.38
462.777	536.38
462.997	543.38
463.217	533.38
463.437	532.38
463.657	551.38
463.876	534.38
464.096	510.38
464.316	535.38
464.536	534.38
464.755	511.38
464.975	536.38
465.195	530.38
465.414	563.38
465.634	527.38
465.854	513.38
466.073	476.38
466.293	476.38
466.512	469.38
466.732	461.38
466.951	462.38
467.171	448.38
467.391	465.38
467.61	470.38
467.829	470.38
468.049	472.38
468.268	453.38
468.488	436.38
468.707	460.38
468.927	460.38
469.146	438.38
469.365	443.38
469.585	455.38
469.804	467.38
470.023	468.38
470.243	455.38
470.462	470.38
470.681	482.38
470.901	474.38
471.12	447.38
471.339	460.38
471.558	481.38
471.777	463.38
471.997	454.38
472.216	460.38
472.435	449.38
472.654	467.38
472.873	468.38
473.092	464.38
473.311	472.38
473.53	447.38
473.749	458.38
473.968	508.38
474.187	584.38
474.406	613.38
474.625	516.38
474.844	453.38
475.063	472.38
475.282	482.38
475.501	461.38
475.72	489.38
475.939	464.38
476.158	489.38
476.377	471.38
476.596	490.38
476.814	488.38
477.033	504.38
477.252	488.38
477.471	494.38
477.69	511.38
477.908	487.38
478.127	532.38
478.346	545.38
478.564	530.38
478.783	525.38
479.002	528.38
479.22	547.38
479.439	530.38
479.658	545.38
479.876	559.38
480.095	579.38
480.313	568.38
480.532	568.38
480.751	547.38
480.969	562.38
481.188	536.38
481.406	563.38
481.624	550.38
481.843	556.38
482.061	559.38
482.28	545.38
482.498	544.38
482.717	544.38
482.935	546.38
483.153	545.38
483.372	547.38
483.59	544.38
483.808	547.38
484.027	563.38
484.245	573.38
484.463	562.38
484.681	563.38
484.9	579.38
485.118	550.38
485.336	562.38
485.554	581.38
485.772	572.38
485.99	577.38
486.209	602.38
486.427	567.38
486.645	561.38
486.863	584.38
487.081	588.38
487.299	589.38
487.517	582.38
487.735	574.38
487.953	582.38
488.171	586.38
488.389	565.38
488.607	581.38
488.825	581.38
489.043	578.38
489.261	615.38
489.479	588.38
489.696	605.38
489.914	604.38
490.132	602.38
490.35	601.38
490.568	603.38
490.786	622.38
491.003	628.38
491.221	629.38
491.439	633.38
491.657	623.38
491.874	628.38
492.092	649.38
492.31	654.38
492.527	626.38
492.745	653.38
492.963	662.38
493.18	662.38
493.398	664.38
493.615	672.38
493.833	657.38
494.05	664.38
494.268	657.38
494.485	644.38
494.703	654.38
494.92	672.38
495.138	676.38
495.355	686.38
495.573	660.38
495.79	686.38
496.008	698.38
496.225	665.38
496.442	683.38
496.66	707.38
496.877	663.38
497.094	700.38
497.312	722.38
497.529	686.38
497.746	729.38
497.963	722.38
498.181	755.38
498.398	762.38
498.615	768.38
498.832	814.38
499.049	821.38
499.267	833.38
499.484	894.38
499.701	877.38
499.918	914.38
500.135	966.38
500.352	979.38
500.569	1001.38
500.786	1017.38
501.003	1024.38
501.22	962.38
501.437	962.38
501.654	933.38
501.871	898.38
502.088	887.38
