Data from 1988.PennyLincolnUp.Lamp.En5.5.200Scan.071819.P2_HRD10591_17-20-40-971.txt Node
Date: Thu Jul 18 17:20:40 EDT 2019
User: cochatt
Spectrometer: HR+D1059
Trigger mode: 1
Integration Time (sec): 1.000000E-1
Scans to average: 1
Electric dark correction enabled: true
Nonlinearity correction enabled: false
Boxcar width: 0
XAxis mode: Wavelengths
Number of Pixels in Spectrum: 2048
>>>>>Begin Spectral Data<<<<<
223.165	-3.56
223.4	-3.56
223.635	-3.56
223.869	-22.56
224.104	-13.56
224.338	-10.56
224.573	-14.56
224.808	-19.56
225.042	3.44
225.277	2.44
225.511	-5.56
225.746	8.44
225.98	6.44
226.215	14.44
226.449	2.44
226.683	8.44
226.918	29.44
227.152	14.44
227.387	29.44
227.621	24.44
227.856	36.44
228.09	41.44
228.324	52.44
228.559	52.44
228.793	70.44
229.027	108.44
229.262	103.44
229.496	128.44
229.73	145.44
229.964	164.44
230.199	129.44
230.433	101.44
230.667	113.44
230.901	120.44
231.136	113.44
231.37	112.44
231.604	112.44
231.838	113.44
232.072	117.44
232.306	112.44
232.541	114.44
232.775	122.44
233.009	117.44
233.243	116.44
233.477	104.44
233.711	124.44
233.945	109.44
234.179	123.44
234.413	125.44
234.647	131.44
234.881	135.44
235.115	130.44
235.349	125.44
235.583	125.44
235.817	119.44
236.051	136.44
236.285	127.44
236.519	121.44
236.753	128.44
236.987	155.44
237.221	190.44
237.455	245.44
237.689	220.44
237.922	141.44
238.156	157.44
238.39	135.44
238.624	121.44
238.858	126.44
239.091	132.44
239.325	124.44
239.559	137.44
239.793	127.44
240.027	147.44
240.26	157.44
240.494	159.44
240.728	164.44
240.961	151.44
241.195	143.44
241.429	151.44
241.662	150.44
241.896	137.44
242.13	142.44
242.363	152.44
242.597	144.44
242.83	138.44
243.064	130.44
243.298	150.44
243.531	156.44
243.765	142.44
243.998	157.44
244.232	158.44
244.465	158.44
244.699	156.44
244.932	139.44
245.166	148.44
245.399	142.44
245.633	155.44
245.866	142.44
246.099	155.44
246.333	149.44
246.566	148.44
246.8	149.44
247.033	150.44
247.266	159.44
247.5	173.44
247.733	194.44
247.966	182.44
248.2	170.44
248.433	186.44
248.666	186.44
248.899	187.44
249.133	204.44
249.366	218.44
249.599	224.44
249.832	186.44
250.066	182.44
250.299	191.44
250.532	204.44
250.765	203.44
250.998	248.44
251.231	244.44
251.465	225.44
251.698	236.44
251.931	220.44
252.164	222.44
252.397	220.44
252.63	216.44
252.863	211.44
253.096	236.44
253.329	244.44
253.562	238.44
253.795	241.44
254.028	204.44
254.261	246.44
254.494	224.44
254.727	269.44
254.96	308.44
255.193	300.44
255.426	270.44
255.659	233.44
255.892	244.44
256.124	233.44
256.357	220.44
256.59	235.44
256.823	218.44
257.056	229.44
257.289	202.44
257.521	220.44
257.754	212.44
257.987	230.44
258.22	219.44
258.452	216.44
258.685	210.44
258.918	241.44
259.151	237.44
259.383	222.44
259.616	232.44
259.849	219.44
260.081	232.44
260.314	264.44
260.547	267.44
260.779	264.44
261.012	251.44
261.244	253.44
261.477	242.44
261.71	237.44
261.942	230.44
262.175	246.44
262.407	244.44
262.64	240.44
262.872	231.44
263.105	231.44
263.337	233.44
263.57	223.44
263.802	236.44
264.035	242.44
264.267	231.44
264.499	238.44
264.732	219.44
264.964	228.44
265.197	228.44
265.429	222.44
265.661	222.44
265.894	223.44
266.126	227.44
266.358	227.44
266.591	249.44
266.823	228.44
267.055	244.44
267.287	246.44
267.52	236.44
267.752	245.44
267.984	244.44
268.216	249.44
268.448	234.44
268.681	244.44
268.913	261.44
269.145	280.44
269.377	288.44
269.609	291.44
269.841	274.44
270.073	295.44
270.306	290.44
270.538	369.44
270.77	352.44
271.002	318.44
271.234	316.44
271.466	325.44
271.698	328.44
271.93	339.44
272.162	342.44
272.394	351.44
272.626	325.44
272.858	321.44
273.09	310.44
273.322	317.44
273.553	276.44
273.785	280.44
274.017	276.44
274.249	300.44
274.481	273.44
274.713	276.44
274.945	278.44
275.176	279.44
275.408	294.44
275.64	283.44
275.872	273.44
276.104	285.44
276.335	267.44
276.567	285.44
276.799	300.44
277.031	333.44
277.262	338.44
277.494	335.44
277.726	323.44
277.957	300.44
278.189	294.44
278.421	316.44
278.652	301.44
278.884	300.44
279.115	275.44
279.347	277.44
279.579	279.44
279.81	284.44
280.042	285.44
280.273	277.44
280.505	267.44
280.736	287.44
280.968	274.44
281.199	272.44
281.431	281.44
281.662	300.44
281.894	282.44
282.125	279.44
282.356	308.44
282.588	345.44
282.819	335.44
283.051	299.44
283.282	288.44
283.513	288.44
283.745	300.44
283.976	297.44
284.207	289.44
284.439	305.44
284.67	288.44
284.901	291.44
285.132	285.44
285.364	304.44
285.595	311.44
285.826	299.44
286.057	304.44
286.288	304.44
286.52	283.44
286.751	313.44
286.982	300.44
287.213	306.44
287.444	322.44
287.675	312.44
287.906	309.44
288.138	301.44
288.369	318.44
288.6	332.44
288.831	321.44
289.062	317.44
289.293	327.44
289.524	311.44
289.755	314.44
289.986	326.44
290.217	295.44
290.448	311.44
290.679	333.44
290.91	314.44
291.141	322.44
291.371	312.44
291.602	320.44
291.833	293.44
292.064	318.44
292.295	320.44
292.526	304.44
292.757	325.44
292.987	327.44
293.218	313.44
293.449	310.44
293.68	309.44
293.91	322.44
294.141	320.44
294.372	296.44
294.603	311.44
294.833	315.44
295.064	315.44
295.295	340.44
295.525	322.44
295.756	337.44
295.987	331.44
296.217	343.44
296.448	361.44
296.679	324.44
296.909	304.44
297.14	315.44
297.37	322.44
297.601	324.44
297.831	301.44
298.062	317.44
298.292	339.44
298.523	336.44
298.753	327.44
298.984	331.44
299.214	347.44
299.445	343.44
299.675	337.44
299.905	354.44
300.136	329.44
300.366	337.44
300.597	344.44
300.827	345.44
301.057	335.44
301.288	371.44
301.518	351.44
301.748	347.44
301.979	356.44
302.209	346.44
302.439	354.44
302.669	339.44
302.9	374.44
303.13	353.44
303.36	354.44
303.59	379.44
303.82	360.44
304.051	364.44
304.281	368.44
304.511	331.44
304.741	347.44
304.971	337.44
305.201	348.44
305.431	350.44
305.661	361.44
305.891	351.44
306.121	338.44
306.352	363.44
306.582	364.44
306.812	347.44
307.042	357.44
307.272	363.44
307.502	358.44
307.731	360.44
307.961	376.44
308.191	352.44
308.421	377.44
308.651	366.44
308.881	365.44
309.111	359.44
309.341	364.44
309.571	382.44
309.8	388.44
310.03	407.44
310.26	419.44
310.49	388.44
310.72	422.44
310.949	397.44
311.179	426.44
311.409	418.44
311.639	411.44
311.868	416.44
312.098	422.44
312.328	403.44
312.557	442.44
312.787	460.44
313.017	458.44
313.246	430.44
313.476	404.44
313.706	433.44
313.935	440.44
314.165	427.44
314.394	432.44
314.624	432.44
314.853	427.44
315.083	418.44
315.312	417.44
315.542	424.44
315.771	421.44
316.001	418.44
316.23	395.44
316.46	408.44
316.689	410.44
316.919	420.44
317.148	420.44
317.377	416.44
317.607	430.44
317.836	436.44
318.065	438.44
318.295	417.44
318.524	443.44
318.753	423.44
318.983	413.44
319.212	406.44
319.441	414.44
319.67	428.44
319.9	431.44
320.129	413.44
320.358	410.44
320.587	446.44
320.816	456.44
321.046	444.44
321.275	449.44
321.504	454.44
321.733	443.44
321.962	456.44
322.191	476.44
322.42	455.44
322.649	500.44
322.878	502.44
323.108	528.44
323.337	532.44
323.566	554.44
323.795	588.44
324.024	657.44
324.253	794.44
324.482	1125.44
324.71	1784.44
324.939	2688.44
325.168	2263.44
325.397	1144.44
325.626	747.44
325.855	639.44
326.084	595.44
326.313	555.44
326.542	577.44
326.77	641.44
326.999	726.44
327.228	1015.44
327.457	1596.44
327.686	1996.44
327.914	1287.44
328.143	804.44
328.372	706.44
328.6	648.44
328.829	620.44
329.058	654.44
329.287	676.44
329.515	604.44
329.744	588.44
329.972	558.44
330.201	546.44
330.43	576.44
330.658	610.44
330.887	663.44
331.115	666.44
331.344	593.44
331.572	553.44
331.801	557.44
332.03	550.44
332.258	542.44
332.486	525.44
332.715	513.44
332.943	498.44
333.172	514.44
333.4	515.44
333.629	517.44
333.857	542.44
334.085	546.44
334.314	540.44
334.542	553.44
334.771	538.44
334.999	507.44
335.227	501.44
335.455	501.44
335.684	491.44
335.912	510.44
336.14	492.44
336.369	514.44
336.597	521.44
336.825	509.44
337.053	512.44
337.281	493.44
337.51	483.44
337.738	499.44
337.966	510.44
338.194	499.44
338.422	485.44
338.65	492.44
338.878	478.44
339.106	497.44
339.334	487.44
339.562	482.44
339.79	492.44
340.018	474.44
340.246	488.44
340.474	496.44
340.702	492.44
340.93	499.44
341.158	484.44
341.386	491.44
341.614	486.44
341.842	475.44
342.07	461.44
342.298	492.44
342.526	464.44
342.754	458.44
342.981	461.44
343.209	462.44
343.437	471.44
343.665	497.44
343.893	485.44
344.12	478.44
344.348	499.44
344.576	480.44
344.804	504.44
345.031	506.44
345.259	525.44
345.487	491.44
345.714	467.44
345.942	499.44
346.17	457.44
346.397	469.44
346.625	475.44
346.853	472.44
347.08	476.44
347.308	474.44
347.535	472.44
347.763	493.44
347.99	480.44
348.218	483.44
348.445	486.44
348.673	486.44
348.9	481.44
349.128	466.44
349.355	456.44
349.583	464.44
349.81	467.44
350.037	449.44
350.265	472.44
350.492	452.44
350.72	456.44
350.947	460.44
351.174	486.44
351.402	476.44
351.629	510.44
351.856	484.44
352.083	497.44
352.311	472.44
352.538	511.44
352.765	469.44
352.992	510.44
353.22	469.44
353.447	486.44
353.674	453.44
353.901	458.44
354.128	437.44
354.355	442.44
354.583	435.44
354.81	447.44
355.037	447.44
355.264	428.44
355.491	440.44
355.718	449.44
355.945	452.44
356.172	432.44
356.399	456.44
356.626	436.44
356.853	442.44
357.08	428.44
357.307	440.44
357.534	451.44
357.761	445.44
357.988	434.44
358.215	448.44
358.441	454.44
358.668	440.44
358.895	450.44
359.122	442.44
359.349	455.44
359.576	460.44
359.802	468.44
360.029	539.44
360.256	562.44
360.483	512.44
360.709	473.44
360.936	475.44
361.163	477.44
361.39	461.44
361.616	484.44
361.843	474.44
362.07	477.44
362.296	488.44
362.523	473.44
362.749	462.44
362.976	465.44
363.203	468.44
363.429	473.44
363.656	476.44
363.882	465.44
364.109	468.44
364.335	446.44
364.562	446.44
364.788	449.44
365.015	461.44
365.241	476.44
365.468	449.44
365.694	476.44
365.92	456.44
366.147	465.44
366.373	434.44
366.599	451.44
366.826	472.44
367.052	450.44
367.278	442.44
367.505	462.44
367.731	454.44
367.957	462.44
368.184	469.44
368.41	474.44
368.636	467.44
368.862	461.44
369.089	458.44
369.315	463.44
369.541	446.44
369.767	464.44
369.993	457.44
370.219	457.44
370.445	459.44
370.672	456.44
370.898	430.44
371.124	464.44
371.35	453.44
371.576	469.44
371.802	448.44
372.028	446.44
372.254	457.44
372.48	456.44
372.706	474.44
372.932	454.44
373.158	485.44
373.384	458.44
373.61	446.44
373.835	481.44
374.061	467.44
374.287	459.44
374.513	477.44
374.739	458.44
374.965	494.44
375.191	471.44
375.416	481.44
375.642	473.44
375.868	454.44
376.094	465.44
376.319	456.44
376.545	442.44
376.771	463.44
376.997	463.44
377.222	473.44
377.448	455.44
377.674	461.44
377.899	439.44
378.125	450.44
378.35	455.44
378.576	453.44
378.802	435.44
379.027	456.44
379.253	461.44
379.478	444.44
379.704	465.44
379.929	467.44
380.155	449.44
380.38	470.44
380.606	445.44
380.831	472.44
381.057	470.44
381.282	469.44
381.507	469.44
381.733	455.44
381.958	449.44
382.184	455.44
382.409	470.44
382.634	486.44
382.86	474.44
383.085	478.44
383.31	471.44
383.535	468.44
383.761	470.44
383.986	478.44
384.211	492.44
384.436	483.44
384.662	487.44
384.887	491.44
385.112	499.44
385.337	477.44
385.562	488.44
385.787	496.44
386.013	501.44
386.238	503.44
386.463	491.44
386.688	536.44
386.913	472.44
387.138	514.44
387.363	535.44
387.588	489.44
387.813	496.44
388.038	501.44
388.263	500.44
388.488	532.44
388.713	515.44
388.938	476.44
389.163	504.44
389.387	526.44
389.612	490.44
389.837	537.44
390.062	508.44
390.287	485.44
390.512	511.44
390.736	500.44
390.961	516.44
391.186	517.44
391.411	532.44
391.636	514.44
391.86	493.44
392.085	542.44
392.31	514.44
392.534	513.44
392.759	530.44
392.984	515.44
393.208	518.44
393.433	518.44
393.658	527.44
393.882	513.44
394.107	516.44
394.331	516.44
394.556	526.44
394.78	528.44
395.005	500.44
395.229	531.44
395.454	553.44
395.678	530.44
395.903	571.44
396.127	577.44
396.352	566.44
396.576	550.44
396.801	546.44
397.025	552.44
397.249	544.44
397.474	558.44
397.698	552.44
397.922	563.44
398.147	594.44
398.371	580.44
398.595	598.44
398.82	580.44
399.044	588.44
399.268	612.44
399.492	638.44
399.717	668.44
399.941	690.44
400.165	712.44
400.389	752.44
400.613	684.44
400.837	639.44
401.062	583.44
401.286	603.44
401.51	577.44
401.734	594.44
401.958	598.44
402.182	590.44
402.406	609.44
402.63	628.44
402.854	616.44
403.078	598.44
403.302	620.44
403.526	611.44
403.75	607.44
403.974	595.44
404.198	591.44
404.422	628.44
404.645	632.44
404.869	632.44
405.093	638.44
405.317	669.44
405.541	709.44
405.765	674.44
405.988	628.44
406.212	658.44
406.436	680.44
406.66	704.44
406.883	662.44
407.107	700.44
407.331	739.44
407.555	830.44
407.778	830.44
408.002	770.44
408.226	679.44
408.449	700.44
408.673	702.44
408.896	697.44
409.12	773.44
409.344	746.44
409.567	632.44
409.791	644.44
410.014	604.44
410.238	641.44
410.461	631.44
410.685	636.44
410.908	654.44
411.132	684.44
411.355	695.44
411.578	681.44
411.802	629.44
412.025	646.44
412.249	605.44
412.472	621.44
412.695	606.44
412.919	621.44
413.142	594.44
413.365	590.44
413.589	587.44
413.812	579.44
414.035	589.44
414.258	573.44
414.482	570.44
414.705	587.44
414.928	593.44
415.151	577.44
415.374	580.44
415.597	598.44
415.821	601.44
416.044	596.44
416.267	601.44
416.49	587.44
416.713	566.44
416.936	590.44
417.159	582.44
417.382	583.44
417.605	579.44
417.828	600.44
418.051	634.44
418.274	588.44
418.497	590.44
418.72	555.44
418.943	580.44
419.166	606.44
419.389	620.44
419.611	628.44
419.834	628.44
420.057	626.44
420.28	609.44
420.503	597.44
420.726	610.44
420.948	633.44
421.171	674.44
421.394	681.44
421.617	656.44
421.839	606.44
422.062	611.44
422.285	616.44
422.507	699.44
422.73	786.44
422.953	776.44
423.175	671.44
423.398	628.44
423.621	620.44
423.843	662.44
424.066	641.44
424.288	669.44
424.511	673.44
424.733	736.44
424.956	868.44
425.178	806.44
425.401	805.44
425.623	819.44
425.846	697.44
426.068	669.44
426.291	646.44
426.513	660.44
426.735	636.44
426.958	731.44
427.18	810.44
427.402	989.44
427.625	1056.44
427.847	921.44
428.069	793.44
428.292	709.44
428.514	650.44
428.736	632.44
428.958	632.44
429.181	603.44
429.403	623.44
429.625	620.44
429.847	661.44
430.069	743.44
430.292	741.44
430.514	627.44
430.736	610.44
430.958	600.44
431.18	597.44
431.402	565.44
431.624	585.44
431.846	568.44
432.068	547.44
432.29	572.44
432.512	582.44
432.734	598.44
432.956	574.44
433.178	616.44
433.4	589.44
433.622	584.44
433.844	579.44
434.066	580.44
434.287	573.44
434.509	586.44
434.731	607.44
434.953	606.44
435.175	621.44
435.397	637.44
435.618	655.44
435.84	704.44
436.062	793.44
436.284	873.44
436.505	766.44
436.727	694.44
436.949	616.44
437.17	618.44
437.392	605.44
437.614	622.44
437.835	674.44
438.057	766.44
438.278	908.44
438.5	913.44
438.721	989.44
438.943	954.44
439.165	755.44
439.386	690.44
439.608	655.44
439.829	649.44
440.05	723.44
440.272	752.44
440.493	693.44
440.715	647.44
440.936	637.44
441.158	628.44
441.379	629.44
441.6	613.44
441.822	646.44
442.043	702.44
442.264	813.44
442.486	872.44
442.707	754.44
442.928	680.44
443.149	698.44
443.371	721.44
443.592	754.44
443.813	869.44
444.034	965.44
444.255	786.44
444.476	706.44
444.698	661.44
444.919	665.44
445.14	782.44
445.361	742.44
445.582	716.44
445.803	762.44
446.024	912.44
446.245	917.44
446.466	842.44
446.687	708.44
446.908	671.44
447.129	627.44
447.35	609.44
447.571	605.44
447.792	591.44
448.013	605.44
448.234	632.44
448.455	692.44
448.675	846.44
448.896	980.44
449.117	827.44
449.338	781.44
449.559	897.44
449.779	1028.44
450	824.44
450.221	681.44
450.442	639.44
450.662	606.44
450.883	591.44
451.104	614.44
451.324	605.44
451.545	574.44
451.766	560.44
451.986	560.44
452.207	506.44
452.428	545.44
452.648	550.44
452.869	539.44
453.089	570.44
453.31	552.44
453.53	554.44
453.751	560.44
453.971	583.44
454.192	588.44
454.412	554.44
454.633	544.44
454.853	530.44
455.073	530.44
455.294	565.44
455.514	650.44
455.734	624.44
455.955	556.44
456.175	534.44
456.395	520.44
456.616	485.44
456.836	523.44
457.056	514.44
457.276	493.44
457.497	513.44
457.717	523.44
457.937	539.44
458.157	528.44
458.377	547.44
458.598	572.44
458.818	615.44
459.038	717.44
459.258	764.44
459.478	623.44
459.698	598.44
459.918	586.44
460.138	592.44
460.358	577.44
460.578	570.44
460.798	598.44
461.018	619.44
461.238	603.44
461.458	595.44
461.678	589.44
461.898	598.44
462.118	602.44
462.338	634.44
462.558	634.44
462.777	623.44
462.997	621.44
463.217	618.44
463.437	644.44
463.657	636.44
463.876	650.44
464.096	635.44
464.316	611.44
464.536	634.44
464.755	638.44
464.975	644.44
465.195	696.44
465.414	721.44
465.634	655.44
465.854	637.44
466.073	618.44
466.293	601.44
466.512	581.44
466.732	536.44
466.951	570.44
467.171	575.44
467.391	582.44
467.61	589.44
467.829	578.44
468.049	571.44
468.268	553.44
468.488	550.44
468.707	556.44
468.927	556.44
469.146	553.44
469.365	552.44
469.585	556.44
469.804	557.44
470.023	565.44
470.243	571.44
470.462	585.44
470.681	599.44
470.901	576.44
471.12	576.44
471.339	565.44
471.558	584.44
471.777	562.44
471.997	555.44
472.216	561.44
472.435	546.44
472.654	575.44
472.873	565.44
473.092	548.44
473.311	580.44
473.53	579.44
473.749	562.44
473.968	613.44
474.187	728.44
474.406	802.44
474.625	634.44
474.844	579.44
475.063	566.44
475.282	574.44
475.501	552.44
475.72	594.44
475.939	569.44
476.158	578.44
476.377	579.44
476.596	568.44
476.814	611.44
477.033	595.44
477.252	598.44
477.471	612.44
477.69	622.44
477.908	612.44
478.127	625.44
478.346	629.44
478.564	616.44
478.783	638.44
479.002	651.44
479.22	644.44
479.439	660.44
479.658	686.44
479.876	690.44
480.095	730.44
480.313	745.44
480.532	742.44
480.751	704.44
480.969	695.44
481.188	705.44
481.406	708.44
481.624	672.44
481.843	682.44
482.061	684.44
482.28	688.44
482.498	650.44
482.717	656.44
482.935	657.44
483.153	657.44
483.372	662.44
483.59	654.44
483.808	652.44
484.027	678.44
484.245	661.44
484.463	668.44
484.681	648.44
484.9	688.44
485.118	672.44
485.336	706.44
485.554	674.44
485.772	679.44
485.99	701.44
486.209	688.44
486.427	705.44
486.645	724.44
486.863	691.44
487.081	745.44
487.299	742.44
487.517	694.44
487.735	734.44
487.953	727.44
488.171	701.44
488.389	726.44
488.607	729.44
488.825	731.44
489.043	725.44
489.261	708.44
489.479	729.44
489.696	724.44
489.914	717.44
490.132	739.44
490.35	764.44
490.568	756.44
490.786	766.44
491.003	766.44
491.221	794.44
491.439	780.44
491.657	803.44
491.874	807.44
492.092	801.44
492.31	808.44
492.527	805.44
492.745	822.44
492.963	832.44
493.18	818.44
493.398	833.44
493.615	816.44
493.833	820.44
494.05	837.44
494.268	858.44
494.485	846.44
494.703	846.44
494.92	846.44
495.138	822.44
495.355	862.44
495.573	865.44
495.79	864.44
496.008	885.44
496.225	865.44
496.442	862.44
496.66	860.44
496.877	869.44
497.094	876.44
497.312	882.44
497.529	868.44
497.746	887.44
497.963	900.44
498.181	946.44
498.398	960.44
498.615	965.44
498.832	986.44
499.049	1004.44
499.267	1028.44
499.484	1056.44
499.701	1079.44
499.918	1097.44
500.135	1173.44
500.352	1208.44
500.569	1232.44
500.786	1245.44
501.003	1200.44
501.22	1192.44
501.437	1150.44
501.654	1121.44
