Data from 1988.PennyLincolnUp.Lamp.En5.5.200Scan.071819.P2_HRD10591_17-18-33-973.txt Node
Date: Thu Jul 18 17:18:33 EDT 2019
User: cochatt
Spectrometer: HR+D1059
Trigger mode: 1
Integration Time (sec): 1.000000E-1
Scans to average: 1
Electric dark correction enabled: true
Nonlinearity correction enabled: false
Boxcar width: 0
XAxis mode: Wavelengths
Number of Pixels in Spectrum: 2048
>>>>>Begin Spectral Data<<<<<
223.165	-18.5
223.4	-18.5
223.635	-18.5
223.869	-24.5
224.104	-18.5
224.338	-9.5
224.573	-11.5
224.808	1.5
225.042	-20.5
225.277	0.5
225.511	-15.5
225.746	3.5
225.98	4.5
226.215	6.5
226.449	13.5
226.683	22.5
226.918	36.5
227.152	29.5
227.387	34.5
227.621	46.5
227.856	32.5
228.09	31.5
228.324	40.5
228.559	52.5
228.793	46.5
229.027	103.5
229.262	94.5
229.496	93.5
229.73	112.5
229.964	133.5
230.199	130.5
230.433	102.5
230.667	107.5
230.901	109.5
231.136	100.5
231.37	105.5
231.604	118.5
231.838	105.5
232.072	77.5
232.306	116.5
232.541	118.5
232.775	118.5
233.009	108.5
233.243	93.5
233.477	104.5
233.711	121.5
233.945	104.5
234.179	100.5
234.413	117.5
234.647	113.5
234.881	100.5
235.115	118.5
235.349	91.5
235.583	112.5
235.817	128.5
236.051	119.5
236.285	123.5
236.519	126.5
236.753	125.5
236.987	130.5
237.221	168.5
237.455	212.5
237.689	170.5
237.922	130.5
238.156	124.5
238.39	128.5
238.624	116.5
238.858	120.5
239.091	120.5
239.325	130.5
239.559	116.5
239.793	120.5
240.027	123.5
240.26	123.5
240.494	145.5
240.728	138.5
240.961	136.5
241.195	130.5
241.429	142.5
241.662	139.5
241.896	112.5
242.13	118.5
242.363	139.5
242.597	130.5
242.83	135.5
243.064	130.5
243.298	131.5
243.531	136.5
243.765	138.5
243.998	125.5
244.232	129.5
244.465	146.5
244.699	142.5
244.932	132.5
245.166	139.5
245.399	135.5
245.633	136.5
245.866	127.5
246.099	128.5
246.333	126.5
246.566	139.5
246.8	134.5
247.033	149.5
247.266	136.5
247.5	136.5
247.733	166.5
247.966	157.5
248.2	180.5
248.433	157.5
248.666	155.5
248.899	173.5
249.133	179.5
249.366	197.5
249.599	188.5
249.832	169.5
250.066	180.5
250.299	166.5
250.532	184.5
250.765	166.5
250.998	184.5
251.231	192.5
251.465	177.5
251.698	182.5
251.931	181.5
252.164	177.5
252.397	170.5
252.63	183.5
252.863	198.5
253.096	198.5
253.329	203.5
253.562	203.5
253.795	210.5
254.028	205.5
254.261	194.5
254.494	208.5
254.727	231.5
254.96	222.5
255.193	230.5
255.426	207.5
255.659	217.5
255.892	199.5
256.124	196.5
256.357	197.5
256.59	195.5
256.823	219.5
257.056	196.5
257.289	200.5
257.521	204.5
257.754	189.5
257.987	189.5
258.22	192.5
258.452	201.5
258.685	212.5
258.918	190.5
259.151	195.5
259.383	194.5
259.616	201.5
259.849	213.5
260.081	213.5
260.314	230.5
260.547	217.5
260.779	218.5
261.012	215.5
261.244	216.5
261.477	212.5
261.71	200.5
261.942	206.5
262.175	196.5
262.407	216.5
262.64	192.5
262.872	189.5
263.105	184.5
263.337	198.5
263.57	193.5
263.802	189.5
264.035	210.5
264.267	200.5
264.499	194.5
264.732	180.5
264.964	204.5
265.197	203.5
265.429	212.5
265.661	191.5
265.894	207.5
266.126	192.5
266.358	198.5
266.591	191.5
266.823	210.5
267.055	210.5
267.287	211.5
267.52	202.5
267.752	206.5
267.984	211.5
268.216	212.5
268.448	199.5
268.681	233.5
268.913	225.5
269.145	249.5
269.377	246.5
269.609	235.5
269.841	244.5
270.073	244.5
270.306	257.5
270.538	272.5
270.77	265.5
271.002	269.5
271.234	266.5
271.466	268.5
271.698	272.5
271.93	294.5
272.162	289.5
272.394	274.5
272.626	250.5
272.858	273.5
273.09	252.5
273.322	248.5
273.553	237.5
273.785	256.5
274.017	262.5
274.249	258.5
274.481	258.5
274.713	229.5
274.945	237.5
275.176	260.5
275.408	239.5
275.64	238.5
275.872	257.5
276.104	238.5
276.335	260.5
276.567	253.5
276.799	264.5
277.031	258.5
277.262	272.5
277.494	293.5
277.726	286.5
277.957	261.5
278.189	256.5
278.421	245.5
278.652	267.5
278.884	251.5
279.115	248.5
279.347	265.5
279.579	231.5
279.81	259.5
280.042	261.5
280.273	256.5
280.505	265.5
280.736	240.5
280.968	254.5
281.199	254.5
281.431	260.5
281.662	244.5
281.894	259.5
282.125	241.5
282.356	277.5
282.588	264.5
282.819	276.5
283.051	259.5
283.282	242.5
283.513	268.5
283.745	269.5
283.976	262.5
284.207	270.5
284.439	267.5
284.67	270.5
284.901	250.5
285.132	264.5
285.364	271.5
285.595	273.5
285.826	276.5
286.057	287.5
286.288	276.5
286.52	276.5
286.751	270.5
286.982	280.5
287.213	286.5
287.444	265.5
287.675	271.5
287.906	270.5
288.138	270.5
288.369	274.5
288.6	279.5
288.831	295.5
289.062	302.5
289.293	265.5
289.524	270.5
289.755	270.5
289.986	284.5
290.217	284.5
290.448	290.5
290.679	274.5
290.91	267.5
291.141	280.5
291.371	270.5
291.602	281.5
291.833	285.5
292.064	275.5
292.295	265.5
292.526	280.5
292.757	300.5
292.987	289.5
293.218	284.5
293.449	270.5
293.68	272.5
293.91	280.5
294.141	293.5
294.372	284.5
294.603	281.5
294.833	271.5
295.064	301.5
295.295	281.5
295.525	286.5
295.756	296.5
295.987	292.5
296.217	311.5
296.448	315.5
296.679	300.5
296.909	290.5
297.14	292.5
297.37	285.5
297.601	291.5
297.831	294.5
298.062	294.5
298.292	300.5
298.523	311.5
298.753	284.5
298.984	314.5
299.214	288.5
299.445	297.5
299.675	296.5
299.905	294.5
300.136	277.5
300.366	301.5
300.597	310.5
300.827	297.5
301.057	320.5
301.288	313.5
301.518	320.5
301.748	316.5
301.979	310.5
302.209	305.5
302.439	320.5
302.669	308.5
302.9	320.5
303.13	321.5
303.36	322.5
303.59	298.5
303.82	317.5
304.051	314.5
304.281	326.5
304.511	332.5
304.741	321.5
304.971	320.5
305.201	321.5
305.431	311.5
305.661	306.5
305.891	307.5
306.121	310.5
306.352	317.5
306.582	333.5
306.812	328.5
307.042	323.5
307.272	322.5
307.502	322.5
307.731	333.5
307.961	336.5
308.191	318.5
308.421	314.5
308.651	306.5
308.881	322.5
309.111	327.5
309.341	341.5
309.571	350.5
309.8	342.5
310.03	341.5
310.26	349.5
310.49	341.5
310.72	361.5
310.949	377.5
311.179	356.5
311.409	362.5
311.639	347.5
311.868	359.5
312.098	356.5
312.328	369.5
312.557	364.5
312.787	367.5
313.017	388.5
313.246	380.5
313.476	348.5
313.706	386.5
313.935	373.5
314.165	365.5
314.394	363.5
314.624	368.5
314.853	368.5
315.083	365.5
315.312	372.5
315.542	358.5
315.771	359.5
316.001	361.5
316.23	370.5
316.46	347.5
316.689	354.5
316.919	394.5
317.148	387.5
317.377	364.5
317.607	352.5
317.836	375.5
318.065	369.5
318.295	360.5
318.524	377.5
318.753	356.5
318.983	326.5
319.212	363.5
319.441	363.5
319.67	378.5
319.9	392.5
320.129	347.5
320.358	356.5
320.587	374.5
320.816	394.5
321.046	369.5
321.275	391.5
321.504	380.5
321.733	384.5
321.962	384.5
322.191	393.5
322.42	420.5
322.649	420.5
322.878	421.5
323.108	426.5
323.337	453.5
323.566	428.5
323.795	466.5
324.024	491.5
324.253	572.5
324.482	814.5
324.71	1193.5
324.939	1734.5
325.168	1510.5
325.397	818.5
325.626	574.5
325.855	488.5
326.084	465.5
326.313	470.5
326.542	471.5
326.77	493.5
326.999	565.5
327.228	736.5
327.457	1105.5
327.686	1299.5
327.914	875.5
328.143	599.5
328.372	519.5
328.6	512.5
328.829	474.5
329.058	488.5
329.287	496.5
329.515	474.5
329.744	438.5
329.972	455.5
330.201	450.5
330.43	482.5
330.658	481.5
330.887	523.5
331.115	516.5
331.344	472.5
331.572	438.5
331.801	436.5
332.03	446.5
332.258	416.5
332.486	428.5
332.715	437.5
332.943	434.5
333.172	446.5
333.4	427.5
333.629	444.5
333.857	461.5
334.085	444.5
334.314	436.5
334.542	425.5
334.771	436.5
334.999	442.5
335.227	450.5
335.455	419.5
335.684	460.5
335.912	430.5
336.14	445.5
336.369	432.5
336.597	434.5
336.825	438.5
337.053	428.5
337.281	432.5
337.51	426.5
337.738	435.5
337.966	414.5
338.194	426.5
338.422	418.5
338.65	414.5
338.878	408.5
339.106	413.5
339.334	420.5
339.562	406.5
339.79	409.5
340.018	414.5
340.246	414.5
340.474	397.5
340.702	416.5
340.93	437.5
341.158	417.5
341.386	434.5
341.614	436.5
341.842	409.5
342.07	404.5
342.298	430.5
342.526	400.5
342.754	394.5
342.981	411.5
343.209	406.5
343.437	409.5
343.665	419.5
343.893	425.5
344.12	437.5
344.348	415.5
344.576	410.5
344.804	436.5
345.031	445.5
345.259	452.5
345.487	413.5
345.714	422.5
345.942	414.5
346.17	419.5
346.397	411.5
346.625	413.5
346.853	389.5
347.08	402.5
347.308	405.5
347.535	423.5
347.763	405.5
347.99	402.5
348.218	426.5
348.445	405.5
348.673	412.5
348.9	396.5
349.128	398.5
349.355	414.5
349.583	405.5
349.81	380.5
350.037	411.5
350.265	408.5
350.492	390.5
350.72	393.5
350.947	381.5
351.174	381.5
351.402	420.5
351.629	423.5
351.856	388.5
352.083	393.5
352.311	412.5
352.538	397.5
352.765	419.5
352.992	404.5
353.22	404.5
353.447	402.5
353.674	399.5
353.901	383.5
354.128	388.5
354.355	412.5
354.583	386.5
354.81	397.5
355.037	393.5
355.264	374.5
355.491	372.5
355.718	389.5
355.945	375.5
356.172	379.5
356.399	372.5
356.626	382.5
356.853	390.5
357.08	363.5
357.307	360.5
357.534	365.5
357.761	376.5
357.988	397.5
358.215	389.5
358.441	383.5
358.668	378.5
358.895	384.5
359.122	385.5
359.349	404.5
359.576	419.5
359.802	401.5
360.029	439.5
360.256	427.5
360.483	402.5
360.709	422.5
360.936	391.5
361.163	414.5
361.39	400.5
361.616	399.5
361.843	393.5
362.07	395.5
362.296	392.5
362.523	394.5
362.749	406.5
362.976	388.5
363.203	395.5
363.429	385.5
363.656	407.5
363.882	392.5
364.109	385.5
364.335	392.5
364.562	393.5
364.788	389.5
365.015	385.5
365.241	397.5
365.468	380.5
365.694	410.5
365.92	402.5
366.147	386.5
366.373	404.5
366.599	376.5
366.826	406.5
367.052	364.5
367.278	396.5
367.505	400.5
367.731	416.5
367.957	373.5
368.184	410.5
368.41	375.5
368.636	405.5
368.862	409.5
369.089	404.5
369.315	389.5
369.541	390.5
369.767	375.5
369.993	387.5
370.219	408.5
370.445	384.5
370.672	372.5
370.898	390.5
371.124	397.5
371.35	405.5
371.576	410.5
371.802	402.5
372.028	393.5
372.254	390.5
372.48	391.5
372.706	402.5
372.932	414.5
373.158	404.5
373.384	406.5
373.61	396.5
373.835	395.5
374.061	381.5
374.287	401.5
374.513	401.5
374.739	399.5
374.965	414.5
375.191	415.5
375.416	402.5
375.642	421.5
375.868	396.5
376.094	383.5
376.319	400.5
376.545	382.5
376.771	396.5
376.997	403.5
377.222	396.5
377.448	385.5
377.674	395.5
377.899	369.5
378.125	389.5
378.35	387.5
378.576	398.5
378.802	380.5
379.027	390.5
379.253	386.5
379.478	395.5
379.704	390.5
379.929	382.5
380.155	386.5
380.38	388.5
380.606	407.5
380.831	390.5
381.057	404.5
381.282	397.5
381.507	406.5
381.733	404.5
381.958	382.5
382.184	394.5
382.409	411.5
382.634	416.5
382.86	414.5
383.085	401.5
383.31	410.5
383.535	400.5
383.761	421.5
383.986	413.5
384.211	427.5
384.436	418.5
384.662	436.5
384.887	431.5
385.112	417.5
385.337	434.5
385.562	434.5
385.787	427.5
386.013	436.5
386.238	447.5
386.463	423.5
386.688	423.5
386.913	440.5
387.138	436.5
387.363	429.5
387.588	416.5
387.813	451.5
388.038	450.5
388.263	450.5
388.488	428.5
388.713	448.5
388.938	428.5
389.163	432.5
389.387	444.5
389.612	430.5
389.837	424.5
390.062	433.5
390.287	439.5
390.512	456.5
390.736	425.5
390.961	440.5
391.186	438.5
391.411	449.5
391.636	457.5
391.86	461.5
392.085	469.5
392.31	453.5
392.534	449.5
392.759	443.5
392.984	429.5
393.208	433.5
393.433	482.5
393.658	449.5
393.882	431.5
394.107	433.5
394.331	441.5
394.556	451.5
394.78	452.5
395.005	451.5
395.229	437.5
395.454	451.5
395.678	448.5
395.903	466.5
396.127	471.5
396.352	486.5
396.576	464.5
396.801	478.5
397.025	471.5
397.249	472.5
397.474	472.5
397.698	461.5
397.922	480.5
398.147	486.5
398.371	503.5
398.595	496.5
398.82	504.5
399.044	500.5
399.268	526.5
399.492	525.5
399.717	587.5
399.941	579.5
400.165	637.5
400.389	598.5
400.613	578.5
400.837	543.5
401.062	510.5
401.286	508.5
401.51	505.5
401.734	504.5
401.958	507.5
402.182	492.5
402.406	527.5
402.63	522.5
402.854	499.5
403.078	523.5
403.302	531.5
403.526	512.5
403.75	514.5
403.974	515.5
404.198	513.5
404.422	509.5
404.645	520.5
404.869	531.5
405.093	538.5
405.317	581.5
405.541	582.5
405.765	557.5
405.988	523.5
406.212	540.5
406.436	546.5
406.66	570.5
406.883	559.5
407.107	560.5
407.331	604.5
407.555	670.5
407.778	675.5
408.002	598.5
408.226	566.5
408.449	588.5
408.673	565.5
408.896	614.5
409.12	615.5
409.344	594.5
409.567	532.5
409.791	548.5
410.014	549.5
410.238	540.5
410.461	521.5
410.685	523.5
410.908	526.5
411.132	573.5
411.355	611.5
411.578	585.5
411.802	533.5
412.025	526.5
412.249	522.5
412.472	540.5
412.695	525.5
412.919	523.5
413.142	497.5
413.365	494.5
413.589	501.5
413.812	494.5
414.035	499.5
414.258	493.5
414.482	488.5
414.705	477.5
414.928	499.5
415.151	508.5
415.374	475.5
415.597	500.5
415.821	488.5
416.044	475.5
416.267	497.5
416.49	480.5
416.713	479.5
416.936	481.5
417.159	491.5
417.382	499.5
417.605	486.5
417.828	480.5
418.051	518.5
418.274	503.5
418.497	472.5
418.72	522.5
418.943	490.5
419.166	523.5
419.389	520.5
419.611	527.5
419.834	530.5
420.057	519.5
420.28	518.5
420.503	488.5
420.726	490.5
420.948	522.5
421.171	568.5
421.394	561.5
421.617	530.5
421.839	508.5
422.062	496.5
422.285	525.5
422.507	564.5
422.73	655.5
422.953	640.5
423.175	532.5
423.398	530.5
423.621	524.5
423.843	550.5
424.066	527.5
424.288	526.5
424.511	560.5
424.733	613.5
424.956	691.5
425.178	676.5
425.401	659.5
425.623	685.5
425.846	587.5
426.068	533.5
426.291	543.5
426.513	536.5
426.735	556.5
426.958	582.5
427.18	642.5
427.402	753.5
427.625	840.5
427.847	721.5
428.069	614.5
428.292	553.5
428.514	552.5
428.736	488.5
428.958	525.5
429.181	491.5
429.403	508.5
429.625	477.5
429.847	538.5
430.069	585.5
430.292	592.5
430.514	536.5
430.736	521.5
430.958	508.5
431.18	478.5
431.402	466.5
431.624	479.5
431.846	480.5
432.068	463.5
432.29	480.5
432.512	478.5
432.734	489.5
432.956	480.5
433.178	498.5
433.4	487.5
433.622	489.5
433.844	510.5
434.066	490.5
434.287	477.5
434.509	483.5
434.731	498.5
434.953	488.5
435.175	495.5
435.397	537.5
435.618	542.5
435.84	577.5
436.062	662.5
436.284	710.5
436.505	599.5
436.727	542.5
436.949	512.5
437.17	505.5
437.392	506.5
437.614	515.5
437.835	528.5
438.057	620.5
438.278	724.5
438.5	718.5
438.721	792.5
438.943	733.5
439.165	600.5
439.386	545.5
439.608	552.5
439.829	536.5
440.05	552.5
440.272	600.5
440.493	573.5
440.715	527.5
440.936	511.5
441.158	512.5
441.379	518.5
441.6	521.5
441.822	532.5
442.043	575.5
442.264	636.5
442.486	676.5
442.707	586.5
442.928	552.5
443.149	583.5
443.371	587.5
443.592	611.5
443.813	700.5
444.034	741.5
444.255	638.5
444.476	571.5
444.698	545.5
444.919	565.5
445.14	625.5
445.361	608.5
445.582	569.5
445.803	614.5
446.024	697.5
446.245	738.5
446.466	658.5
446.687	557.5
446.908	560.5
447.129	518.5
447.35	509.5
447.571	510.5
447.792	513.5
448.013	490.5
448.234	522.5
448.455	536.5
448.675	673.5
448.896	759.5
449.117	642.5
449.338	645.5
449.559	743.5
449.779	800.5
450	634.5
450.221	514.5
450.442	496.5
450.662	485.5
450.883	493.5
451.104	496.5
451.324	493.5
451.545	482.5
451.766	461.5
451.986	457.5
452.207	461.5
452.428	453.5
452.648	446.5
452.869	439.5
453.089	464.5
453.31	470.5
453.53	460.5
453.751	445.5
453.971	448.5
454.192	449.5
454.412	456.5
454.633	457.5
454.853	449.5
455.073	428.5
455.294	474.5
455.514	516.5
455.734	520.5
455.955	456.5
456.175	442.5
456.395	427.5
456.616	426.5
456.836	442.5
457.056	445.5
457.276	414.5
457.497	432.5
457.717	434.5
457.937	437.5
458.157	454.5
458.377	444.5
458.598	452.5
458.818	505.5
459.038	580.5
459.258	562.5
459.478	534.5
459.698	501.5
459.918	463.5
460.138	474.5
460.358	494.5
460.578	499.5
460.798	514.5
461.018	520.5
461.238	484.5
461.458	509.5
461.678	496.5
461.898	492.5
462.118	516.5
462.338	507.5
462.558	534.5
462.777	534.5
462.997	536.5
463.217	546.5
463.437	559.5
463.657	541.5
463.876	520.5
464.096	518.5
464.316	532.5
464.536	540.5
464.755	544.5
464.975	546.5
465.195	564.5
465.414	597.5
465.634	548.5
465.854	522.5
466.073	508.5
466.293	488.5
466.512	483.5
466.732	462.5
466.951	453.5
467.171	454.5
467.391	475.5
467.61	522.5
467.829	485.5
468.049	468.5
468.268	471.5
468.488	452.5
468.707	447.5
468.927	454.5
469.146	457.5
469.365	456.5
469.585	468.5
469.804	469.5
470.023	489.5
470.243	467.5
470.462	476.5
470.681	490.5
470.901	509.5
471.12	464.5
471.339	484.5
471.558	475.5
471.777	466.5
471.997	470.5
472.216	467.5
472.435	485.5
472.654	463.5
472.873	468.5
473.092	462.5
473.311	460.5
473.53	489.5
473.749	466.5
473.968	510.5
474.187	575.5
474.406	627.5
474.625	530.5
474.844	493.5
475.063	471.5
475.282	466.5
475.501	465.5
475.72	483.5
475.939	497.5
476.158	490.5
476.377	509.5
476.596	487.5
476.814	504.5
477.033	520.5
477.252	510.5
477.471	517.5
477.69	513.5
477.908	520.5
478.127	525.5
478.346	513.5
478.564	521.5
478.783	530.5
479.002	519.5
479.22	558.5
479.439	562.5
479.658	562.5
479.876	548.5
480.095	585.5
480.313	586.5
480.532	584.5
480.751	562.5
480.969	553.5
481.188	584.5
481.406	569.5
481.624	569.5
481.843	566.5
482.061	564.5
482.28	557.5
482.498	569.5
482.717	553.5
482.935	571.5
483.153	522.5
483.372	552.5
483.59	558.5
483.808	545.5
484.027	572.5
484.245	548.5
484.463	575.5
484.681	556.5
484.9	593.5
485.118	560.5
485.336	570.5
485.554	568.5
485.772	567.5
485.99	600.5
486.209	583.5
486.427	587.5
486.645	585.5
486.863	609.5
487.081	594.5
487.299	590.5
487.517	593.5
487.735	579.5
487.953	615.5
488.171	613.5
488.389	574.5
488.607	588.5
488.825	588.5
489.043	595.5
489.261	611.5
489.479	585.5
489.696	587.5
489.914	598.5
490.132	586.5
490.35	636.5
490.568	619.5
490.786	608.5
491.003	626.5
491.221	632.5
491.439	649.5
491.657	642.5
491.874	655.5
492.092	660.5
492.31	665.5
492.527	659.5
492.745	649.5
492.963	688.5
493.18	666.5
493.398	669.5
493.615	690.5
493.833	672.5
494.05	674.5
494.268	680.5
494.485	688.5
494.703	663.5
494.92	682.5
495.138	683.5
495.355	676.5
495.573	683.5
495.79	713.5
496.008	716.5
496.225	704.5
496.442	693.5
496.66	723.5
496.877	699.5
497.094	721.5
497.312	724.5
497.529	725.5
497.746	740.5
497.963	757.5
498.181	756.5
498.398	773.5
498.615	800.5
498.832	808.5
499.049	812.5
499.267	841.5
499.484	878.5
499.701	882.5
499.918	924.5
500.135	977.5
500.352	1020.5
500.569	1026.5
500.786	1034.5
501.003	992.5
501.22	965.5
501.437	955.5
501.654	932.5
501.871	897.5
502.088	875.5
502.305	858.5
502.522	810.5
502.739	796.5
502.956	785.5
503.172	785.5
503.389	765.5
503.606	748.5
503.823	741.5
504.04	743.5
504.256	720.5
504.473	732.5
504.69	701.5
504.907	721.5
505.123	710.5
505.34	674.5
505.557	683.5
505.773	672.5
505.99	679.5
506.207	660.5
506.423	668.5
506.64	673.5
506.856	662.5
507.073	634.5
507.289	624.5
507.506	646.5
507.722	655.5
507.939	632.5
508.155	650.5
508.372	635.5
508.588	624.5
508.805	643.5
509.021	621.5
509.238	653.5
509.454	618.5
509.67	645.5
509.887	634.5
510.103	588.5
510.319	635.5
510.536	681.5
510.752	998.5
510.968	870.5
511.184	636.5
511.401	634.5
511.617	602.5
511.833	595.5
512.049	606.5
512.265	615.5
512.481	603.5
512.698	587.5
512.914	601.5
513.13	599.5
513.346	616.5
513.562	600.5
513.778	617.5
513.994	583.5
514.21	616.5
514.426	616.5
514.642	677.5
514.858	690.5
515.074	698.5
515.29	755.5
515.506	1036.5
515.721	914.5
515.937	688.5
516.153	635.5
516.369	624.5
516.585	632.5
516.801	636.5
517.016	639.5
517.232	619.5
517.448	648.5
517.664	632.5
517.879	618.5
518.095	629.5
518.311	606.5
518.527	603.5
518.742	609.5
518.958	604.5
519.173	604.5
519.389	589.5
519.605	606.5
519.82	580.5
