Data from 1988.PennyLincolnUp.Lamp.En5.5.200Scan.071819.P2_HRD10591_17-18-58-972.txt Node
Date: Thu Jul 18 17:18:58 EDT 2019
User: cochatt
Spectrometer: HR+D1059
Trigger mode: 1
Integration Time (sec): 1.000000E-1
Scans to average: 1
Electric dark correction enabled: true
Nonlinearity correction enabled: false
Boxcar width: 0
XAxis mode: Wavelengths
Number of Pixels in Spectrum: 2048
>>>>>Begin Spectral Data<<<<<
223.165	-16.69
223.4	-16.69
223.635	-16.69
223.869	-22.69
224.104	-28.69
224.338	-16.69
224.573	-11.69
224.808	-7.69
225.042	-2.69
225.277	2.31
225.511	-6.69
225.746	6.31
225.98	11.31
226.215	12.31
226.449	20.31
226.683	10.31
226.918	24.31
227.152	26.31
227.387	47.31
227.621	60.31
227.856	51.31
228.09	44.31
228.324	54.31
228.559	55.31
228.793	72.31
229.027	107.31
229.262	119.31
229.496	129.31
229.73	129.31
229.964	152.31
230.199	137.31
230.433	118.31
230.667	121.31
230.901	124.31
231.136	111.31
231.37	127.31
231.604	112.31
231.838	113.31
232.072	122.31
232.306	104.31
232.541	105.31
232.775	117.31
233.009	120.31
233.243	111.31
233.477	117.31
233.711	127.31
233.945	111.31
234.179	109.31
234.413	120.31
234.647	101.31
234.881	108.31
235.115	125.31
235.349	120.31
235.583	132.31
235.817	127.31
236.051	133.31
236.285	121.31
236.519	126.31
236.753	123.31
236.987	142.31
237.221	187.31
237.455	210.31
237.689	176.31
237.922	135.31
238.156	128.31
238.39	134.31
238.624	128.31
238.858	130.31
239.091	128.31
239.325	129.31
239.559	125.31
239.793	136.31
240.027	128.31
240.26	136.31
240.494	146.31
240.728	147.31
240.961	150.31
241.195	146.31
241.429	132.31
241.662	128.31
241.896	134.31
242.13	136.31
242.363	136.31
242.597	130.31
242.83	145.31
243.064	144.31
243.298	139.31
243.531	153.31
243.765	122.31
243.998	139.31
244.232	139.31
244.465	153.31
244.699	142.31
244.932	160.31
245.166	138.31
245.399	137.31
245.633	151.31
245.866	149.31
246.099	144.31
246.333	145.31
246.566	142.31
246.8	155.31
247.033	161.31
247.266	166.31
247.5	167.31
247.733	171.31
247.966	178.31
248.2	184.31
248.433	169.31
248.666	169.31
248.899	169.31
249.133	194.31
249.366	190.31
249.599	198.31
249.832	173.31
250.066	168.31
250.299	171.31
250.532	190.31
250.765	184.31
250.998	191.31
251.231	217.31
251.465	206.31
251.698	201.31
251.931	208.31
252.164	206.31
252.397	193.31
252.63	202.31
252.863	200.31
253.096	199.31
253.329	216.31
253.562	205.31
253.795	220.31
254.028	228.31
254.261	198.31
254.494	204.31
254.727	223.31
254.96	267.31
255.193	247.31
255.426	220.31
255.659	217.31
255.892	227.31
256.124	205.31
256.357	229.31
256.59	207.31
256.823	199.31
257.056	213.31
257.289	179.31
257.521	208.31
257.754	201.31
257.987	234.31
258.22	217.31
258.452	222.31
258.685	199.31
258.918	197.31
259.151	210.31
259.383	220.31
259.616	212.31
259.849	221.31
260.081	188.31
260.314	246.31
260.547	252.31
260.779	250.31
261.012	209.31
261.244	228.31
261.477	223.31
261.71	214.31
261.942	231.31
262.175	232.31
262.407	223.31
262.64	218.31
262.872	223.31
263.105	214.31
263.337	213.31
263.57	201.31
263.802	219.31
264.035	213.31
264.267	195.31
264.499	206.31
264.732	212.31
264.964	212.31
265.197	208.31
265.429	215.31
265.661	204.31
265.894	223.31
266.126	210.31
266.358	224.31
266.591	229.31
266.823	239.31
267.055	221.31
267.287	233.31
267.52	222.31
267.752	236.31
267.984	229.31
268.216	214.31
268.448	233.31
268.681	220.31
268.913	252.31
269.145	237.31
269.377	273.31
269.609	273.31
269.841	269.31
270.073	256.31
270.306	273.31
270.538	296.31
270.77	277.31
271.002	286.31
271.234	278.31
271.466	279.31
271.698	301.31
271.93	299.31
272.162	304.31
272.394	318.31
272.626	303.31
272.858	301.31
273.09	288.31
273.322	264.31
273.553	260.31
273.785	244.31
274.017	281.31
274.249	258.31
274.481	277.31
274.713	253.31
274.945	248.31
275.176	261.31
275.408	255.31
275.64	271.31
275.872	245.31
276.104	257.31
276.335	272.31
276.567	264.31
276.799	257.31
277.031	297.31
277.262	317.31
277.494	300.31
277.726	308.31
277.957	296.31
278.189	281.31
278.421	258.31
278.652	270.31
278.884	284.31
279.115	240.31
279.347	264.31
279.579	260.31
279.81	264.31
280.042	273.31
280.273	266.31
280.505	283.31
280.736	258.31
280.968	257.31
281.199	263.31
281.431	273.31
281.662	273.31
281.894	278.31
282.125	269.31
282.356	288.31
282.588	305.31
282.819	309.31
283.051	272.31
283.282	277.31
283.513	261.31
283.745	265.31
283.976	284.31
284.207	287.31
284.439	274.31
284.67	284.31
284.901	293.31
285.132	282.31
285.364	278.31
285.595	277.31
285.826	261.31
286.057	274.31
286.288	277.31
286.52	298.31
286.751	273.31
286.982	275.31
287.213	280.31
287.444	302.31
287.675	281.31
287.906	308.31
288.138	303.31
288.369	320.31
288.6	302.31
288.831	290.31
289.062	306.31
289.293	295.31
289.524	292.31
289.755	283.31
289.986	285.31
290.217	281.31
290.448	292.31
290.679	279.31
290.91	285.31
291.141	284.31
291.371	290.31
291.602	293.31
291.833	278.31
292.064	283.31
292.295	286.31
292.526	299.31
292.757	288.31
292.987	290.31
293.218	312.31
293.449	292.31
293.68	300.31
293.91	297.31
294.141	301.31
294.372	293.31
294.603	302.31
294.833	290.31
295.064	301.31
295.295	300.31
295.525	284.31
295.756	305.31
295.987	301.31
296.217	306.31
296.448	322.31
296.679	325.31
296.909	305.31
297.14	298.31
297.37	309.31
297.601	312.31
297.831	305.31
298.062	312.31
298.292	315.31
298.523	326.31
298.753	308.31
298.984	306.31
299.214	324.31
299.445	324.31
299.675	309.31
299.905	308.31
300.136	319.31
300.366	334.31
300.597	318.31
300.827	316.31
301.057	330.31
301.288	316.31
301.518	332.31
301.748	314.31
301.979	324.31
302.209	337.31
302.439	329.31
302.669	314.31
302.9	314.31
303.13	341.31
303.36	331.31
303.59	347.31
303.82	331.31
304.051	344.31
304.281	336.31
304.511	342.31
304.741	350.31
304.971	342.31
305.201	329.31
305.431	347.31
305.661	327.31
305.891	333.31
306.121	332.31
306.352	336.31
306.582	348.31
306.812	343.31
307.042	357.31
307.272	342.31
307.502	327.31
307.731	334.31
307.961	335.31
308.191	330.31
308.421	343.31
308.651	337.31
308.881	353.31
309.111	346.31
309.341	353.31
309.571	342.31
309.8	354.31
310.03	365.31
310.26	369.31
310.49	366.31
310.72	391.31
310.949	369.31
311.179	386.31
311.409	392.31
311.639	386.31
311.868	382.31
312.098	392.31
312.328	396.31
312.557	393.31
312.787	417.31
313.017	427.31
313.246	406.31
313.476	409.31
313.706	385.31
313.935	386.31
314.165	397.31
314.394	395.31
314.624	385.31
314.853	403.31
315.083	394.31
315.312	383.31
315.542	385.31
315.771	386.31
316.001	358.31
316.23	382.31
316.46	383.31
316.689	393.31
316.919	392.31
317.148	406.31
317.377	396.31
317.607	386.31
317.836	395.31
318.065	390.31
318.295	388.31
318.524	374.31
318.753	374.31
318.983	406.31
319.212	381.31
319.441	399.31
319.67	404.31
319.9	391.31
320.129	377.31
320.358	380.31
320.587	405.31
320.816	413.31
321.046	409.31
321.275	410.31
321.504	399.31
321.733	386.31
321.962	422.31
322.191	430.31
322.42	431.31
322.649	429.31
322.878	436.31
323.108	444.31
323.337	485.31
323.566	521.31
323.795	542.31
324.024	573.31
324.253	670.31
324.482	969.31
324.71	1466.31
324.939	2135.31
325.168	1816.31
325.397	993.31
325.626	668.31
325.855	561.31
326.084	518.31
326.313	504.31
326.542	515.31
326.77	560.31
326.999	657.31
327.228	873.31
327.457	1273.31
327.686	1599.31
327.914	1078.31
328.143	716.31
328.372	614.31
328.6	582.31
328.829	551.31
329.058	574.31
329.287	585.31
329.515	535.31
329.744	514.31
329.972	477.31
330.201	484.31
330.43	522.31
330.658	544.31
330.887	590.31
331.115	547.31
331.344	530.31
331.572	485.31
331.801	474.31
332.03	484.31
332.258	479.31
332.486	466.31
332.715	439.31
332.943	465.31
333.172	453.31
333.4	473.31
333.629	470.31
333.857	464.31
334.085	458.31
334.314	476.31
334.542	463.31
334.771	466.31
334.999	456.31
335.227	472.31
335.455	470.31
335.684	468.31
335.912	464.31
336.14	472.31
336.369	444.31
336.597	455.31
336.825	442.31
337.053	442.31
337.281	455.31
337.51	453.31
337.738	449.31
337.966	442.31
338.194	440.31
338.422	432.31
338.65	456.31
338.878	440.31
339.106	442.31
339.334	437.31
339.562	453.31
339.79	456.31
340.018	446.31
340.246	444.31
340.474	449.31
340.702	433.31
340.93	436.31
341.158	438.31
341.386	436.31
341.614	422.31
341.842	441.31
342.07	423.31
342.298	422.31
342.526	417.31
342.754	407.31
342.981	424.31
343.209	422.31
343.437	426.31
343.665	454.31
343.893	450.31
344.12	459.31
344.348	444.31
344.576	448.31
344.804	441.31
345.031	457.31
345.259	454.31
345.487	462.31
345.714	455.31
345.942	450.31
346.17	450.31
346.397	434.31
346.625	438.31
346.853	424.31
347.08	432.31
347.308	432.31
347.535	446.31
347.763	420.31
347.99	444.31
348.218	446.31
348.445	455.31
348.673	443.31
348.9	411.31
349.128	415.31
349.355	416.31
349.583	434.31
349.81	406.31
350.037	401.31
350.265	427.31
350.492	422.31
350.72	429.31
350.947	408.31
351.174	427.31
351.402	420.31
351.629	426.31
351.856	443.31
352.083	429.31
352.311	446.31
352.538	452.31
352.765	442.31
352.992	445.31
353.22	432.31
353.447	434.31
353.674	447.31
353.901	432.31
354.128	413.31
354.355	420.31
354.583	425.31
354.81	414.31
355.037	406.31
355.264	391.31
355.491	399.31
355.718	400.31
355.945	390.31
356.172	396.31
356.399	390.31
356.626	410.31
356.853	413.31
357.08	392.31
357.307	396.31
357.534	391.31
357.761	394.31
357.988	382.31
358.215	419.31
358.441	418.31
358.668	415.31
358.895	405.31
359.122	417.31
359.349	424.31
359.576	422.31
359.802	457.31
360.029	469.31
360.256	488.31
360.483	471.31
360.709	436.31
360.936	437.31
361.163	426.31
361.39	422.31
361.616	421.31
361.843	447.31
362.07	431.31
362.296	420.31
362.523	437.31
362.749	416.31
362.976	416.31
363.203	422.31
363.429	399.31
363.656	416.31
363.882	403.31
364.109	423.31
364.335	409.31
364.562	412.31
364.788	399.31
365.015	399.31
365.241	427.31
365.468	398.31
365.694	408.31
365.92	417.31
366.147	413.31
366.373	402.31
366.599	416.31
366.826	400.31
367.052	418.31
367.278	389.31
367.505	392.31
367.731	399.31
367.957	415.31
368.184	422.31
368.41	425.31
368.636	438.31
368.862	438.31
369.089	412.31
369.315	399.31
369.541	420.31
369.767	409.31
369.993	395.31
370.219	408.31
370.445	410.31
370.672	423.31
370.898	390.31
371.124	405.31
371.35	410.31
371.576	397.31
371.802	420.31
372.028	401.31
372.254	412.31
372.48	421.31
372.706	414.31
372.932	408.31
373.158	398.31
373.384	413.31
373.61	414.31
373.835	414.31
374.061	418.31
374.287	431.31
374.513	414.31
374.739	415.31
374.965	431.31
375.191	420.31
375.416	429.31
375.642	416.31
375.868	440.31
376.094	408.31
376.319	409.31
376.545	410.31
376.771	402.31
376.997	421.31
377.222	422.31
377.448	414.31
377.674	423.31
377.899	406.31
378.125	408.31
378.35	408.31
378.576	403.31
378.802	406.31
379.027	430.31
379.253	404.31
379.478	424.31
379.704	396.31
379.929	406.31
380.155	399.31
380.38	412.31
380.606	428.31
380.831	403.31
381.057	416.31
381.282	406.31
381.507	426.31
381.733	429.31
381.958	408.31
382.184	409.31
382.409	407.31
382.634	440.31
382.86	423.31
383.085	419.31
383.31	446.31
383.535	438.31
383.761	426.31
383.986	436.31
384.211	424.31
384.436	423.31
384.662	439.31
384.887	433.31
385.112	420.31
385.337	456.31
385.562	431.31
385.787	440.31
386.013	442.31
386.238	458.31
386.463	464.31
386.688	442.31
386.913	442.31
387.138	453.31
387.363	442.31
387.588	453.31
387.813	465.31
388.038	443.31
388.263	441.31
388.488	446.31
388.713	440.31
388.938	454.31
389.163	443.31
389.387	460.31
389.612	463.31
389.837	458.31
390.062	458.31
390.287	438.31
390.512	454.31
390.736	465.31
390.961	449.31
391.186	442.31
391.411	459.31
391.636	472.31
391.86	480.31
392.085	477.31
392.31	470.31
392.534	458.31
392.759	486.31
392.984	472.31
393.208	453.31
393.433	458.31
393.658	450.31
393.882	453.31
394.107	477.31
394.331	467.31
394.556	456.31
394.78	466.31
395.005	477.31
395.229	458.31
395.454	459.31
395.678	481.31
395.903	485.31
396.127	514.31
396.352	512.31
396.576	472.31
396.801	470.31
397.025	494.31
397.249	476.31
397.474	472.31
397.698	469.31
397.922	486.31
398.147	497.31
398.371	533.31
398.595	522.31
398.82	530.31
399.044	539.31
399.268	541.31
399.492	589.31
399.717	632.31
399.941	624.31
400.165	660.31
400.389	646.31
400.613	565.31
400.837	553.31
401.062	559.31
401.286	517.31
401.51	533.31
401.734	506.31
401.958	542.31
402.182	530.31
402.406	518.31
402.63	548.31
402.854	561.31
403.078	531.31
403.302	536.31
403.526	540.31
403.75	529.31
403.974	555.31
404.198	529.31
404.422	550.31
404.645	560.31
404.869	537.31
405.093	551.31
405.317	577.31
405.541	604.31
405.765	581.31
405.988	575.31
406.212	557.31
406.436	570.31
406.66	601.31
406.883	580.31
407.107	600.31
407.331	639.31
407.555	716.31
407.778	710.31
408.002	664.31
408.226	616.31
408.449	606.31
408.673	622.31
408.896	641.31
409.12	644.31
409.344	634.31
409.567	589.31
409.791	554.31
410.014	547.31
410.238	547.31
410.461	554.31
410.685	544.31
410.908	544.31
411.132	575.31
411.355	602.31
411.578	596.31
411.802	553.31
412.025	526.31
412.249	552.31
412.472	529.31
412.695	544.31
412.919	547.31
413.142	520.31
413.365	523.31
413.589	525.31
413.812	528.31
414.035	535.31
414.258	526.31
414.482	508.31
414.705	503.31
414.928	508.31
415.151	516.31
415.374	514.31
415.597	497.31
415.821	501.31
416.044	510.31
416.267	517.31
416.49	522.31
416.713	520.31
416.936	523.31
417.159	527.31
417.382	517.31
417.605	529.31
417.828	506.31
418.051	545.31
418.274	504.31
418.497	516.31
418.72	522.31
418.943	504.31
419.166	530.31
419.389	561.31
419.611	542.31
419.834	539.31
420.057	531.31
420.28	544.31
420.503	521.31
420.726	517.31
420.948	551.31
421.171	588.31
421.394	588.31
421.617	562.31
421.839	537.31
422.062	549.31
422.285	544.31
422.507	590.31
422.73	682.31
422.953	651.31
423.175	592.31
423.398	540.31
423.621	542.31
423.843	567.31
424.066	577.31
424.288	583.31
424.511	594.31
424.733	633.31
424.956	710.31
425.178	692.31
425.401	679.31
425.623	678.31
425.846	625.31
426.068	589.31
426.291	552.31
426.513	564.31
426.735	583.31
426.958	607.31
427.18	699.31
427.402	812.31
427.625	929.31
427.847	763.31
428.069	662.31
428.292	618.31
428.514	576.31
428.736	556.31
428.958	541.31
429.181	520.31
429.403	524.31
429.625	556.31
429.847	583.31
430.069	633.31
430.292	647.31
430.514	574.31
430.736	522.31
430.958	525.31
431.18	513.31
431.402	503.31
431.624	486.31
431.846	484.31
432.068	495.31
432.29	497.31
432.512	504.31
432.734	516.31
432.956	519.31
433.178	524.31
433.4	537.31
433.622	518.31
433.844	524.31
434.066	504.31
434.287	518.31
434.509	518.31
434.731	530.31
434.953	533.31
435.175	534.31
435.397	558.31
435.618	574.31
435.84	634.31
436.062	733.31
436.284	780.31
436.505	654.31
436.727	582.31
436.949	557.31
437.17	514.31
437.392	536.31
437.614	553.31
437.835	570.31
438.057	647.31
438.278	758.31
438.5	748.31
438.721	847.31
438.943	851.31
439.165	638.31
439.386	584.31
439.608	557.31
439.829	557.31
440.05	600.31
440.272	640.31
440.493	618.31
440.715	553.31
440.936	545.31
441.158	546.31
441.379	518.31
441.6	545.31
441.822	545.31
442.043	598.31
442.264	697.31
442.486	741.31
442.707	625.31
442.928	610.31
443.149	597.31
443.371	597.31
443.592	666.31
443.813	729.31
444.034	793.31
444.255	679.31
444.476	606.31
444.698	599.31
444.919	568.31
445.14	633.31
445.361	638.31
445.582	631.31
445.803	666.31
446.024	787.31
446.245	749.31
446.466	696.31
446.687	627.31
446.908	582.31
447.129	559.31
447.35	520.31
447.571	524.31
447.792	510.31
448.013	538.31
448.234	545.31
448.455	616.31
448.675	688.31
448.896	842.31
449.117	700.31
449.338	670.31
449.559	773.31
449.779	853.31
450	710.31
450.221	586.31
450.442	554.31
450.662	532.31
450.883	514.31
451.104	534.31
451.324	502.31
451.545	494.31
451.766	474.31
451.986	493.31
452.207	483.31
452.428	486.31
452.648	472.31
452.869	476.31
453.089	492.31
453.31	496.31
453.53	480.31
453.751	483.31
453.971	488.31
454.192	485.31
454.412	485.31
454.633	473.31
454.853	478.31
455.073	474.31
455.294	496.31
455.514	551.31
455.734	553.31
455.955	497.31
456.175	474.31
456.395	454.31
456.616	469.31
456.836	453.31
457.056	457.31
457.276	431.31
457.497	429.31
457.717	447.31
457.937	461.31
458.157	480.31
458.377	475.31
458.598	507.31
458.818	545.31
459.038	605.31
459.258	618.31
459.478	536.31
459.698	528.31
459.918	481.31
460.138	522.31
460.358	502.31
460.578	528.31
460.798	524.31
461.018	509.31
461.238	512.31
461.458	508.31
461.678	495.31
461.898	516.31
462.118	510.31
462.338	548.31
462.558	538.31
462.777	534.31
462.997	559.31
463.217	562.31
463.437	592.31
463.657	564.31
463.876	553.31
464.096	547.31
464.316	567.31
464.536	555.31
464.755	558.31
464.975	559.31
465.195	597.31
465.414	631.31
465.634	595.31
465.854	541.31
466.073	522.31
466.293	504.31
466.512	497.31
466.732	508.31
466.951	473.31
467.171	510.31
467.391	486.31
467.61	513.31
467.829	522.31
468.049	520.31
468.268	486.31
468.488	487.31
468.707	484.31
468.927	457.31
469.146	462.31
469.365	488.31
469.585	479.31
469.804	495.31
470.023	526.31
470.243	493.31
470.462	475.31
470.681	514.31
470.901	525.31
471.12	495.31
471.339	497.31
471.558	513.31
471.777	488.31
471.997	487.31
472.216	477.31
472.435	478.31
472.654	510.31
472.873	465.31
473.092	488.31
473.311	497.31
473.53	505.31
473.749	500.31
473.968	554.31
474.187	624.31
474.406	637.31
474.625	544.31
474.844	517.31
475.063	502.31
475.282	506.31
475.501	505.31
475.72	524.31
475.939	475.31
476.158	493.31
476.377	480.31
476.596	521.31
476.814	520.31
477.033	529.31
477.252	527.31
477.471	540.31
477.69	531.31
477.908	528.31
478.127	542.31
478.346	560.31
478.564	541.31
478.783	554.31
479.002	572.31
479.22	572.31
479.439	581.31
479.658	598.31
479.876	606.31
480.095	595.31
480.313	625.31
480.532	603.31
480.751	604.31
480.969	606.31
481.188	609.31
481.406	605.31
481.624	590.31
481.843	578.31
482.061	598.31
482.28	568.31
482.498	575.31
482.717	597.31
482.935	590.31
483.153	572.31
483.372	578.31
483.59	577.31
483.808	612.31
484.027	578.31
484.245	592.31
484.463	593.31
484.681	584.31
484.9	591.31
485.118	601.31
485.336	585.31
485.554	591.31
485.772	619.31
485.99	607.31
486.209	607.31
486.427	633.31
486.645	617.31
486.863	614.31
487.081	624.31
487.299	640.31
487.517	622.31
487.735	633.31
487.953	644.31
488.171	630.31
488.389	636.31
488.607	641.31
488.825	654.31
489.043	646.31
489.261	635.31
489.479	636.31
489.696	613.31
489.914	617.31
490.132	626.31
490.35	644.31
490.568	640.31
490.786	640.31
491.003	649.31
491.221	679.31
491.439	668.31
491.657	685.31
491.874	702.31
492.092	686.31
492.31	696.31
492.527	707.31
492.745	669.31
492.963	698.31
493.18	712.31
493.398	693.31
493.615	719.31
493.833	705.31
494.05	715.31
494.268	706.31
494.485	688.31
494.703	696.31
494.92	732.31
495.138	748.31
495.355	735.31
495.573	727.31
495.79	742.31
496.008	728.31
496.225	735.31
496.442	730.31
496.66	722.31
496.877	754.31
497.094	746.31
497.312	728.31
497.529	750.31
497.746	765.31
497.963	759.31
498.181	798.31
498.398	814.31
498.615	830.31
498.832	857.31
499.049	852.31
499.267	894.31
499.484	924.31
499.701	951.31
499.918	973.31
500.135	1009.31
500.352	1008.31
500.569	1025.31
500.786	1027.31
501.003	1022.31
501.22	1034.31
501.437	1005.31
501.654	919.31
501.871	972.31
