Data from 1988.PennyLincolnUp.Lamp.En5.5.200Scan.071819.P2_HRD10591_17-18-59-971.txt Node
Date: Thu Jul 18 17:18:59 EDT 2019
User: cochatt
Spectrometer: HR+D1059
Trigger mode: 1
Integration Time (sec): 1.000000E-1
Scans to average: 1
Electric dark correction enabled: true
Nonlinearity correction enabled: false
Boxcar width: 0
XAxis mode: Wavelengths
Number of Pixels in Spectrum: 2048
>>>>>Begin Spectral Data<<<<<
223.165	-9.31
223.4	-9.31
223.635	-9.31
223.869	-7.31
224.104	-21.31
224.338	-11.31
224.573	-30.31
224.808	-11.31
225.042	-3.31
225.277	1.69
225.511	-5.31
225.746	4.69
225.98	-7.31
226.215	3.69
226.449	17.69
226.683	25.69
226.918	29.69
227.152	23.69
227.387	34.69
227.621	21.69
227.856	41.69
228.09	28.69
228.324	48.69
228.559	55.69
228.793	70.69
229.027	93.69
229.262	91.69
229.496	113.69
229.73	126.69
229.964	148.69
230.199	117.69
230.433	109.69
230.667	102.69
230.901	118.69
231.136	101.69
231.37	108.69
231.604	98.69
231.838	120.69
232.072	93.69
232.306	124.69
232.541	96.69
232.775	103.69
233.009	102.69
233.243	111.69
233.477	111.69
233.711	114.69
233.945	117.69
234.179	95.69
234.413	116.69
234.647	107.69
234.881	110.69
235.115	113.69
235.349	119.69
235.583	125.69
235.817	111.69
236.051	139.69
236.285	125.69
236.519	120.69
236.753	130.69
236.987	138.69
237.221	174.69
237.455	241.69
237.689	190.69
237.922	144.69
238.156	130.69
238.39	141.69
238.624	110.69
238.858	116.69
239.091	124.69
239.325	121.69
239.559	117.69
239.793	134.69
240.027	122.69
240.26	151.69
240.494	154.69
240.728	153.69
240.961	166.69
241.195	133.69
241.429	123.69
241.662	142.69
241.896	141.69
242.13	133.69
242.363	122.69
242.597	137.69
242.83	133.69
243.064	144.69
243.298	132.69
243.531	134.69
243.765	151.69
243.998	130.69
244.232	133.69
244.465	150.69
244.699	153.69
244.932	138.69
245.166	147.69
245.399	148.69
245.633	152.69
245.866	140.69
246.099	141.69
246.333	153.69
246.566	142.69
246.8	125.69
247.033	152.69
247.266	153.69
247.5	153.69
247.733	160.69
247.966	165.69
248.2	160.69
248.433	159.69
248.666	155.69
248.899	165.69
249.133	197.69
249.366	196.69
249.599	186.69
249.832	174.69
250.066	169.69
250.299	174.69
250.532	186.69
250.765	188.69
250.998	203.69
251.231	211.69
251.465	201.69
251.698	197.69
251.931	196.69
252.164	195.69
252.397	189.69
252.63	198.69
252.863	201.69
253.096	209.69
253.329	200.69
253.562	210.69
253.795	206.69
254.028	222.69
254.261	208.69
254.494	223.69
254.727	233.69
254.96	271.69
255.193	252.69
255.426	242.69
255.659	231.69
255.892	213.69
256.124	190.69
256.357	206.69
256.59	213.69
256.823	204.69
257.056	202.69
257.289	180.69
257.521	201.69
257.754	206.69
257.987	216.69
258.22	188.69
258.452	192.69
258.685	207.69
258.918	201.69
259.151	199.69
259.383	213.69
259.616	199.69
259.849	216.69
260.081	229.69
260.314	241.69
260.547	254.69
260.779	218.69
261.012	232.69
261.244	217.69
261.477	217.69
261.71	212.69
261.942	215.69
262.175	202.69
262.407	220.69
262.64	211.69
262.872	218.69
263.105	194.69
263.337	203.69
263.57	200.69
263.802	202.69
264.035	203.69
264.267	194.69
264.499	210.69
264.732	207.69
264.964	201.69
265.197	201.69
265.429	199.69
265.661	205.69
265.894	207.69
266.126	219.69
266.358	216.69
266.591	212.69
266.823	213.69
267.055	226.69
267.287	221.69
267.52	217.69
267.752	239.69
267.984	222.69
268.216	231.69
268.448	222.69
268.681	233.69
268.913	243.69
269.145	256.69
269.377	261.69
269.609	257.69
269.841	274.69
270.073	257.69
270.306	273.69
270.538	295.69
270.77	292.69
271.002	282.69
271.234	277.69
271.466	279.69
271.698	304.69
271.93	287.69
272.162	294.69
272.394	297.69
272.626	296.69
272.858	292.69
273.09	282.69
273.322	259.69
273.553	235.69
273.785	254.69
274.017	245.69
274.249	256.69
274.481	266.69
274.713	268.69
274.945	261.69
275.176	270.69
275.408	245.69
275.64	253.69
275.872	253.69
276.104	266.69
276.335	250.69
276.567	294.69
276.799	280.69
277.031	279.69
277.262	311.69
277.494	302.69
277.726	293.69
277.957	289.69
278.189	269.69
278.421	276.69
278.652	257.69
278.884	289.69
279.115	259.69
279.347	250.69
279.579	253.69
279.81	282.69
280.042	276.69
280.273	256.69
280.505	262.69
280.736	256.69
280.968	270.69
281.199	287.69
281.431	255.69
281.662	269.69
281.894	276.69
282.125	279.69
282.356	295.69
282.588	304.69
282.819	297.69
283.051	283.69
283.282	289.69
283.513	271.69
283.745	274.69
283.976	293.69
284.207	267.69
284.439	278.69
284.67	282.69
284.901	275.69
285.132	269.69
285.364	270.69
285.595	274.69
285.826	278.69
286.057	270.69
286.288	282.69
286.52	283.69
286.751	280.69
286.982	274.69
287.213	281.69
287.444	273.69
287.675	285.69
287.906	303.69
288.138	301.69
288.369	307.69
288.6	307.69
288.831	317.69
289.062	304.69
289.293	290.69
289.524	284.69
289.755	309.69
289.986	295.69
290.217	294.69
290.448	279.69
290.679	292.69
290.91	284.69
291.141	289.69
291.371	284.69
291.602	296.69
291.833	298.69
292.064	286.69
292.295	286.69
292.526	279.69
292.757	280.69
292.987	277.69
293.218	293.69
293.449	296.69
293.68	287.69
293.91	290.69
294.141	291.69
294.372	289.69
294.603	281.69
294.833	284.69
295.064	306.69
295.295	298.69
295.525	304.69
295.756	302.69
295.987	314.69
296.217	328.69
296.448	315.69
296.679	310.69
296.909	308.69
297.14	292.69
297.37	297.69
297.601	297.69
297.831	308.69
298.062	307.69
298.292	299.69
298.523	306.69
298.753	319.69
298.984	292.69
299.214	302.69
299.445	312.69
299.675	314.69
299.905	300.69
300.136	303.69
300.366	316.69
300.597	338.69
300.827	337.69
301.057	333.69
301.288	326.69
301.518	319.69
301.748	321.69
301.979	324.69
302.209	343.69
302.439	327.69
302.669	337.69
302.9	338.69
303.13	323.69
303.36	341.69
303.59	319.69
303.82	330.69
304.051	328.69
304.281	338.69
304.511	328.69
304.741	316.69
304.971	334.69
305.201	341.69
305.431	331.69
305.661	340.69
305.891	354.69
306.121	339.69
306.352	338.69
306.582	329.69
306.812	327.69
307.042	312.69
307.272	340.69
307.502	336.69
307.731	355.69
307.961	333.69
308.191	325.69
308.421	325.69
308.651	334.69
308.881	354.69
309.111	351.69
309.341	353.69
309.571	382.69
309.8	376.69
310.03	361.69
310.26	376.69
310.49	365.69
310.72	376.69
310.949	394.69
311.179	408.69
311.409	383.69
311.639	392.69
311.868	371.69
312.098	395.69
312.328	389.69
312.557	410.69
312.787	394.69
313.017	416.69
313.246	393.69
313.476	400.69
313.706	384.69
313.935	399.69
314.165	394.69
314.394	410.69
314.624	394.69
314.853	393.69
315.083	380.69
315.312	383.69
315.542	373.69
315.771	384.69
316.001	386.69
316.23	399.69
316.46	386.69
316.689	376.69
316.919	405.69
317.148	389.69
317.377	411.69
317.607	382.69
317.836	386.69
318.065	382.69
318.295	393.69
318.524	382.69
318.753	375.69
318.983	389.69
319.212	391.69
319.441	383.69
319.67	400.69
319.9	400.69
320.129	372.69
320.358	382.69
320.587	390.69
320.816	393.69
321.046	398.69
321.275	406.69
321.504	413.69
321.733	422.69
321.962	414.69
322.191	443.69
322.42	420.69
322.649	450.69
322.878	462.69
323.108	443.69
323.337	496.69
323.566	494.69
323.795	507.69
324.024	574.69
324.253	690.69
324.482	967.69
324.71	1505.69
324.939	2176.69
325.168	1850.69
325.397	969.69
325.626	652.69
325.855	556.69
326.084	515.69
326.313	493.69
326.542	509.69
326.77	548.69
326.999	661.69
327.228	871.69
327.457	1346.69
327.686	1656.69
327.914	1089.69
328.143	701.69
328.372	620.69
328.6	551.69
328.829	541.69
329.058	577.69
329.287	586.69
329.515	538.69
329.744	529.69
329.972	495.69
330.201	512.69
330.43	521.69
330.658	557.69
330.887	586.69
331.115	596.69
331.344	516.69
331.572	475.69
331.801	486.69
332.03	489.69
332.258	480.69
332.486	462.69
332.715	446.69
332.943	451.69
333.172	454.69
333.4	455.69
333.629	481.69
333.857	483.69
334.085	480.69
334.314	464.69
334.542	446.69
334.771	472.69
334.999	471.69
335.227	481.69
335.455	475.69
335.684	445.69
335.912	446.69
336.14	443.69
336.369	444.69
336.597	459.69
336.825	462.69
337.053	481.69
337.281	452.69
337.51	430.69
337.738	456.69
337.966	409.69
338.194	440.69
338.422	455.69
338.65	455.69
338.878	442.69
339.106	436.69
339.334	452.69
339.562	442.69
339.79	447.69
340.018	401.69
340.246	433.69
340.474	442.69
340.702	443.69
340.93	445.69
341.158	463.69
341.386	446.69
341.614	446.69
341.842	429.69
342.07	420.69
342.298	420.69
342.526	417.69
342.754	432.69
342.981	422.69
343.209	414.69
343.437	410.69
343.665	455.69
343.893	483.69
344.12	444.69
344.348	426.69
344.576	440.69
344.804	460.69
345.031	452.69
345.259	478.69
345.487	438.69
345.714	441.69
345.942	435.69
346.17	448.69
346.397	409.69
346.625	440.69
346.853	422.69
347.08	417.69
347.308	406.69
347.535	421.69
347.763	444.69
347.99	438.69
348.218	445.69
348.445	443.69
348.673	440.69
348.9	419.69
349.128	430.69
349.355	426.69
349.583	422.69
349.81	417.69
350.037	413.69
350.265	401.69
350.492	412.69
350.72	403.69
350.947	433.69
351.174	430.69
351.402	444.69
351.629	437.69
351.856	421.69
352.083	422.69
352.311	451.69
352.538	443.69
352.765	446.69
352.992	425.69
353.22	434.69
353.447	440.69
353.674	389.69
353.901	412.69
354.128	404.69
354.355	400.69
354.583	405.69
354.81	404.69
355.037	406.69
355.264	400.69
355.491	375.69
355.718	393.69
355.945	391.69
356.172	394.69
356.399	378.69
356.626	391.69
356.853	394.69
357.08	381.69
357.307	388.69
357.534	400.69
357.761	397.69
357.988	409.69
358.215	403.69
358.441	392.69
358.668	390.69
358.895	408.69
359.122	410.69
359.349	417.69
359.576	420.69
359.802	444.69
360.029	460.69
360.256	470.69
360.483	466.69
360.709	426.69
360.936	418.69
361.163	432.69
361.39	426.69
361.616	418.69
361.843	444.69
362.07	420.69
362.296	414.69
362.523	436.69
362.749	441.69
362.976	423.69
363.203	414.69
363.429	417.69
363.656	413.69
363.882	425.69
364.109	414.69
364.335	420.69
364.562	402.69
364.788	407.69
365.015	415.69
365.241	405.69
365.468	410.69
365.694	432.69
365.92	413.69
366.147	403.69
366.373	401.69
366.599	408.69
366.826	409.69
367.052	405.69
367.278	410.69
367.505	420.69
367.731	417.69
367.957	391.69
368.184	394.69
368.41	402.69
368.636	428.69
368.862	422.69
369.089	418.69
369.315	413.69
369.541	410.69
369.767	414.69
369.993	415.69
370.219	410.69
370.445	398.69
370.672	403.69
370.898	421.69
371.124	398.69
371.35	422.69
371.576	403.69
371.802	401.69
372.028	398.69
372.254	405.69
372.48	418.69
372.706	413.69
372.932	416.69
373.158	402.69
373.384	419.69
373.61	417.69
373.835	407.69
374.061	405.69
374.287	415.69
374.513	418.69
374.739	413.69
374.965	407.69
375.191	412.69
375.416	425.69
375.642	428.69
375.868	404.69
376.094	403.69
376.319	419.69
376.545	411.69
376.771	402.69
376.997	393.69
377.222	418.69
377.448	416.69
377.674	378.69
377.899	405.69
378.125	383.69
378.35	401.69
378.576	382.69
378.802	407.69
379.027	416.69
379.253	409.69
379.478	406.69
379.704	392.69
379.929	422.69
380.155	422.69
380.38	404.69
380.606	402.69
380.831	423.69
381.057	410.69
381.282	400.69
381.507	408.69
381.733	415.69
381.958	407.69
382.184	387.69
382.409	410.69
382.634	429.69
382.86	428.69
383.085	446.69
383.31	427.69
383.535	433.69
383.761	412.69
383.986	412.69
384.211	441.69
384.436	416.69
384.662	412.69
384.887	446.69
385.112	436.69
385.337	433.69
385.562	443.69
385.787	452.69
386.013	461.69
386.238	466.69
386.463	447.69
386.688	448.69
386.913	441.69
387.138	442.69
387.363	443.69
387.588	438.69
387.813	445.69
388.038	443.69
388.263	448.69
388.488	466.69
388.713	420.69
388.938	430.69
389.163	455.69
389.387	456.69
389.612	437.69
389.837	444.69
390.062	445.69
390.287	424.69
390.512	447.69
390.736	449.69
390.961	454.69
391.186	445.69
391.411	423.69
391.636	428.69
391.86	460.69
392.085	449.69
392.31	473.69
392.534	462.69
392.759	475.69
392.984	466.69
393.208	466.69
393.433	450.69
393.658	452.69
393.882	466.69
394.107	461.69
394.331	459.69
394.556	431.69
394.78	483.69
395.005	461.69
395.229	466.69
395.454	458.69
395.678	480.69
395.903	500.69
396.127	513.69
396.352	487.69
396.576	473.69
396.801	476.69
397.025	479.69
397.249	474.69
397.474	476.69
397.698	483.69
397.922	498.69
398.147	497.69
398.371	514.69
398.595	496.69
398.82	502.69
399.044	513.69
399.268	527.69
399.492	573.69
399.717	615.69
399.941	624.69
400.165	652.69
400.389	645.69
400.613	592.69
400.837	563.69
401.062	539.69
401.286	536.69
401.51	511.69
401.734	494.69
401.958	522.69
402.182	520.69
402.406	526.69
402.63	532.69
402.854	540.69
403.078	520.69
403.302	534.69
403.526	540.69
403.75	534.69
403.974	542.69
404.198	544.69
404.422	543.69
404.645	540.69
404.869	560.69
405.093	552.69
405.317	571.69
405.541	603.69
405.765	559.69
405.988	565.69
406.212	567.69
406.436	592.69
406.66	599.69
406.883	586.69
407.107	601.69
407.331	633.69
407.555	689.69
407.778	720.69
408.002	639.69
408.226	591.69
408.449	590.69
408.673	620.69
408.896	617.69
409.12	640.69
409.344	633.69
409.567	541.69
409.791	562.69
410.014	542.69
410.238	529.69
410.461	545.69
410.685	550.69
410.908	544.69
411.132	592.69
411.355	633.69
411.578	596.69
411.802	547.69
412.025	533.69
412.249	545.69
412.472	543.69
412.695	537.69
412.919	516.69
413.142	521.69
413.365	523.69
413.589	525.69
413.812	516.69
414.035	508.69
414.258	517.69
414.482	483.69
414.705	506.69
414.928	489.69
415.151	510.69
415.374	504.69
415.597	513.69
415.821	512.69
416.044	494.69
416.267	504.69
416.49	508.69
416.713	509.69
416.936	484.69
417.159	520.69
417.382	497.69
417.605	488.69
417.828	504.69
418.051	539.69
418.274	506.69
418.497	513.69
418.72	512.69
418.943	502.69
419.166	525.69
419.389	532.69
419.611	535.69
419.834	521.69
420.057	558.69
420.28	503.69
420.503	518.69
420.726	493.69
420.948	527.69
421.171	580.69
421.394	593.69
421.617	558.69
421.839	547.69
422.062	533.69
422.285	545.69
422.507	610.69
422.73	700.69
422.953	654.69
423.175	572.69
423.398	550.69
423.621	532.69
423.843	546.69
424.066	566.69
424.288	564.69
424.511	590.69
424.733	648.69
424.956	744.69
425.178	708.69
425.401	706.69
425.623	715.69
425.846	632.69
426.068	576.69
426.291	561.69
426.513	565.69
426.735	587.69
426.958	602.69
427.18	696.69
427.402	840.69
427.625	924.69
427.847	784.69
428.069	655.69
428.292	604.69
428.514	562.69
428.736	567.69
428.958	550.69
429.181	532.69
429.403	528.69
429.625	520.69
429.847	568.69
430.069	639.69
430.292	630.69
430.514	537.69
430.736	560.69
430.958	499.69
431.18	507.69
431.402	512.69
431.624	469.69
431.846	488.69
432.068	492.69
432.29	480.69
432.512	477.69
432.734	526.69
432.956	502.69
433.178	537.69
433.4	517.69
433.622	501.69
433.844	488.69
434.066	507.69
434.287	478.69
434.509	510.69
434.731	509.69
434.953	510.69
435.175	538.69
435.397	569.69
435.618	569.69
435.84	623.69
436.062	707.69
436.284	800.69
436.505	616.69
436.727	596.69
436.949	543.69
437.17	537.69
437.392	513.69
437.614	536.69
437.835	577.69
438.057	665.69
438.278	782.69
438.5	768.69
438.721	835.69
438.943	826.69
439.165	661.69
439.386	589.69
439.608	573.69
439.829	590.69
440.05	592.69
440.272	647.69
440.493	628.69
440.715	568.69
440.936	528.69
441.158	519.69
441.379	526.69
441.6	547.69
441.822	581.69
442.043	606.69
442.264	701.69
442.486	744.69
442.707	644.69
442.928	570.69
443.149	563.69
443.371	594.69
443.592	645.69
443.813	741.69
444.034	806.69
444.255	673.69
444.476	587.69
444.698	578.69
444.919	579.69
445.14	663.69
445.361	622.69
445.582	605.69
445.803	670.69
446.024	767.69
446.245	788.69
446.466	717.69
446.687	612.69
446.908	596.69
447.129	536.69
447.35	537.69
447.571	536.69
447.792	514.69
448.013	525.69
448.234	542.69
448.455	591.69
448.675	720.69
448.896	824.69
449.117	709.69
449.338	665.69
449.559	782.69
449.779	898.69
450	716.69
450.221	577.69
450.442	536.69
450.662	500.69
450.883	521.69
451.104	546.69
451.324	526.69
451.545	489.69
451.766	477.69
451.986	468.69
452.207	482.69
452.428	470.69
452.648	481.69
452.869	483.69
453.089	484.69
453.31	475.69
453.53	485.69
453.751	480.69
453.971	485.69
454.192	490.69
454.412	500.69
454.633	480.69
454.853	461.69
455.073	465.69
455.294	495.69
455.514	568.69
455.734	544.69
455.955	464.69
456.175	473.69
456.395	450.69
456.616	438.69
456.836	441.69
457.056	424.69
457.276	445.69
457.497	468.69
457.717	460.69
457.937	439.69
458.157	448.69
458.377	458.69
458.598	480.69
458.818	540.69
459.038	610.69
459.258	634.69
459.478	548.69
459.698	505.69
459.918	502.69
460.138	489.69
460.358	524.69
460.578	495.69
460.798	514.69
461.018	513.69
461.238	520.69
461.458	509.69
461.678	512.69
461.898	533.69
462.118	517.69
462.338	511.69
462.558	532.69
462.777	563.69
462.997	536.69
463.217	548.69
463.437	572.69
463.657	582.69
463.876	560.69
464.096	548.69
464.316	537.69
464.536	549.69
464.755	561.69
464.975	562.69
465.195	586.69
465.414	640.69
465.634	564.69
465.854	565.69
466.073	515.69
466.293	497.69
466.512	514.69
466.732	488.69
466.951	473.69
467.171	492.69
467.391	504.69
467.61	510.69
467.829	495.69
468.049	493.69
468.268	494.69
468.488	470.69
468.707	469.69
468.927	467.69
469.146	479.69
469.365	470.69
469.585	471.69
469.804	488.69
470.023	498.69
470.243	487.69
470.462	521.69
470.681	509.69
470.901	517.69
471.12	494.69
471.339	487.69
471.558	482.69
471.777	489.69
471.997	489.69
472.216	488.69
472.435	514.69
472.654	481.69
472.873	472.69
473.092	481.69
473.311	485.69
473.53	504.69
473.749	506.69
473.968	535.69
474.187	655.69
474.406	655.69
474.625	547.69
474.844	518.69
475.063	494.69
475.282	498.69
475.501	494.69
475.72	483.69
475.939	480.69
476.158	502.69
476.377	531.69
476.596	495.69
476.814	542.69
477.033	536.69
477.252	558.69
477.471	535.69
477.69	504.69
477.908	554.69
478.127	550.69
478.346	529.69
478.564	556.69
478.783	564.69
479.002	555.69
479.22	593.69
479.439	580.69
479.658	596.69
479.876	612.69
480.095	609.69
480.313	624.69
480.532	652.69
480.751	597.69
480.969	601.69
481.188	610.69
481.406	598.69
481.624	593.69
481.843	577.69
482.061	592.69
482.28	566.69
482.498	572.69
482.717	587.69
482.935	577.69
483.153	596.69
483.372	572.69
483.59	560.69
483.808	578.69
484.027	564.69
484.245	578.69
484.463	599.69
484.681	578.69
484.9	593.69
485.118	600.69
485.336	591.69
485.554	608.69
485.772	609.69
485.99	587.69
486.209	600.69
486.427	610.69
486.645	620.69
486.863	638.69
487.081	627.69
487.299	609.69
487.517	632.69
487.735	616.69
487.953	612.69
488.171	625.69
488.389	607.69
488.607	618.69
488.825	645.69
489.043	633.69
489.261	620.69
489.479	610.69
489.696	632.69
489.914	629.69
490.132	625.69
490.35	655.69
490.568	634.69
490.786	662.69
491.003	680.69
491.221	691.69
491.439	720.69
491.657	663.69
491.874	695.69
492.092	690.69
492.31	700.69
492.527	722.69
492.745	692.69
492.963	686.69
493.18	686.69
493.398	705.69
493.615	704.69
493.833	720.69
494.05	719.69
494.268	720.69
494.485	706.69
494.703	725.69
494.92	701.69
495.138	739.69
495.355	752.69
495.573	737.69
495.79	741.69
496.008	748.69
496.225	743.69
496.442	762.69
496.66	750.69
496.877	741.69
497.094	736.69
497.312	732.69
497.529	763.69
497.746	764.69
497.963	782.69
498.181	812.69
498.398	802.69
498.615	836.69
498.832	850.69
499.049	839.69
499.267	841.69
499.484	878.69
499.701	916.69
499.918	932.69
500.135	1009.69
500.352	1047.69
500.569	1063.69
500.786	1033.69
501.003	1018.69
501.22	1006.69
501.437	976.69
501.654	948.69
501.871	944.69
502.088	903.69
