Data from 1988.PennyLincolnUp.Lamp.En5.5.200Scan.071819.P2_HRD10591_17-20-55-972.txt Node
Date: Thu Jul 18 17:20:55 EDT 2019
User: cochatt
Spectrometer: HR+D1059
Trigger mode: 1
Integration Time (sec): 1.000000E-1
Scans to average: 1
Electric dark correction enabled: true
Nonlinearity correction enabled: false
Boxcar width: 0
XAxis mode: Wavelengths
Number of Pixels in Spectrum: 2048
>>>>>Begin Spectral Data<<<<<
223.165	-8.38
223.4	-8.38
223.635	-8.38
223.869	-23.38
224.104	-19.38
224.338	-19.38
224.573	-8.38
224.808	-14.38
225.042	-4.38
225.277	-1.38
225.511	-3.38
225.746	10.62
225.98	7.62
226.215	17.62
226.449	14.62
226.683	12.62
226.918	23.62
227.152	15.62
227.387	25.62
227.621	29.62
227.856	38.62
228.09	44.62
228.324	56.62
228.559	49.62
228.793	75.62
229.027	100.62
229.262	104.62
229.496	125.62
229.73	151.62
229.964	175.62
230.199	126.62
230.433	131.62
230.667	129.62
230.901	107.62
231.136	127.62
231.37	119.62
231.604	121.62
231.838	130.62
232.072	127.62
232.306	111.62
232.541	119.62
232.775	116.62
233.009	117.62
233.243	133.62
233.477	126.62
233.711	139.62
233.945	137.62
234.179	129.62
234.413	112.62
234.647	124.62
234.881	116.62
235.115	124.62
235.349	123.62
235.583	127.62
235.817	119.62
236.051	125.62
236.285	140.62
236.519	130.62
236.753	147.62
236.987	155.62
237.221	178.62
237.455	261.62
237.689	198.62
237.922	150.62
238.156	156.62
238.39	130.62
238.624	129.62
238.858	137.62
239.091	134.62
239.325	127.62
239.559	134.62
239.793	137.62
240.027	143.62
240.26	142.62
240.494	160.62
240.728	161.62
240.961	151.62
241.195	158.62
241.429	153.62
241.662	154.62
241.896	140.62
242.13	121.62
242.363	149.62
242.597	146.62
242.83	137.62
243.064	147.62
243.298	148.62
243.531	165.62
243.765	150.62
243.998	123.62
244.232	155.62
244.465	152.62
244.699	161.62
244.932	171.62
245.166	140.62
245.399	154.62
245.633	141.62
245.866	149.62
246.099	153.62
246.333	177.62
246.566	173.62
246.8	166.62
247.033	173.62
247.266	161.62
247.5	174.62
247.733	193.62
247.966	173.62
248.2	195.62
248.433	186.62
248.666	197.62
248.899	205.62
249.133	192.62
249.366	217.62
249.599	203.62
249.832	198.62
250.066	201.62
250.299	196.62
250.532	207.62
250.765	218.62
250.998	236.62
251.231	255.62
251.465	250.62
251.698	217.62
251.931	214.62
252.164	207.62
252.397	211.62
252.63	210.62
252.863	247.62
253.096	251.62
253.329	251.62
253.562	236.62
253.795	217.62
254.028	235.62
254.261	237.62
254.494	258.62
254.727	282.62
254.96	301.62
255.193	308.62
255.426	257.62
255.659	261.62
255.892	239.62
256.124	237.62
256.357	259.62
256.59	223.62
256.823	225.62
257.056	224.62
257.289	220.62
257.521	227.62
257.754	228.62
257.987	220.62
258.22	231.62
258.452	230.62
258.685	227.62
258.918	225.62
259.151	221.62
259.383	234.62
259.616	250.62
259.849	241.62
260.081	252.62
260.314	300.62
260.547	273.62
260.779	268.62
261.012	253.62
261.244	238.62
261.477	271.62
261.71	238.62
261.942	250.62
262.175	260.62
262.407	253.62
262.64	231.62
262.872	228.62
263.105	237.62
263.337	230.62
263.57	234.62
263.802	235.62
264.035	229.62
264.267	242.62
264.499	223.62
264.732	234.62
264.964	253.62
265.197	228.62
265.429	233.62
265.661	235.62
265.894	234.62
266.126	255.62
266.358	243.62
266.591	222.62
266.823	245.62
267.055	251.62
267.287	248.62
267.52	259.62
267.752	251.62
267.984	225.62
268.216	245.62
268.448	246.62
268.681	250.62
268.913	285.62
269.145	272.62
269.377	307.62
269.609	303.62
269.841	290.62
270.073	297.62
270.306	338.62
270.538	358.62
270.77	349.62
271.002	323.62
271.234	317.62
271.466	309.62
271.698	335.62
271.93	334.62
272.162	337.62
272.394	342.62
272.626	341.62
272.858	330.62
273.09	326.62
273.322	320.62
273.553	311.62
273.785	301.62
274.017	295.62
274.249	292.62
274.481	300.62
274.713	301.62
274.945	288.62
275.176	283.62
275.408	301.62
275.64	297.62
275.872	276.62
276.104	297.62
276.335	318.62
276.567	314.62
276.799	320.62
277.031	325.62
277.262	320.62
277.494	351.62
277.726	344.62
277.957	320.62
278.189	319.62
278.421	309.62
278.652	314.62
278.884	300.62
279.115	298.62
279.347	282.62
279.579	284.62
279.81	297.62
280.042	296.62
280.273	294.62
280.505	297.62
280.736	301.62
280.968	292.62
281.199	299.62
281.431	297.62
281.662	288.62
281.894	299.62
282.125	285.62
282.356	318.62
282.588	350.62
282.819	346.62
283.051	323.62
283.282	309.62
283.513	286.62
283.745	305.62
283.976	314.62
284.207	313.62
284.439	311.62
284.67	316.62
284.901	309.62
285.132	294.62
285.364	298.62
285.595	320.62
285.826	307.62
286.057	293.62
286.288	301.62
286.52	297.62
286.751	314.62
286.982	309.62
287.213	295.62
287.444	310.62
287.675	335.62
287.906	315.62
288.138	330.62
288.369	343.62
288.6	325.62
288.831	344.62
289.062	323.62
289.293	317.62
289.524	324.62
289.755	334.62
289.986	316.62
290.217	331.62
290.448	318.62
290.679	319.62
290.91	315.62
291.141	320.62
291.371	316.62
291.602	325.62
291.833	335.62
292.064	322.62
292.295	307.62
292.526	323.62
292.757	307.62
292.987	297.62
293.218	318.62
293.449	333.62
293.68	336.62
293.91	331.62
294.141	319.62
294.372	316.62
294.603	321.62
294.833	337.62
295.064	323.62
295.295	335.62
295.525	338.62
295.756	343.62
295.987	341.62
296.217	373.62
296.448	381.62
296.679	348.62
296.909	335.62
297.14	310.62
297.37	322.62
297.601	356.62
297.831	324.62
298.062	331.62
298.292	335.62
298.523	347.62
298.753	347.62
298.984	352.62
299.214	346.62
299.445	348.62
299.675	345.62
299.905	343.62
300.136	351.62
300.366	349.62
300.597	331.62
300.827	354.62
301.057	353.62
301.288	365.62
301.518	366.62
301.748	374.62
301.979	375.62
302.209	358.62
302.439	351.62
302.669	359.62
302.9	361.62
303.13	372.62
303.36	366.62
303.59	391.62
303.82	384.62
304.051	398.62
304.281	385.62
304.511	358.62
304.741	358.62
304.971	358.62
305.201	370.62
305.431	363.62
305.661	364.62
305.891	394.62
306.121	362.62
306.352	377.62
306.582	358.62
306.812	379.62
307.042	371.62
307.272	377.62
307.502	370.62
307.731	371.62
307.961	380.62
308.191	356.62
308.421	362.62
308.651	386.62
308.881	371.62
309.111	389.62
309.341	391.62
309.571	403.62
309.8	415.62
310.03	410.62
310.26	415.62
310.49	422.62
310.72	425.62
310.949	451.62
311.179	444.62
311.409	419.62
311.639	403.62
311.868	408.62
312.098	438.62
312.328	456.62
312.557	461.62
312.787	459.62
313.017	463.62
313.246	462.62
313.476	442.62
313.706	425.62
313.935	439.62
314.165	454.62
314.394	457.62
314.624	468.62
314.853	433.62
315.083	427.62
315.312	423.62
315.542	420.62
315.771	439.62
316.001	400.62
316.23	420.62
316.46	439.62
316.689	419.62
316.919	439.62
317.148	431.62
317.377	431.62
317.607	445.62
317.836	441.62
318.065	429.62
318.295	396.62
318.524	443.62
318.753	433.62
318.983	431.62
319.212	435.62
319.441	426.62
319.67	460.62
319.9	443.62
320.129	432.62
320.358	427.62
320.587	461.62
320.816	430.62
321.046	474.62
321.275	457.62
321.504	455.62
321.733	468.62
321.962	483.62
322.191	499.62
322.42	481.62
322.649	499.62
322.878	513.62
323.108	541.62
323.337	557.62
323.566	586.62
323.795	601.62
324.024	663.62
324.253	807.62
324.482	1124.62
324.71	1843.62
324.939	2696.62
325.168	2333.62
325.397	1159.62
325.626	783.62
325.855	655.62
326.084	587.62
326.313	557.62
326.542	597.62
326.77	656.62
326.999	772.62
327.228	1029.62
327.457	1633.62
327.686	2028.62
327.914	1308.62
328.143	834.62
328.372	715.62
328.6	679.62
328.829	599.62
329.058	681.62
329.287	674.62
329.515	643.62
329.744	580.62
329.972	559.62
330.201	575.62
330.43	619.62
330.658	676.62
330.887	685.62
331.115	692.62
331.344	586.62
331.572	575.62
331.801	565.62
332.03	586.62
332.258	552.62
332.486	530.62
332.715	499.62
332.943	521.62
333.172	509.62
333.4	517.62
333.629	531.62
333.857	531.62
334.085	553.62
334.314	543.62
334.542	525.62
334.771	556.62
334.999	544.62
335.227	518.62
335.455	526.62
335.684	517.62
335.912	522.62
336.14	525.62
336.369	511.62
336.597	531.62
336.825	508.62
337.053	544.62
337.281	491.62
337.51	515.62
337.738	495.62
337.966	523.62
338.194	503.62
338.422	483.62
338.65	501.62
338.878	485.62
339.106	513.62
339.334	487.62
339.562	471.62
339.79	482.62
340.018	492.62
340.246	493.62
340.474	497.62
340.702	490.62
340.93	492.62
341.158	489.62
341.386	501.62
341.614	501.62
341.842	499.62
342.07	486.62
342.298	471.62
342.526	472.62
342.754	481.62
342.981	459.62
343.209	467.62
343.437	479.62
343.665	489.62
343.893	513.62
344.12	523.62
344.348	519.62
344.576	506.62
344.804	509.62
345.031	502.62
345.259	534.62
345.487	521.62
345.714	493.62
345.942	478.62
346.17	485.62
346.397	488.62
346.625	486.62
346.853	477.62
347.08	468.62
347.308	501.62
347.535	489.62
347.763	490.62
347.99	497.62
348.218	468.62
348.445	506.62
348.673	498.62
348.9	483.62
349.128	492.62
349.355	461.62
349.583	479.62
349.81	470.62
350.037	458.62
350.265	456.62
350.492	450.62
350.72	457.62
350.947	469.62
351.174	501.62
351.402	497.62
351.629	498.62
351.856	487.62
352.083	478.62
352.311	494.62
352.538	527.62
352.765	493.62
352.992	498.62
353.22	491.62
353.447	486.62
353.674	484.62
353.901	477.62
354.128	478.62
354.355	473.62
354.583	463.62
354.81	456.62
355.037	440.62
355.264	451.62
355.491	447.62
355.718	441.62
355.945	444.62
356.172	423.62
356.399	442.62
356.626	441.62
356.853	436.62
357.08	462.62
357.307	454.62
357.534	451.62
357.761	459.62
357.988	469.62
358.215	456.62
358.441	457.62
358.668	454.62
358.895	468.62
359.122	493.62
359.349	492.62
359.576	501.62
359.802	510.62
360.029	527.62
360.256	535.62
360.483	543.62
360.709	495.62
360.936	500.62
361.163	478.62
361.39	478.62
361.616	475.62
361.843	490.62
362.07	475.62
362.296	503.62
362.523	507.62
362.749	477.62
362.976	481.62
363.203	490.62
363.429	488.62
363.656	445.62
363.882	490.62
364.109	478.62
364.335	469.62
364.562	487.62
364.788	461.62
365.015	468.62
365.241	456.62
365.468	472.62
365.694	461.62
365.92	466.62
366.147	457.62
366.373	470.62
366.599	461.62
366.826	466.62
367.052	461.62
367.278	469.62
367.505	467.62
367.731	481.62
367.957	460.62
368.184	447.62
368.41	465.62
368.636	483.62
368.862	498.62
369.089	481.62
369.315	478.62
369.541	463.62
369.767	482.62
369.993	458.62
370.219	466.62
370.445	464.62
370.672	454.62
370.898	468.62
371.124	453.62
371.35	465.62
371.576	458.62
371.802	445.62
372.028	462.62
372.254	470.62
372.48	479.62
372.706	466.62
372.932	479.62
373.158	475.62
373.384	484.62
373.61	479.62
373.835	475.62
374.061	463.62
374.287	487.62
374.513	473.62
374.739	474.62
374.965	472.62
375.191	464.62
375.416	466.62
375.642	474.62
375.868	462.62
376.094	457.62
376.319	480.62
376.545	471.62
376.771	472.62
376.997	479.62
377.222	491.62
377.448	465.62
377.674	482.62
377.899	472.62
378.125	471.62
378.35	487.62
378.576	459.62
378.802	448.62
379.027	469.62
379.253	466.62
379.478	478.62
379.704	488.62
379.929	471.62
380.155	482.62
380.38	477.62
380.606	478.62
380.831	471.62
381.057	459.62
381.282	474.62
381.507	488.62
381.733	474.62
381.958	485.62
382.184	469.62
382.409	474.62
382.634	490.62
382.86	478.62
383.085	469.62
383.31	489.62
383.535	462.62
383.761	481.62
383.986	476.62
384.211	511.62
384.436	503.62
384.662	510.62
384.887	505.62
385.112	502.62
385.337	522.62
385.562	502.62
385.787	511.62
386.013	532.62
386.238	531.62
386.463	527.62
386.688	530.62
386.913	513.62
387.138	503.62
387.363	522.62
387.588	512.62
387.813	526.62
388.038	518.62
388.263	522.62
388.488	517.62
388.713	525.62
388.938	518.62
389.163	518.62
389.387	525.62
389.612	525.62
389.837	518.62
390.062	526.62
390.287	507.62
390.512	515.62
390.736	523.62
390.961	535.62
391.186	547.62
391.411	532.62
391.636	513.62
391.86	543.62
392.085	547.62
392.31	550.62
392.534	523.62
392.759	518.62
392.984	522.62
393.208	518.62
393.433	543.62
393.658	526.62
393.882	519.62
394.107	508.62
394.331	517.62
394.556	526.62
394.78	534.62
395.005	533.62
395.229	547.62
395.454	554.62
395.678	547.62
395.903	559.62
396.127	563.62
396.352	599.62
396.576	540.62
396.801	555.62
397.025	542.62
397.249	561.62
397.474	553.62
397.698	558.62
397.922	589.62
398.147	581.62
398.371	617.62
398.595	589.62
398.82	585.62
399.044	604.62
399.268	626.62
399.492	654.62
399.717	717.62
399.941	719.62
400.165	773.62
400.389	745.62
400.613	688.62
400.837	656.62
401.062	611.62
401.286	617.62
401.51	590.62
401.734	588.62
401.958	601.62
402.182	625.62
402.406	609.62
402.63	616.62
402.854	632.62
403.078	641.62
403.302	626.62
403.526	635.62
403.75	648.62
403.974	637.62
404.198	621.62
404.422	626.62
404.645	638.62
404.869	641.62
405.093	684.62
405.317	697.62
405.541	719.62
405.765	675.62
405.988	677.62
406.212	672.62
406.436	688.62
406.66	717.62
406.883	702.62
407.107	709.62
407.331	774.62
407.555	817.62
407.778	825.62
408.002	790.62
408.226	692.62
408.449	703.62
408.673	701.62
408.896	729.62
409.12	783.62
409.344	757.62
409.567	650.62
409.791	674.62
410.014	649.62
410.238	627.62
410.461	643.62
410.685	645.62
410.908	670.62
411.132	713.62
411.355	726.62
411.578	737.62
411.802	635.62
412.025	633.62
412.249	617.62
412.472	642.62
412.695	665.62
412.919	646.62
413.142	640.62
413.365	603.62
413.589	613.62
413.812	625.62
414.035	581.62
414.258	588.62
414.482	610.62
414.705	622.62
414.928	592.62
415.151	614.62
415.374	595.62
415.597	610.62
415.821	571.62
416.044	604.62
416.267	594.62
416.49	592.62
416.713	578.62
416.936	609.62
417.159	586.62
417.382	586.62
417.605	610.62
417.828	618.62
418.051	637.62
418.274	597.62
418.497	583.62
418.72	611.62
418.943	577.62
419.166	621.62
419.389	649.62
419.611	630.62
419.834	641.62
420.057	631.62
420.28	658.62
420.503	615.62
420.726	632.62
420.948	631.62
421.171	689.62
421.394	734.62
421.617	674.62
421.839	641.62
422.062	647.62
422.285	637.62
422.507	726.62
422.73	821.62
422.953	780.62
423.175	695.62
423.398	673.62
423.621	647.62
423.843	671.62
424.066	678.62
424.288	691.62
424.511	697.62
424.733	753.62
424.956	874.62
425.178	797.62
425.401	800.62
425.623	840.62
425.846	749.62
426.068	697.62
426.291	676.62
426.513	660.62
426.735	681.62
426.958	749.62
427.18	833.62
427.402	989.62
427.625	1121.62
427.847	967.62
428.069	823.62
428.292	734.62
428.514	657.62
428.736	629.62
428.958	669.62
429.181	621.62
429.403	613.62
429.625	630.62
429.847	661.62
430.069	753.62
430.292	737.62
430.514	627.62
430.736	624.62
430.958	636.62
431.18	612.62
431.402	610.62
431.624	595.62
431.846	591.62
432.068	572.62
432.29	599.62
432.512	616.62
432.734	602.62
432.956	592.62
433.178	622.62
433.4	605.62
433.622	585.62
433.844	574.62
434.066	595.62
434.287	612.62
434.509	609.62
434.731	597.62
434.953	635.62
435.175	635.62
435.397	666.62
435.618	659.62
435.84	730.62
436.062	827.62
436.284	925.62
436.505	726.62
436.727	708.62
436.949	639.62
437.17	630.62
437.392	625.62
437.614	631.62
437.835	671.62
438.057	807.62
438.278	929.62
438.5	919.62
438.721	978.62
438.943	947.62
439.165	769.62
439.386	698.62
439.608	686.62
439.829	667.62
440.05	693.62
440.272	791.62
440.493	727.62
440.715	686.62
440.936	635.62
441.158	612.62
441.379	647.62
441.6	649.62
441.822	670.62
442.043	726.62
442.264	806.62
442.486	859.62
442.707	755.62
442.928	702.62
443.149	705.62
443.371	728.62
443.592	791.62
443.813	875.62
444.034	932.62
444.255	793.62
444.476	720.62
444.698	681.62
444.919	675.62
445.14	800.62
445.361	755.62
445.582	731.62
445.803	819.62
446.024	930.62
446.245	926.62
446.466	877.62
446.687	737.62
446.908	666.62
447.129	641.62
447.35	628.62
447.571	626.62
447.792	611.62
448.013	613.62
448.234	643.62
448.455	680.62
448.675	822.62
448.896	980.62
449.117	842.62
449.338	765.62
449.559	923.62
449.779	1035.62
450	849.62
450.221	709.62
450.442	643.62
450.662	619.62
450.883	607.62
451.104	627.62
451.324	627.62
451.545	596.62
451.766	581.62
451.986	576.62
452.207	568.62
452.428	558.62
452.648	569.62
452.869	555.62
453.089	556.62
453.31	586.62
453.53	573.62
453.751	567.62
453.971	566.62
454.192	592.62
454.412	566.62
454.633	544.62
454.853	550.62
455.073	559.62
455.294	589.62
455.514	668.62
455.734	658.62
455.955	552.62
456.175	544.62
456.395	540.62
456.616	533.62
456.836	520.62
457.056	520.62
457.276	518.62
457.497	544.62
457.717	498.62
457.937	533.62
458.157	518.62
458.377	532.62
458.598	543.62
458.818	633.62
459.038	744.62
459.258	763.62
459.478	654.62
459.698	598.62
459.918	582.62
460.138	598.62
460.358	585.62
460.578	632.62
460.798	608.62
461.018	619.62
461.238	585.62
461.458	594.62
461.678	585.62
461.898	590.62
462.118	602.62
462.338	648.62
462.558	643.62
462.777	622.62
462.997	653.62
463.217	634.62
463.437	636.62
463.657	642.62
463.876	648.62
464.096	620.62
464.316	641.62
464.536	670.62
464.755	655.62
464.975	635.62
465.195	699.62
465.414	788.62
465.634	693.62
465.854	647.62
466.073	603.62
466.293	585.62
466.512	569.62
466.732	589.62
466.951	581.62
467.171	563.62
467.391	590.62
467.61	601.62
467.829	587.62
468.049	583.62
468.268	604.62
468.488	574.62
468.707	574.62
468.927	538.62
469.146	567.62
469.365	572.62
469.585	564.62
469.804	595.62
470.023	601.62
470.243	580.62
470.462	597.62
470.681	617.62
470.901	604.62
471.12	585.62
471.339	589.62
471.558	581.62
471.777	580.62
471.997	566.62
472.216	569.62
472.435	576.62
472.654	570.62
472.873	556.62
473.092	565.62
473.311	573.62
473.53	590.62
473.749	578.62
473.968	641.62
474.187	731.62
474.406	766.62
474.625	624.62
474.844	613.62
475.063	575.62
475.282	575.62
475.501	586.62
475.72	585.62
475.939	606.62
476.158	590.62
476.377	607.62
476.596	580.62
476.814	583.62
477.033	631.62
477.252	618.62
477.471	622.62
477.69	601.62
477.908	631.62
478.127	638.62
478.346	630.62
478.564	665.62
478.783	680.62
479.002	682.62
479.22	674.62
479.439	662.62
479.658	672.62
479.876	701.62
480.095	711.62
480.313	744.62
480.532	719.62
480.751	712.62
480.969	715.62
481.188	742.62
481.406	748.62
481.624	726.62
481.843	692.62
482.061	701.62
482.28	674.62
482.498	689.62
482.717	661.62
482.935	671.62
483.153	643.62
483.372	681.62
483.59	673.62
483.808	685.62
484.027	664.62
484.245	659.62
484.463	703.62
484.681	713.62
484.9	693.62
485.118	726.62
485.336	713.62
485.554	707.62
485.772	697.62
485.99	709.62
486.209	711.62
486.427	714.62
486.645	755.62
486.863	758.62
487.081	747.62
487.299	743.62
487.517	749.62
487.735	729.62
487.953	718.62
488.171	739.62
488.389	743.62
488.607	748.62
488.825	739.62
489.043	727.62
489.261	747.62
489.479	767.62
489.696	740.62
489.914	735.62
490.132	761.62
490.35	758.62
490.568	761.62
490.786	793.62
491.003	801.62
491.221	791.62
491.439	841.62
491.657	829.62
491.874	830.62
492.092	827.62
492.31	845.62
492.527	846.62
492.745	840.62
492.963	844.62
493.18	843.62
493.398	843.62
493.615	836.62
493.833	826.62
494.05	871.62
494.268	885.62
494.485	862.62
494.703	863.62
494.92	850.62
495.138	871.62
495.355	864.62
495.573	866.62
495.79	860.62
496.008	873.62
496.225	871.62
496.442	875.62
496.66	871.62
496.877	881.62
497.094	901.62
497.312	877.62
497.529	895.62
497.746	933.62
497.963	925.62
498.181	948.62
498.398	961.62
498.615	998.62
498.832	1010.62
499.049	1017.62
499.267	1070.62
499.484	1081.62
499.701	1102.62
499.918	1151.62
500.135	1165.62
500.352	1282.62
500.569	1283.62
500.786	1259.62
501.003	1241.62
501.22	1199.62
501.437	1184.62
501.654	1125.62
