Data from 1988.PennyLincolnUp.Lamp.En5.5.200Scan.071819.P2_HRD10591_17-20-42-972.txt Node
Date: Thu Jul 18 17:20:42 EDT 2019
User: cochatt
Spectrometer: HR+D1059
Trigger mode: 1
Integration Time (sec): 1.000000E-1
Scans to average: 1
Electric dark correction enabled: true
Nonlinearity correction enabled: false
Boxcar width: 0
XAxis mode: Wavelengths
Number of Pixels in Spectrum: 2048
>>>>>Begin Spectral Data<<<<<
223.165	-20.31
223.4	-20.31
223.635	-20.31
223.869	-5.31
224.104	-10.31
224.338	-4.31
224.573	-20.31
224.808	-17.31
225.042	-15.31
225.277	-18.31
225.511	14.69
225.746	6.69
225.98	-0.31
226.215	13.69
226.449	8.69
226.683	21.69
226.918	13.69
227.152	32.69
227.387	38.69
227.621	36.69
227.856	46.69
228.09	38.69
228.324	47.69
228.559	71.69
228.793	72.69
229.027	103.69
229.262	114.69
229.496	136.69
229.73	162.69
229.964	164.69
230.199	124.69
230.433	134.69
230.667	115.69
230.901	119.69
231.136	120.69
231.37	138.69
231.604	120.69
231.838	134.69
232.072	121.69
232.306	104.69
232.541	128.69
232.775	114.69
233.009	131.69
233.243	124.69
233.477	115.69
233.711	134.69
233.945	112.69
234.179	116.69
234.413	128.69
234.647	135.69
234.881	111.69
235.115	136.69
235.349	119.69
235.583	126.69
235.817	130.69
236.051	136.69
236.285	121.69
236.519	133.69
236.753	139.69
236.987	136.69
237.221	192.69
237.455	252.69
237.689	208.69
237.922	163.69
238.156	141.69
238.39	137.69
238.624	136.69
238.858	131.69
239.091	148.69
239.325	134.69
239.559	128.69
239.793	129.69
240.027	136.69
240.26	157.69
240.494	190.69
240.728	175.69
240.961	175.69
241.195	159.69
241.429	156.69
241.662	145.69
241.896	158.69
242.13	155.69
242.363	133.69
242.597	141.69
242.83	145.69
243.064	161.69
243.298	159.69
243.531	138.69
243.765	153.69
243.998	149.69
244.232	152.69
244.465	154.69
244.699	147.69
244.932	158.69
245.166	139.69
245.399	154.69
245.633	152.69
245.866	159.69
246.099	149.69
246.333	167.69
246.566	150.69
246.8	141.69
247.033	161.69
247.266	180.69
247.5	162.69
247.733	192.69
247.966	182.69
248.2	187.69
248.433	183.69
248.666	188.69
248.899	192.69
249.133	214.69
249.366	220.69
249.599	211.69
249.832	192.69
250.066	198.69
250.299	191.69
250.532	199.69
250.765	200.69
250.998	228.69
251.231	235.69
251.465	239.69
251.698	201.69
251.931	226.69
252.164	218.69
252.397	202.69
252.63	221.69
252.863	217.69
253.096	230.69
253.329	236.69
253.562	250.69
253.795	230.69
254.028	231.69
254.261	226.69
254.494	235.69
254.727	272.69
254.96	295.69
255.193	302.69
255.426	271.69
255.659	251.69
255.892	247.69
256.124	240.69
256.357	206.69
256.59	223.69
256.823	228.69
257.056	234.69
257.289	222.69
257.521	211.69
257.754	218.69
257.987	221.69
258.22	218.69
258.452	205.69
258.685	216.69
258.918	228.69
259.151	220.69
259.383	234.69
259.616	254.69
259.849	234.69
260.081	264.69
260.314	267.69
260.547	278.69
260.779	260.69
261.012	268.69
261.244	245.69
261.477	227.69
261.71	244.69
261.942	246.69
262.175	241.69
262.407	246.69
262.64	240.69
262.872	213.69
263.105	221.69
263.337	226.69
263.57	222.69
263.802	240.69
264.035	244.69
264.267	225.69
264.499	207.69
264.732	218.69
264.964	228.69
265.197	227.69
265.429	219.69
265.661	222.69
265.894	230.69
266.126	230.69
266.358	240.69
266.591	240.69
266.823	229.69
267.055	247.69
267.287	239.69
267.52	231.69
267.752	234.69
267.984	239.69
268.216	237.69
268.448	266.69
268.681	266.69
268.913	270.69
269.145	288.69
269.377	282.69
269.609	290.69
269.841	296.69
270.073	272.69
270.306	310.69
270.538	323.69
270.77	341.69
271.002	304.69
271.234	307.69
271.466	316.69
271.698	333.69
271.93	327.69
272.162	332.69
272.394	347.69
272.626	314.69
272.858	308.69
273.09	279.69
273.322	311.69
273.553	283.69
273.785	277.69
274.017	298.69
274.249	285.69
274.481	271.69
274.713	285.69
274.945	283.69
275.176	271.69
275.408	286.69
275.64	285.69
275.872	295.69
276.104	294.69
276.335	279.69
276.567	297.69
276.799	308.69
277.031	315.69
277.262	313.69
277.494	324.69
277.726	315.69
277.957	293.69
278.189	297.69
278.421	300.69
278.652	293.69
278.884	278.69
279.115	280.69
279.347	282.69
279.579	272.69
279.81	306.69
280.042	293.69
280.273	272.69
280.505	283.69
280.736	276.69
280.968	292.69
281.199	282.69
281.431	258.69
281.662	299.69
281.894	288.69
282.125	292.69
282.356	319.69
282.588	349.69
282.819	330.69
283.051	300.69
283.282	276.69
283.513	290.69
283.745	268.69
283.976	295.69
284.207	303.69
284.439	302.69
284.67	281.69
284.901	288.69
285.132	292.69
285.364	308.69
285.595	293.69
285.826	290.69
286.057	316.69
286.288	310.69
286.52	322.69
286.751	288.69
286.982	296.69
287.213	310.69
287.444	288.69
287.675	308.69
287.906	314.69
288.138	324.69
288.369	317.69
288.6	337.69
288.831	327.69
289.062	316.69
289.293	320.69
289.524	311.69
289.755	341.69
289.986	316.69
290.217	310.69
290.448	333.69
290.679	321.69
290.91	316.69
291.141	318.69
291.371	306.69
291.602	324.69
291.833	303.69
292.064	313.69
292.295	306.69
292.526	301.69
292.757	298.69
292.987	313.69
293.218	303.69
293.449	328.69
293.68	319.69
293.91	340.69
294.141	324.69
294.372	320.69
294.603	318.69
294.833	311.69
295.064	313.69
295.295	327.69
295.525	320.69
295.756	342.69
295.987	320.69
296.217	346.69
296.448	359.69
296.679	328.69
296.909	336.69
297.14	332.69
297.37	328.69
297.601	331.69
297.831	336.69
298.062	316.69
298.292	304.69
298.523	358.69
298.753	327.69
298.984	339.69
299.214	312.69
299.445	330.69
299.675	340.69
299.905	334.69
300.136	328.69
300.366	345.69
300.597	337.69
300.827	347.69
301.057	353.69
301.288	350.69
301.518	360.69
301.748	370.69
301.979	342.69
302.209	362.69
302.439	336.69
302.669	355.69
302.9	353.69
303.13	359.69
303.36	360.69
303.59	363.69
303.82	373.69
304.051	362.69
304.281	350.69
304.511	350.69
304.741	343.69
304.971	356.69
305.201	363.69
305.431	350.69
305.661	356.69
305.891	357.69
306.121	348.69
306.352	363.69
306.582	384.69
306.812	355.69
307.042	372.69
307.272	372.69
307.502	361.69
307.731	363.69
307.961	378.69
308.191	359.69
308.421	355.69
308.651	361.69
308.881	376.69
309.111	376.69
309.341	405.69
309.571	377.69
309.8	412.69
310.03	412.69
310.26	398.69
310.49	399.69
310.72	436.69
310.949	425.69
311.179	445.69
311.409	428.69
311.639	420.69
311.868	438.69
312.098	426.69
312.328	439.69
312.557	451.69
312.787	458.69
313.017	466.69
313.246	446.69
313.476	407.69
313.706	406.69
313.935	423.69
314.165	431.69
314.394	442.69
314.624	440.69
314.853	448.69
315.083	424.69
315.312	409.69
315.542	416.69
315.771	401.69
316.001	414.69
316.23	437.69
316.46	405.69
316.689	408.69
316.919	420.69
317.148	440.69
317.377	436.69
317.607	413.69
317.836	408.69
318.065	423.69
318.295	407.69
318.524	411.69
318.753	414.69
318.983	421.69
319.212	420.69
319.441	432.69
319.67	421.69
319.9	411.69
320.129	420.69
320.358	452.69
320.587	417.69
320.816	436.69
321.046	440.69
321.275	471.69
321.504	445.69
321.733	438.69
321.962	457.69
322.191	459.69
322.42	485.69
322.649	475.69
322.878	496.69
323.108	508.69
323.337	516.69
323.566	557.69
323.795	586.69
324.024	636.69
324.253	787.69
324.482	1092.69
324.71	1716.69
324.939	2596.69
325.168	2206.69
325.397	1120.69
325.626	731.69
325.855	640.69
326.084	586.69
326.313	568.69
326.542	586.69
326.77	631.69
326.999	709.69
327.228	982.69
327.457	1552.69
327.686	1954.69
327.914	1245.69
328.143	813.69
328.372	680.69
328.6	644.69
328.829	620.69
329.058	656.69
329.287	639.69
329.515	592.69
329.744	567.69
329.972	542.69
330.201	572.69
330.43	576.69
330.658	620.69
330.887	642.69
331.115	647.69
331.344	597.69
331.572	548.69
331.801	552.69
332.03	517.69
332.258	532.69
332.486	505.69
332.715	524.69
332.943	495.69
333.172	494.69
333.4	504.69
333.629	530.69
333.857	508.69
334.085	532.69
334.314	504.69
334.542	516.69
334.771	518.69
334.999	538.69
335.227	530.69
335.455	496.69
335.684	481.69
335.912	522.69
336.14	486.69
336.369	499.69
336.597	503.69
336.825	505.69
337.053	495.69
337.281	526.69
337.51	498.69
337.738	514.69
337.966	498.69
338.194	499.69
338.422	487.69
338.65	486.69
338.878	493.69
339.106	500.69
339.334	496.69
339.562	488.69
339.79	483.69
340.018	489.69
340.246	469.69
340.474	491.69
340.702	476.69
340.93	494.69
341.158	495.69
341.386	458.69
341.614	489.69
341.842	479.69
342.07	474.69
342.298	479.69
342.526	486.69
342.754	485.69
342.981	469.69
343.209	433.69
343.437	479.69
343.665	477.69
343.893	483.69
344.12	468.69
344.348	493.69
344.576	488.69
344.804	500.69
345.031	519.69
345.259	519.69
345.487	508.69
345.714	507.69
345.942	483.69
346.17	471.69
346.397	468.69
346.625	466.69
346.853	470.69
347.08	463.69
347.308	472.69
347.535	477.69
347.763	481.69
347.99	477.69
348.218	483.69
348.445	461.69
348.673	485.69
348.9	462.69
349.128	469.69
349.355	448.69
349.583	458.69
349.81	462.69
350.037	456.69
350.265	444.69
350.492	444.69
350.72	450.69
350.947	484.69
351.174	495.69
351.402	483.69
351.629	477.69
351.856	499.69
352.083	482.69
352.311	483.69
352.538	493.69
352.765	496.69
352.992	482.69
353.22	472.69
353.447	461.69
353.674	458.69
353.901	462.69
354.128	461.69
354.355	464.69
354.583	457.69
354.81	451.69
355.037	448.69
355.264	436.69
355.491	444.69
355.718	455.69
355.945	442.69
356.172	418.69
356.399	441.69
356.626	430.69
356.853	443.69
357.08	441.69
357.307	422.69
357.534	439.69
357.761	440.69
357.988	419.69
358.215	436.69
358.441	431.69
358.668	430.69
358.895	445.69
359.122	456.69
359.349	438.69
359.576	464.69
359.802	482.69
360.029	512.69
360.256	540.69
360.483	506.69
360.709	486.69
360.936	462.69
361.163	447.69
361.39	487.69
361.616	472.69
361.843	474.69
362.07	472.69
362.296	479.69
362.523	475.69
362.749	474.69
362.976	468.69
363.203	465.69
363.429	460.69
363.656	455.69
363.882	457.69
364.109	458.69
364.335	474.69
364.562	441.69
364.788	442.69
365.015	419.69
365.241	463.69
365.468	460.69
365.694	469.69
365.92	461.69
366.147	470.69
366.373	446.69
366.599	450.69
366.826	445.69
367.052	443.69
367.278	457.69
367.505	448.69
367.731	471.69
367.957	457.69
368.184	438.69
368.41	454.69
368.636	447.69
368.862	479.69
369.089	442.69
369.315	442.69
369.541	455.69
369.767	445.69
369.993	464.69
370.219	457.69
370.445	452.69
370.672	457.69
370.898	447.69
371.124	443.69
371.35	446.69
371.576	459.69
371.802	477.69
372.028	458.69
372.254	462.69
372.48	439.69
372.706	456.69
372.932	451.69
373.158	461.69
373.384	465.69
373.61	450.69
373.835	463.69
374.061	464.69
374.287	478.69
374.513	452.69
374.739	490.69
374.965	469.69
375.191	490.69
375.416	452.69
375.642	458.69
375.868	455.69
376.094	461.69
376.319	458.69
376.545	449.69
376.771	470.69
376.997	457.69
377.222	455.69
377.448	460.69
377.674	474.69
377.899	453.69
378.125	468.69
378.35	450.69
378.576	454.69
378.802	460.69
379.027	431.69
379.253	448.69
379.478	462.69
379.704	447.69
379.929	452.69
380.155	456.69
380.38	463.69
380.606	467.69
380.831	455.69
381.057	449.69
381.282	466.69
381.507	471.69
381.733	452.69
381.958	474.69
382.184	484.69
382.409	460.69
382.634	485.69
382.86	478.69
383.085	503.69
383.31	468.69
383.535	486.69
383.761	472.69
383.986	496.69
384.211	487.69
384.436	482.69
384.662	485.69
384.887	479.69
385.112	483.69
385.337	489.69
385.562	500.69
385.787	508.69
386.013	515.69
386.238	503.69
386.463	509.69
386.688	529.69
386.913	513.69
387.138	514.69
387.363	476.69
387.588	508.69
387.813	480.69
388.038	498.69
388.263	492.69
388.488	502.69
388.713	536.69
388.938	514.69
389.163	489.69
389.387	506.69
389.612	486.69
389.837	493.69
390.062	484.69
390.287	528.69
390.512	510.69
390.736	504.69
390.961	498.69
391.186	503.69
391.411	509.69
391.636	513.69
391.86	531.69
392.085	533.69
392.31	529.69
392.534	526.69
392.759	534.69
392.984	523.69
393.208	521.69
393.433	528.69
393.658	545.69
393.882	510.69
394.107	537.69
394.331	509.69
394.556	539.69
394.78	496.69
395.005	501.69
395.229	517.69
395.454	540.69
395.678	554.69
395.903	568.69
396.127	574.69
396.352	604.69
396.576	542.69
396.801	533.69
397.025	536.69
397.249	538.69
397.474	532.69
397.698	572.69
397.922	553.69
398.147	585.69
398.371	586.69
398.595	582.69
398.82	587.69
399.044	559.69
399.268	620.69
399.492	635.69
399.717	675.69
399.941	706.69
400.165	741.69
400.389	744.69
400.613	678.69
400.837	641.69
401.062	611.69
401.286	592.69
401.51	600.69
401.734	602.69
401.958	606.69
402.182	608.69
402.406	606.69
402.63	620.69
402.854	602.69
403.078	600.69
403.302	608.69
403.526	607.69
403.75	611.69
403.974	596.69
404.198	615.69
404.422	600.69
404.645	616.69
404.869	602.69
405.093	638.69
405.317	658.69
405.541	695.69
405.765	669.69
405.988	628.69
406.212	640.69
406.436	652.69
406.66	690.69
406.883	666.69
407.107	684.69
407.331	730.69
407.555	830.69
407.778	834.69
408.002	758.69
408.226	676.69
408.449	679.69
408.673	696.69
408.896	696.69
409.12	751.69
409.344	722.69
409.567	656.69
409.791	660.69
410.014	626.69
410.238	633.69
410.461	627.69
410.685	612.69
410.908	651.69
411.132	686.69
411.355	726.69
411.578	696.69
411.802	633.69
412.025	601.69
412.249	628.69
412.472	620.69
412.695	655.69
412.919	635.69
413.142	622.69
413.365	614.69
413.589	593.69
413.812	593.69
414.035	576.69
414.258	586.69
414.482	580.69
414.705	581.69
414.928	588.69
415.151	585.69
415.374	596.69
415.597	596.69
415.821	578.69
416.044	590.69
416.267	599.69
416.49	584.69
416.713	583.69
416.936	590.69
417.159	559.69
417.382	602.69
417.605	598.69
417.828	589.69
418.051	600.69
418.274	582.69
418.497	584.69
418.72	580.69
418.943	586.69
419.166	614.69
419.389	618.69
419.611	644.69
419.834	602.69
420.057	598.69
420.28	589.69
420.503	572.69
420.726	603.69
420.948	600.69
421.171	664.69
421.394	729.69
421.617	637.69
421.839	610.69
422.062	605.69
422.285	617.69
422.507	680.69
422.73	784.69
422.953	765.69
423.175	655.69
423.398	637.69
423.621	635.69
423.843	656.69
424.066	669.69
424.288	648.69
424.511	709.69
424.733	740.69
424.956	842.69
425.178	800.69
425.401	778.69
425.623	835.69
425.846	710.69
426.068	662.69
426.291	652.69
426.513	639.69
426.735	660.69
426.958	699.69
427.18	823.69
427.402	968.69
427.625	1056.69
427.847	923.69
428.069	776.69
428.292	700.69
428.514	660.69
428.736	623.69
428.958	628.69
429.181	598.69
429.403	604.69
429.625	617.69
429.847	628.69
430.069	743.69
430.292	700.69
430.514	636.69
430.736	612.69
430.958	608.69
431.18	587.69
431.402	589.69
431.624	561.69
431.846	574.69
432.068	582.69
432.29	594.69
432.512	600.69
432.734	571.69
432.956	607.69
433.178	597.69
433.4	600.69
433.622	592.69
433.844	584.69
434.066	569.69
434.287	584.69
434.509	602.69
434.731	610.69
434.953	586.69
435.175	635.69
435.397	644.69
435.618	634.69
435.84	708.69
436.062	806.69
436.284	885.69
436.505	748.69
436.727	657.69
436.949	598.69
437.17	621.69
437.392	629.69
437.614	625.69
437.835	668.69
438.057	786.69
438.278	886.69
438.5	898.69
438.721	980.69
438.943	943.69
439.165	741.69
439.386	701.69
439.608	685.69
439.829	661.69
440.05	663.69
440.272	757.69
440.493	691.69
440.715	632.69
440.936	634.69
441.158	618.69
441.379	616.69
441.6	620.69
441.822	656.69
442.043	709.69
442.264	793.69
442.486	846.69
442.707	713.69
442.928	693.69
443.149	690.69
443.371	719.69
443.592	748.69
443.813	871.69
444.034	941.69
444.255	778.69
444.476	678.69
444.698	666.69
444.919	692.69
445.14	806.69
445.361	745.69
445.582	715.69
445.803	782.69
446.024	903.69
446.245	928.69
446.466	832.69
446.687	724.69
446.908	669.69
447.129	657.69
447.35	615.69
447.571	603.69
447.792	581.69
448.013	590.69
448.234	634.69
448.455	683.69
448.675	845.69
448.896	971.69
449.117	815.69
449.338	771.69
449.559	898.69
449.779	997.69
450	815.69
450.221	662.69
450.442	634.69
450.662	591.69
450.883	613.69
451.104	615.69
451.324	604.69
451.545	588.69
451.766	568.69
451.986	558.69
452.207	531.69
452.428	536.69
452.648	547.69
452.869	536.69
453.089	553.69
453.31	560.69
453.53	573.69
453.751	552.69
453.971	557.69
454.192	571.69
454.412	574.69
454.633	545.69
454.853	541.69
455.073	522.69
455.294	580.69
455.514	648.69
455.734	644.69
455.955	550.69
456.175	556.69
456.395	528.69
456.616	528.69
456.836	528.69
457.056	530.69
457.276	495.69
457.497	493.69
457.717	520.69
457.937	522.69
458.157	525.69
458.377	531.69
458.598	562.69
458.818	618.69
459.038	717.69
459.258	744.69
459.478	664.69
459.698	595.69
459.918	592.69
460.138	590.69
460.358	583.69
460.578	590.69
460.798	602.69
461.018	600.69
461.238	583.69
461.458	576.69
461.678	570.69
461.898	585.69
462.118	593.69
462.338	633.69
462.558	605.69
462.777	615.69
462.997	648.69
463.217	642.69
463.437	655.69
463.657	636.69
463.876	639.69
464.096	659.69
464.316	612.69
464.536	646.69
464.755	637.69
464.975	624.69
465.195	664.69
465.414	740.69
465.634	669.69
465.854	620.69
466.073	603.69
466.293	596.69
466.512	581.69
466.732	572.69
466.951	563.69
467.171	567.69
467.391	563.69
467.61	565.69
467.829	579.69
468.049	575.69
468.268	568.69
468.488	525.69
468.707	532.69
468.927	545.69
469.146	539.69
469.365	568.69
469.585	555.69
469.804	550.69
470.023	572.69
470.243	562.69
470.462	551.69
470.681	581.69
470.901	598.69
471.12	582.69
471.339	554.69
471.558	563.69
471.777	555.69
471.997	575.69
472.216	580.69
472.435	551.69
472.654	578.69
472.873	559.69
473.092	550.69
473.311	535.69
473.53	571.69
473.749	575.69
473.968	607.69
474.187	722.69
474.406	761.69
474.625	624.69
474.844	597.69
475.063	574.69
475.282	570.69
475.501	574.69
475.72	589.69
475.939	614.69
476.158	580.69
476.377	604.69
476.596	577.69
476.814	600.69
477.033	593.69
477.252	589.69
477.471	602.69
477.69	616.69
477.908	618.69
478.127	631.69
478.346	635.69
478.564	643.69
478.783	648.69
479.002	654.69
479.22	653.69
479.439	670.69
479.658	680.69
479.876	694.69
480.095	687.69
480.313	728.69
480.532	715.69
480.751	697.69
480.969	691.69
481.188	729.69
481.406	722.69
481.624	718.69
481.843	676.69
482.061	673.69
482.28	663.69
482.498	685.69
482.717	671.69
482.935	668.69
483.153	663.69
483.372	672.69
483.59	653.69
483.808	651.69
484.027	676.69
484.245	668.69
484.463	682.69
484.681	676.69
484.9	660.69
485.118	682.69
485.336	670.69
485.554	691.69
485.772	693.69
485.99	692.69
486.209	707.69
486.427	694.69
486.645	679.69
486.863	727.69
487.081	707.69
487.299	730.69
487.517	710.69
487.735	731.69
487.953	716.69
488.171	714.69
488.389	707.69
488.607	725.69
488.825	734.69
489.043	697.69
489.261	744.69
489.479	717.69
489.696	738.69
489.914	726.69
490.132	731.69
490.35	744.69
490.568	762.69
490.786	737.69
491.003	782.69
491.221	768.69
491.439	792.69
491.657	774.69
491.874	823.69
492.092	812.69
492.31	830.69
492.527	824.69
492.745	805.69
492.963	802.69
493.18	811.69
493.398	847.69
493.615	831.69
493.833	834.69
494.05	848.69
494.268	880.69
494.485	834.69
494.703	831.69
494.92	840.69
495.138	852.69
495.355	839.69
495.573	876.69
495.79	857.69
496.008	876.69
496.225	839.69
496.442	855.69
496.66	847.69
496.877	831.69
497.094	864.69
497.312	875.69
497.529	880.69
497.746	902.69
497.963	904.69
498.181	926.69
498.398	929.69
498.615	975.69
498.832	980.69
499.049	983.69
499.267	1039.69
499.484	1039.69
499.701	1100.69
499.918	1088.69
500.135	1171.69
500.352	1214.69
500.569	1206.69
500.786	1230.69
501.003	1222.69
501.22	1181.69
501.437	1145.69
501.654	1079.69
