Data from 1988.PennyLincolnUp.Lamp.En5.5.200Scan.071819.P2_HRD10591_17-19-39-972.txt Node
Date: Thu Jul 18 17:19:39 EDT 2019
User: cochatt
Spectrometer: HR+D1059
Trigger mode: 1
Integration Time (sec): 1.000000E-1
Scans to average: 1
Electric dark correction enabled: true
Nonlinearity correction enabled: false
Boxcar width: 0
XAxis mode: Wavelengths
Number of Pixels in Spectrum: 2048
>>>>>Begin Spectral Data<<<<<
223.165	-8.5
223.4	-8.5
223.635	-8.5
223.869	-17.5
224.104	-24.5
224.338	-19.5
224.573	-10.5
224.808	-19.5
225.042	-17.5
225.277	-21.5
225.511	1.5
225.746	9.5
225.98	10.5
226.215	12.5
226.449	18.5
226.683	16.5
226.918	39.5
227.152	30.5
227.387	37.5
227.621	32.5
227.856	37.5
228.09	48.5
228.324	53.5
228.559	64.5
228.793	71.5
229.027	99.5
229.262	126.5
229.496	135.5
229.73	154.5
229.964	174.5
230.199	133.5
230.433	121.5
230.667	118.5
230.901	121.5
231.136	129.5
231.37	122.5
231.604	128.5
231.838	117.5
232.072	119.5
232.306	124.5
232.541	130.5
232.775	130.5
233.009	130.5
233.243	110.5
233.477	137.5
233.711	123.5
233.945	120.5
234.179	123.5
234.413	130.5
234.647	132.5
234.881	126.5
235.115	129.5
235.349	123.5
235.583	130.5
235.817	130.5
236.051	135.5
236.285	133.5
236.519	146.5
236.753	143.5
236.987	162.5
237.221	216.5
237.455	248.5
237.689	220.5
237.922	165.5
238.156	141.5
238.39	125.5
238.624	129.5
238.858	139.5
239.091	141.5
239.325	127.5
239.559	140.5
239.793	147.5
240.027	131.5
240.26	167.5
240.494	169.5
240.728	163.5
240.961	153.5
241.195	165.5
241.429	157.5
241.662	166.5
241.896	148.5
242.13	134.5
242.363	153.5
242.597	148.5
242.83	155.5
243.064	154.5
243.298	151.5
243.531	148.5
243.765	149.5
243.998	167.5
244.232	155.5
244.465	145.5
244.699	152.5
244.932	168.5
245.166	173.5
245.399	178.5
245.633	175.5
245.866	175.5
246.099	163.5
246.333	169.5
246.566	158.5
246.8	169.5
247.033	156.5
247.266	173.5
247.5	165.5
247.733	195.5
247.966	192.5
248.2	196.5
248.433	186.5
248.666	202.5
248.899	187.5
249.133	223.5
249.366	212.5
249.599	219.5
249.832	187.5
250.066	189.5
250.299	187.5
250.532	206.5
250.765	213.5
250.998	227.5
251.231	224.5
251.465	223.5
251.698	207.5
251.931	202.5
252.164	208.5
252.397	208.5
252.63	201.5
252.863	221.5
253.096	236.5
253.329	258.5
253.562	242.5
253.795	238.5
254.028	229.5
254.261	249.5
254.494	254.5
254.727	269.5
254.96	283.5
255.193	284.5
255.426	273.5
255.659	252.5
255.892	232.5
256.124	253.5
256.357	223.5
256.59	233.5
256.823	223.5
257.056	219.5
257.289	202.5
257.521	235.5
257.754	232.5
257.987	221.5
258.22	221.5
258.452	213.5
258.685	214.5
258.918	228.5
259.151	233.5
259.383	230.5
259.616	253.5
259.849	247.5
260.081	269.5
260.314	271.5
260.547	302.5
260.779	274.5
261.012	250.5
261.244	266.5
261.477	234.5
261.71	241.5
261.942	261.5
262.175	251.5
262.407	259.5
262.64	237.5
262.872	233.5
263.105	227.5
263.337	240.5
263.57	237.5
263.802	223.5
264.035	230.5
264.267	233.5
264.499	231.5
264.732	233.5
264.964	227.5
265.197	242.5
265.429	240.5
265.661	237.5
265.894	239.5
266.126	241.5
266.358	240.5
266.591	227.5
266.823	251.5
267.055	257.5
267.287	267.5
267.52	233.5
267.752	235.5
267.984	248.5
268.216	244.5
268.448	250.5
268.681	269.5
268.913	261.5
269.145	278.5
269.377	297.5
269.609	310.5
269.841	291.5
270.073	297.5
270.306	321.5
270.538	345.5
270.77	339.5
271.002	314.5
271.234	315.5
271.466	323.5
271.698	339.5
271.93	339.5
272.162	346.5
272.394	331.5
272.626	323.5
272.858	299.5
273.09	315.5
273.322	304.5
273.553	288.5
273.785	314.5
274.017	295.5
274.249	295.5
274.481	306.5
274.713	290.5
274.945	285.5
275.176	294.5
275.408	272.5
275.64	273.5
275.872	288.5
276.104	273.5
276.335	275.5
276.567	304.5
276.799	297.5
277.031	320.5
277.262	355.5
277.494	335.5
277.726	317.5
277.957	316.5
278.189	303.5
278.421	311.5
278.652	295.5
278.884	302.5
279.115	293.5
279.347	282.5
279.579	293.5
279.81	303.5
280.042	284.5
280.273	285.5
280.505	297.5
280.736	296.5
280.968	291.5
281.199	299.5
281.431	297.5
281.662	298.5
281.894	301.5
282.125	301.5
282.356	318.5
282.588	329.5
282.819	338.5
283.051	297.5
283.282	305.5
283.513	287.5
283.745	311.5
283.976	303.5
284.207	295.5
284.439	308.5
284.67	322.5
284.901	318.5
285.132	319.5
285.364	310.5
285.595	297.5
285.826	317.5
286.057	305.5
286.288	314.5
286.52	329.5
286.751	313.5
286.982	313.5
287.213	302.5
287.444	321.5
287.675	320.5
287.906	317.5
288.138	328.5
288.369	332.5
288.6	343.5
288.831	333.5
289.062	331.5
289.293	329.5
289.524	312.5
289.755	330.5
289.986	315.5
290.217	310.5
290.448	315.5
290.679	313.5
290.91	319.5
291.141	313.5
291.371	315.5
291.602	330.5
291.833	315.5
292.064	318.5
292.295	321.5
292.526	319.5
292.757	322.5
292.987	314.5
293.218	338.5
293.449	333.5
293.68	320.5
293.91	319.5
294.141	312.5
294.372	304.5
294.603	309.5
294.833	335.5
295.064	337.5
295.295	335.5
295.525	334.5
295.756	330.5
295.987	337.5
296.217	360.5
296.448	375.5
296.679	341.5
296.909	322.5
297.14	319.5
297.37	340.5
297.601	331.5
297.831	326.5
298.062	349.5
298.292	347.5
298.523	334.5
298.753	339.5
298.984	339.5
299.214	375.5
299.445	337.5
299.675	345.5
299.905	342.5
300.136	350.5
300.366	347.5
300.597	359.5
300.827	347.5
301.057	370.5
301.288	379.5
301.518	375.5
301.748	360.5
301.979	349.5
302.209	379.5
302.439	371.5
302.669	367.5
302.9	388.5
303.13	359.5
303.36	371.5
303.59	384.5
303.82	373.5
304.051	357.5
304.281	365.5
304.511	384.5
304.741	345.5
304.971	365.5
305.201	366.5
305.431	368.5
305.661	354.5
305.891	369.5
306.121	373.5
306.352	374.5
306.582	363.5
306.812	383.5
307.042	367.5
307.272	366.5
307.502	370.5
307.731	363.5
307.961	383.5
308.191	379.5
308.421	380.5
308.651	379.5
308.881	386.5
309.111	384.5
309.341	383.5
309.571	395.5
309.8	402.5
310.03	438.5
310.26	430.5
310.49	418.5
310.72	426.5
310.949	442.5
311.179	425.5
311.409	437.5
311.639	414.5
311.868	430.5
312.098	418.5
312.328	431.5
312.557	443.5
312.787	456.5
313.017	444.5
313.246	422.5
313.476	415.5
313.706	430.5
313.935	421.5
314.165	431.5
314.394	457.5
314.624	444.5
314.853	429.5
315.083	433.5
315.312	427.5
315.542	423.5
315.771	424.5
316.001	414.5
316.23	419.5
316.46	430.5
316.689	399.5
316.919	434.5
317.148	424.5
317.377	445.5
317.607	433.5
317.836	417.5
318.065	429.5
318.295	434.5
318.524	445.5
318.753	426.5
318.983	432.5
319.212	439.5
319.441	434.5
319.67	437.5
319.9	441.5
320.129	420.5
320.358	438.5
320.587	442.5
320.816	445.5
321.046	465.5
321.275	481.5
321.504	471.5
321.733	462.5
321.962	474.5
322.191	481.5
322.42	469.5
322.649	503.5
322.878	491.5
323.108	515.5
323.337	539.5
323.566	562.5
323.795	638.5
324.024	665.5
324.253	762.5
324.482	1079.5
324.71	1734.5
324.939	2513.5
325.168	2214.5
325.397	1127.5
325.626	765.5
325.855	633.5
326.084	558.5
326.313	555.5
326.542	565.5
326.77	635.5
326.999	724.5
327.228	961.5
327.457	1535.5
327.686	1875.5
327.914	1251.5
328.143	837.5
328.372	687.5
328.6	650.5
328.829	625.5
329.058	655.5
329.287	654.5
329.515	589.5
329.744	577.5
329.972	558.5
330.201	557.5
330.43	591.5
330.658	615.5
330.887	657.5
331.115	670.5
331.344	588.5
331.572	542.5
331.801	569.5
332.03	575.5
332.258	530.5
332.486	521.5
332.715	520.5
332.943	496.5
333.172	527.5
333.4	517.5
333.629	525.5
333.857	536.5
334.085	542.5
334.314	522.5
334.542	541.5
334.771	559.5
334.999	525.5
335.227	502.5
335.455	507.5
335.684	516.5
335.912	530.5
336.14	509.5
336.369	517.5
336.597	516.5
336.825	532.5
337.053	514.5
337.281	475.5
337.51	492.5
337.738	510.5
337.966	517.5
338.194	489.5
338.422	522.5
338.65	523.5
338.878	495.5
339.106	489.5
339.334	483.5
339.562	483.5
339.79	459.5
340.018	489.5
340.246	493.5
340.474	519.5
340.702	500.5
340.93	504.5
341.158	515.5
341.386	506.5
341.614	496.5
341.842	496.5
342.07	482.5
342.298	491.5
342.526	481.5
342.754	494.5
342.981	482.5
343.209	489.5
343.437	486.5
343.665	487.5
343.893	518.5
344.12	519.5
344.348	494.5
344.576	529.5
344.804	524.5
345.031	520.5
345.259	507.5
345.487	521.5
345.714	497.5
345.942	494.5
346.17	492.5
346.397	487.5
346.625	490.5
346.853	470.5
347.08	480.5
347.308	481.5
347.535	519.5
347.763	486.5
347.99	501.5
348.218	489.5
348.445	514.5
348.673	478.5
348.9	470.5
349.128	477.5
349.355	454.5
349.583	479.5
349.81	464.5
350.037	454.5
350.265	446.5
350.492	450.5
350.72	470.5
350.947	471.5
351.174	478.5
351.402	509.5
351.629	485.5
351.856	471.5
352.083	490.5
352.311	495.5
352.538	493.5
352.765	493.5
352.992	490.5
353.22	488.5
353.447	466.5
353.674	487.5
353.901	466.5
354.128	438.5
354.355	444.5
354.583	453.5
354.81	445.5
355.037	447.5
355.264	474.5
355.491	442.5
355.718	455.5
355.945	433.5
356.172	463.5
356.399	462.5
356.626	428.5
356.853	438.5
357.08	438.5
357.307	462.5
357.534	438.5
357.761	437.5
357.988	444.5
358.215	469.5
358.441	472.5
358.668	459.5
358.895	460.5
359.122	446.5
359.349	453.5
359.576	479.5
359.802	510.5
360.029	524.5
360.256	532.5
360.483	526.5
360.709	493.5
360.936	507.5
361.163	497.5
361.39	471.5
361.616	486.5
361.843	475.5
362.07	488.5
362.296	464.5
362.523	485.5
362.749	480.5
362.976	474.5
363.203	459.5
363.429	468.5
363.656	459.5
363.882	454.5
364.109	466.5
364.335	470.5
364.562	473.5
364.788	448.5
365.015	471.5
365.241	472.5
365.468	488.5
365.694	477.5
365.92	508.5
366.147	472.5
366.373	450.5
366.599	476.5
366.826	473.5
367.052	455.5
367.278	475.5
367.505	466.5
367.731	465.5
367.957	479.5
368.184	473.5
368.41	475.5
368.636	479.5
368.862	486.5
369.089	473.5
369.315	476.5
369.541	474.5
369.767	461.5
369.993	458.5
370.219	491.5
370.445	479.5
370.672	445.5
370.898	455.5
371.124	473.5
371.35	487.5
371.576	467.5
371.802	488.5
372.028	455.5
372.254	462.5
372.48	462.5
372.706	463.5
372.932	465.5
373.158	462.5
373.384	488.5
373.61	453.5
373.835	470.5
374.061	501.5
374.287	471.5
374.513	483.5
374.739	463.5
374.965	478.5
375.191	488.5
375.416	479.5
375.642	472.5
375.868	460.5
376.094	468.5
376.319	485.5
376.545	474.5
376.771	465.5
376.997	468.5
377.222	483.5
377.448	464.5
377.674	469.5
377.899	447.5
378.125	467.5
378.35	456.5
378.576	465.5
378.802	464.5
379.027	464.5
379.253	486.5
379.478	469.5
379.704	479.5
379.929	462.5
380.155	455.5
380.38	467.5
380.606	450.5
380.831	464.5
381.057	469.5
381.282	458.5
381.507	456.5
381.733	480.5
381.958	479.5
382.184	471.5
382.409	473.5
382.634	504.5
382.86	479.5
383.085	489.5
383.31	482.5
383.535	504.5
383.761	501.5
383.986	507.5
384.211	477.5
384.436	488.5
384.662	504.5
384.887	483.5
385.112	501.5
385.337	507.5
385.562	504.5
385.787	513.5
386.013	550.5
386.238	530.5
386.463	516.5
386.688	523.5
386.913	510.5
387.138	513.5
387.363	535.5
387.588	518.5
387.813	502.5
388.038	507.5
388.263	504.5
388.488	517.5
388.713	509.5
388.938	542.5
389.163	513.5
389.387	520.5
389.612	506.5
389.837	502.5
390.062	538.5
390.287	527.5
390.512	527.5
390.736	521.5
390.961	512.5
391.186	536.5
391.411	516.5
391.636	526.5
391.86	534.5
392.085	536.5
392.31	545.5
392.534	539.5
392.759	530.5
392.984	538.5
393.208	519.5
393.433	521.5
393.658	532.5
393.882	525.5
394.107	535.5
394.331	522.5
394.556	545.5
394.78	523.5
395.005	528.5
395.229	535.5
395.454	549.5
395.678	552.5
395.903	567.5
396.127	569.5
396.352	581.5
396.576	573.5
396.801	543.5
397.025	545.5
397.249	559.5
397.474	560.5
397.698	551.5
397.922	571.5
398.147	586.5
398.371	598.5
398.595	575.5
398.82	590.5
399.044	612.5
399.268	633.5
399.492	677.5
399.717	689.5
399.941	728.5
400.165	762.5
400.389	760.5
400.613	662.5
400.837	613.5
401.062	613.5
401.286	629.5
401.51	614.5
401.734	591.5
401.958	610.5
402.182	620.5
402.406	616.5
402.63	614.5
402.854	608.5
403.078	599.5
403.302	634.5
403.526	631.5
403.75	612.5
403.974	622.5
404.198	615.5
404.422	634.5
404.645	621.5
404.869	624.5
405.093	640.5
405.317	650.5
405.541	697.5
405.765	660.5
405.988	623.5
406.212	673.5
406.436	682.5
406.66	707.5
406.883	689.5
407.107	723.5
407.331	744.5
407.555	845.5
407.778	857.5
408.002	775.5
408.226	735.5
408.449	709.5
408.673	709.5
408.896	730.5
409.12	795.5
409.344	750.5
409.567	651.5
409.791	636.5
410.014	603.5
410.238	621.5
410.461	633.5
410.685	612.5
410.908	627.5
411.132	678.5
411.355	726.5
411.578	689.5
411.802	656.5
412.025	637.5
412.249	633.5
412.472	650.5
412.695	631.5
412.919	636.5
413.142	638.5
413.365	594.5
413.589	642.5
413.812	605.5
414.035	610.5
414.258	586.5
414.482	590.5
414.705	589.5
414.928	598.5
415.151	597.5
415.374	588.5
415.597	607.5
415.821	602.5
416.044	602.5
416.267	608.5
416.49	575.5
416.713	578.5
416.936	612.5
417.159	589.5
417.382	611.5
417.605	593.5
417.828	604.5
418.051	622.5
418.274	610.5
418.497	602.5
418.72	574.5
418.943	590.5
419.166	631.5
419.389	650.5
419.611	625.5
419.834	625.5
420.057	622.5
420.28	619.5
420.503	618.5
420.726	617.5
420.948	622.5
421.171	667.5
421.394	716.5
421.617	644.5
421.839	639.5
422.062	626.5
422.285	643.5
422.507	699.5
422.73	796.5
422.953	786.5
423.175	673.5
423.398	649.5
423.621	654.5
423.843	649.5
424.066	681.5
424.288	656.5
424.511	699.5
424.733	726.5
424.956	827.5
425.178	838.5
425.401	800.5
425.623	846.5
425.846	700.5
426.068	671.5
426.291	658.5
426.513	665.5
426.735	672.5
426.958	694.5
427.18	823.5
427.402	978.5
427.625	1072.5
427.847	936.5
428.069	796.5
428.292	703.5
428.514	653.5
428.736	648.5
428.958	628.5
429.181	624.5
429.403	603.5
429.625	643.5
429.847	682.5
430.069	773.5
430.292	742.5
430.514	661.5
430.736	633.5
430.958	626.5
431.18	603.5
431.402	611.5
431.624	587.5
431.846	592.5
432.068	577.5
432.29	600.5
432.512	586.5
432.734	604.5
432.956	589.5
433.178	600.5
433.4	605.5
433.622	589.5
433.844	589.5
434.066	589.5
434.287	588.5
434.509	605.5
434.731	593.5
434.953	626.5
435.175	619.5
435.397	665.5
435.618	674.5
435.84	705.5
436.062	833.5
436.284	928.5
436.505	736.5
436.727	685.5
436.949	646.5
437.17	621.5
437.392	624.5
437.614	652.5
437.835	667.5
438.057	799.5
438.278	901.5
438.5	913.5
438.721	977.5
438.943	943.5
439.165	765.5
439.386	684.5
439.608	691.5
439.829	673.5
440.05	717.5
440.272	750.5
440.493	701.5
440.715	672.5
440.936	640.5
441.158	621.5
441.379	631.5
441.6	659.5
441.822	673.5
442.043	717.5
442.264	804.5
442.486	847.5
442.707	727.5
442.928	670.5
443.149	693.5
443.371	725.5
443.592	763.5
443.813	861.5
444.034	971.5
444.255	793.5
444.476	700.5
444.698	681.5
444.919	700.5
445.14	783.5
445.361	753.5
445.582	723.5
445.803	791.5
446.024	925.5
446.245	941.5
446.466	851.5
446.687	762.5
446.908	683.5
447.129	642.5
447.35	642.5
447.571	623.5
447.792	601.5
448.013	618.5
448.234	645.5
448.455	689.5
448.675	811.5
448.896	968.5
449.117	813.5
449.338	791.5
449.559	891.5
449.779	1029.5
450	842.5
450.221	686.5
450.442	619.5
450.662	611.5
450.883	609.5
451.104	627.5
451.324	601.5
451.545	610.5
451.766	579.5
451.986	561.5
452.207	551.5
452.428	556.5
452.648	562.5
452.869	562.5
453.089	568.5
453.31	574.5
453.53	536.5
453.751	565.5
453.971	559.5
454.192	571.5
454.412	555.5
454.633	553.5
454.853	552.5
455.073	559.5
455.294	587.5
455.514	681.5
455.734	644.5
455.955	577.5
456.175	535.5
456.395	538.5
456.616	538.5
456.836	525.5
457.056	504.5
457.276	508.5
457.497	538.5
457.717	532.5
457.937	520.5
458.157	537.5
458.377	553.5
458.598	584.5
458.818	621.5
459.038	732.5
459.258	738.5
459.478	647.5
459.698	598.5
459.918	577.5
460.138	607.5
460.358	630.5
460.578	596.5
460.798	620.5
461.018	605.5
461.238	614.5
461.458	590.5
461.678	613.5
461.898	614.5
462.118	598.5
462.338	608.5
462.558	651.5
462.777	649.5
462.997	662.5
463.217	645.5
463.437	684.5
463.657	639.5
463.876	643.5
464.096	652.5
464.316	647.5
464.536	670.5
464.755	637.5
464.975	662.5
465.195	695.5
465.414	751.5
465.634	688.5
465.854	618.5
466.073	593.5
466.293	590.5
466.512	593.5
466.732	567.5
466.951	599.5
467.171	561.5
467.391	565.5
467.61	577.5
467.829	574.5
468.049	570.5
468.268	563.5
468.488	567.5
468.707	561.5
468.927	565.5
469.146	548.5
469.365	549.5
469.585	561.5
469.804	588.5
470.023	593.5
470.243	586.5
470.462	607.5
470.681	602.5
470.901	608.5
471.12	600.5
471.339	574.5
471.558	570.5
471.777	596.5
471.997	561.5
472.216	569.5
472.435	577.5
472.654	576.5
472.873	573.5
473.092	557.5
473.311	561.5
473.53	551.5
473.749	601.5
473.968	647.5
474.187	738.5
474.406	742.5
474.625	630.5
474.844	620.5
475.063	587.5
475.282	570.5
475.501	599.5
475.72	593.5
475.939	592.5
476.158	607.5
476.377	606.5
476.596	596.5
476.814	618.5
477.033	614.5
477.252	633.5
477.471	640.5
477.69	632.5
477.908	621.5
478.127	647.5
478.346	631.5
478.564	639.5
478.783	640.5
479.002	647.5
479.22	656.5
479.439	679.5
479.658	711.5
479.876	697.5
480.095	715.5
480.313	714.5
480.532	723.5
480.751	718.5
480.969	707.5
481.188	728.5
481.406	716.5
481.624	699.5
481.843	671.5
482.061	677.5
482.28	655.5
482.498	688.5
482.717	666.5
482.935	689.5
483.153	677.5
483.372	682.5
483.59	661.5
483.808	659.5
484.027	674.5
484.245	688.5
484.463	685.5
484.681	673.5
484.9	672.5
485.118	675.5
485.336	709.5
485.554	689.5
485.772	681.5
485.99	722.5
486.209	718.5
486.427	726.5
486.645	733.5
486.863	723.5
487.081	748.5
487.299	737.5
487.517	748.5
487.735	737.5
487.953	733.5
488.171	704.5
488.389	737.5
488.607	724.5
488.825	747.5
489.043	733.5
489.261	739.5
489.479	752.5
489.696	736.5
489.914	745.5
490.132	741.5
490.35	769.5
490.568	767.5
490.786	774.5
491.003	800.5
491.221	808.5
491.439	784.5
491.657	789.5
491.874	810.5
492.092	818.5
492.31	804.5
492.527	814.5
492.745	833.5
492.963	836.5
493.18	833.5
493.398	847.5
493.615	858.5
493.833	851.5
494.05	863.5
494.268	869.5
494.485	831.5
494.703	876.5
494.92	878.5
495.138	875.5
495.355	851.5
495.573	839.5
495.79	876.5
496.008	859.5
496.225	853.5
496.442	879.5
496.66	887.5
496.877	865.5
497.094	888.5
497.312	873.5
497.529	897.5
497.746	921.5
497.963	912.5
498.181	963.5
498.398	963.5
498.615	978.5
498.832	991.5
499.049	1005.5
499.267	1025.5
499.484	1051.5
499.701	1110.5
499.918	1173.5
500.135	1202.5
500.352	1235.5
500.569	1273.5
500.786	1283.5
501.003	1228.5
501.22	1193.5
501.437	1175.5
501.654	1147.5
501.871	1114.5
502.088	1073.5
502.305	1021.5
502.522	985.5
502.739	1011.5
502.956	948.5
503.172	924.5
503.389	927.5
503.606	925.5
503.823	922.5
504.04	919.5
504.256	888.5
504.473	920.5
504.69	906.5
504.907	896.5
505.123	888.5
505.34	865.5
505.557	853.5
505.773	835.5
505.99	841.5
506.207	864.5
506.423	852.5
506.64	855.5
506.856	818.5
507.073	810.5
507.289	806.5
507.506	809.5
507.722	805.5
507.939	879.5
508.155	857.5
508.372	806.5
508.588	763.5
508.805	771.5
509.021	817.5
509.238	780.5
509.454	797.5
509.67	816.5
509.887	796.5
510.103	785.5
510.319	785.5
510.536	887.5
510.752	1418.5
510.968	1213.5
511.184	843.5
511.401	781.5
511.617	761.5
511.833	753.5
512.049	745.5
512.265	745.5
512.481	730.5
512.698	729.5
512.914	739.5
513.13	739.5
513.346	740.5
513.562	738.5
513.778	751.5
513.994	764.5
514.21	766.5
514.426	775.5
514.642	829.5
514.858	883.5
515.074	921.5
515.29	1029.5
515.506	1468.5
515.721	1243.5
515.937	920.5
516.153	849.5
516.369	813.5
516.585	825.5
516.801	782.5
517.016	805.5
517.232	809.5
517.448	790.5
517.664	822.5
517.879	807.5
518.095	758.5
518.311	780.5
518.527	795.5
518.742	785.5
518.958	789.5
519.173	767.5
519.389	749.5
