Data from 1988.PennyLincolnUp.Lamp.En5.5.200Scan.071819.P2_HRD10591_17-21-29-972.txt Node
Date: Thu Jul 18 17:21:29 EDT 2019
User: cochatt
Spectrometer: HR+D1059
Trigger mode: 1
Integration Time (sec): 1.000000E-1
Scans to average: 1
Electric dark correction enabled: true
Nonlinearity correction enabled: false
Boxcar width: 0
XAxis mode: Wavelengths
Number of Pixels in Spectrum: 2048
>>>>>Begin Spectral Data<<<<<
223.165	-23.94
223.4	-23.94
223.635	-23.94
223.869	-25.94
224.104	-23.94
224.338	-14.94
224.573	-9.94
224.808	-6.94
225.042	0.06
225.277	-4.94
225.511	2.06
225.746	-10.94
225.98	6.06
226.215	9.06
226.449	10.06
226.683	16.06
226.918	38.06
227.152	40.06
227.387	38.06
227.621	34.06
227.856	31.06
228.09	34.06
228.324	35.06
228.559	51.06
228.793	65.06
229.027	98.06
229.262	116.06
229.496	114.06
229.73	130.06
229.964	167.06
230.199	151.06
230.433	112.06
230.667	105.06
230.901	123.06
231.136	125.06
231.37	118.06
231.604	119.06
231.838	115.06
232.072	112.06
232.306	123.06
232.541	100.06
232.775	108.06
233.009	117.06
233.243	123.06
233.477	122.06
233.711	128.06
233.945	118.06
234.179	128.06
234.413	106.06
234.647	126.06
234.881	119.06
235.115	123.06
235.349	116.06
235.583	124.06
235.817	130.06
236.051	124.06
236.285	136.06
236.519	131.06
236.753	156.06
236.987	156.06
237.221	198.06
237.455	278.06
237.689	201.06
237.922	153.06
238.156	147.06
238.39	141.06
238.624	138.06
238.858	130.06
239.091	124.06
239.325	127.06
239.559	125.06
239.793	147.06
240.027	134.06
240.26	158.06
240.494	167.06
240.728	170.06
240.961	176.06
241.195	144.06
241.429	161.06
241.662	148.06
241.896	158.06
242.13	135.06
242.363	124.06
242.597	136.06
242.83	157.06
243.064	150.06
243.298	149.06
243.531	141.06
243.765	146.06
243.998	148.06
244.232	154.06
244.465	137.06
244.699	160.06
244.932	168.06
245.166	143.06
245.399	145.06
245.633	145.06
245.866	167.06
246.099	152.06
246.333	151.06
246.566	170.06
246.8	156.06
247.033	150.06
247.266	171.06
247.5	182.06
247.733	171.06
247.966	163.06
248.2	177.06
248.433	190.06
248.666	193.06
248.899	193.06
249.133	210.06
249.366	219.06
249.599	208.06
249.832	202.06
250.066	192.06
250.299	203.06
250.532	175.06
250.765	213.06
250.998	248.06
251.231	246.06
251.465	225.06
251.698	228.06
251.931	177.06
252.164	222.06
252.397	231.06
252.63	214.06
252.863	226.06
253.096	238.06
253.329	247.06
253.562	243.06
253.795	239.06
254.028	223.06
254.261	229.06
254.494	247.06
254.727	271.06
254.96	315.06
255.193	306.06
255.426	280.06
255.659	247.06
255.892	231.06
256.124	226.06
256.357	239.06
256.59	219.06
256.823	215.06
257.056	227.06
257.289	219.06
257.521	231.06
257.754	232.06
257.987	234.06
258.22	220.06
258.452	226.06
258.685	239.06
258.918	200.06
259.151	231.06
259.383	239.06
259.616	238.06
259.849	246.06
260.081	232.06
260.314	272.06
260.547	279.06
260.779	279.06
261.012	241.06
261.244	236.06
261.477	242.06
261.71	242.06
261.942	241.06
262.175	256.06
262.407	270.06
262.64	231.06
262.872	234.06
263.105	224.06
263.337	245.06
263.57	235.06
263.802	246.06
264.035	228.06
264.267	229.06
264.499	236.06
264.732	238.06
264.964	235.06
265.197	208.06
265.429	234.06
265.661	242.06
265.894	223.06
266.126	230.06
266.358	241.06
266.591	240.06
266.823	233.06
267.055	257.06
267.287	234.06
267.52	257.06
267.752	247.06
267.984	240.06
268.216	260.06
268.448	252.06
268.681	249.06
268.913	265.06
269.145	287.06
269.377	292.06
269.609	299.06
269.841	317.06
270.073	298.06
270.306	320.06
270.538	344.06
270.77	332.06
271.002	337.06
271.234	302.06
271.466	326.06
271.698	344.06
271.93	334.06
272.162	333.06
272.394	332.06
272.626	331.06
272.858	307.06
273.09	309.06
273.322	285.06
273.553	298.06
273.785	292.06
274.017	282.06
274.249	291.06
274.481	270.06
274.713	289.06
274.945	276.06
275.176	295.06
275.408	302.06
275.64	280.06
275.872	281.06
276.104	287.06
276.335	295.06
276.567	303.06
276.799	306.06
277.031	325.06
277.262	332.06
277.494	345.06
277.726	340.06
277.957	336.06
278.189	318.06
278.421	287.06
278.652	297.06
278.884	291.06
279.115	276.06
279.347	299.06
279.579	288.06
279.81	297.06
280.042	295.06
280.273	316.06
280.505	307.06
280.736	291.06
280.968	281.06
281.199	279.06
281.431	316.06
281.662	309.06
281.894	297.06
282.125	305.06
282.356	316.06
282.588	331.06
282.819	354.06
283.051	319.06
283.282	306.06
283.513	287.06
283.745	308.06
283.976	304.06
284.207	335.06
284.439	316.06
284.67	323.06
284.901	310.06
285.132	300.06
285.364	303.06
285.595	296.06
285.826	319.06
286.057	315.06
286.288	309.06
286.52	293.06
286.751	311.06
286.982	322.06
287.213	332.06
287.444	342.06
287.675	310.06
287.906	313.06
288.138	337.06
288.369	327.06
288.6	341.06
288.831	329.06
289.062	341.06
289.293	333.06
289.524	326.06
289.755	323.06
289.986	321.06
290.217	317.06
290.448	332.06
290.679	316.06
290.91	323.06
291.141	322.06
291.371	320.06
291.602	294.06
291.833	304.06
292.064	309.06
292.295	314.06
292.526	321.06
292.757	311.06
292.987	315.06
293.218	299.06
293.449	324.06
293.68	324.06
293.91	328.06
294.141	318.06
294.372	326.06
294.603	324.06
294.833	316.06
295.064	336.06
295.295	340.06
295.525	349.06
295.756	342.06
295.987	350.06
296.217	367.06
296.448	370.06
296.679	343.06
296.909	326.06
297.14	321.06
297.37	323.06
297.601	324.06
297.831	326.06
298.062	335.06
298.292	324.06
298.523	341.06
298.753	350.06
298.984	352.06
299.214	350.06
299.445	352.06
299.675	349.06
299.905	358.06
300.136	347.06
300.366	348.06
300.597	367.06
300.827	357.06
301.057	362.06
301.288	361.06
301.518	372.06
301.748	353.06
301.979	368.06
302.209	354.06
302.439	340.06
302.669	382.06
302.9	346.06
303.13	375.06
303.36	366.06
303.59	378.06
303.82	383.06
304.051	382.06
304.281	375.06
304.511	359.06
304.741	364.06
304.971	353.06
305.201	388.06
305.431	352.06
305.661	374.06
305.891	371.06
306.121	371.06
306.352	375.06
306.582	387.06
306.812	359.06
307.042	374.06
307.272	368.06
307.502	364.06
307.731	387.06
307.961	380.06
308.191	373.06
308.421	381.06
308.651	373.06
308.881	388.06
309.111	388.06
309.341	393.06
309.571	399.06
309.8	398.06
310.03	427.06
310.26	413.06
310.49	418.06
310.72	413.06
310.949	436.06
311.179	450.06
311.409	429.06
311.639	431.06
311.868	415.06
312.098	443.06
312.328	446.06
312.557	453.06
312.787	484.06
313.017	474.06
313.246	443.06
313.476	422.06
313.706	436.06
313.935	432.06
314.165	444.06
314.394	450.06
314.624	470.06
314.853	458.06
315.083	434.06
315.312	431.06
315.542	420.06
315.771	452.06
316.001	414.06
316.23	423.06
316.46	418.06
316.689	438.06
316.919	441.06
317.148	432.06
317.377	435.06
317.607	428.06
317.836	446.06
318.065	434.06
318.295	430.06
318.524	424.06
318.753	412.06
318.983	423.06
319.212	422.06
319.441	449.06
319.67	437.06
319.9	439.06
320.129	420.06
320.358	440.06
320.587	454.06
320.816	456.06
321.046	478.06
321.275	477.06
321.504	483.06
321.733	454.06
321.962	461.06
322.191	487.06
322.42	502.06
322.649	518.06
322.878	525.06
323.108	535.06
323.337	564.06
323.566	588.06
323.795	653.06
324.024	651.06
324.253	803.06
324.482	1192.06
324.71	1886.06
324.939	2866.06
325.168	2386.06
325.397	1189.06
325.626	812.06
325.855	654.06
326.084	603.06
326.313	599.06
326.542	604.06
326.77	634.06
326.999	772.06
327.228	1063.06
327.457	1678.06
327.686	2170.06
327.914	1353.06
328.143	870.06
328.372	742.06
328.6	690.06
328.829	648.06
329.058	660.06
329.287	692.06
329.515	635.06
329.744	605.06
329.972	576.06
330.201	579.06
330.43	619.06
330.658	643.06
330.887	726.06
331.115	693.06
331.344	636.06
331.572	568.06
331.801	572.06
332.03	563.06
332.258	551.06
332.486	548.06
332.715	527.06
332.943	517.06
333.172	534.06
333.4	511.06
333.629	541.06
333.857	575.06
334.085	543.06
334.314	552.06
334.542	547.06
334.771	568.06
334.999	548.06
335.227	535.06
335.455	538.06
335.684	523.06
335.912	523.06
336.14	517.06
336.369	529.06
336.597	525.06
336.825	521.06
337.053	527.06
337.281	518.06
337.51	502.06
337.738	524.06
337.966	490.06
338.194	537.06
338.422	515.06
338.65	497.06
338.878	484.06
339.106	496.06
339.334	502.06
339.562	524.06
339.79	490.06
340.018	480.06
340.246	499.06
340.474	505.06
340.702	487.06
340.93	496.06
341.158	490.06
341.386	510.06
341.614	523.06
341.842	502.06
342.07	507.06
342.298	494.06
342.526	492.06
342.754	483.06
342.981	472.06
343.209	498.06
343.437	479.06
343.665	485.06
343.893	514.06
344.12	533.06
344.348	510.06
344.576	483.06
344.804	510.06
345.031	504.06
345.259	522.06
345.487	504.06
345.714	485.06
345.942	474.06
346.17	498.06
346.397	492.06
346.625	487.06
346.853	478.06
347.08	493.06
347.308	498.06
347.535	498.06
347.763	533.06
347.99	500.06
348.218	492.06
348.445	506.06
348.673	489.06
348.9	481.06
349.128	490.06
349.355	494.06
349.583	450.06
349.81	477.06
350.037	485.06
350.265	462.06
350.492	491.06
350.72	481.06
350.947	470.06
351.174	473.06
351.402	511.06
351.629	497.06
351.856	479.06
352.083	512.06
352.311	517.06
352.538	533.06
352.765	499.06
352.992	499.06
353.22	490.06
353.447	505.06
353.674	472.06
353.901	464.06
354.128	459.06
354.355	439.06
354.583	468.06
354.81	454.06
355.037	458.06
355.264	460.06
355.491	461.06
355.718	443.06
355.945	451.06
356.172	446.06
356.399	445.06
356.626	440.06
356.853	460.06
357.08	468.06
357.307	473.06
357.534	444.06
357.761	446.06
357.988	457.06
358.215	455.06
358.441	456.06
358.668	453.06
358.895	454.06
359.122	465.06
359.349	464.06
359.576	481.06
359.802	510.06
360.029	531.06
360.256	546.06
360.483	544.06
360.709	503.06
360.936	495.06
361.163	476.06
361.39	498.06
361.616	508.06
361.843	486.06
362.07	494.06
362.296	496.06
362.523	474.06
362.749	472.06
362.976	480.06
363.203	476.06
363.429	462.06
363.656	472.06
363.882	468.06
364.109	472.06
364.335	483.06
364.562	478.06
364.788	460.06
365.015	472.06
365.241	486.06
365.468	464.06
365.694	457.06
365.92	462.06
366.147	477.06
366.373	474.06
366.599	452.06
366.826	473.06
367.052	454.06
367.278	462.06
367.505	459.06
367.731	470.06
367.957	468.06
368.184	486.06
368.41	483.06
368.636	487.06
368.862	495.06
369.089	487.06
369.315	459.06
369.541	443.06
369.767	464.06
369.993	461.06
370.219	468.06
370.445	474.06
370.672	465.06
370.898	464.06
371.124	478.06
371.35	498.06
371.576	472.06
371.802	471.06
372.028	457.06
372.254	460.06
372.48	456.06
372.706	486.06
372.932	459.06
373.158	470.06
373.384	486.06
373.61	478.06
373.835	471.06
374.061	479.06
374.287	472.06
374.513	484.06
374.739	495.06
374.965	494.06
375.191	474.06
375.416	485.06
375.642	469.06
375.868	467.06
376.094	459.06
376.319	488.06
376.545	486.06
376.771	460.06
376.997	472.06
377.222	470.06
377.448	444.06
377.674	460.06
377.899	432.06
378.125	454.06
378.35	468.06
378.576	482.06
378.802	471.06
379.027	468.06
379.253	480.06
379.478	463.06
379.704	473.06
379.929	478.06
380.155	462.06
380.38	466.06
380.606	485.06
380.831	478.06
381.057	473.06
381.282	470.06
381.507	479.06
381.733	468.06
381.958	483.06
382.184	488.06
382.409	476.06
382.634	479.06
382.86	490.06
383.085	494.06
383.31	485.06
383.535	499.06
383.761	493.06
383.986	502.06
384.211	494.06
384.436	499.06
384.662	482.06
384.887	506.06
385.112	506.06
385.337	477.06
385.562	502.06
385.787	520.06
386.013	526.06
386.238	532.06
386.463	555.06
386.688	521.06
386.913	519.06
387.138	517.06
387.363	510.06
387.588	523.06
387.813	518.06
388.038	516.06
388.263	537.06
388.488	545.06
388.713	533.06
388.938	530.06
389.163	524.06
389.387	547.06
389.612	525.06
389.837	567.06
390.062	531.06
390.287	520.06
390.512	507.06
390.736	510.06
390.961	523.06
391.186	540.06
391.411	541.06
391.636	534.06
391.86	534.06
392.085	534.06
392.31	550.06
392.534	553.06
392.759	534.06
392.984	544.06
393.208	524.06
393.433	521.06
393.658	525.06
393.882	537.06
394.107	520.06
394.331	518.06
394.556	539.06
394.78	538.06
395.005	534.06
395.229	552.06
395.454	549.06
395.678	539.06
395.903	562.06
396.127	603.06
396.352	597.06
396.576	573.06
396.801	545.06
397.025	558.06
397.249	546.06
397.474	576.06
397.698	562.06
397.922	593.06
398.147	583.06
398.371	636.06
398.595	598.06
398.82	611.06
399.044	618.06
399.268	642.06
399.492	660.06
399.717	693.06
399.941	728.06
400.165	738.06
400.389	785.06
400.613	716.06
400.837	646.06
401.062	636.06
401.286	616.06
401.51	616.06
401.734	594.06
401.958	608.06
402.182	613.06
402.406	630.06
402.63	613.06
402.854	608.06
403.078	619.06
403.302	622.06
403.526	616.06
403.75	662.06
403.974	616.06
404.198	610.06
404.422	645.06
404.645	643.06
404.869	645.06
405.093	665.06
405.317	715.06
405.541	751.06
405.765	697.06
405.988	666.06
406.212	667.06
406.436	691.06
406.66	699.06
406.883	704.06
407.107	731.06
407.331	762.06
407.555	860.06
407.778	847.06
408.002	782.06
408.226	707.06
408.449	714.06
408.673	724.06
408.896	720.06
409.12	791.06
409.344	725.06
409.567	682.06
409.791	663.06
410.014	649.06
410.238	654.06
410.461	638.06
410.685	670.06
410.908	675.06
411.132	715.06
411.355	751.06
411.578	731.06
411.802	664.06
412.025	656.06
412.249	650.06
412.472	683.06
412.695	681.06
412.919	667.06
413.142	640.06
413.365	633.06
413.589	626.06
413.812	602.06
414.035	587.06
414.258	578.06
414.482	608.06
414.705	627.06
414.928	590.06
415.151	605.06
415.374	600.06
415.597	601.06
415.821	587.06
416.044	600.06
416.267	628.06
416.49	608.06
416.713	624.06
416.936	599.06
417.159	588.06
417.382	605.06
417.605	600.06
417.828	607.06
418.051	646.06
418.274	620.06
418.497	590.06
418.72	574.06
418.943	610.06
419.166	624.06
419.389	650.06
419.611	641.06
419.834	635.06
420.057	621.06
420.28	638.06
420.503	616.06
420.726	604.06
420.948	645.06
421.171	684.06
421.394	720.06
421.617	682.06
421.839	641.06
422.062	640.06
422.285	660.06
422.507	701.06
422.73	792.06
422.953	772.06
423.175	698.06
423.398	659.06
423.621	667.06
423.843	692.06
424.066	682.06
424.288	684.06
424.511	686.06
424.733	756.06
424.956	866.06
425.178	836.06
425.401	840.06
425.623	829.06
425.846	722.06
426.068	697.06
426.291	686.06
426.513	682.06
426.735	670.06
426.958	734.06
427.18	855.06
427.402	1050.06
427.625	1114.06
427.847	974.06
428.069	865.06
428.292	748.06
428.514	673.06
428.736	676.06
428.958	639.06
429.181	614.06
429.403	627.06
429.625	665.06
429.847	671.06
430.069	763.06
430.292	757.06
430.514	643.06
430.736	645.06
430.958	618.06
431.18	611.06
431.402	594.06
431.624	565.06
431.846	593.06
432.068	587.06
432.29	595.06
432.512	588.06
432.734	613.06
432.956	618.06
433.178	614.06
433.4	604.06
433.622	597.06
433.844	611.06
434.066	585.06
434.287	606.06
434.509	604.06
434.731	612.06
434.953	625.06
435.175	644.06
435.397	690.06
435.618	683.06
435.84	743.06
436.062	860.06
436.284	945.06
436.505	767.06
436.727	709.06
436.949	638.06
437.17	659.06
437.392	626.06
437.614	651.06
437.835	711.06
438.057	807.06
438.278	942.06
438.5	922.06
438.721	1019.06
438.943	987.06
439.165	780.06
439.386	699.06
439.608	680.06
439.829	702.06
440.05	730.06
440.272	779.06
440.493	778.06
440.715	656.06
440.936	656.06
441.158	628.06
441.379	632.06
441.6	651.06
441.822	683.06
442.043	730.06
442.264	851.06
442.486	871.06
442.707	742.06
442.928	705.06
443.149	718.06
443.371	754.06
443.592	795.06
443.813	909.06
444.034	976.06
444.255	802.06
444.476	707.06
444.698	696.06
444.919	703.06
445.14	771.06
445.361	732.06
445.582	715.06
445.803	809.06
446.024	953.06
446.245	955.06
446.466	865.06
446.687	746.06
446.908	678.06
447.129	640.06
447.35	644.06
447.571	630.06
447.792	625.06
448.013	636.06
448.234	640.06
448.455	710.06
448.675	873.06
448.896	1038.06
449.117	858.06
449.338	808.06
449.559	934.06
449.779	1041.06
450	830.06
450.221	706.06
450.442	638.06
450.662	632.06
450.883	619.06
451.104	652.06
451.324	623.06
451.545	612.06
451.766	594.06
451.986	575.06
452.207	566.06
452.428	550.06
452.648	568.06
452.869	589.06
453.089	576.06
453.31	572.06
453.53	564.06
453.751	582.06
453.971	568.06
454.192	595.06
454.412	568.06
454.633	547.06
454.853	556.06
455.073	574.06
455.294	592.06
455.514	666.06
455.734	661.06
455.955	574.06
456.175	553.06
456.395	552.06
456.616	520.06
456.836	516.06
457.056	513.06
457.276	514.06
457.497	542.06
457.717	523.06
457.937	532.06
458.157	571.06
458.377	571.06
458.598	583.06
458.818	630.06
459.038	738.06
459.258	788.06
459.478	634.06
459.698	628.06
459.918	616.06
460.138	602.06
460.358	590.06
460.578	594.06
460.798	593.06
461.018	638.06
461.238	609.06
461.458	588.06
461.678	597.06
461.898	630.06
462.118	616.06
462.338	622.06
462.558	615.06
462.777	646.06
462.997	662.06
463.217	649.06
463.437	677.06
463.657	656.06
463.876	656.06
464.096	681.06
464.316	661.06
464.536	651.06
464.755	657.06
464.975	650.06
465.195	723.06
465.414	762.06
465.634	728.06
465.854	654.06
466.073	624.06
466.293	580.06
466.512	597.06
466.732	602.06
466.951	592.06
467.171	582.06
467.391	592.06
467.61	596.06
467.829	576.06
468.049	595.06
468.268	590.06
468.488	579.06
468.707	558.06
468.927	558.06
469.146	564.06
469.365	574.06
469.585	557.06
469.804	561.06
470.023	600.06
470.243	589.06
470.462	577.06
470.681	625.06
470.901	613.06
471.12	594.06
471.339	584.06
471.558	588.06
471.777	582.06
471.997	587.06
472.216	606.06
472.435	586.06
472.654	597.06
472.873	590.06
473.092	592.06
473.311	570.06
473.53	580.06
473.749	585.06
473.968	623.06
474.187	735.06
474.406	821.06
474.625	689.06
474.844	603.06
475.063	598.06
475.282	575.06
475.501	578.06
475.72	614.06
475.939	599.06
476.158	588.06
476.377	590.06
476.596	603.06
476.814	611.06
477.033	618.06
477.252	633.06
477.471	626.06
477.69	617.06
477.908	634.06
478.127	631.06
478.346	608.06
478.564	650.06
478.783	676.06
479.002	689.06
479.22	670.06
479.439	673.06
479.658	712.06
479.876	729.06
480.095	719.06
480.313	754.06
480.532	730.06
480.751	727.06
480.969	735.06
481.188	766.06
481.406	741.06
481.624	711.06
481.843	703.06
482.061	698.06
482.28	682.06
482.498	704.06
482.717	671.06
482.935	714.06
483.153	706.06
483.372	684.06
483.59	672.06
483.808	686.06
484.027	676.06
484.245	704.06
484.463	698.06
484.681	698.06
484.9	695.06
485.118	712.06
485.336	687.06
485.554	727.06
485.772	709.06
485.99	716.06
486.209	716.06
486.427	735.06
486.645	754.06
486.863	746.06
487.081	777.06
487.299	740.06
487.517	742.06
487.735	709.06
487.953	718.06
488.171	746.06
488.389	728.06
488.607	745.06
488.825	767.06
489.043	753.06
489.261	750.06
489.479	756.06
489.696	765.06
489.914	752.06
490.132	762.06
490.35	759.06
490.568	783.06
490.786	803.06
491.003	801.06
491.221	818.06
491.439	810.06
491.657	819.06
491.874	839.06
492.092	826.06
492.31	841.06
492.527	832.06
492.745	848.06
492.963	865.06
493.18	867.06
493.398	858.06
493.615	880.06
493.833	887.06
494.05	870.06
494.268	882.06
494.485	878.06
494.703	895.06
494.92	872.06
495.138	881.06
495.355	900.06
495.573	891.06
495.79	873.06
496.008	909.06
496.225	890.06
496.442	916.06
496.66	882.06
496.877	885.06
497.094	884.06
497.312	918.06
497.529	925.06
497.746	919.06
497.963	934.06
498.181	972.06
498.398	978.06
498.615	996.06
498.832	1014.06
499.049	1052.06
499.267	1037.06
499.484	1092.06
499.701	1135.06
499.918	1148.06
500.135	1224.06
500.352	1256.06
500.569	1241.06
500.786	1262.06
501.003	1246.06
501.22	1216.06
501.437	1207.06
501.654	1163.06
