Data from 1988.PennyLincolnUp.Lamp.En5.5.200Scan.071819.P2_HRD10591_17-20-23-972.txt Node
Date: Thu Jul 18 17:20:23 EDT 2019
User: cochatt
Spectrometer: HR+D1059
Trigger mode: 1
Integration Time (sec): 1.000000E-1
Scans to average: 1
Electric dark correction enabled: true
Nonlinearity correction enabled: false
Boxcar width: 0
XAxis mode: Wavelengths
Number of Pixels in Spectrum: 2048
>>>>>Begin Spectral Data<<<<<
223.165	-11.94
223.4	-11.94
223.635	-11.94
223.869	-17.94
224.104	-15.94
224.338	-18.94
224.573	-12.94
224.808	-4.94
225.042	-6.94
225.277	1.06
225.511	1.06
225.746	-4.94
225.98	4.06
226.215	11.06
226.449	14.06
226.683	11.06
226.918	28.06
227.152	24.06
227.387	40.06
227.621	28.06
227.856	31.06
228.09	43.06
228.324	38.06
228.559	56.06
228.793	59.06
229.027	105.06
229.262	93.06
229.496	118.06
229.73	143.06
229.964	173.06
230.199	137.06
230.433	123.06
230.667	122.06
230.901	116.06
231.136	122.06
231.37	121.06
231.604	121.06
231.838	115.06
232.072	111.06
232.306	117.06
232.541	119.06
232.775	115.06
233.009	99.06
233.243	115.06
233.477	105.06
233.711	123.06
233.945	125.06
234.179	130.06
234.413	126.06
234.647	114.06
234.881	123.06
235.115	121.06
235.349	131.06
235.583	134.06
235.817	131.06
236.051	145.06
236.285	131.06
236.519	123.06
236.753	135.06
236.987	139.06
237.221	189.06
237.455	245.06
237.689	186.06
237.922	153.06
238.156	151.06
238.39	132.06
238.624	128.06
238.858	122.06
239.091	125.06
239.325	126.06
239.559	123.06
239.793	147.06
240.027	136.06
240.26	143.06
240.494	158.06
240.728	152.06
240.961	158.06
241.195	157.06
241.429	138.06
241.662	130.06
241.896	141.06
242.13	137.06
242.363	131.06
242.597	142.06
242.83	125.06
243.064	124.06
243.298	139.06
243.531	151.06
243.765	139.06
243.998	138.06
244.232	143.06
244.465	154.06
244.699	165.06
244.932	158.06
245.166	138.06
245.399	155.06
245.633	167.06
245.866	151.06
246.099	142.06
246.333	160.06
246.566	155.06
246.8	161.06
247.033	151.06
247.266	162.06
247.5	177.06
247.733	174.06
247.966	177.06
248.2	182.06
248.433	179.06
248.666	187.06
248.899	185.06
249.133	214.06
249.366	221.06
249.599	191.06
249.832	199.06
250.066	183.06
250.299	184.06
250.532	178.06
250.765	192.06
250.998	224.06
251.231	229.06
251.465	222.06
251.698	200.06
251.931	205.06
252.164	207.06
252.397	201.06
252.63	211.06
252.863	213.06
253.096	223.06
253.329	230.06
253.562	203.06
253.795	212.06
254.028	220.06
254.261	230.06
254.494	219.06
254.727	261.06
254.96	301.06
255.193	290.06
255.426	244.06
255.659	238.06
255.892	242.06
256.124	228.06
256.357	203.06
256.59	244.06
256.823	242.06
257.056	210.06
257.289	214.06
257.521	216.06
257.754	209.06
257.987	224.06
258.22	218.06
258.452	214.06
258.685	230.06
258.918	209.06
259.151	222.06
259.383	224.06
259.616	225.06
259.849	238.06
260.081	222.06
260.314	272.06
260.547	269.06
260.779	241.06
261.012	238.06
261.244	247.06
261.477	254.06
261.71	249.06
261.942	241.06
262.175	257.06
262.407	242.06
262.64	224.06
262.872	239.06
263.105	237.06
263.337	241.06
263.57	230.06
263.802	221.06
264.035	222.06
264.267	214.06
264.499	243.06
264.732	225.06
264.964	217.06
265.197	218.06
265.429	224.06
265.661	225.06
265.894	234.06
266.126	245.06
266.358	227.06
266.591	229.06
266.823	241.06
267.055	245.06
267.287	248.06
267.52	247.06
267.752	249.06
267.984	232.06
268.216	259.06
268.448	246.06
268.681	255.06
268.913	243.06
269.145	279.06
269.377	283.06
269.609	287.06
269.841	289.06
270.073	282.06
270.306	307.06
270.538	335.06
270.77	335.06
271.002	325.06
271.234	309.06
271.466	309.06
271.698	326.06
271.93	346.06
272.162	360.06
272.394	345.06
272.626	323.06
272.858	299.06
273.09	287.06
273.322	296.06
273.553	281.06
273.785	281.06
274.017	274.06
274.249	276.06
274.481	275.06
274.713	285.06
274.945	305.06
275.176	291.06
275.408	280.06
275.64	287.06
275.872	281.06
276.104	306.06
276.335	274.06
276.567	281.06
276.799	321.06
277.031	340.06
277.262	331.06
277.494	336.06
277.726	316.06
277.957	297.06
278.189	292.06
278.421	277.06
278.652	298.06
278.884	276.06
279.115	296.06
279.347	299.06
279.579	293.06
279.81	274.06
280.042	279.06
280.273	288.06
280.505	287.06
280.736	282.06
280.968	290.06
281.199	292.06
281.431	276.06
281.662	294.06
281.894	264.06
282.125	286.06
282.356	290.06
282.588	315.06
282.819	349.06
283.051	307.06
283.282	302.06
283.513	291.06
283.745	294.06
283.976	296.06
284.207	314.06
284.439	283.06
284.67	279.06
284.901	293.06
285.132	284.06
285.364	305.06
285.595	302.06
285.826	293.06
286.057	286.06
286.288	299.06
286.52	304.06
286.751	294.06
286.982	302.06
287.213	317.06
287.444	293.06
287.675	312.06
287.906	318.06
288.138	323.06
288.369	314.06
288.6	337.06
288.831	312.06
289.062	312.06
289.293	303.06
289.524	303.06
289.755	315.06
289.986	299.06
290.217	295.06
290.448	311.06
290.679	301.06
290.91	309.06
291.141	299.06
291.371	331.06
291.602	318.06
291.833	304.06
292.064	298.06
292.295	317.06
292.526	306.06
292.757	306.06
292.987	315.06
293.218	319.06
293.449	315.06
293.68	322.06
293.91	321.06
294.141	323.06
294.372	301.06
294.603	315.06
294.833	312.06
295.064	321.06
295.295	313.06
295.525	310.06
295.756	310.06
295.987	328.06
296.217	355.06
296.448	341.06
296.679	347.06
296.909	322.06
297.14	309.06
297.37	319.06
297.601	328.06
297.831	304.06
298.062	340.06
298.292	332.06
298.523	324.06
298.753	317.06
298.984	322.06
299.214	343.06
299.445	335.06
299.675	345.06
299.905	323.06
300.136	333.06
300.366	337.06
300.597	327.06
300.827	338.06
301.057	349.06
301.288	351.06
301.518	358.06
301.748	355.06
301.979	355.06
302.209	338.06
302.439	360.06
302.669	348.06
302.9	343.06
303.13	332.06
303.36	353.06
303.59	361.06
303.82	379.06
304.051	375.06
304.281	351.06
304.511	373.06
304.741	349.06
304.971	359.06
305.201	367.06
305.431	364.06
305.661	361.06
305.891	354.06
306.121	357.06
306.352	377.06
306.582	367.06
306.812	338.06
307.042	351.06
307.272	351.06
307.502	352.06
307.731	373.06
307.961	367.06
308.191	359.06
308.421	349.06
308.651	389.06
308.881	393.06
309.111	370.06
309.341	358.06
309.571	381.06
309.8	398.06
310.03	391.06
310.26	410.06
310.49	400.06
310.72	408.06
310.949	407.06
311.179	434.06
311.409	427.06
311.639	427.06
311.868	418.06
312.098	407.06
312.328	408.06
312.557	447.06
312.787	449.06
313.017	426.06
313.246	433.06
313.476	433.06
313.706	417.06
313.935	423.06
314.165	421.06
314.394	436.06
314.624	437.06
314.853	435.06
315.083	426.06
315.312	424.06
315.542	398.06
315.771	417.06
316.001	393.06
316.23	403.06
316.46	410.06
316.689	410.06
316.919	416.06
317.148	424.06
317.377	424.06
317.607	432.06
317.836	422.06
318.065	403.06
318.295	419.06
318.524	411.06
318.753	430.06
318.983	407.06
319.212	411.06
319.441	422.06
319.67	430.06
319.9	413.06
320.129	422.06
320.358	417.06
320.587	437.06
320.816	429.06
321.046	446.06
321.275	445.06
321.504	453.06
321.733	447.06
321.962	446.06
322.191	458.06
322.42	465.06
322.649	490.06
322.878	513.06
323.108	490.06
323.337	519.06
323.566	536.06
323.795	600.06
324.024	628.06
324.253	771.06
324.482	1104.06
324.71	1775.06
324.939	2569.06
325.168	2209.06
325.397	1096.06
325.626	746.06
325.855	622.06
326.084	567.06
326.313	568.06
326.542	553.06
326.77	608.06
326.999	718.06
327.228	997.06
327.457	1537.06
327.686	1981.06
327.914	1240.06
328.143	804.06
328.372	697.06
328.6	629.06
328.829	603.06
329.058	645.06
329.287	647.06
329.515	615.06
329.744	567.06
329.972	550.06
330.201	545.06
330.43	575.06
330.658	610.06
330.887	664.06
331.115	669.06
331.344	584.06
331.572	547.06
331.801	543.06
332.03	535.06
332.258	528.06
332.486	523.06
332.715	504.06
332.943	509.06
333.172	510.06
333.4	501.06
333.629	507.06
333.857	533.06
334.085	512.06
334.314	510.06
334.542	525.06
334.771	519.06
334.999	506.06
335.227	504.06
335.455	507.06
335.684	489.06
335.912	472.06
336.14	528.06
336.369	509.06
336.597	521.06
336.825	500.06
337.053	517.06
337.281	485.06
337.51	470.06
337.738	488.06
337.966	504.06
338.194	504.06
338.422	496.06
338.65	487.06
338.878	498.06
339.106	483.06
339.334	481.06
339.562	451.06
339.79	444.06
340.018	474.06
340.246	485.06
340.474	478.06
340.702	498.06
340.93	489.06
341.158	478.06
341.386	494.06
341.614	481.06
341.842	474.06
342.07	458.06
342.298	486.06
342.526	473.06
342.754	450.06
342.981	455.06
343.209	435.06
343.437	461.06
343.665	474.06
343.893	510.06
344.12	499.06
344.348	486.06
344.576	490.06
344.804	510.06
345.031	520.06
345.259	505.06
345.487	521.06
345.714	510.06
345.942	469.06
346.17	462.06
346.397	483.06
346.625	459.06
346.853	474.06
347.08	478.06
347.308	469.06
347.535	486.06
347.763	514.06
347.99	457.06
348.218	457.06
348.445	482.06
348.673	467.06
348.9	466.06
349.128	474.06
349.355	458.06
349.583	453.06
349.81	451.06
350.037	472.06
350.265	455.06
350.492	454.06
350.72	449.06
350.947	472.06
351.174	480.06
351.402	481.06
351.629	477.06
351.856	471.06
352.083	483.06
352.311	509.06
352.538	485.06
352.765	501.06
352.992	477.06
353.22	464.06
353.447	465.06
353.674	445.06
353.901	453.06
354.128	430.06
354.355	437.06
354.583	466.06
354.81	441.06
355.037	452.06
355.264	442.06
355.491	438.06
355.718	437.06
355.945	439.06
356.172	453.06
356.399	445.06
356.626	430.06
356.853	434.06
357.08	449.06
357.307	449.06
357.534	429.06
357.761	450.06
357.988	437.06
358.215	434.06
358.441	438.06
358.668	451.06
358.895	446.06
359.122	448.06
359.349	455.06
359.576	475.06
359.802	501.06
360.029	535.06
360.256	517.06
360.483	507.06
360.709	494.06
360.936	461.06
361.163	454.06
361.39	475.06
361.616	499.06
361.843	468.06
362.07	477.06
362.296	482.06
362.523	474.06
362.749	457.06
362.976	470.06
363.203	471.06
363.429	461.06
363.656	456.06
363.882	457.06
364.109	472.06
364.335	469.06
364.562	440.06
364.788	455.06
365.015	449.06
365.241	462.06
365.468	460.06
365.694	470.06
365.92	471.06
366.147	454.06
366.373	463.06
366.599	456.06
366.826	456.06
367.052	440.06
367.278	464.06
367.505	459.06
367.731	458.06
367.957	451.06
368.184	456.06
368.41	466.06
368.636	485.06
368.862	471.06
369.089	467.06
369.315	449.06
369.541	469.06
369.767	452.06
369.993	467.06
370.219	461.06
370.445	465.06
370.672	452.06
370.898	450.06
371.124	442.06
371.35	456.06
371.576	444.06
371.802	458.06
372.028	465.06
372.254	438.06
372.48	441.06
372.706	473.06
372.932	466.06
373.158	450.06
373.384	465.06
373.61	446.06
373.835	473.06
374.061	451.06
374.287	468.06
374.513	460.06
374.739	474.06
374.965	485.06
375.191	487.06
375.416	472.06
375.642	470.06
375.868	462.06
376.094	440.06
376.319	438.06
376.545	436.06
376.771	455.06
376.997	442.06
377.222	444.06
377.448	449.06
377.674	461.06
377.899	439.06
378.125	448.06
378.35	459.06
378.576	451.06
378.802	453.06
379.027	459.06
379.253	455.06
379.478	434.06
379.704	460.06
379.929	445.06
380.155	467.06
380.38	475.06
380.606	454.06
380.831	465.06
381.057	469.06
381.282	473.06
381.507	441.06
381.733	458.06
381.958	447.06
382.184	458.06
382.409	477.06
382.634	458.06
382.86	453.06
383.085	477.06
383.31	476.06
383.535	491.06
383.761	473.06
383.986	462.06
384.211	484.06
384.436	485.06
384.662	488.06
384.887	493.06
385.112	507.06
385.337	475.06
385.562	493.06
385.787	505.06
386.013	506.06
386.238	518.06
386.463	521.06
386.688	504.06
386.913	522.06
387.138	497.06
387.363	528.06
387.588	497.06
387.813	499.06
388.038	503.06
388.263	500.06
388.488	512.06
388.713	487.06
388.938	511.06
389.163	519.06
389.387	514.06
389.612	503.06
389.837	498.06
390.062	520.06
390.287	516.06
390.512	510.06
390.736	529.06
390.961	529.06
391.186	498.06
391.411	509.06
391.636	518.06
391.86	527.06
392.085	517.06
392.31	515.06
392.534	535.06
392.759	517.06
392.984	523.06
393.208	517.06
393.433	526.06
393.658	511.06
393.882	515.06
394.107	499.06
394.331	512.06
394.556	494.06
394.78	509.06
395.005	498.06
395.229	511.06
395.454	534.06
395.678	551.06
395.903	551.06
396.127	565.06
396.352	585.06
396.576	559.06
396.801	538.06
397.025	541.06
397.249	543.06
397.474	540.06
397.698	558.06
397.922	566.06
398.147	579.06
398.371	575.06
398.595	575.06
398.82	568.06
399.044	602.06
399.268	637.06
399.492	656.06
399.717	671.06
399.941	711.06
400.165	724.06
400.389	768.06
400.613	675.06
400.837	637.06
401.062	611.06
401.286	591.06
401.51	594.06
401.734	571.06
401.958	592.06
402.182	600.06
402.406	602.06
402.63	608.06
402.854	623.06
403.078	593.06
403.302	619.06
403.526	616.06
403.75	595.06
403.974	607.06
404.198	622.06
404.422	605.06
404.645	629.06
404.869	625.06
405.093	638.06
405.317	669.06
405.541	692.06
405.765	665.06
405.988	645.06
406.212	650.06
406.436	667.06
406.66	682.06
406.883	659.06
407.107	693.06
407.331	734.06
407.555	837.06
407.778	825.06
408.002	785.06
408.226	711.06
408.449	697.06
408.673	673.06
408.896	693.06
409.12	751.06
409.344	715.06
409.567	654.06
409.791	623.06
410.014	629.06
410.238	606.06
410.461	621.06
410.685	637.06
410.908	643.06
411.132	674.06
411.355	738.06
411.578	689.06
411.802	635.06
412.025	593.06
412.249	602.06
412.472	629.06
412.695	648.06
412.919	642.06
413.142	583.06
413.365	602.06
413.589	602.06
413.812	594.06
414.035	578.06
414.258	563.06
414.482	564.06
414.705	568.06
414.928	554.06
415.151	567.06
415.374	566.06
415.597	576.06
415.821	587.06
416.044	580.06
416.267	597.06
416.49	579.06
416.713	571.06
416.936	555.06
417.159	569.06
417.382	591.06
417.605	605.06
417.828	601.06
418.051	609.06
418.274	614.06
418.497	592.06
418.72	569.06
418.943	561.06
419.166	613.06
419.389	628.06
419.611	617.06
419.834	629.06
420.057	601.06
420.28	591.06
420.503	590.06
420.726	593.06
420.948	625.06
421.171	661.06
421.394	711.06
421.617	637.06
421.839	607.06
422.062	618.06
422.285	628.06
422.507	669.06
422.73	767.06
422.953	739.06
423.175	668.06
423.398	646.06
423.621	638.06
423.843	654.06
424.066	657.06
424.288	650.06
424.511	695.06
424.733	750.06
424.956	827.06
425.178	810.06
425.401	797.06
425.623	829.06
425.846	710.06
426.068	671.06
426.291	655.06
426.513	652.06
426.735	650.06
426.958	710.06
427.18	825.06
427.402	973.06
427.625	1053.06
427.847	889.06
428.069	768.06
428.292	701.06
428.514	635.06
428.736	638.06
428.958	626.06
429.181	605.06
429.403	604.06
429.625	624.06
429.847	659.06
430.069	723.06
430.292	735.06
430.514	631.06
430.736	580.06
430.958	601.06
431.18	601.06
431.402	562.06
431.624	567.06
431.846	562.06
432.068	587.06
432.29	575.06
432.512	579.06
432.734	593.06
432.956	575.06
433.178	587.06
433.4	586.06
433.622	565.06
433.844	553.06
434.066	568.06
434.287	585.06
434.509	581.06
434.731	587.06
434.953	605.06
435.175	644.06
435.397	648.06
435.618	659.06
435.84	746.06
436.062	840.06
436.284	901.06
436.505	759.06
436.727	661.06
436.949	630.06
437.17	607.06
437.392	605.06
437.614	644.06
437.835	667.06
438.057	777.06
438.278	883.06
438.5	904.06
438.721	990.06
438.943	940.06
439.165	743.06
439.386	691.06
439.608	685.06
439.829	659.06
440.05	672.06
440.272	746.06
440.493	714.06
440.715	646.06
440.936	631.06
441.158	625.06
441.379	613.06
441.6	623.06
441.822	639.06
442.043	715.06
442.264	804.06
442.486	870.06
442.707	720.06
442.928	674.06
443.149	676.06
443.371	706.06
443.592	752.06
443.813	860.06
444.034	947.06
444.255	793.06
444.476	702.06
444.698	661.06
444.919	689.06
445.14	821.06
445.361	729.06
445.582	692.06
445.803	791.06
446.024	938.06
446.245	923.06
446.466	807.06
446.687	703.06
446.908	652.06
447.129	637.06
447.35	622.06
447.571	603.06
447.792	595.06
448.013	614.06
448.234	635.06
448.455	701.06
448.675	813.06
448.896	957.06
449.117	825.06
449.338	784.06
449.559	907.06
449.779	1001.06
450	788.06
450.221	647.06
450.442	620.06
450.662	621.06
450.883	590.06
451.104	617.06
451.324	607.06
451.545	571.06
451.766	566.06
451.986	542.06
452.207	538.06
452.428	533.06
452.648	558.06
452.869	545.06
453.089	577.06
453.31	561.06
453.53	569.06
453.751	527.06
453.971	533.06
454.192	563.06
454.412	576.06
454.633	547.06
454.853	543.06
455.073	548.06
455.294	581.06
455.514	641.06
455.734	634.06
455.955	555.06
456.175	509.06
456.395	511.06
456.616	507.06
456.836	502.06
457.056	522.06
457.276	506.06
457.497	502.06
457.717	518.06
457.937	519.06
458.157	535.06
458.377	546.06
458.598	543.06
458.818	626.06
459.038	727.06
459.258	767.06
459.478	624.06
459.698	600.06
459.918	573.06
460.138	592.06
460.358	578.06
460.578	593.06
460.798	590.06
461.018	583.06
461.238	600.06
461.458	589.06
461.678	590.06
461.898	590.06
462.118	589.06
462.338	606.06
462.558	616.06
462.777	617.06
462.997	617.06
463.217	615.06
463.437	666.06
463.657	643.06
463.876	620.06
464.096	645.06
464.316	614.06
464.536	644.06
464.755	627.06
464.975	655.06
465.195	673.06
465.414	775.06
465.634	687.06
465.854	640.06
466.073	607.06
466.293	587.06
466.512	575.06
466.732	567.06
466.951	576.06
467.171	567.06
467.391	555.06
467.61	564.06
467.829	564.06
468.049	552.06
468.268	545.06
468.488	563.06
468.707	541.06
468.927	562.06
469.146	547.06
469.365	549.06
469.585	541.06
469.804	529.06
470.023	554.06
470.243	562.06
470.462	573.06
470.681	573.06
470.901	598.06
471.12	578.06
471.339	577.06
471.558	558.06
471.777	564.06
471.997	549.06
472.216	561.06
472.435	573.06
472.654	567.06
472.873	551.06
473.092	574.06
473.311	587.06
473.53	559.06
473.749	589.06
473.968	606.06
474.187	741.06
474.406	751.06
474.625	632.06
474.844	590.06
475.063	569.06
475.282	589.06
475.501	585.06
475.72	562.06
475.939	579.06
476.158	593.06
476.377	593.06
476.596	586.06
476.814	594.06
477.033	583.06
477.252	608.06
477.471	605.06
477.69	601.06
477.908	607.06
478.127	633.06
478.346	610.06
478.564	643.06
478.783	606.06
479.002	649.06
479.22	645.06
479.439	655.06
479.658	687.06
479.876	695.06
480.095	707.06
480.313	747.06
480.532	712.06
480.751	696.06
480.969	688.06
481.188	679.06
481.406	695.06
481.624	692.06
481.843	668.06
482.061	677.06
482.28	690.06
482.498	666.06
482.717	681.06
482.935	663.06
483.153	667.06
483.372	668.06
483.59	689.06
483.808	662.06
484.027	663.06
484.245	692.06
484.463	693.06
484.681	668.06
484.9	672.06
485.118	679.06
485.336	675.06
485.554	696.06
485.772	682.06
485.99	718.06
486.209	679.06
486.427	714.06
486.645	701.06
486.863	708.06
487.081	728.06
487.299	715.06
487.517	720.06
487.735	746.06
487.953	715.06
488.171	705.06
488.389	711.06
488.607	748.06
488.825	726.06
489.043	727.06
489.261	729.06
489.479	712.06
489.696	731.06
489.914	739.06
490.132	733.06
490.35	725.06
490.568	747.06
490.786	765.06
491.003	754.06
491.221	777.06
491.439	782.06
491.657	802.06
491.874	818.06
492.092	805.06
492.31	829.06
492.527	840.06
492.745	800.06
492.963	834.06
493.18	820.06
493.398	840.06
493.615	824.06
493.833	848.06
494.05	824.06
494.268	856.06
494.485	816.06
494.703	838.06
494.92	853.06
495.138	839.06
495.355	847.06
495.573	836.06
495.79	868.06
496.008	863.06
496.225	823.06
496.442	825.06
496.66	869.06
496.877	866.06
497.094	906.06
497.312	876.06
497.529	864.06
497.746	891.06
497.963	899.06
498.181	927.06
498.398	950.06
498.615	939.06
498.832	979.06
499.049	985.06
499.267	993.06
499.484	1083.06
499.701	1089.06
499.918	1115.06
500.135	1154.06
500.352	1213.06
500.569	1250.06
500.786	1209.06
501.003	1213.06
501.22	1161.06
501.437	1175.06
501.654	1109.06
