Data from 1988.PennyLincolnUp.Lamp.En5.5.200Scan.071819.P2_HRD10591_17-18-22-973.txt Node
Date: Thu Jul 18 17:18:22 EDT 2019
User: cochatt
Spectrometer: HR+D1059
Trigger mode: 1
Integration Time (sec): 1.000000E-1
Scans to average: 1
Electric dark correction enabled: true
Nonlinearity correction enabled: false
Boxcar width: 0
XAxis mode: Wavelengths
Number of Pixels in Spectrum: 2048
>>>>>Begin Spectral Data<<<<<
223.165	-23.38
223.4	-23.38
223.635	-23.38
223.869	-14.38
224.104	-16.38
224.338	-23.38
224.573	-8.38
224.808	-11.38
225.042	3.62
225.277	-2.38
225.511	1.62
225.746	1.62
225.98	6.62
226.215	4.62
226.449	20.62
226.683	12.62
226.918	22.62
227.152	25.62
227.387	31.62
227.621	28.62
227.856	38.62
228.09	44.62
228.324	56.62
228.559	44.62
228.793	55.62
229.027	93.62
229.262	102.62
229.496	96.62
229.73	90.62
229.964	117.62
230.199	104.62
230.433	103.62
230.667	100.62
230.901	86.62
231.136	97.62
231.37	99.62
231.604	103.62
231.838	103.62
232.072	118.62
232.306	100.62
232.541	103.62
232.775	120.62
233.009	109.62
233.243	104.62
233.477	123.62
233.711	122.62
233.945	117.62
234.179	107.62
234.413	112.62
234.647	103.62
234.881	104.62
235.115	114.62
235.349	105.62
235.583	117.62
235.817	103.62
236.051	106.62
236.285	108.62
236.519	105.62
236.753	120.62
236.987	119.62
237.221	148.62
237.455	170.62
237.689	138.62
237.922	108.62
238.156	120.62
238.39	103.62
238.624	111.62
238.858	115.62
239.091	117.62
239.325	117.62
239.559	121.62
239.793	105.62
240.027	119.62
240.26	124.62
240.494	125.62
240.728	120.62
240.961	122.62
241.195	122.62
241.429	122.62
241.662	114.62
241.896	125.62
242.13	111.62
242.363	123.62
242.597	117.62
242.83	139.62
243.064	123.62
243.298	121.62
243.531	121.62
243.765	137.62
243.998	120.62
244.232	131.62
244.465	123.62
244.699	131.62
244.932	130.62
245.166	144.62
245.399	119.62
245.633	135.62
245.866	126.62
246.099	141.62
246.333	138.62
246.566	132.62
246.8	135.62
247.033	143.62
247.266	150.62
247.5	133.62
247.733	149.62
247.966	149.62
248.2	145.62
248.433	149.62
248.666	147.62
248.899	159.62
249.133	142.62
249.366	157.62
249.599	159.62
249.832	147.62
250.066	146.62
250.299	147.62
250.532	148.62
250.765	157.62
250.998	166.62
251.231	182.62
251.465	168.62
251.698	170.62
251.931	170.62
252.164	162.62
252.397	183.62
252.63	159.62
252.863	171.62
253.096	187.62
253.329	188.62
253.562	186.62
253.795	160.62
254.028	165.62
254.261	160.62
254.494	176.62
254.727	195.62
254.96	196.62
255.193	205.62
255.426	205.62
255.659	191.62
255.892	191.62
256.124	182.62
256.357	161.62
256.59	165.62
256.823	156.62
257.056	146.62
257.289	170.62
257.521	172.62
257.754	169.62
257.987	184.62
258.22	172.62
258.452	181.62
258.685	164.62
258.918	174.62
259.151	171.62
259.383	165.62
259.616	189.62
259.849	175.62
260.081	199.62
260.314	201.62
260.547	199.62
260.779	193.62
261.012	192.62
261.244	185.62
261.477	188.62
261.71	187.62
261.942	175.62
262.175	194.62
262.407	190.62
262.64	198.62
262.872	188.62
263.105	173.62
263.337	179.62
263.57	181.62
263.802	184.62
264.035	198.62
264.267	179.62
264.499	182.62
264.732	187.62
264.964	181.62
265.197	189.62
265.429	175.62
265.661	182.62
265.894	176.62
266.126	181.62
266.358	161.62
266.591	185.62
266.823	199.62
267.055	191.62
267.287	208.62
267.52	199.62
267.752	197.62
267.984	173.62
268.216	184.62
268.448	210.62
268.681	188.62
268.913	205.62
269.145	213.62
269.377	213.62
269.609	213.62
269.841	214.62
270.073	227.62
270.306	235.62
270.538	251.62
270.77	244.62
271.002	223.62
271.234	223.62
271.466	242.62
271.698	251.62
271.93	240.62
272.162	236.62
272.394	225.62
272.626	249.62
272.858	217.62
273.09	227.62
273.322	224.62
273.553	212.62
273.785	220.62
274.017	214.62
274.249	212.62
274.481	206.62
274.713	216.62
274.945	221.62
275.176	220.62
275.408	225.62
275.64	217.62
275.872	231.62
276.104	228.62
276.335	208.62
276.567	229.62
276.799	230.62
277.031	241.62
277.262	232.62
277.494	259.62
277.726	243.62
277.957	249.62
278.189	233.62
278.421	223.62
278.652	213.62
278.884	222.62
279.115	226.62
279.347	240.62
279.579	227.62
279.81	235.62
280.042	253.62
280.273	221.62
280.505	220.62
280.736	232.62
280.968	239.62
281.199	217.62
281.431	220.62
281.662	221.62
281.894	229.62
282.125	236.62
282.356	234.62
282.588	233.62
282.819	250.62
283.051	234.62
283.282	228.62
283.513	236.62
283.745	225.62
283.976	247.62
284.207	242.62
284.439	251.62
284.67	242.62
284.901	249.62
285.132	231.62
285.364	241.62
285.595	241.62
285.826	241.62
286.057	240.62
286.288	249.62
286.52	226.62
286.751	249.62
286.982	252.62
287.213	251.62
287.444	254.62
287.675	230.62
287.906	242.62
288.138	264.62
288.369	274.62
288.6	277.62
288.831	241.62
289.062	239.62
289.293	248.62
289.524	272.62
289.755	252.62
289.986	243.62
290.217	244.62
290.448	261.62
290.679	274.62
290.91	247.62
291.141	239.62
291.371	264.62
291.602	277.62
291.833	246.62
292.064	259.62
292.295	263.62
292.526	264.62
292.757	247.62
292.987	261.62
293.218	267.62
293.449	241.62
293.68	235.62
293.91	241.62
294.141	270.62
294.372	266.62
294.603	245.62
294.833	268.62
295.064	229.62
295.295	256.62
295.525	269.62
295.756	249.62
295.987	270.62
296.217	279.62
296.448	283.62
296.679	253.62
296.909	246.62
297.14	263.62
297.37	256.62
297.601	271.62
297.831	260.62
298.062	258.62
298.292	278.62
298.523	273.62
298.753	264.62
298.984	273.62
299.214	276.62
299.445	259.62
299.675	264.62
299.905	303.62
300.136	277.62
300.366	275.62
300.597	283.62
300.827	286.62
301.057	270.62
301.288	279.62
301.518	270.62
301.748	276.62
301.979	285.62
302.209	276.62
302.439	284.62
302.669	272.62
302.9	308.62
303.13	275.62
303.36	277.62
303.59	278.62
303.82	283.62
304.051	287.62
304.281	282.62
304.511	289.62
304.741	286.62
304.971	265.62
305.201	286.62
305.431	282.62
305.661	269.62
305.891	294.62
306.121	292.62
306.352	284.62
306.582	303.62
306.812	286.62
307.042	305.62
307.272	311.62
307.502	288.62
307.731	294.62
307.961	286.62
308.191	275.62
308.421	298.62
308.651	279.62
308.881	276.62
309.111	293.62
309.341	305.62
309.571	330.62
309.8	305.62
310.03	309.62
310.26	302.62
310.49	290.62
310.72	297.62
310.949	307.62
311.179	341.62
311.409	311.62
311.639	315.62
311.868	325.62
312.098	298.62
312.328	312.62
312.557	314.62
312.787	330.62
313.017	317.62
313.246	319.62
313.476	325.62
313.706	321.62
313.935	338.62
314.165	322.62
314.394	315.62
314.624	309.62
314.853	320.62
315.083	321.62
315.312	319.62
315.542	320.62
315.771	338.62
316.001	325.62
316.23	323.62
316.46	337.62
316.689	318.62
316.919	310.62
317.148	314.62
317.377	343.62
317.607	337.62
317.836	314.62
318.065	326.62
318.295	331.62
318.524	333.62
318.753	332.62
318.983	344.62
319.212	324.62
319.441	335.62
319.67	337.62
319.9	322.62
320.129	314.62
320.358	333.62
320.587	327.62
320.816	323.62
321.046	332.62
321.275	333.62
321.504	328.62
321.733	337.62
321.962	342.62
322.191	349.62
322.42	355.62
322.649	336.62
322.878	368.62
323.108	383.62
323.337	375.62
323.566	376.62
323.795	399.62
324.024	432.62
324.253	475.62
324.482	635.62
324.71	933.62
324.939	1307.62
325.168	1137.62
325.397	616.62
325.626	439.62
325.855	397.62
326.084	387.62
326.313	389.62
326.542	398.62
326.77	435.62
326.999	463.62
327.228	596.62
327.457	847.62
327.686	1018.62
327.914	682.62
328.143	483.62
328.372	444.62
328.6	415.62
328.829	428.62
329.058	410.62
329.287	413.62
329.515	403.62
329.744	395.62
329.972	372.62
330.201	380.62
330.43	416.62
330.658	407.62
330.887	433.62
331.115	438.62
331.344	396.62
331.572	383.62
331.801	387.62
332.03	379.62
332.258	377.62
332.486	390.62
332.715	400.62
332.943	392.62
333.172	379.62
333.4	386.62
333.629	401.62
333.857	392.62
334.085	391.62
334.314	409.62
334.542	395.62
334.771	387.62
334.999	390.62
335.227	397.62
335.455	396.62
335.684	385.62
335.912	365.62
336.14	357.62
336.369	372.62
336.597	393.62
336.825	393.62
337.053	391.62
337.281	364.62
337.51	385.62
337.738	386.62
337.966	370.62
338.194	391.62
338.422	390.62
338.65	405.62
338.878	401.62
339.106	367.62
339.334	378.62
339.562	378.62
339.79	370.62
340.018	367.62
340.246	360.62
340.474	349.62
340.702	367.62
340.93	371.62
341.158	368.62
341.386	369.62
341.614	399.62
341.842	360.62
342.07	371.62
342.298	364.62
342.526	354.62
342.754	357.62
342.981	379.62
343.209	371.62
343.437	361.62
343.665	367.62
343.893	375.62
344.12	388.62
344.348	387.62
344.576	360.62
344.804	373.62
345.031	371.62
345.259	380.62
345.487	352.62
345.714	369.62
345.942	368.62
346.17	338.62
346.397	342.62
346.625	356.62
346.853	340.62
347.08	362.62
347.308	343.62
347.535	393.62
347.763	376.62
347.99	351.62
348.218	349.62
348.445	354.62
348.673	367.62
348.9	353.62
349.128	321.62
349.355	347.62
349.583	350.62
349.81	354.62
350.037	360.62
350.265	372.62
350.492	330.62
350.72	343.62
350.947	350.62
351.174	359.62
351.402	354.62
351.629	353.62
351.856	348.62
352.083	355.62
352.311	362.62
352.538	339.62
352.765	380.62
352.992	367.62
353.22	340.62
353.447	357.62
353.674	382.62
353.901	357.62
354.128	363.62
354.355	331.62
354.583	329.62
354.81	360.62
355.037	336.62
355.264	370.62
355.491	332.62
355.718	339.62
355.945	329.62
356.172	349.62
356.399	362.62
356.626	356.62
356.853	364.62
357.08	350.62
357.307	357.62
357.534	333.62
357.761	342.62
357.988	360.62
358.215	341.62
358.441	354.62
358.668	360.62
358.895	352.62
359.122	364.62
359.349	351.62
359.576	350.62
359.802	381.62
360.029	391.62
360.256	394.62
360.483	368.62
360.709	378.62
360.936	377.62
361.163	351.62
361.39	355.62
361.616	340.62
361.843	362.62
362.07	351.62
362.296	360.62
362.523	352.62
362.749	380.62
362.976	348.62
363.203	370.62
363.429	352.62
363.656	364.62
363.882	346.62
364.109	342.62
364.335	343.62
364.562	361.62
364.788	364.62
365.015	345.62
365.241	359.62
365.468	362.62
365.694	370.62
365.92	360.62
366.147	341.62
366.373	340.62
366.599	335.62
366.826	355.62
367.052	358.62
367.278	340.62
367.505	357.62
367.731	373.62
367.957	340.62
368.184	355.62
368.41	354.62
368.636	356.62
368.862	362.62
369.089	367.62
369.315	361.62
369.541	357.62
369.767	368.62
369.993	338.62
370.219	351.62
370.445	363.62
370.672	362.62
370.898	370.62
371.124	361.62
371.35	361.62
371.576	346.62
371.802	350.62
372.028	367.62
372.254	360.62
372.48	355.62
372.706	347.62
372.932	356.62
373.158	359.62
373.384	377.62
373.61	371.62
373.835	363.62
374.061	355.62
374.287	369.62
374.513	362.62
374.739	356.62
374.965	374.62
375.191	361.62
375.416	361.62
375.642	360.62
375.868	355.62
376.094	362.62
376.319	373.62
376.545	368.62
376.771	361.62
376.997	357.62
377.222	359.62
377.448	359.62
377.674	361.62
377.899	349.62
378.125	375.62
378.35	351.62
378.576	367.62
378.802	360.62
379.027	362.62
379.253	358.62
379.478	375.62
379.704	364.62
379.929	364.62
380.155	372.62
380.38	360.62
380.606	359.62
380.831	375.62
381.057	395.62
381.282	378.62
381.507	360.62
381.733	371.62
381.958	381.62
382.184	376.62
382.409	380.62
382.634	385.62
382.86	372.62
383.085	383.62
383.31	361.62
383.535	377.62
383.761	371.62
383.986	379.62
384.211	398.62
384.436	403.62
384.662	383.62
384.887	402.62
385.112	412.62
385.337	406.62
385.562	401.62
385.787	411.62
386.013	409.62
386.238	417.62
386.463	410.62
386.688	403.62
386.913	397.62
387.138	400.62
387.363	399.62
387.588	405.62
387.813	413.62
388.038	427.62
388.263	405.62
388.488	428.62
388.713	402.62
388.938	412.62
389.163	396.62
389.387	393.62
389.612	404.62
389.837	403.62
390.062	400.62
390.287	401.62
390.512	405.62
390.736	400.62
390.961	413.62
391.186	408.62
391.411	409.62
391.636	408.62
391.86	410.62
392.085	415.62
392.31	408.62
392.534	407.62
392.759	416.62
392.984	426.62
393.208	431.62
393.433	439.62
393.658	425.62
393.882	403.62
394.107	417.62
394.331	417.62
394.556	403.62
394.78	409.62
395.005	414.62
395.229	394.62
395.454	413.62
395.678	410.62
395.903	431.62
396.127	444.62
396.352	439.62
396.576	446.62
396.801	439.62
397.025	427.62
397.249	415.62
397.474	441.62
397.698	431.62
397.922	452.62
398.147	432.62
398.371	451.62
398.595	436.62
398.82	456.62
399.044	460.62
399.268	486.62
399.492	499.62
399.717	553.62
399.941	570.62
400.165	567.62
400.389	579.62
400.613	528.62
400.837	492.62
401.062	472.62
401.286	457.62
401.51	472.62
401.734	470.62
401.958	468.62
402.182	443.62
402.406	471.62
402.63	469.62
402.854	459.62
403.078	464.62
403.302	479.62
403.526	481.62
403.75	466.62
403.974	469.62
404.198	443.62
404.422	465.62
404.645	474.62
404.869	491.62
405.093	480.62
405.317	499.62
405.541	531.62
405.765	497.62
405.988	488.62
406.212	486.62
406.436	520.62
406.66	499.62
406.883	476.62
407.107	538.62
407.331	543.62
407.555	609.62
407.778	605.62
408.002	553.62
408.226	536.62
408.449	518.62
408.673	531.62
408.896	549.62
409.12	565.62
409.344	559.62
409.567	503.62
409.791	492.62
410.014	484.62
410.238	500.62
410.461	497.62
410.685	488.62
410.908	488.62
411.132	506.62
411.355	528.62
411.578	530.62
411.802	481.62
412.025	451.62
412.249	459.62
412.472	474.62
412.695	498.62
412.919	474.62
413.142	477.62
413.365	457.62
413.589	469.62
413.812	454.62
414.035	445.62
414.258	453.62
414.482	444.62
414.705	465.62
414.928	460.62
415.151	457.62
415.374	449.62
415.597	463.62
415.821	458.62
416.044	444.62
416.267	445.62
416.49	451.62
416.713	467.62
416.936	444.62
417.159	424.62
417.382	447.62
417.605	431.62
417.828	438.62
418.051	452.62
418.274	440.62
418.497	458.62
418.72	474.62
418.943	426.62
419.166	468.62
419.389	498.62
419.611	503.62
419.834	498.62
420.057	484.62
420.28	465.62
420.503	443.62
420.726	434.62
420.948	478.62
421.171	496.62
421.394	523.62
421.617	489.62
421.839	472.62
422.062	450.62
422.285	467.62
422.507	516.62
422.73	566.62
422.953	560.62
423.175	504.62
423.398	463.62
423.621	477.62
423.843	489.62
424.066	470.62
424.288	481.62
424.511	475.62
424.733	521.62
424.956	609.62
425.178	561.62
425.401	564.62
425.623	585.62
425.846	525.62
426.068	476.62
426.291	484.62
426.513	461.62
426.735	482.62
426.958	496.62
427.18	541.62
427.402	668.62
427.625	737.62
427.847	604.62
428.069	533.62
428.292	490.62
428.514	478.62
428.736	470.62
428.958	475.62
429.181	450.62
429.403	452.62
429.625	457.62
429.847	469.62
430.069	535.62
430.292	531.62
430.514	476.62
430.736	443.62
430.958	448.62
431.18	428.62
431.402	414.62
431.624	443.62
431.846	434.62
432.068	442.62
432.29	418.62
432.512	431.62
432.734	417.62
432.956	429.62
433.178	429.62
433.4	451.62
433.622	440.62
433.844	443.62
434.066	444.62
434.287	448.62
434.509	485.62
434.731	448.62
434.953	444.62
435.175	461.62
435.397	480.62
435.618	473.62
435.84	529.62
436.062	579.62
436.284	635.62
436.505	545.62
436.727	501.62
436.949	452.62
437.17	436.62
437.392	432.62
437.614	439.62
437.835	481.62
438.057	540.62
438.278	630.62
438.5	619.62
438.721	693.62
438.943	657.62
439.165	542.62
439.386	475.62
439.608	483.62
439.829	462.62
440.05	487.62
440.272	523.62
440.493	515.62
440.715	468.62
440.936	451.62
441.158	463.62
441.379	452.62
441.6	467.62
441.822	479.62
442.043	513.62
442.264	568.62
442.486	598.62
442.707	521.62
442.928	495.62
443.149	499.62
443.371	491.62
443.592	525.62
443.813	625.62
444.034	653.62
444.255	580.62
444.476	511.62
444.698	507.62
444.919	502.62
445.14	599.62
445.361	554.62
445.582	492.62
445.803	545.62
446.024	635.62
446.245	641.62
446.466	561.62
446.687	475.62
446.908	462.62
447.129	459.62
447.35	443.62
447.571	439.62
447.792	449.62
448.013	457.62
448.234	461.62
448.455	494.62
448.675	579.62
448.896	684.62
449.117	585.62
449.338	532.62
449.559	631.62
449.779	707.62
450	576.62
450.221	499.62
450.442	466.62
450.662	428.62
450.883	434.62
451.104	443.62
451.324	412.62
451.545	416.62
451.766	408.62
451.986	404.62
452.207	415.62
452.428	419.62
452.648	415.62
452.869	411.62
453.089	411.62
453.31	394.62
453.53	423.62
453.751	394.62
453.971	403.62
454.192	408.62
454.412	412.62
454.633	380.62
454.853	417.62
455.073	401.62
455.294	439.62
455.514	447.62
455.734	457.62
455.955	408.62
456.175	397.62
456.395	389.62
456.616	369.62
456.836	391.62
457.056	369.62
457.276	377.62
457.497	396.62
457.717	395.62
457.937	394.62
458.157	407.62
458.377	415.62
458.598	409.62
458.818	450.62
459.038	505.62
459.258	515.62
459.478	461.62
459.698	441.62
459.918	435.62
460.138	459.62
460.358	453.62
460.578	452.62
460.798	444.62
461.018	465.62
461.238	449.62
461.458	466.62
461.678	458.62
461.898	477.62
462.118	452.62
462.338	482.62
462.558	465.62
462.777	477.62
462.997	492.62
463.217	525.62
463.437	501.62
463.657	531.62
463.876	485.62
464.096	484.62
464.316	468.62
464.536	489.62
464.755	484.62
464.975	502.62
465.195	491.62
465.414	541.62
465.634	473.62
465.854	475.62
466.073	439.62
466.293	455.62
466.512	437.62
466.732	438.62
466.951	434.62
467.171	431.62
467.391	442.62
467.61	446.62
467.829	449.62
468.049	448.62
468.268	420.62
468.488	405.62
468.707	429.62
468.927	440.62
469.146	412.62
469.365	440.62
469.585	418.62
469.804	405.62
470.023	438.62
470.243	441.62
470.462	433.62
470.681	432.62
470.901	456.62
471.12	434.62
471.339	443.62
471.558	415.62
471.777	406.62
471.997	417.62
472.216	426.62
472.435	436.62
472.654	442.62
472.873	434.62
473.092	440.62
473.311	438.62
473.53	444.62
473.749	451.62
473.968	476.62
474.187	523.62
474.406	536.62
474.625	460.62
474.844	443.62
475.063	435.62
475.282	446.62
475.501	437.62
475.72	449.62
475.939	443.62
476.158	455.62
476.377	442.62
476.596	449.62
476.814	447.62
477.033	476.62
477.252	444.62
477.471	451.62
477.69	469.62
477.908	462.62
478.127	497.62
478.346	491.62
478.564	473.62
478.783	472.62
479.002	512.62
479.22	492.62
479.439	486.62
479.658	511.62
479.876	531.62
480.095	545.62
480.313	535.62
480.532	525.62
480.751	541.62
480.969	533.62
481.188	542.62
481.406	531.62
481.624	524.62
481.843	529.62
482.061	504.62
482.28	513.62
482.498	510.62
482.717	511.62
482.935	528.62
483.153	502.62
483.372	507.62
483.59	522.62
483.808	506.62
484.027	508.62
484.245	502.62
484.463	522.62
484.681	531.62
484.9	500.62
485.118	528.62
485.336	521.62
485.554	524.62
485.772	533.62
485.99	534.62
486.209	526.62
486.427	519.62
486.645	526.62
486.863	546.62
487.081	540.62
487.299	553.62
487.517	537.62
487.735	560.62
487.953	532.62
488.171	540.62
488.389	548.62
488.607	544.62
488.825	543.62
489.043	536.62
489.261	552.62
489.479	549.62
489.696	545.62
489.914	564.62
490.132	553.62
490.35	550.62
490.568	567.62
490.786	572.62
491.003	570.62
491.221	602.62
491.439	598.62
491.657	588.62
491.874	588.62
492.092	585.62
492.31	589.62
492.527	588.62
492.745	604.62
492.963	602.62
493.18	579.62
493.398	605.62
493.615	603.62
493.833	605.62
494.05	610.62
494.268	600.62
494.485	585.62
494.703	605.62
494.92	616.62
495.138	596.62
495.355	641.62
495.573	635.62
495.79	624.62
496.008	615.62
496.225	635.62
496.442	623.62
496.66	638.62
496.877	649.62
497.094	618.62
497.312	639.62
497.529	664.62
497.746	677.62
497.963	693.62
498.181	688.62
498.398	680.62
498.615	729.62
498.832	706.62
499.049	739.62
499.267	769.62
499.484	813.62
499.701	824.62
499.918	843.62
500.135	895.62
500.352	927.62
500.569	928.62
500.786	985.62
501.003	929.62
501.22	888.62
501.437	874.62
501.654	809.62
501.871	834.62
502.088	792.62
