Data from 1988.PennyLincolnUp.Lamp.En5.5.200Scan.071819.P2_HRD10591_17-19-43-973.txt Node
Date: Thu Jul 18 17:19:43 EDT 2019
User: cochatt
Spectrometer: HR+D1059
Trigger mode: 1
Integration Time (sec): 1.000000E-1
Scans to average: 1
Electric dark correction enabled: true
Nonlinearity correction enabled: false
Boxcar width: 0
XAxis mode: Wavelengths
Number of Pixels in Spectrum: 2048
>>>>>Begin Spectral Data<<<<<
223.165	-13.31
223.4	-13.31
223.635	-13.31
223.869	-25.31
224.104	-13.31
224.338	-8.31
224.573	-18.31
224.808	-19.31
225.042	3.69
225.277	-22.31
225.511	-1.31
225.746	4.69
225.98	27.69
226.215	17.69
226.449	6.69
226.683	7.69
226.918	29.69
227.152	23.69
227.387	32.69
227.621	46.69
227.856	55.69
228.09	56.69
228.324	52.69
228.559	61.69
228.793	78.69
229.027	92.69
229.262	116.69
229.496	113.69
229.73	126.69
229.964	157.69
230.199	135.69
230.433	123.69
230.667	125.69
230.901	107.69
231.136	123.69
231.37	95.69
231.604	122.69
231.838	123.69
232.072	116.69
232.306	114.69
232.541	115.69
232.775	123.69
233.009	126.69
233.243	130.69
233.477	118.69
233.711	117.69
233.945	123.69
234.179	125.69
234.413	118.69
234.647	120.69
234.881	110.69
235.115	118.69
235.349	114.69
235.583	125.69
235.817	117.69
236.051	141.69
236.285	140.69
236.519	137.69
236.753	141.69
236.987	167.69
237.221	206.69
237.455	260.69
237.689	218.69
237.922	151.69
238.156	147.69
238.39	141.69
238.624	131.69
238.858	121.69
239.091	148.69
239.325	129.69
239.559	140.69
239.793	130.69
240.027	141.69
240.26	160.69
240.494	165.69
240.728	173.69
240.961	171.69
241.195	161.69
241.429	139.69
241.662	150.69
241.896	124.69
242.13	127.69
242.363	135.69
242.597	157.69
242.83	154.69
243.064	144.69
243.298	147.69
243.531	127.69
243.765	158.69
243.998	157.69
244.232	157.69
244.465	152.69
244.699	162.69
244.932	162.69
245.166	154.69
245.399	161.69
245.633	163.69
245.866	144.69
246.099	164.69
246.333	179.69
246.566	161.69
246.8	161.69
247.033	179.69
247.266	163.69
247.5	178.69
247.733	174.69
247.966	183.69
248.2	172.69
248.433	197.69
248.666	181.69
248.899	210.69
249.133	232.69
249.366	213.69
249.599	211.69
249.832	195.69
250.066	189.69
250.299	187.69
250.532	196.69
250.765	207.69
250.998	223.69
251.231	232.69
251.465	213.69
251.698	212.69
251.931	201.69
252.164	205.69
252.397	235.69
252.63	226.69
252.863	217.69
253.096	215.69
253.329	245.69
253.562	247.69
253.795	234.69
254.028	231.69
254.261	230.69
254.494	254.69
254.727	259.69
254.96	291.69
255.193	294.69
255.426	270.69
255.659	236.69
255.892	238.69
256.124	233.69
256.357	242.69
256.59	243.69
256.823	252.69
257.056	205.69
257.289	207.69
257.521	214.69
257.754	233.69
257.987	230.69
258.22	214.69
258.452	205.69
258.685	214.69
258.918	228.69
259.151	225.69
259.383	226.69
259.616	245.69
259.849	248.69
260.081	266.69
260.314	263.69
260.547	279.69
260.779	265.69
261.012	254.69
261.244	232.69
261.477	233.69
261.71	247.69
261.942	236.69
262.175	265.69
262.407	229.69
262.64	228.69
262.872	237.69
263.105	240.69
263.337	233.69
263.57	225.69
263.802	236.69
264.035	210.69
264.267	218.69
264.499	244.69
264.732	235.69
264.964	226.69
265.197	220.69
265.429	218.69
265.661	237.69
265.894	229.69
266.126	243.69
266.358	227.69
266.591	222.69
266.823	228.69
267.055	246.69
267.287	263.69
267.52	241.69
267.752	242.69
267.984	243.69
268.216	249.69
268.448	270.69
268.681	257.69
268.913	266.69
269.145	286.69
269.377	294.69
269.609	277.69
269.841	279.69
270.073	307.69
270.306	309.69
270.538	329.69
270.77	334.69
271.002	329.69
271.234	324.69
271.466	324.69
271.698	319.69
271.93	341.69
272.162	329.69
272.394	329.69
272.626	302.69
272.858	302.69
273.09	303.69
273.322	303.69
273.553	279.69
273.785	280.69
274.017	288.69
274.249	285.69
274.481	272.69
274.713	277.69
274.945	288.69
275.176	278.69
275.408	288.69
275.64	300.69
275.872	281.69
276.104	287.69
276.335	297.69
276.567	300.69
276.799	302.69
277.031	325.69
277.262	340.69
277.494	338.69
277.726	319.69
277.957	302.69
278.189	289.69
278.421	319.69
278.652	305.69
278.884	305.69
279.115	298.69
279.347	277.69
279.579	276.69
279.81	299.69
280.042	269.69
280.273	274.69
280.505	290.69
280.736	284.69
280.968	292.69
281.199	291.69
281.431	288.69
281.662	283.69
281.894	287.69
282.125	290.69
282.356	297.69
282.588	315.69
282.819	331.69
283.051	301.69
283.282	296.69
283.513	286.69
283.745	297.69
283.976	299.69
284.207	316.69
284.439	318.69
284.67	313.69
284.901	313.69
285.132	295.69
285.364	277.69
285.595	298.69
285.826	302.69
286.057	315.69
286.288	302.69
286.52	304.69
286.751	287.69
286.982	299.69
287.213	297.69
287.444	320.69
287.675	312.69
287.906	324.69
288.138	342.69
288.369	328.69
288.6	360.69
288.831	326.69
289.062	333.69
289.293	308.69
289.524	322.69
289.755	329.69
289.986	320.69
290.217	319.69
290.448	329.69
290.679	325.69
290.91	305.69
291.141	306.69
291.371	317.69
291.602	317.69
291.833	307.69
292.064	310.69
292.295	315.69
292.526	330.69
292.757	327.69
292.987	324.69
293.218	342.69
293.449	307.69
293.68	315.69
293.91	330.69
294.141	324.69
294.372	336.69
294.603	336.69
294.833	325.69
295.064	338.69
295.295	303.69
295.525	341.69
295.756	350.69
295.987	338.69
296.217	367.69
296.448	369.69
296.679	323.69
296.909	333.69
297.14	337.69
297.37	338.69
297.601	326.69
297.831	332.69
298.062	347.69
298.292	340.69
298.523	343.69
298.753	328.69
298.984	341.69
299.214	350.69
299.445	345.69
299.675	348.69
299.905	343.69
300.136	344.69
300.366	343.69
300.597	334.69
300.827	354.69
301.057	354.69
301.288	368.69
301.518	371.69
301.748	342.69
301.979	362.69
302.209	358.69
302.439	369.69
302.669	352.69
302.9	343.69
303.13	347.69
303.36	374.69
303.59	383.69
303.82	391.69
304.051	360.69
304.281	385.69
304.511	349.69
304.741	348.69
304.971	363.69
305.201	353.69
305.431	365.69
305.661	373.69
305.891	371.69
306.121	362.69
306.352	380.69
306.582	369.69
306.812	368.69
307.042	357.69
307.272	369.69
307.502	362.69
307.731	372.69
307.961	385.69
308.191	376.69
308.421	379.69
308.651	364.69
308.881	378.69
309.111	379.69
309.341	386.69
309.571	389.69
309.8	405.69
310.03	404.69
310.26	423.69
310.49	411.69
310.72	423.69
310.949	450.69
311.179	439.69
311.409	420.69
311.639	427.69
311.868	407.69
312.098	419.69
312.328	460.69
312.557	448.69
312.787	449.69
313.017	439.69
313.246	440.69
313.476	433.69
313.706	427.69
313.935	422.69
314.165	440.69
314.394	427.69
314.624	462.69
314.853	445.69
315.083	413.69
315.312	424.69
315.542	421.69
315.771	422.69
316.001	404.69
316.23	429.69
316.46	424.69
316.689	426.69
316.919	434.69
317.148	428.69
317.377	446.69
317.607	430.69
317.836	406.69
318.065	405.69
318.295	395.69
318.524	403.69
318.753	406.69
318.983	416.69
319.212	425.69
319.441	448.69
319.67	426.69
319.9	424.69
320.129	430.69
320.358	439.69
320.587	422.69
320.816	433.69
321.046	455.69
321.275	462.69
321.504	464.69
321.733	462.69
321.962	467.69
322.191	478.69
322.42	485.69
322.649	490.69
322.878	510.69
323.108	514.69
323.337	555.69
323.566	561.69
323.795	599.69
324.024	662.69
324.253	746.69
324.482	1103.69
324.71	1711.69
324.939	2517.69
325.168	2158.69
325.397	1106.69
325.626	735.69
325.855	637.69
326.084	595.69
326.313	576.69
326.542	554.69
326.77	603.69
326.999	724.69
327.228	981.69
327.457	1517.69
327.686	1897.69
327.914	1254.69
328.143	814.69
328.372	696.69
328.6	632.69
328.829	646.69
329.058	654.69
329.287	648.69
329.515	600.69
329.744	565.69
329.972	569.69
330.201	552.69
330.43	586.69
330.658	612.69
330.887	659.69
331.115	643.69
331.344	578.69
331.572	533.69
331.801	549.69
332.03	563.69
332.258	542.69
332.486	523.69
332.715	516.69
332.943	494.69
333.172	533.69
333.4	507.69
333.629	495.69
333.857	517.69
334.085	551.69
334.314	513.69
334.542	538.69
334.771	531.69
334.999	528.69
335.227	505.69
335.455	511.69
335.684	491.69
335.912	509.69
336.14	487.69
336.369	504.69
336.597	496.69
336.825	501.69
337.053	482.69
337.281	503.69
337.51	501.69
337.738	503.69
337.966	503.69
338.194	516.69
338.422	510.69
338.65	511.69
338.878	497.69
339.106	499.69
339.334	503.69
339.562	502.69
339.79	492.69
340.018	459.69
340.246	483.69
340.474	483.69
340.702	487.69
340.93	467.69
341.158	472.69
341.386	489.69
341.614	483.69
341.842	492.69
342.07	492.69
342.298	478.69
342.526	489.69
342.754	471.69
342.981	484.69
343.209	464.69
343.437	468.69
343.665	459.69
343.893	509.69
344.12	487.69
344.348	503.69
344.576	490.69
344.804	486.69
345.031	509.69
345.259	516.69
345.487	524.69
345.714	488.69
345.942	492.69
346.17	494.69
346.397	483.69
346.625	478.69
346.853	467.69
347.08	461.69
347.308	468.69
347.535	467.69
347.763	479.69
347.99	512.69
348.218	485.69
348.445	497.69
348.673	495.69
348.9	469.69
349.128	471.69
349.355	473.69
349.583	456.69
349.81	463.69
350.037	456.69
350.265	453.69
350.492	463.69
350.72	459.69
350.947	466.69
351.174	487.69
351.402	487.69
351.629	493.69
351.856	473.69
352.083	485.69
352.311	484.69
352.538	490.69
352.765	511.69
352.992	491.69
353.22	474.69
353.447	486.69
353.674	481.69
353.901	446.69
354.128	460.69
354.355	463.69
354.583	454.69
354.81	451.69
355.037	442.69
355.264	441.69
355.491	445.69
355.718	434.69
355.945	451.69
356.172	452.69
356.399	445.69
356.626	465.69
356.853	455.69
357.08	449.69
357.307	447.69
357.534	435.69
357.761	427.69
357.988	444.69
358.215	428.69
358.441	461.69
358.668	454.69
358.895	459.69
359.122	433.69
359.349	456.69
359.576	462.69
359.802	483.69
360.029	539.69
360.256	525.69
360.483	524.69
360.709	484.69
360.936	493.69
361.163	464.69
361.39	477.69
361.616	485.69
361.843	477.69
362.07	476.69
362.296	480.69
362.523	491.69
362.749	477.69
362.976	477.69
363.203	471.69
363.429	480.69
363.656	485.69
363.882	470.69
364.109	463.69
364.335	459.69
364.562	477.69
364.788	460.69
365.015	459.69
365.241	461.69
365.468	473.69
365.694	447.69
365.92	464.69
366.147	485.69
366.373	478.69
366.599	479.69
366.826	451.69
367.052	447.69
367.278	454.69
367.505	453.69
367.731	455.69
367.957	451.69
368.184	457.69
368.41	462.69
368.636	467.69
368.862	494.69
369.089	475.69
369.315	473.69
369.541	455.69
369.767	477.69
369.993	462.69
370.219	477.69
370.445	456.69
370.672	446.69
370.898	466.69
371.124	461.69
371.35	458.69
371.576	455.69
371.802	459.69
372.028	480.69
372.254	462.69
372.48	460.69
372.706	466.69
372.932	442.69
373.158	449.69
373.384	460.69
373.61	483.69
373.835	462.69
374.061	472.69
374.287	468.69
374.513	463.69
374.739	481.69
374.965	483.69
375.191	470.69
375.416	459.69
375.642	468.69
375.868	463.69
376.094	461.69
376.319	467.69
376.545	469.69
376.771	462.69
376.997	457.69
377.222	458.69
377.448	460.69
377.674	474.69
377.899	469.69
378.125	464.69
378.35	457.69
378.576	458.69
378.802	468.69
379.027	468.69
379.253	458.69
379.478	469.69
379.704	472.69
379.929	475.69
380.155	448.69
380.38	474.69
380.606	467.69
380.831	460.69
381.057	466.69
381.282	466.69
381.507	475.69
381.733	452.69
381.958	468.69
382.184	478.69
382.409	460.69
382.634	476.69
382.86	488.69
383.085	484.69
383.31	491.69
383.535	478.69
383.761	468.69
383.986	498.69
384.211	501.69
384.436	475.69
384.662	513.69
384.887	485.69
385.112	491.69
385.337	477.69
385.562	485.69
385.787	505.69
386.013	533.69
386.238	509.69
386.463	533.69
386.688	530.69
386.913	518.69
387.138	521.69
387.363	526.69
387.588	508.69
387.813	521.69
388.038	491.69
388.263	527.69
388.488	518.69
388.713	538.69
388.938	503.69
389.163	519.69
389.387	538.69
389.612	514.69
389.837	513.69
390.062	492.69
390.287	515.69
390.512	519.69
390.736	518.69
390.961	501.69
391.186	536.69
391.411	513.69
391.636	508.69
391.86	539.69
392.085	518.69
392.31	542.69
392.534	530.69
392.759	542.69
392.984	519.69
393.208	533.69
393.433	536.69
393.658	514.69
393.882	521.69
394.107	521.69
394.331	536.69
394.556	531.69
394.78	519.69
395.005	542.69
395.229	531.69
395.454	554.69
395.678	552.69
395.903	557.69
396.127	556.69
396.352	586.69
396.576	555.69
396.801	544.69
397.025	529.69
397.249	558.69
397.474	562.69
397.698	582.69
397.922	573.69
398.147	574.69
398.371	614.69
398.595	578.69
398.82	603.69
399.044	610.69
399.268	630.69
399.492	657.69
399.717	682.69
399.941	711.69
400.165	758.69
400.389	746.69
400.613	682.69
400.837	635.69
401.062	617.69
401.286	603.69
401.51	623.69
401.734	603.69
401.958	610.69
402.182	610.69
402.406	627.69
402.63	622.69
402.854	625.69
403.078	601.69
403.302	627.69
403.526	657.69
403.75	615.69
403.974	640.69
404.198	625.69
404.422	606.69
404.645	629.69
404.869	626.69
405.093	663.69
405.317	684.69
405.541	687.69
405.765	638.69
405.988	637.69
406.212	661.69
406.436	701.69
406.66	711.69
406.883	640.69
407.107	723.69
407.331	760.69
407.555	819.69
407.778	835.69
408.002	783.69
408.226	707.69
408.449	692.69
408.673	718.69
408.896	720.69
409.12	753.69
409.344	739.69
409.567	670.69
409.791	633.69
410.014	636.69
410.238	637.69
410.461	605.69
410.685	642.69
410.908	649.69
411.132	677.69
411.355	727.69
411.578	692.69
411.802	618.69
412.025	622.69
412.249	613.69
412.472	621.69
412.695	649.69
412.919	609.69
413.142	604.69
413.365	594.69
413.589	589.69
413.812	606.69
414.035	601.69
414.258	599.69
414.482	597.69
414.705	596.69
414.928	575.69
415.151	586.69
415.374	569.69
415.597	578.69
415.821	593.69
416.044	574.69
416.267	601.69
416.49	593.69
416.713	586.69
416.936	598.69
417.159	586.69
417.382	590.69
417.605	599.69
417.828	595.69
418.051	616.69
418.274	589.69
418.497	586.69
418.72	569.69
418.943	585.69
419.166	595.69
419.389	630.69
419.611	639.69
419.834	620.69
420.057	593.69
420.28	598.69
420.503	607.69
420.726	613.69
420.948	628.69
421.171	661.69
421.394	730.69
421.617	623.69
421.839	611.69
422.062	612.69
422.285	628.69
422.507	695.69
422.73	786.69
422.953	769.69
423.175	686.69
423.398	649.69
423.621	641.69
423.843	695.69
424.066	680.69
424.288	653.69
424.511	677.69
424.733	741.69
424.956	830.69
425.178	815.69
425.401	821.69
425.623	822.69
425.846	708.69
426.068	682.69
426.291	660.69
426.513	659.69
426.735	656.69
426.958	699.69
427.18	842.69
427.402	975.69
427.625	1044.69
427.847	907.69
428.069	772.69
428.292	697.69
428.514	659.69
428.736	626.69
428.958	627.69
429.181	607.69
429.403	603.69
429.625	626.69
429.847	674.69
430.069	716.69
430.292	743.69
430.514	637.69
430.736	618.69
430.958	595.69
431.18	594.69
431.402	584.69
431.624	574.69
431.846	572.69
432.068	578.69
432.29	585.69
432.512	583.69
432.734	617.69
432.956	602.69
433.178	599.69
433.4	604.69
433.622	595.69
433.844	617.69
434.066	587.69
434.287	587.69
434.509	589.69
434.731	580.69
434.953	619.69
435.175	625.69
435.397	645.69
435.618	654.69
435.84	706.69
436.062	837.69
436.284	910.69
436.505	753.69
436.727	683.69
436.949	649.69
437.17	612.69
437.392	629.69
437.614	645.69
437.835	652.69
438.057	780.69
438.278	902.69
438.5	893.69
438.721	966.69
438.943	951.69
439.165	770.69
439.386	703.69
439.608	661.69
439.829	686.69
440.05	701.69
440.272	777.69
440.493	721.69
440.715	661.69
440.936	652.69
441.158	645.69
441.379	618.69
441.6	650.69
441.822	652.69
442.043	705.69
442.264	825.69
442.486	868.69
442.707	757.69
442.928	691.69
443.149	717.69
443.371	721.69
443.592	770.69
443.813	873.69
444.034	942.69
444.255	777.69
444.476	689.69
444.698	682.69
444.919	674.69
445.14	777.69
445.361	749.69
445.582	723.69
445.803	814.69
446.024	917.69
446.245	941.69
446.466	808.69
446.687	712.69
446.908	659.69
447.129	631.69
447.35	605.69
447.571	609.69
447.792	587.69
448.013	611.69
448.234	621.69
448.455	698.69
448.675	835.69
448.896	951.69
449.117	826.69
449.338	774.69
449.559	899.69
449.779	1035.69
450	811.69
450.221	686.69
450.442	640.69
450.662	595.69
450.883	595.69
451.104	609.69
451.324	603.69
451.545	593.69
451.766	586.69
451.986	562.69
452.207	580.69
452.428	549.69
452.648	532.69
452.869	565.69
453.089	577.69
453.31	543.69
453.53	552.69
453.751	536.69
453.971	550.69
454.192	567.69
454.412	562.69
454.633	550.69
454.853	564.69
455.073	563.69
455.294	595.69
455.514	649.69
455.734	637.69
455.955	556.69
456.175	527.69
456.395	527.69
456.616	538.69
456.836	509.69
457.056	532.69
457.276	523.69
457.497	516.69
457.717	527.69
457.937	531.69
458.157	535.69
458.377	549.69
458.598	552.69
458.818	622.69
459.038	713.69
459.258	742.69
459.478	650.69
459.698	602.69
459.918	595.69
460.138	609.69
460.358	602.69
460.578	591.69
460.798	592.69
461.018	595.69
461.238	592.69
461.458	620.69
461.678	595.69
461.898	615.69
462.118	611.69
462.338	634.69
462.558	629.69
462.777	626.69
462.997	637.69
463.217	649.69
463.437	671.69
463.657	653.69
463.876	651.69
464.096	641.69
464.316	632.69
464.536	643.69
464.755	619.69
464.975	635.69
465.195	699.69
465.414	767.69
465.634	683.69
465.854	626.69
466.073	591.69
466.293	587.69
466.512	574.69
466.732	582.69
466.951	573.69
467.171	585.69
467.391	578.69
467.61	590.69
467.829	601.69
468.049	552.69
468.268	573.69
468.488	555.69
468.707	538.69
468.927	544.69
469.146	527.69
469.365	566.69
469.585	557.69
469.804	563.69
470.023	568.69
470.243	559.69
470.462	569.69
470.681	610.69
470.901	617.69
471.12	591.69
471.339	576.69
471.558	592.69
471.777	579.69
471.997	563.69
472.216	563.69
472.435	560.69
472.654	557.69
472.873	583.69
473.092	564.69
473.311	558.69
473.53	565.69
473.749	569.69
473.968	609.69
474.187	733.69
474.406	751.69
474.625	645.69
474.844	592.69
475.063	593.69
475.282	587.69
475.501	566.69
475.72	590.69
475.939	600.69
476.158	614.69
476.377	589.69
476.596	577.69
476.814	589.69
477.033	602.69
477.252	609.69
477.471	613.69
477.69	613.69
477.908	631.69
478.127	649.69
478.346	633.69
478.564	643.69
478.783	619.69
479.002	643.69
479.22	670.69
479.439	684.69
479.658	709.69
479.876	702.69
480.095	699.69
480.313	717.69
480.532	727.69
480.751	691.69
480.969	694.69
481.188	717.69
481.406	713.69
481.624	677.69
481.843	663.69
482.061	686.69
482.28	660.69
482.498	669.69
482.717	671.69
482.935	670.69
483.153	667.69
483.372	676.69
483.59	675.69
483.808	685.69
484.027	691.69
484.245	686.69
484.463	695.69
484.681	691.69
484.9	694.69
485.118	691.69
485.336	683.69
485.554	704.69
485.772	701.69
485.99	699.69
486.209	692.69
486.427	725.69
486.645	722.69
486.863	756.69
487.081	733.69
487.299	718.69
487.517	716.69
487.735	719.69
487.953	734.69
488.171	721.69
488.389	713.69
488.607	709.69
488.825	728.69
489.043	723.69
489.261	734.69
489.479	760.69
489.696	759.69
489.914	739.69
490.132	731.69
490.35	737.69
490.568	756.69
490.786	752.69
491.003	789.69
491.221	804.69
491.439	809.69
491.657	819.69
491.874	806.69
492.092	808.69
492.31	839.69
492.527	798.69
492.745	825.69
492.963	825.69
493.18	825.69
493.398	845.69
493.615	878.69
493.833	846.69
494.05	829.69
494.268	853.69
494.485	865.69
494.703	827.69
494.92	850.69
495.138	851.69
495.355	843.69
495.573	853.69
495.79	866.69
496.008	859.69
496.225	852.69
496.442	884.69
496.66	892.69
496.877	878.69
497.094	893.69
497.312	901.69
497.529	899.69
497.746	929.69
497.963	903.69
498.181	967.69
498.398	933.69
498.615	985.69
498.832	998.69
499.049	1053.69
499.267	1011.69
499.484	1079.69
499.701	1121.69
499.918	1124.69
500.135	1198.69
500.352	1245.69
500.569	1252.69
500.786	1293.69
501.003	1245.69
501.22	1218.69
501.437	1164.69
501.654	1139.69
