Data from 1988.PennyLincolnUp.Lamp.En5.5.200Scan.071819.P2_HRD10591_17-21-13-973.txt Node
Date: Thu Jul 18 17:21:13 EDT 2019
User: cochatt
Spectrometer: HR+D1059
Trigger mode: 1
Integration Time (sec): 1.000000E-1
Scans to average: 1
Electric dark correction enabled: true
Nonlinearity correction enabled: false
Boxcar width: 0
XAxis mode: Wavelengths
Number of Pixels in Spectrum: 2048
>>>>>Begin Spectral Data<<<<<
223.165	-2.56
223.4	-2.56
223.635	-2.56
223.869	-24.56
224.104	-15.56
224.338	-12.56
224.573	-12.56
224.808	-9.56
225.042	-4.56
225.277	-6.56
225.511	-5.56
225.746	11.44
225.98	7.44
226.215	3.44
226.449	19.44
226.683	12.44
226.918	17.44
227.152	22.44
227.387	40.44
227.621	43.44
227.856	43.44
228.09	48.44
228.324	43.44
228.559	59.44
228.793	68.44
229.027	101.44
229.262	115.44
229.496	119.44
229.73	131.44
229.964	161.44
230.199	131.44
230.433	120.44
230.667	123.44
230.901	117.44
231.136	105.44
231.37	121.44
231.604	131.44
231.838	123.44
232.072	121.44
232.306	113.44
232.541	117.44
232.775	111.44
233.009	116.44
233.243	109.44
233.477	119.44
233.711	110.44
233.945	131.44
234.179	131.44
234.413	117.44
234.647	131.44
234.881	115.44
235.115	130.44
235.349	121.44
235.583	136.44
235.817	135.44
236.051	135.44
236.285	128.44
236.519	131.44
236.753	151.44
236.987	156.44
237.221	207.44
237.455	276.44
237.689	223.44
237.922	152.44
238.156	147.44
238.39	144.44
238.624	136.44
238.858	130.44
239.091	144.44
239.325	129.44
239.559	129.44
239.793	150.44
240.027	155.44
240.26	157.44
240.494	175.44
240.728	145.44
240.961	191.44
241.195	167.44
241.429	137.44
241.662	142.44
241.896	148.44
242.13	152.44
242.363	159.44
242.597	127.44
242.83	153.44
243.064	161.44
243.298	146.44
243.531	161.44
243.765	144.44
243.998	146.44
244.232	154.44
244.465	156.44
244.699	157.44
244.932	160.44
245.166	152.44
245.399	147.44
245.633	139.44
245.866	160.44
246.099	166.44
246.333	162.44
246.566	163.44
246.8	165.44
247.033	165.44
247.266	173.44
247.5	176.44
247.733	177.44
247.966	178.44
248.2	185.44
248.433	177.44
248.666	184.44
248.899	193.44
249.133	218.44
249.366	231.44
249.599	212.44
249.832	188.44
250.066	196.44
250.299	211.44
250.532	205.44
250.765	216.44
250.998	236.44
251.231	224.44
251.465	257.44
251.698	209.44
251.931	198.44
252.164	207.44
252.397	202.44
252.63	227.44
252.863	212.44
253.096	250.44
253.329	257.44
253.562	228.44
253.795	228.44
254.028	228.44
254.261	216.44
254.494	248.44
254.727	287.44
254.96	309.44
255.193	286.44
255.426	266.44
255.659	234.44
255.892	242.44
256.124	257.44
256.357	228.44
256.59	219.44
256.823	226.44
257.056	228.44
257.289	217.44
257.521	220.44
257.754	230.44
257.987	217.44
258.22	227.44
258.452	210.44
258.685	235.44
258.918	233.44
259.151	216.44
259.383	236.44
259.616	246.44
259.849	257.44
260.081	251.44
260.314	279.44
260.547	275.44
260.779	259.44
261.012	261.44
261.244	234.44
261.477	249.44
261.71	251.44
261.942	225.44
262.175	275.44
262.407	264.44
262.64	232.44
262.872	229.44
263.105	233.44
263.337	243.44
263.57	211.44
263.802	236.44
264.035	220.44
264.267	239.44
264.499	226.44
264.732	228.44
264.964	245.44
265.197	249.44
265.429	218.44
265.661	239.44
265.894	227.44
266.126	232.44
266.358	247.44
266.591	245.44
266.823	234.44
267.055	242.44
267.287	254.44
267.52	241.44
267.752	231.44
267.984	254.44
268.216	253.44
268.448	255.44
268.681	248.44
268.913	263.44
269.145	278.44
269.377	296.44
269.609	301.44
269.841	287.44
270.073	287.44
270.306	331.44
270.538	332.44
270.77	339.44
271.002	327.44
271.234	321.44
271.466	316.44
271.698	354.44
271.93	360.44
272.162	344.44
272.394	346.44
272.626	335.44
272.858	340.44
273.09	325.44
273.322	310.44
273.553	291.44
273.785	285.44
274.017	280.44
274.249	298.44
274.481	297.44
274.713	289.44
274.945	290.44
275.176	291.44
275.408	301.44
275.64	294.44
275.872	280.44
276.104	299.44
276.335	291.44
276.567	286.44
276.799	310.44
277.031	333.44
277.262	346.44
277.494	349.44
277.726	323.44
277.957	306.44
278.189	299.44
278.421	294.44
278.652	293.44
278.884	299.44
279.115	291.44
279.347	281.44
279.579	279.44
279.81	294.44
280.042	287.44
280.273	280.44
280.505	288.44
280.736	277.44
280.968	284.44
281.199	279.44
281.431	291.44
281.662	283.44
281.894	297.44
282.125	293.44
282.356	317.44
282.588	321.44
282.819	331.44
283.051	320.44
283.282	304.44
283.513	292.44
283.745	300.44
283.976	313.44
284.207	300.44
284.439	303.44
284.67	299.44
284.901	298.44
285.132	312.44
285.364	311.44
285.595	295.44
285.826	298.44
286.057	303.44
286.288	331.44
286.52	306.44
286.751	319.44
286.982	308.44
287.213	303.44
287.444	307.44
287.675	308.44
287.906	337.44
288.138	336.44
288.369	332.44
288.6	335.44
288.831	330.44
289.062	321.44
289.293	319.44
289.524	325.44
289.755	320.44
289.986	325.44
290.217	310.44
290.448	325.44
290.679	321.44
290.91	332.44
291.141	325.44
291.371	351.44
291.602	337.44
291.833	324.44
292.064	332.44
292.295	326.44
292.526	321.44
292.757	332.44
292.987	330.44
293.218	330.44
293.449	333.44
293.68	320.44
293.91	333.44
294.141	315.44
294.372	323.44
294.603	324.44
294.833	327.44
295.064	338.44
295.295	342.44
295.525	311.44
295.756	323.44
295.987	337.44
296.217	352.44
296.448	364.44
296.679	345.44
296.909	321.44
297.14	340.44
297.37	339.44
297.601	339.44
297.831	343.44
298.062	336.44
298.292	334.44
298.523	342.44
298.753	332.44
298.984	340.44
299.214	357.44
299.445	333.44
299.675	362.44
299.905	354.44
300.136	367.44
300.366	354.44
300.597	363.44
300.827	342.44
301.057	350.44
301.288	352.44
301.518	346.44
301.748	349.44
301.979	365.44
302.209	348.44
302.439	363.44
302.669	360.44
302.9	347.44
303.13	382.44
303.36	361.44
303.59	363.44
303.82	372.44
304.051	383.44
304.281	373.44
304.511	364.44
304.741	373.44
304.971	362.44
305.201	372.44
305.431	367.44
305.661	368.44
305.891	367.44
306.121	371.44
306.352	360.44
306.582	373.44
306.812	372.44
307.042	363.44
307.272	362.44
307.502	359.44
307.731	371.44
307.961	369.44
308.191	360.44
308.421	364.44
308.651	374.44
308.881	362.44
309.111	370.44
309.341	405.44
309.571	386.44
309.8	400.44
310.03	417.44
310.26	402.44
310.49	415.44
310.72	429.44
310.949	431.44
311.179	450.44
311.409	418.44
311.639	421.44
311.868	398.44
312.098	422.44
312.328	422.44
312.557	443.44
312.787	462.44
313.017	457.44
313.246	443.44
313.476	430.44
313.706	415.44
313.935	430.44
314.165	460.44
314.394	441.44
314.624	460.44
314.853	419.44
315.083	438.44
315.312	427.44
315.542	420.44
315.771	424.44
316.001	419.44
316.23	419.44
316.46	408.44
316.689	440.44
316.919	416.44
317.148	437.44
317.377	460.44
317.607	426.44
317.836	428.44
318.065	435.44
318.295	442.44
318.524	425.44
318.753	419.44
318.983	437.44
319.212	415.44
319.441	441.44
319.67	449.44
319.9	440.44
320.129	429.44
320.358	397.44
320.587	443.44
320.816	436.44
321.046	463.44
321.275	454.44
321.504	461.44
321.733	446.44
321.962	472.44
322.191	481.44
322.42	509.44
322.649	500.44
322.878	506.44
323.108	513.44
323.337	536.44
323.566	555.44
323.795	595.44
324.024	652.44
324.253	795.44
324.482	1144.44
324.71	1841.44
324.939	2722.44
325.168	2364.44
325.397	1195.44
325.626	789.44
325.855	641.44
326.084	614.44
326.313	578.44
326.542	619.44
326.77	633.44
326.999	756.44
327.228	1070.44
327.457	1642.44
327.686	2057.44
327.914	1315.44
328.143	832.44
328.372	737.44
328.6	696.44
328.829	659.44
329.058	638.44
329.287	675.44
329.515	631.44
329.744	596.44
329.972	561.44
330.201	574.44
330.43	611.44
330.658	635.44
330.887	695.44
331.115	697.44
331.344	599.44
331.572	549.44
331.801	606.44
332.03	572.44
332.258	530.44
332.486	506.44
332.715	521.44
332.943	499.44
333.172	531.44
333.4	522.44
333.629	522.44
333.857	517.44
334.085	538.44
334.314	527.44
334.542	547.44
334.771	540.44
334.999	548.44
335.227	523.44
335.455	541.44
335.684	508.44
335.912	507.44
336.14	495.44
336.369	524.44
336.597	543.44
336.825	519.44
337.053	524.44
337.281	497.44
337.51	500.44
337.738	516.44
337.966	535.44
338.194	513.44
338.422	497.44
338.65	504.44
338.878	499.44
339.106	501.44
339.334	489.44
339.562	479.44
339.79	483.44
340.018	493.44
340.246	506.44
340.474	498.44
340.702	503.44
340.93	497.44
341.158	488.44
341.386	479.44
341.614	506.44
341.842	507.44
342.07	504.44
342.298	480.44
342.526	455.44
342.754	487.44
342.981	484.44
343.209	461.44
343.437	494.44
343.665	482.44
343.893	504.44
344.12	487.44
344.348	507.44
344.576	509.44
344.804	496.44
345.031	519.44
345.259	524.44
345.487	512.44
345.714	495.44
345.942	481.44
346.17	487.44
346.397	496.44
346.625	479.44
346.853	515.44
347.08	491.44
347.308	502.44
347.535	482.44
347.763	511.44
347.99	476.44
348.218	494.44
348.445	503.44
348.673	493.44
348.9	474.44
349.128	447.44
349.355	463.44
349.583	451.44
349.81	431.44
350.037	444.44
350.265	487.44
350.492	483.44
350.72	476.44
350.947	481.44
351.174	458.44
351.402	468.44
351.629	473.44
351.856	490.44
352.083	483.44
352.311	512.44
352.538	488.44
352.765	513.44
352.992	487.44
353.22	480.44
353.447	477.44
353.674	474.44
353.901	460.44
354.128	454.44
354.355	444.44
354.583	462.44
354.81	457.44
355.037	449.44
355.264	451.44
355.491	458.44
355.718	433.44
355.945	434.44
356.172	449.44
356.399	446.44
356.626	460.44
356.853	461.44
357.08	444.44
357.307	437.44
357.534	452.44
357.761	449.44
357.988	447.44
358.215	445.44
358.441	429.44
358.668	440.44
358.895	458.44
359.122	476.44
359.349	466.44
359.576	466.44
359.802	514.44
360.029	543.44
360.256	557.44
360.483	522.44
360.709	507.44
360.936	493.44
361.163	481.44
361.39	464.44
361.616	485.44
361.843	492.44
362.07	482.44
362.296	511.44
362.523	502.44
362.749	466.44
362.976	468.44
363.203	472.44
363.429	474.44
363.656	472.44
363.882	453.44
364.109	488.44
364.335	479.44
364.562	457.44
364.788	456.44
365.015	470.44
365.241	453.44
365.468	493.44
365.694	464.44
365.92	453.44
366.147	448.44
366.373	461.44
366.599	467.44
366.826	474.44
367.052	462.44
367.278	454.44
367.505	469.44
367.731	465.44
367.957	463.44
368.184	461.44
368.41	462.44
368.636	481.44
368.862	500.44
369.089	475.44
369.315	470.44
369.541	484.44
369.767	462.44
369.993	468.44
370.219	461.44
370.445	485.44
370.672	471.44
370.898	449.44
371.124	469.44
371.35	462.44
371.576	460.44
371.802	470.44
372.028	465.44
372.254	457.44
372.48	452.44
372.706	472.44
372.932	476.44
373.158	474.44
373.384	456.44
373.61	465.44
373.835	474.44
374.061	444.44
374.287	472.44
374.513	475.44
374.739	482.44
374.965	477.44
375.191	480.44
375.416	455.44
375.642	461.44
375.868	472.44
376.094	461.44
376.319	466.44
376.545	463.44
376.771	453.44
376.997	472.44
377.222	456.44
377.448	453.44
377.674	447.44
377.899	457.44
378.125	456.44
378.35	461.44
378.576	456.44
378.802	458.44
379.027	463.44
379.253	455.44
379.478	448.44
379.704	468.44
379.929	456.44
380.155	466.44
380.38	473.44
380.606	457.44
380.831	470.44
381.057	473.44
381.282	465.44
381.507	467.44
381.733	474.44
381.958	462.44
382.184	483.44
382.409	462.44
382.634	501.44
382.86	472.44
383.085	489.44
383.31	459.44
383.535	482.44
383.761	487.44
383.986	495.44
384.211	489.44
384.436	509.44
384.662	521.44
384.887	515.44
385.112	491.44
385.337	530.44
385.562	507.44
385.787	521.44
386.013	536.44
386.238	522.44
386.463	538.44
386.688	513.44
386.913	505.44
387.138	521.44
387.363	531.44
387.588	518.44
387.813	518.44
388.038	504.44
388.263	504.44
388.488	523.44
388.713	521.44
388.938	515.44
389.163	517.44
389.387	549.44
389.612	513.44
389.837	491.44
390.062	488.44
390.287	518.44
390.512	523.44
390.736	509.44
390.961	513.44
391.186	538.44
391.411	538.44
391.636	522.44
391.86	517.44
392.085	535.44
392.31	527.44
392.534	508.44
392.759	521.44
392.984	519.44
393.208	505.44
393.433	524.44
393.658	519.44
393.882	514.44
394.107	529.44
394.331	536.44
394.556	526.44
394.78	532.44
395.005	542.44
395.229	533.44
395.454	540.44
395.678	540.44
395.903	564.44
396.127	578.44
396.352	575.44
396.576	575.44
396.801	547.44
397.025	549.44
397.249	546.44
397.474	569.44
397.698	565.44
397.922	551.44
398.147	600.44
398.371	600.44
398.595	596.44
398.82	599.44
399.044	610.44
399.268	634.44
399.492	688.44
399.717	691.44
399.941	714.44
400.165	785.44
400.389	765.44
400.613	695.44
400.837	629.44
401.062	615.44
401.286	602.44
401.51	598.44
401.734	601.44
401.958	599.44
402.182	612.44
402.406	620.44
402.63	600.44
402.854	618.44
403.078	609.44
403.302	627.44
403.526	643.44
403.75	620.44
403.974	621.44
404.198	632.44
404.422	631.44
404.645	631.44
404.869	614.44
405.093	636.44
405.317	699.44
405.541	728.44
405.765	677.44
405.988	671.44
406.212	658.44
406.436	696.44
406.66	719.44
406.883	684.44
407.107	691.44
407.331	779.44
407.555	858.44
407.778	861.44
408.002	770.44
408.226	695.44
408.449	705.44
408.673	703.44
408.896	724.44
409.12	768.44
409.344	725.44
409.567	657.44
409.791	632.44
410.014	631.44
410.238	629.44
410.461	651.44
410.685	638.44
410.908	666.44
411.132	695.44
411.355	732.44
411.578	697.44
411.802	662.44
412.025	629.44
412.249	635.44
412.472	621.44
412.695	665.44
412.919	659.44
413.142	611.44
413.365	605.44
413.589	587.44
413.812	612.44
414.035	602.44
414.258	598.44
414.482	607.44
414.705	609.44
414.928	583.44
415.151	599.44
415.374	627.44
415.597	575.44
415.821	599.44
416.044	608.44
416.267	602.44
416.49	583.44
416.713	599.44
416.936	585.44
417.159	607.44
417.382	583.44
417.605	586.44
417.828	624.44
418.051	620.44
418.274	609.44
418.497	590.44
418.72	586.44
418.943	589.44
419.166	604.44
419.389	652.44
419.611	615.44
419.834	639.44
420.057	639.44
420.28	618.44
420.503	616.44
420.726	592.44
420.948	611.44
421.171	672.44
421.394	707.44
421.617	649.44
421.839	608.44
422.062	611.44
422.285	618.44
422.507	703.44
422.73	799.44
422.953	753.44
423.175	683.44
423.398	651.44
423.621	648.44
423.843	671.44
424.066	664.44
424.288	659.44
424.511	703.44
424.733	750.44
424.956	869.44
425.178	823.44
425.401	801.44
425.623	845.44
425.846	741.44
426.068	684.44
426.291	678.44
426.513	653.44
426.735	660.44
426.958	727.44
427.18	824.44
427.402	983.44
427.625	1092.44
427.847	935.44
428.069	795.44
428.292	759.44
428.514	698.44
428.736	623.44
428.958	641.44
429.181	618.44
429.403	615.44
429.625	637.44
429.847	661.44
430.069	752.44
430.292	741.44
430.514	661.44
430.736	629.44
430.958	602.44
431.18	610.44
431.402	583.44
431.624	560.44
431.846	595.44
432.068	598.44
432.29	600.44
432.512	590.44
432.734	607.44
432.956	615.44
433.178	608.44
433.4	634.44
433.622	599.44
433.844	595.44
434.066	575.44
434.287	584.44
434.509	588.44
434.731	601.44
434.953	611.44
435.175	660.44
435.397	684.44
435.618	660.44
435.84	704.44
436.062	801.44
436.284	905.44
436.505	771.44
436.727	689.44
436.949	657.44
437.17	625.44
437.392	649.44
437.614	653.44
437.835	679.44
438.057	797.44
438.278	934.44
438.5	913.44
438.721	1012.44
438.943	976.44
439.165	758.44
439.386	693.44
439.608	672.44
439.829	685.44
440.05	693.44
440.272	775.44
440.493	714.44
440.715	673.44
440.936	645.44
441.158	648.44
441.379	631.44
441.6	635.44
441.822	661.44
442.043	702.44
442.264	833.44
442.486	906.44
442.707	759.44
442.928	696.44
443.149	703.44
443.371	711.44
443.592	763.44
443.813	881.44
444.034	986.44
444.255	799.44
444.476	703.44
444.698	698.44
444.919	669.44
445.14	744.44
445.361	737.44
445.582	736.44
445.803	809.44
446.024	940.44
446.245	959.44
446.466	871.44
446.687	745.44
446.908	677.44
447.129	647.44
447.35	637.44
447.571	608.44
447.792	607.44
448.013	605.44
448.234	634.44
448.455	700.44
448.675	838.44
448.896	995.44
449.117	853.44
449.338	790.44
449.559	924.44
449.779	1055.44
450	831.44
450.221	689.44
450.442	645.44
450.662	627.44
450.883	620.44
451.104	623.44
451.324	603.44
451.545	609.44
451.766	584.44
451.986	548.44
452.207	530.44
452.428	569.44
452.648	565.44
452.869	544.44
453.089	552.44
453.31	563.44
453.53	568.44
453.751	525.44
453.971	551.44
454.192	585.44
454.412	560.44
454.633	559.44
454.853	571.44
455.073	562.44
455.294	589.44
455.514	651.44
455.734	632.44
455.955	545.44
456.175	535.44
456.395	545.44
456.616	539.44
456.836	524.44
457.056	501.44
457.276	506.44
457.497	528.44
457.717	507.44
457.937	523.44
458.157	545.44
458.377	523.44
458.598	560.44
458.818	643.44
459.038	718.44
459.258	756.44
459.478	659.44
459.698	602.44
459.918	593.44
460.138	607.44
460.358	613.44
460.578	594.44
460.798	610.44
461.018	626.44
461.238	613.44
461.458	605.44
461.678	587.44
461.898	616.44
462.118	589.44
462.338	620.44
462.558	614.44
462.777	636.44
462.997	649.44
463.217	657.44
463.437	643.44
463.657	651.44
463.876	630.44
464.096	633.44
464.316	637.44
464.536	633.44
464.755	646.44
464.975	640.44
465.195	690.44
465.414	774.44
465.634	669.44
465.854	665.44
466.073	640.44
466.293	595.44
466.512	602.44
466.732	555.44
466.951	571.44
467.171	568.44
467.391	592.44
467.61	565.44
467.829	599.44
468.049	589.44
468.268	580.44
468.488	577.44
468.707	572.44
468.927	555.44
469.146	560.44
469.365	561.44
469.585	549.44
469.804	565.44
470.023	583.44
470.243	585.44
470.462	594.44
470.681	603.44
470.901	588.44
471.12	565.44
471.339	593.44
471.558	584.44
471.777	594.44
471.997	577.44
472.216	541.44
472.435	591.44
472.654	567.44
472.873	566.44
473.092	576.44
473.311	565.44
473.53	563.44
473.749	581.44
473.968	634.44
474.187	775.44
474.406	777.44
474.625	643.44
474.844	587.44
475.063	575.44
475.282	586.44
475.501	609.44
475.72	588.44
475.939	599.44
476.158	579.44
476.377	593.44
476.596	591.44
476.814	593.44
477.033	607.44
477.252	620.44
477.471	587.44
477.69	626.44
477.908	658.44
478.127	638.44
478.346	623.44
478.564	645.44
478.783	623.44
479.002	667.44
479.22	657.44
479.439	684.44
479.658	691.44
479.876	705.44
480.095	697.44
480.313	744.44
480.532	742.44
480.751	694.44
480.969	719.44
481.188	723.44
481.406	753.44
481.624	700.44
481.843	669.44
482.061	700.44
482.28	696.44
482.498	685.44
482.717	724.44
482.935	700.44
483.153	684.44
483.372	668.44
483.59	686.44
483.808	691.44
484.027	657.44
484.245	671.44
484.463	701.44
484.681	693.44
484.9	688.44
485.118	680.44
485.336	716.44
485.554	703.44
485.772	722.44
485.99	683.44
486.209	717.44
486.427	743.44
486.645	723.44
486.863	735.44
487.081	750.44
487.299	741.44
487.517	724.44
487.735	728.44
487.953	739.44
488.171	738.44
488.389	729.44
488.607	710.44
488.825	758.44
489.043	705.44
489.261	733.44
489.479	738.44
489.696	740.44
489.914	740.44
490.132	732.44
490.35	764.44
490.568	783.44
490.786	803.44
491.003	800.44
491.221	816.44
491.439	845.44
491.657	819.44
491.874	808.44
492.092	825.44
492.31	835.44
492.527	838.44
492.745	835.44
492.963	845.44
493.18	847.44
493.398	854.44
493.615	856.44
493.833	868.44
494.05	845.44
494.268	840.44
494.485	838.44
494.703	879.44
494.92	858.44
495.138	883.44
495.355	868.44
495.573	901.44
495.79	897.44
496.008	877.44
496.225	868.44
496.442	843.44
496.66	908.44
496.877	899.44
497.094	927.44
497.312	903.44
497.529	913.44
497.746	901.44
497.963	929.44
498.181	948.44
498.398	955.44
498.615	1021.44
498.832	994.44
499.049	1018.44
499.267	1037.44
499.484	1093.44
499.701	1115.44
499.918	1124.44
500.135	1196.44
500.352	1256.44
500.569	1227.44
500.786	1268.44
501.003	1233.44
501.22	1237.44
501.437	1172.44
501.654	1147.44
