Data from 1988.PennyLincolnUp.Lamp.En5.5.200Scan.071819.P2_HRD10591_17-18-56-971.txt Node
Date: Thu Jul 18 17:18:56 EDT 2019
User: cochatt
Spectrometer: HR+D1059
Trigger mode: 1
Integration Time (sec): 1.000000E-1
Scans to average: 1
Electric dark correction enabled: true
Nonlinearity correction enabled: false
Boxcar width: 0
XAxis mode: Wavelengths
Number of Pixels in Spectrum: 2048
>>>>>Begin Spectral Data<<<<<
223.165	-35.56
223.4	-35.56
223.635	-35.56
223.869	-2.56
224.104	-10.56
224.338	-2.56
224.573	-16.56
224.808	-13.56
225.042	-10.56
225.277	-3.56
225.511	-6.56
225.746	-8.56
225.98	12.44
226.215	13.44
226.449	8.44
226.683	11.44
226.918	25.44
227.152	39.44
227.387	35.44
227.621	23.44
227.856	19.44
228.09	47.44
228.324	43.44
228.559	41.44
228.793	58.44
229.027	91.44
229.262	90.44
229.496	127.44
229.73	140.44
229.964	141.44
230.199	134.44
230.433	109.44
230.667	108.44
230.901	107.44
231.136	105.44
231.37	117.44
231.604	113.44
231.838	104.44
232.072	113.44
232.306	102.44
232.541	113.44
232.775	124.44
233.009	109.44
233.243	101.44
233.477	112.44
233.711	128.44
233.945	107.44
234.179	126.44
234.413	108.44
234.647	111.44
234.881	112.44
235.115	115.44
235.349	113.44
235.583	115.44
235.817	118.44
236.051	119.44
236.285	129.44
236.519	123.44
236.753	122.44
236.987	141.44
237.221	179.44
237.455	218.44
237.689	203.44
237.922	145.44
238.156	132.44
238.39	122.44
238.624	108.44
238.858	114.44
239.091	117.44
239.325	116.44
239.559	129.44
239.793	119.44
240.027	136.44
240.26	144.44
240.494	144.44
240.728	146.44
240.961	151.44
241.195	150.44
241.429	128.44
241.662	133.44
241.896	116.44
242.13	129.44
242.363	132.44
242.597	130.44
242.83	128.44
243.064	131.44
243.298	129.44
243.531	134.44
243.765	126.44
243.998	136.44
244.232	123.44
244.465	141.44
244.699	140.44
244.932	134.44
245.166	148.44
245.399	132.44
245.633	137.44
245.866	145.44
246.099	141.44
246.333	146.44
246.566	143.44
246.8	141.44
247.033	136.44
247.266	154.44
247.5	150.44
247.733	163.44
247.966	156.44
248.2	171.44
248.433	170.44
248.666	158.44
248.899	166.44
249.133	193.44
249.366	193.44
249.599	194.44
249.832	175.44
250.066	179.44
250.299	184.44
250.532	193.44
250.765	181.44
250.998	201.44
251.231	202.44
251.465	192.44
251.698	209.44
251.931	197.44
252.164	200.44
252.397	194.44
252.63	182.44
252.863	205.44
253.096	221.44
253.329	212.44
253.562	195.44
253.795	202.44
254.028	215.44
254.261	198.44
254.494	202.44
254.727	257.44
254.96	275.44
255.193	238.44
255.426	238.44
255.659	218.44
255.892	218.44
256.124	218.44
256.357	198.44
256.59	180.44
256.823	198.44
257.056	201.44
257.289	196.44
257.521	216.44
257.754	172.44
257.987	193.44
258.22	197.44
258.452	205.44
258.685	192.44
258.918	213.44
259.151	202.44
259.383	211.44
259.616	213.44
259.849	227.44
260.081	224.44
260.314	233.44
260.547	239.44
260.779	221.44
261.012	220.44
261.244	210.44
261.477	205.44
261.71	208.44
261.942	197.44
262.175	235.44
262.407	233.44
262.64	223.44
262.872	208.44
263.105	209.44
263.337	222.44
263.57	191.44
263.802	205.44
264.035	200.44
264.267	205.44
264.499	219.44
264.732	211.44
264.964	204.44
265.197	213.44
265.429	223.44
265.661	213.44
265.894	220.44
266.126	220.44
266.358	213.44
266.591	242.44
266.823	232.44
267.055	223.44
267.287	227.44
267.52	216.44
267.752	228.44
267.984	208.44
268.216	224.44
268.448	225.44
268.681	250.44
268.913	236.44
269.145	236.44
269.377	262.44
269.609	261.44
269.841	259.44
270.073	268.44
270.306	287.44
270.538	292.44
270.77	309.44
271.002	283.44
271.234	266.44
271.466	286.44
271.698	299.44
271.93	322.44
272.162	289.44
272.394	309.44
272.626	311.44
272.858	266.44
273.09	279.44
273.322	277.44
273.553	259.44
273.785	273.44
274.017	245.44
274.249	258.44
274.481	261.44
274.713	235.44
274.945	259.44
275.176	274.44
275.408	248.44
275.64	259.44
275.872	252.44
276.104	253.44
276.335	260.44
276.567	266.44
276.799	280.44
277.031	281.44
277.262	315.44
277.494	313.44
277.726	308.44
277.957	290.44
278.189	282.44
278.421	295.44
278.652	275.44
278.884	269.44
279.115	267.44
279.347	260.44
279.579	268.44
279.81	275.44
280.042	286.44
280.273	275.44
280.505	263.44
280.736	260.44
280.968	246.44
281.199	269.44
281.431	281.44
281.662	260.44
281.894	270.44
282.125	262.44
282.356	308.44
282.588	295.44
282.819	309.44
283.051	275.44
283.282	257.44
283.513	269.44
283.745	286.44
283.976	257.44
284.207	276.44
284.439	281.44
284.67	274.44
284.901	299.44
285.132	285.44
285.364	287.44
285.595	288.44
285.826	272.44
286.057	276.44
286.288	285.44
286.52	274.44
286.751	265.44
286.982	280.44
287.213	269.44
287.444	292.44
287.675	291.44
287.906	285.44
288.138	305.44
288.369	306.44
288.6	293.44
288.831	296.44
289.062	284.44
289.293	288.44
289.524	289.44
289.755	293.44
289.986	278.44
290.217	279.44
290.448	270.44
290.679	291.44
290.91	291.44
291.141	287.44
291.371	281.44
291.602	293.44
291.833	284.44
292.064	301.44
292.295	298.44
292.526	289.44
292.757	288.44
292.987	283.44
293.218	285.44
293.449	304.44
293.68	284.44
293.91	287.44
294.141	295.44
294.372	271.44
294.603	299.44
294.833	290.44
295.064	314.44
295.295	303.44
295.525	301.44
295.756	315.44
295.987	313.44
296.217	351.44
296.448	339.44
296.679	315.44
296.909	289.44
297.14	313.44
297.37	315.44
297.601	314.44
297.831	311.44
298.062	330.44
298.292	310.44
298.523	305.44
298.753	297.44
298.984	298.44
299.214	288.44
299.445	314.44
299.675	301.44
299.905	308.44
300.136	324.44
300.366	297.44
300.597	328.44
300.827	325.44
301.057	312.44
301.288	344.44
301.518	316.44
301.748	319.44
301.979	313.44
302.209	337.44
302.439	342.44
302.669	326.44
302.9	311.44
303.13	319.44
303.36	329.44
303.59	337.44
303.82	336.44
304.051	352.44
304.281	337.44
304.511	328.44
304.741	316.44
304.971	339.44
305.201	342.44
305.431	327.44
305.661	328.44
305.891	329.44
306.121	329.44
306.352	327.44
306.582	344.44
306.812	328.44
307.042	326.44
307.272	347.44
307.502	341.44
307.731	344.44
307.961	319.44
308.191	335.44
308.421	318.44
308.651	336.44
308.881	327.44
309.111	364.44
309.341	339.44
309.571	360.44
309.8	355.44
310.03	376.44
310.26	381.44
310.49	397.44
310.72	379.44
310.949	378.44
311.179	403.44
311.409	385.44
311.639	395.44
311.868	387.44
312.098	394.44
312.328	388.44
312.557	394.44
312.787	398.44
313.017	414.44
313.246	394.44
313.476	388.44
313.706	387.44
313.935	389.44
314.165	393.44
314.394	415.44
314.624	397.44
314.853	386.44
315.083	381.44
315.312	378.44
315.542	374.44
315.771	399.44
316.001	372.44
316.23	376.44
316.46	396.44
316.689	379.44
316.919	387.44
317.148	410.44
317.377	387.44
317.607	409.44
317.836	403.44
318.065	379.44
318.295	385.44
318.524	381.44
318.753	401.44
318.983	380.44
319.212	374.44
319.441	382.44
319.67	397.44
319.9	397.44
320.129	388.44
320.358	415.44
320.587	406.44
320.816	397.44
321.046	413.44
321.275	387.44
321.504	403.44
321.733	415.44
321.962	405.44
322.191	435.44
322.42	419.44
322.649	456.44
322.878	467.44
323.108	466.44
323.337	489.44
323.566	509.44
323.795	551.44
324.024	583.44
324.253	686.44
324.482	984.44
324.71	1531.44
324.939	2131.44
325.168	1848.44
325.397	973.44
325.626	647.44
325.855	537.44
326.084	515.44
326.313	501.44
326.542	518.44
326.77	541.44
326.999	642.44
327.228	864.44
327.457	1343.44
327.686	1602.44
327.914	1086.44
328.143	731.44
328.372	620.44
328.6	558.44
328.829	551.44
329.058	555.44
329.287	567.44
329.515	548.44
329.744	506.44
329.972	495.44
330.201	505.44
330.43	519.44
330.658	532.44
330.887	603.44
331.115	575.44
331.344	492.44
331.572	478.44
331.801	490.44
332.03	481.44
332.258	484.44
332.486	470.44
332.715	472.44
332.943	456.44
333.172	457.44
333.4	443.44
333.629	457.44
333.857	452.44
334.085	475.44
334.314	462.44
334.542	466.44
334.771	461.44
334.999	469.44
335.227	475.44
335.455	469.44
335.684	447.44
335.912	459.44
336.14	459.44
336.369	461.44
336.597	462.44
336.825	457.44
337.053	443.44
337.281	455.44
337.51	425.44
337.738	455.44
337.966	439.44
338.194	456.44
338.422	434.44
338.65	448.44
338.878	446.44
339.106	447.44
339.334	464.44
339.562	458.44
339.79	445.44
340.018	447.44
340.246	443.44
340.474	469.44
340.702	457.44
340.93	443.44
341.158	423.44
341.386	443.44
341.614	425.44
341.842	436.44
342.07	445.44
342.298	452.44
342.526	422.44
342.754	429.44
342.981	425.44
343.209	432.44
343.437	434.44
343.665	462.44
343.893	453.44
344.12	456.44
344.348	460.44
344.576	450.44
344.804	449.44
345.031	447.44
345.259	462.44
345.487	456.44
345.714	460.44
345.942	426.44
346.17	412.44
346.397	433.44
346.625	441.44
346.853	428.44
347.08	417.44
347.308	453.44
347.535	443.44
347.763	429.44
347.99	417.44
348.218	455.44
348.445	439.44
348.673	446.44
348.9	431.44
349.128	421.44
349.355	434.44
349.583	412.44
349.81	412.44
350.037	398.44
350.265	411.44
350.492	408.44
350.72	411.44
350.947	407.44
351.174	425.44
351.402	458.44
351.629	433.44
351.856	437.44
352.083	438.44
352.311	435.44
352.538	444.44
352.765	434.44
352.992	438.44
353.22	414.44
353.447	413.44
353.674	413.44
353.901	404.44
354.128	423.44
354.355	410.44
354.583	411.44
354.81	412.44
355.037	437.44
355.264	376.44
355.491	399.44
355.718	375.44
355.945	403.44
356.172	410.44
356.399	396.44
356.626	397.44
356.853	394.44
357.08	397.44
357.307	375.44
357.534	393.44
357.761	404.44
357.988	387.44
358.215	392.44
358.441	408.44
358.668	398.44
358.895	415.44
359.122	417.44
359.349	417.44
359.576	392.44
359.802	453.44
360.029	457.44
360.256	489.44
360.483	458.44
360.709	433.44
360.936	427.44
361.163	427.44
361.39	410.44
361.616	409.44
361.843	435.44
362.07	413.44
362.296	420.44
362.523	423.44
362.749	424.44
362.976	420.44
363.203	415.44
363.429	415.44
363.656	410.44
363.882	405.44
364.109	422.44
364.335	386.44
364.562	400.44
364.788	410.44
365.015	429.44
365.241	405.44
365.468	407.44
365.694	424.44
365.92	394.44
366.147	406.44
366.373	416.44
366.599	407.44
366.826	411.44
367.052	393.44
367.278	395.44
367.505	415.44
367.731	396.44
367.957	403.44
368.184	415.44
368.41	428.44
368.636	412.44
368.862	419.44
369.089	417.44
369.315	391.44
369.541	416.44
369.767	412.44
369.993	410.44
370.219	416.44
370.445	420.44
370.672	418.44
370.898	412.44
371.124	389.44
371.35	409.44
371.576	399.44
371.802	403.44
372.028	421.44
372.254	421.44
372.48	418.44
372.706	425.44
372.932	436.44
373.158	403.44
373.384	388.44
373.61	416.44
373.835	406.44
374.061	393.44
374.287	411.44
374.513	413.44
374.739	397.44
374.965	415.44
375.191	408.44
375.416	438.44
375.642	397.44
375.868	415.44
376.094	411.44
376.319	387.44
376.545	406.44
376.771	411.44
376.997	387.44
377.222	415.44
377.448	414.44
377.674	413.44
377.899	414.44
378.125	419.44
378.35	404.44
378.576	404.44
378.802	403.44
379.027	408.44
379.253	414.44
379.478	407.44
379.704	413.44
379.929	421.44
380.155	389.44
380.38	404.44
380.606	428.44
380.831	428.44
381.057	415.44
381.282	413.44
381.507	412.44
381.733	440.44
381.958	417.44
382.184	424.44
382.409	436.44
382.634	429.44
382.86	413.44
383.085	426.44
383.31	411.44
383.535	427.44
383.761	419.44
383.986	426.44
384.211	431.44
384.436	439.44
384.662	433.44
384.887	468.44
385.112	429.44
385.337	438.44
385.562	449.44
385.787	441.44
386.013	461.44
386.238	467.44
386.463	460.44
386.688	439.44
386.913	439.44
387.138	454.44
387.363	459.44
387.588	435.44
387.813	450.44
388.038	453.44
388.263	453.44
388.488	457.44
388.713	475.44
388.938	437.44
389.163	451.44
389.387	449.44
389.612	445.44
389.837	447.44
390.062	465.44
390.287	467.44
390.512	459.44
390.736	457.44
390.961	455.44
391.186	467.44
391.411	456.44
391.636	472.44
391.86	465.44
392.085	462.44
392.31	456.44
392.534	454.44
392.759	441.44
392.984	471.44
393.208	475.44
393.433	468.44
393.658	465.44
393.882	442.44
394.107	457.44
394.331	461.44
394.556	467.44
394.78	451.44
395.005	440.44
395.229	474.44
395.454	480.44
395.678	468.44
395.903	474.44
396.127	513.44
396.352	507.44
396.576	460.44
396.801	486.44
397.025	479.44
397.249	485.44
397.474	485.44
397.698	485.44
397.922	486.44
398.147	519.44
398.371	503.44
398.595	532.44
398.82	521.44
399.044	520.44
399.268	544.44
399.492	568.44
399.717	600.44
399.941	640.44
400.165	634.44
400.389	656.44
400.613	589.44
400.837	547.44
401.062	509.44
401.286	540.44
401.51	526.44
401.734	518.44
401.958	534.44
402.182	542.44
402.406	539.44
402.63	537.44
402.854	521.44
403.078	541.44
403.302	549.44
403.526	545.44
403.75	529.44
403.974	520.44
404.198	512.44
404.422	539.44
404.645	554.44
404.869	527.44
405.093	543.44
405.317	609.44
405.541	620.44
405.765	587.44
405.988	556.44
406.212	579.44
406.436	587.44
406.66	601.44
406.883	569.44
407.107	608.44
407.331	671.44
407.555	702.44
407.778	719.44
408.002	647.44
408.226	589.44
408.449	614.44
408.673	603.44
408.896	619.44
409.12	651.44
409.344	625.44
409.567	579.44
409.791	551.44
410.014	550.44
410.238	548.44
410.461	554.44
410.685	568.44
410.908	548.44
411.132	591.44
411.355	606.44
411.578	603.44
411.802	522.44
412.025	530.44
412.249	539.44
412.472	564.44
412.695	571.44
412.919	519.44
413.142	535.44
413.365	507.44
413.589	528.44
413.812	505.44
414.035	509.44
414.258	498.44
414.482	511.44
414.705	520.44
414.928	500.44
415.151	495.44
415.374	513.44
415.597	512.44
415.821	501.44
416.044	491.44
416.267	516.44
416.49	503.44
416.713	520.44
416.936	515.44
417.159	499.44
417.382	537.44
417.605	534.44
417.828	520.44
418.051	539.44
418.274	530.44
418.497	517.44
418.72	507.44
418.943	513.44
419.166	517.44
419.389	554.44
419.611	536.44
419.834	531.44
420.057	519.44
420.28	515.44
420.503	508.44
420.726	523.44
420.948	539.44
421.171	581.44
421.394	611.44
421.617	552.44
421.839	538.44
422.062	515.44
422.285	543.44
422.507	584.44
422.73	665.44
422.953	651.44
423.175	587.44
423.398	561.44
423.621	564.44
423.843	576.44
424.066	579.44
424.288	567.44
424.511	588.44
424.733	652.44
424.956	736.44
425.178	695.44
425.401	681.44
425.623	712.44
425.846	602.44
426.068	563.44
426.291	554.44
426.513	555.44
426.735	591.44
426.958	640.44
427.18	699.44
427.402	828.44
427.625	917.44
427.847	763.44
428.069	651.44
428.292	606.44
428.514	586.44
428.736	555.44
428.958	548.44
429.181	497.44
429.403	519.44
429.625	534.44
429.847	568.44
430.069	620.44
430.292	621.44
430.514	559.44
430.736	547.44
430.958	525.44
431.18	517.44
431.402	485.44
431.624	488.44
431.846	500.44
432.068	492.44
432.29	524.44
432.512	509.44
432.734	525.44
432.956	509.44
433.178	524.44
433.4	537.44
433.622	498.44
433.844	484.44
434.066	497.44
434.287	477.44
434.509	537.44
434.731	497.44
434.953	543.44
435.175	540.44
435.397	583.44
435.618	561.44
435.84	604.44
436.062	707.44
436.284	751.44
436.505	646.44
436.727	577.44
436.949	559.44
437.17	529.44
437.392	551.44
437.614	543.44
437.835	569.44
438.057	645.44
438.278	780.44
438.5	754.44
438.721	856.44
438.943	821.44
439.165	673.44
439.386	590.44
439.608	579.44
439.829	583.44
440.05	590.44
440.272	640.44
440.493	602.44
440.715	587.44
440.936	549.44
441.158	525.44
441.379	544.44
441.6	551.44
441.822	543.44
442.043	605.44
442.264	673.44
442.486	725.44
442.707	636.44
442.928	582.44
443.149	584.44
443.371	597.44
443.592	669.44
443.813	744.44
444.034	804.44
444.255	660.44
444.476	601.44
444.698	589.44
444.919	593.44
445.14	684.44
445.361	633.44
445.582	621.44
445.803	710.44
446.024	773.44
446.245	791.44
446.466	739.44
446.687	599.44
446.908	596.44
447.129	565.44
447.35	531.44
447.571	528.44
447.792	512.44
448.013	531.44
448.234	547.44
448.455	572.44
448.675	699.44
448.896	781.44
449.117	696.44
449.338	681.44
449.559	775.44
449.779	882.44
450	707.44
450.221	585.44
450.442	537.44
450.662	513.44
450.883	548.44
451.104	532.44
451.324	546.44
451.545	517.44
451.766	485.44
451.986	479.44
452.207	500.44
452.428	488.44
452.648	473.44
452.869	490.44
453.089	485.44
453.31	492.44
453.53	493.44
453.751	486.44
453.971	475.44
454.192	494.44
454.412	492.44
454.633	469.44
454.853	478.44
455.073	458.44
455.294	498.44
455.514	565.44
455.734	548.44
455.955	475.44
456.175	455.44
456.395	439.44
456.616	458.44
456.836	451.44
457.056	455.44
457.276	439.44
457.497	448.44
457.717	461.44
457.937	449.44
458.157	495.44
458.377	472.44
458.598	495.44
458.818	553.44
459.038	596.44
459.258	648.44
459.478	540.44
459.698	503.44
459.918	497.44
460.138	523.44
460.358	515.44
460.578	501.44
460.798	520.44
461.018	540.44
461.238	537.44
461.458	513.44
461.678	502.44
461.898	516.44
462.118	513.44
462.338	517.44
462.558	531.44
462.777	569.44
462.997	567.44
463.217	571.44
463.437	584.44
463.657	549.44
463.876	566.44
464.096	553.44
464.316	545.44
464.536	552.44
464.755	564.44
464.975	562.44
465.195	606.44
465.414	634.44
465.634	582.44
465.854	541.44
466.073	529.44
466.293	519.44
466.512	499.44
466.732	487.44
466.951	502.44
467.171	493.44
467.391	495.44
467.61	500.44
467.829	536.44
468.049	484.44
468.268	487.44
468.488	461.44
468.707	472.44
468.927	458.44
469.146	464.44
469.365	490.44
469.585	472.44
469.804	467.44
470.023	507.44
470.243	487.44
470.462	505.44
470.681	503.44
470.901	535.44
471.12	497.44
471.339	515.44
471.558	512.44
471.777	496.44
471.997	483.44
472.216	501.44
472.435	508.44
472.654	478.44
472.873	480.44
473.092	497.44
473.311	481.44
473.53	505.44
473.749	525.44
473.968	552.44
474.187	637.44
474.406	677.44
474.625	549.44
474.844	525.44
475.063	499.44
475.282	499.44
475.501	497.44
475.72	519.44
475.939	520.44
476.158	498.44
476.377	511.44
476.596	502.44
476.814	533.44
477.033	526.44
477.252	521.44
477.471	535.44
477.69	554.44
477.908	530.44
478.127	552.44
478.346	563.44
478.564	547.44
478.783	562.44
479.002	593.44
479.22	580.44
479.439	577.44
479.658	591.44
479.876	577.44
480.095	594.44
480.313	615.44
480.532	594.44
480.751	577.44
480.969	607.44
481.188	601.44
481.406	603.44
481.624	598.44
481.843	589.44
482.061	585.44
482.28	584.44
482.498	575.44
482.717	572.44
482.935	593.44
483.153	567.44
483.372	573.44
483.59	574.44
483.808	583.44
484.027	576.44
484.245	572.44
484.463	614.44
484.681	603.44
484.9	596.44
485.118	609.44
485.336	612.44
485.554	611.44
485.772	602.44
485.99	631.44
486.209	599.44
486.427	577.44
486.645	599.44
486.863	629.44
487.081	635.44
487.299	599.44
487.517	623.44
487.735	611.44
487.953	626.44
488.171	627.44
488.389	635.44
488.607	625.44
488.825	627.44
489.043	635.44
489.261	616.44
489.479	637.44
489.696	647.44
489.914	636.44
490.132	646.44
490.35	662.44
490.568	675.44
490.786	645.44
491.003	643.44
491.221	656.44
491.439	675.44
491.657	691.44
491.874	701.44
492.092	714.44
492.31	710.44
492.527	703.44
492.745	717.44
492.963	665.44
493.18	693.44
493.398	721.44
493.615	736.44
493.833	749.44
494.05	722.44
494.268	723.44
494.485	709.44
494.703	695.44
494.92	731.44
495.138	743.44
495.355	719.44
495.573	755.44
495.79	751.44
496.008	728.44
496.225	746.44
496.442	730.44
496.66	745.44
496.877	714.44
497.094	743.44
497.312	763.44
497.529	783.44
497.746	753.44
497.963	772.44
498.181	804.44
498.398	823.44
498.615	829.44
498.832	840.44
499.049	850.44
499.267	868.44
499.484	913.44
499.701	943.44
499.918	971.44
500.135	1012.44
500.352	1051.44
500.569	1074.44
500.786	1081.44
501.003	1042.44
501.22	1019.44
501.437	988.44
501.654	986.44
501.871	936.44
