Data from 1988.PennyLincolnUp.Lamp.En5.5.200Scan.071819.P2_HRD10591_17-19-23-972.txt Node
Date: Thu Jul 18 17:19:23 EDT 2019
User: cochatt
Spectrometer: HR+D1059
Trigger mode: 1
Integration Time (sec): 1.000000E-1
Scans to average: 1
Electric dark correction enabled: true
Nonlinearity correction enabled: false
Boxcar width: 0
XAxis mode: Wavelengths
Number of Pixels in Spectrum: 2048
>>>>>Begin Spectral Data<<<<<
223.165	-1.5
223.4	-1.5
223.635	-1.5
223.869	-16.5
224.104	-16.5
224.338	-11.5
224.573	-21.5
224.808	-18.5
225.042	-0.5
225.277	-12.5
225.511	4.5
225.746	-0.5
225.98	11.5
226.215	10.5
226.449	9.5
226.683	18.5
226.918	26.5
227.152	18.5
227.387	32.5
227.621	34.5
227.856	50.5
228.09	49.5
228.324	53.5
228.559	40.5
228.793	57.5
229.027	83.5
229.262	108.5
229.496	108.5
229.73	125.5
229.964	137.5
230.199	128.5
230.433	119.5
230.667	116.5
230.901	100.5
231.136	111.5
231.37	100.5
231.604	106.5
231.838	102.5
232.072	101.5
232.306	110.5
232.541	109.5
232.775	124.5
233.009	112.5
233.243	112.5
233.477	110.5
233.711	118.5
233.945	103.5
234.179	118.5
234.413	127.5
234.647	122.5
234.881	120.5
235.115	106.5
235.349	111.5
235.583	110.5
235.817	111.5
236.051	115.5
236.285	135.5
236.519	126.5
236.753	133.5
236.987	151.5
237.221	183.5
237.455	234.5
237.689	190.5
237.922	137.5
238.156	131.5
238.39	136.5
238.624	118.5
238.858	119.5
239.091	123.5
239.325	115.5
239.559	125.5
239.793	121.5
240.027	141.5
240.26	127.5
240.494	159.5
240.728	152.5
240.961	158.5
241.195	142.5
241.429	142.5
241.662	129.5
241.896	129.5
242.13	134.5
242.363	130.5
242.597	137.5
242.83	129.5
243.064	132.5
243.298	137.5
243.531	145.5
243.765	125.5
243.998	135.5
244.232	150.5
244.465	145.5
244.699	139.5
244.932	145.5
245.166	134.5
245.399	148.5
245.633	138.5
245.866	159.5
246.099	143.5
246.333	139.5
246.566	143.5
246.8	167.5
247.033	145.5
247.266	146.5
247.5	153.5
247.733	173.5
247.966	156.5
248.2	167.5
248.433	167.5
248.666	170.5
248.899	188.5
249.133	207.5
249.366	209.5
249.599	180.5
249.832	191.5
250.066	191.5
250.299	192.5
250.532	194.5
250.765	198.5
250.998	211.5
251.231	207.5
251.465	214.5
251.698	201.5
251.931	202.5
252.164	198.5
252.397	210.5
252.63	200.5
252.863	213.5
253.096	226.5
253.329	218.5
253.562	218.5
253.795	218.5
254.028	209.5
254.261	207.5
254.494	222.5
254.727	254.5
254.96	292.5
255.193	268.5
255.426	242.5
255.659	214.5
255.892	195.5
256.124	210.5
256.357	218.5
256.59	201.5
256.823	203.5
257.056	213.5
257.289	208.5
257.521	202.5
257.754	201.5
257.987	218.5
258.22	212.5
258.452	210.5
258.685	210.5
258.918	192.5
259.151	219.5
259.383	216.5
259.616	222.5
259.849	221.5
260.081	226.5
260.314	262.5
260.547	255.5
260.779	255.5
261.012	228.5
261.244	233.5
261.477	216.5
261.71	223.5
261.942	208.5
262.175	229.5
262.407	242.5
262.64	213.5
262.872	220.5
263.105	225.5
263.337	237.5
263.57	220.5
263.802	201.5
264.035	215.5
264.267	211.5
264.499	197.5
264.732	219.5
264.964	219.5
265.197	223.5
265.429	218.5
265.661	223.5
265.894	217.5
266.126	214.5
266.358	197.5
266.591	206.5
266.823	237.5
267.055	223.5
267.287	246.5
267.52	234.5
267.752	219.5
267.984	220.5
268.216	234.5
268.448	233.5
268.681	237.5
268.913	237.5
269.145	259.5
269.377	266.5
269.609	274.5
269.841	259.5
270.073	270.5
270.306	290.5
270.538	321.5
270.77	301.5
271.002	297.5
271.234	301.5
271.466	296.5
271.698	303.5
271.93	308.5
272.162	318.5
272.394	315.5
272.626	297.5
272.858	277.5
273.09	293.5
273.322	268.5
273.553	281.5
273.785	245.5
274.017	264.5
274.249	251.5
274.481	265.5
274.713	273.5
274.945	288.5
275.176	255.5
275.408	263.5
275.64	274.5
275.872	264.5
276.104	289.5
276.335	269.5
276.567	271.5
276.799	291.5
277.031	323.5
277.262	316.5
277.494	317.5
277.726	313.5
277.957	311.5
278.189	289.5
278.421	266.5
278.652	265.5
278.884	263.5
279.115	264.5
279.347	268.5
279.579	283.5
279.81	270.5
280.042	279.5
280.273	269.5
280.505	266.5
280.736	269.5
280.968	271.5
281.199	275.5
281.431	267.5
281.662	275.5
281.894	282.5
282.125	258.5
282.356	280.5
282.588	307.5
282.819	310.5
283.051	292.5
283.282	268.5
283.513	297.5
283.745	290.5
283.976	280.5
284.207	282.5
284.439	291.5
284.67	295.5
284.901	296.5
285.132	285.5
285.364	283.5
285.595	274.5
285.826	295.5
286.057	306.5
286.288	287.5
286.52	299.5
286.751	288.5
286.982	286.5
287.213	303.5
287.444	291.5
287.675	299.5
287.906	295.5
288.138	306.5
288.369	314.5
288.6	289.5
288.831	315.5
289.062	314.5
289.293	298.5
289.524	282.5
289.755	313.5
289.986	292.5
290.217	301.5
290.448	287.5
290.679	291.5
290.91	309.5
291.141	289.5
291.371	303.5
291.602	293.5
291.833	299.5
292.064	297.5
292.295	298.5
292.526	296.5
292.757	293.5
292.987	295.5
293.218	292.5
293.449	315.5
293.68	298.5
293.91	305.5
294.141	284.5
294.372	306.5
294.603	290.5
294.833	300.5
295.064	307.5
295.295	313.5
295.525	287.5
295.756	301.5
295.987	313.5
296.217	335.5
296.448	363.5
296.679	320.5
296.909	325.5
297.14	299.5
297.37	303.5
297.601	323.5
297.831	289.5
298.062	298.5
298.292	315.5
298.523	322.5
298.753	322.5
298.984	318.5
299.214	307.5
299.445	306.5
299.675	329.5
299.905	338.5
300.136	332.5
300.366	323.5
300.597	333.5
300.827	327.5
301.057	346.5
301.288	346.5
301.518	327.5
301.748	324.5
301.979	341.5
302.209	327.5
302.439	314.5
302.669	360.5
302.9	347.5
303.13	354.5
303.36	345.5
303.59	371.5
303.82	344.5
304.051	352.5
304.281	342.5
304.511	331.5
304.741	341.5
304.971	323.5
305.201	346.5
305.431	359.5
305.661	343.5
305.891	351.5
306.121	335.5
306.352	360.5
306.582	338.5
306.812	338.5
307.042	331.5
307.272	348.5
307.502	342.5
307.731	358.5
307.961	350.5
308.191	361.5
308.421	370.5
308.651	341.5
308.881	343.5
309.111	379.5
309.341	374.5
309.571	372.5
309.8	374.5
310.03	383.5
310.26	381.5
310.49	403.5
310.72	404.5
310.949	427.5
311.179	438.5
311.409	399.5
311.639	402.5
311.868	394.5
312.098	388.5
312.328	397.5
312.557	414.5
312.787	431.5
313.017	429.5
313.246	387.5
313.476	387.5
313.706	396.5
313.935	390.5
314.165	407.5
314.394	433.5
314.624	419.5
314.853	408.5
315.083	403.5
315.312	393.5
315.542	398.5
315.771	375.5
316.001	377.5
316.23	402.5
316.46	383.5
316.689	394.5
316.919	390.5
317.148	428.5
317.377	396.5
317.607	398.5
317.836	402.5
318.065	409.5
318.295	417.5
318.524	382.5
318.753	389.5
318.983	373.5
319.212	401.5
319.441	409.5
319.67	422.5
319.9	387.5
320.129	415.5
320.358	405.5
320.587	409.5
320.816	403.5
321.046	410.5
321.275	400.5
321.504	414.5
321.733	429.5
321.962	432.5
322.191	438.5
322.42	448.5
322.649	463.5
322.878	476.5
323.108	516.5
323.337	516.5
323.566	532.5
323.795	582.5
324.024	631.5
324.253	742.5
324.482	1071.5
324.71	1623.5
324.939	2367.5
325.168	2005.5
325.397	1045.5
325.626	699.5
325.855	594.5
326.084	566.5
326.313	577.5
326.542	536.5
326.77	597.5
326.999	685.5
327.228	943.5
327.457	1418.5
327.686	1701.5
327.914	1166.5
328.143	739.5
328.372	630.5
328.6	621.5
328.829	608.5
329.058	604.5
329.287	622.5
329.515	577.5
329.744	524.5
329.972	503.5
330.201	523.5
330.43	552.5
330.658	575.5
330.887	632.5
331.115	601.5
331.344	569.5
331.572	522.5
331.801	505.5
332.03	525.5
332.258	473.5
332.486	471.5
332.715	467.5
332.943	490.5
333.172	471.5
333.4	492.5
333.629	499.5
333.857	513.5
334.085	504.5
334.314	499.5
334.542	491.5
334.771	511.5
334.999	518.5
335.227	493.5
335.455	477.5
335.684	479.5
335.912	483.5
336.14	480.5
336.369	480.5
336.597	469.5
336.825	470.5
337.053	494.5
337.281	455.5
337.51	467.5
337.738	454.5
337.966	457.5
338.194	483.5
338.422	458.5
338.65	460.5
338.878	443.5
339.106	453.5
339.334	459.5
339.562	444.5
339.79	465.5
340.018	449.5
340.246	435.5
340.474	474.5
340.702	475.5
340.93	463.5
341.158	445.5
341.386	473.5
341.614	459.5
341.842	446.5
342.07	464.5
342.298	445.5
342.526	449.5
342.754	439.5
342.981	452.5
343.209	451.5
343.437	452.5
343.665	455.5
343.893	453.5
344.12	466.5
344.348	458.5
344.576	454.5
344.804	482.5
345.031	486.5
345.259	488.5
345.487	463.5
345.714	450.5
345.942	443.5
346.17	433.5
346.397	442.5
346.625	419.5
346.853	435.5
347.08	443.5
347.308	461.5
347.535	450.5
347.763	465.5
347.99	462.5
348.218	442.5
348.445	454.5
348.673	454.5
348.9	452.5
349.128	432.5
349.355	426.5
349.583	421.5
349.81	423.5
350.037	437.5
350.265	419.5
350.492	456.5
350.72	427.5
350.947	430.5
351.174	464.5
351.402	455.5
351.629	455.5
351.856	441.5
352.083	426.5
352.311	451.5
352.538	449.5
352.765	471.5
352.992	468.5
353.22	446.5
353.447	447.5
353.674	449.5
353.901	420.5
354.128	428.5
354.355	413.5
354.583	418.5
354.81	410.5
355.037	420.5
355.264	417.5
355.491	409.5
355.718	421.5
355.945	406.5
356.172	402.5
356.399	409.5
356.626	408.5
356.853	417.5
357.08	398.5
357.307	405.5
357.534	405.5
357.761	407.5
357.988	417.5
358.215	421.5
358.441	405.5
358.668	407.5
358.895	416.5
359.122	434.5
359.349	419.5
359.576	422.5
359.802	469.5
360.029	492.5
360.256	519.5
360.483	497.5
360.709	446.5
360.936	439.5
361.163	435.5
361.39	430.5
361.616	443.5
361.843	434.5
362.07	450.5
362.296	460.5
362.523	454.5
362.749	437.5
362.976	425.5
363.203	414.5
363.429	450.5
363.656	439.5
363.882	449.5
364.109	438.5
364.335	409.5
364.562	417.5
364.788	420.5
365.015	422.5
365.241	437.5
365.468	443.5
365.694	436.5
365.92	429.5
366.147	411.5
366.373	407.5
366.599	410.5
366.826	392.5
367.052	437.5
367.278	418.5
367.505	424.5
367.731	423.5
367.957	412.5
368.184	433.5
368.41	440.5
368.636	433.5
368.862	434.5
369.089	406.5
369.315	441.5
369.541	446.5
369.767	422.5
369.993	426.5
370.219	432.5
370.445	413.5
370.672	414.5
370.898	419.5
371.124	433.5
371.35	427.5
371.576	398.5
371.802	419.5
372.028	424.5
372.254	426.5
372.48	400.5
372.706	419.5
372.932	409.5
373.158	425.5
373.384	431.5
373.61	415.5
373.835	431.5
374.061	443.5
374.287	431.5
374.513	430.5
374.739	406.5
374.965	415.5
375.191	434.5
375.416	414.5
375.642	417.5
375.868	420.5
376.094	433.5
376.319	416.5
376.545	416.5
376.771	410.5
376.997	422.5
377.222	409.5
377.448	429.5
377.674	426.5
377.899	415.5
378.125	426.5
378.35	410.5
378.576	431.5
378.802	419.5
379.027	404.5
379.253	420.5
379.478	419.5
379.704	429.5
379.929	427.5
380.155	424.5
380.38	418.5
380.606	439.5
380.831	437.5
381.057	419.5
381.282	419.5
381.507	425.5
381.733	438.5
381.958	435.5
382.184	410.5
382.409	421.5
382.634	433.5
382.86	413.5
383.085	425.5
383.31	449.5
383.535	434.5
383.761	423.5
383.986	439.5
384.211	424.5
384.436	440.5
384.662	441.5
384.887	482.5
385.112	449.5
385.337	444.5
385.562	439.5
385.787	464.5
386.013	474.5
386.238	465.5
386.463	462.5
386.688	465.5
386.913	462.5
387.138	481.5
387.363	454.5
387.588	447.5
387.813	460.5
388.038	459.5
388.263	441.5
388.488	451.5
388.713	472.5
388.938	463.5
389.163	468.5
389.387	461.5
389.612	455.5
389.837	478.5
390.062	458.5
390.287	454.5
390.512	454.5
390.736	467.5
390.961	459.5
391.186	473.5
391.411	461.5
391.636	482.5
391.86	484.5
392.085	473.5
392.31	458.5
392.534	475.5
392.759	478.5
392.984	469.5
393.208	464.5
393.433	484.5
393.658	470.5
393.882	467.5
394.107	476.5
394.331	467.5
394.556	451.5
394.78	495.5
395.005	487.5
395.229	471.5
395.454	456.5
395.678	475.5
395.903	484.5
396.127	507.5
396.352	501.5
396.576	473.5
396.801	492.5
397.025	490.5
397.249	506.5
397.474	502.5
397.698	485.5
397.922	525.5
398.147	516.5
398.371	523.5
398.595	522.5
398.82	528.5
399.044	547.5
399.268	572.5
399.492	602.5
399.717	609.5
399.941	647.5
400.165	669.5
400.389	668.5
400.613	590.5
400.837	581.5
401.062	552.5
401.286	546.5
401.51	541.5
401.734	556.5
401.958	538.5
402.182	549.5
402.406	531.5
402.63	539.5
402.854	529.5
403.078	538.5
403.302	545.5
403.526	538.5
403.75	576.5
403.974	555.5
404.198	561.5
404.422	566.5
404.645	559.5
404.869	573.5
405.093	569.5
405.317	565.5
405.541	634.5
405.765	593.5
405.988	573.5
406.212	615.5
406.436	610.5
406.66	631.5
406.883	611.5
407.107	635.5
407.331	672.5
407.555	750.5
407.778	745.5
408.002	675.5
408.226	625.5
408.449	601.5
408.673	605.5
408.896	641.5
409.12	681.5
409.344	652.5
409.567	595.5
409.791	577.5
410.014	571.5
410.238	546.5
410.461	569.5
410.685	569.5
410.908	576.5
411.132	588.5
411.355	633.5
411.578	616.5
411.802	559.5
412.025	548.5
412.249	567.5
412.472	532.5
412.695	537.5
412.919	563.5
413.142	555.5
413.365	536.5
413.589	545.5
413.812	513.5
414.035	513.5
414.258	528.5
414.482	517.5
414.705	537.5
414.928	519.5
415.151	515.5
415.374	509.5
415.597	518.5
415.821	536.5
416.044	522.5
416.267	546.5
416.49	526.5
416.713	516.5
416.936	527.5
417.159	517.5
417.382	519.5
417.605	529.5
417.828	539.5
418.051	537.5
418.274	541.5
418.497	523.5
418.72	530.5
418.943	510.5
419.166	543.5
419.389	575.5
419.611	583.5
419.834	548.5
420.057	552.5
420.28	537.5
420.503	519.5
420.726	537.5
420.948	546.5
421.171	599.5
421.394	638.5
421.617	548.5
421.839	557.5
422.062	566.5
422.285	562.5
422.507	615.5
422.73	711.5
422.953	684.5
423.175	623.5
423.398	573.5
423.621	576.5
423.843	586.5
424.066	582.5
424.288	597.5
424.511	603.5
424.733	662.5
424.956	739.5
425.178	736.5
425.401	701.5
425.623	733.5
425.846	635.5
426.068	586.5
426.291	579.5
426.513	598.5
426.735	610.5
426.958	628.5
427.18	726.5
427.402	848.5
427.625	957.5
427.847	825.5
428.069	699.5
428.292	623.5
428.514	594.5
428.736	570.5
428.958	564.5
429.181	550.5
429.403	546.5
429.625	563.5
429.847	597.5
430.069	673.5
430.292	667.5
430.514	558.5
430.736	531.5
430.958	548.5
431.18	528.5
431.402	521.5
431.624	494.5
431.846	496.5
432.068	500.5
432.29	500.5
432.512	505.5
432.734	529.5
432.956	513.5
433.178	527.5
433.4	554.5
433.622	507.5
433.844	526.5
434.066	533.5
434.287	505.5
434.509	515.5
434.731	538.5
434.953	520.5
435.175	535.5
435.397	593.5
435.618	589.5
435.84	619.5
436.062	713.5
436.284	840.5
436.505	695.5
436.727	622.5
436.949	555.5
437.17	543.5
437.392	558.5
437.614	551.5
437.835	611.5
438.057	679.5
438.278	823.5
438.5	787.5
438.721	889.5
438.943	833.5
439.165	649.5
439.386	602.5
439.608	625.5
439.829	583.5
440.05	637.5
440.272	666.5
440.493	639.5
440.715	569.5
440.936	556.5
441.158	561.5
441.379	553.5
441.6	573.5
441.822	593.5
442.043	615.5
442.264	754.5
442.486	763.5
442.707	653.5
442.928	623.5
443.149	607.5
443.371	631.5
443.592	676.5
443.813	781.5
444.034	849.5
444.255	691.5
444.476	610.5
444.698	611.5
444.919	594.5
445.14	690.5
445.361	660.5
445.582	663.5
445.803	672.5
446.024	809.5
446.245	821.5
446.466	733.5
446.687	652.5
446.908	596.5
447.129	565.5
447.35	549.5
447.571	546.5
447.792	548.5
448.013	558.5
448.234	551.5
448.455	621.5
448.675	749.5
448.896	864.5
449.117	744.5
449.338	707.5
449.559	813.5
449.779	928.5
450	711.5
450.221	613.5
450.442	548.5
450.662	549.5
450.883	546.5
451.104	557.5
451.324	532.5
451.545	535.5
451.766	494.5
451.986	476.5
452.207	469.5
452.428	481.5
452.648	495.5
452.869	487.5
453.089	503.5
453.31	518.5
453.53	483.5
453.751	472.5
453.971	511.5
454.192	503.5
454.412	494.5
454.633	497.5
454.853	481.5
455.073	469.5
455.294	506.5
455.514	570.5
455.734	544.5
455.955	501.5
456.175	460.5
456.395	475.5
456.616	459.5
456.836	472.5
457.056	468.5
457.276	431.5
457.497	453.5
457.717	458.5
457.937	495.5
458.157	481.5
458.377	489.5
458.598	503.5
458.818	557.5
459.038	633.5
459.258	638.5
459.478	581.5
459.698	507.5
459.918	534.5
460.138	521.5
460.358	532.5
460.578	519.5
460.798	537.5
461.018	543.5
461.238	521.5
461.458	538.5
461.678	534.5
461.898	529.5
462.118	519.5
462.338	559.5
462.558	563.5
462.777	548.5
462.997	569.5
463.217	573.5
463.437	550.5
463.657	571.5
463.876	583.5
464.096	570.5
464.316	574.5
464.536	566.5
464.755	573.5
464.975	567.5
465.195	607.5
465.414	691.5
465.634	617.5
465.854	543.5
466.073	534.5
466.293	536.5
466.512	505.5
466.732	513.5
466.951	501.5
467.171	490.5
467.391	513.5
467.61	519.5
467.829	498.5
468.049	501.5
468.268	476.5
468.488	478.5
468.707	486.5
468.927	490.5
469.146	463.5
469.365	507.5
469.585	479.5
469.804	487.5
470.023	494.5
470.243	502.5
470.462	535.5
470.681	536.5
470.901	541.5
471.12	530.5
471.339	520.5
471.558	506.5
471.777	491.5
471.997	497.5
472.216	515.5
472.435	497.5
472.654	497.5
472.873	497.5
473.092	499.5
473.311	510.5
473.53	501.5
473.749	502.5
473.968	551.5
474.187	670.5
474.406	705.5
474.625	574.5
474.844	523.5
475.063	521.5
475.282	511.5
475.501	498.5
475.72	530.5
475.939	524.5
476.158	520.5
476.377	529.5
476.596	503.5
476.814	544.5
477.033	548.5
477.252	555.5
477.471	553.5
477.69	552.5
477.908	553.5
478.127	561.5
478.346	554.5
478.564	559.5
478.783	563.5
479.002	578.5
479.22	571.5
479.439	598.5
479.658	625.5
479.876	617.5
480.095	626.5
480.313	665.5
480.532	621.5
480.751	624.5
480.969	635.5
481.188	641.5
481.406	645.5
481.624	598.5
481.843	606.5
482.061	600.5
482.28	593.5
482.498	589.5
482.717	587.5
482.935	597.5
483.153	610.5
483.372	621.5
483.59	616.5
483.808	589.5
484.027	606.5
484.245	606.5
484.463	603.5
484.681	608.5
484.9	604.5
485.118	599.5
485.336	613.5
485.554	621.5
485.772	623.5
485.99	630.5
486.209	630.5
486.427	633.5
486.645	624.5
486.863	645.5
487.081	648.5
487.299	655.5
487.517	633.5
487.735	658.5
487.953	645.5
488.171	653.5
488.389	621.5
488.607	622.5
488.825	614.5
489.043	645.5
489.261	649.5
489.479	661.5
489.696	653.5
489.914	649.5
490.132	651.5
490.35	667.5
490.568	680.5
490.786	693.5
491.003	707.5
491.221	711.5
491.439	693.5
491.657	716.5
491.874	698.5
492.092	705.5
492.31	737.5
492.527	747.5
492.745	739.5
492.963	767.5
493.18	735.5
493.398	754.5
493.615	737.5
493.833	740.5
494.05	753.5
494.268	741.5
494.485	743.5
494.703	746.5
494.92	743.5
495.138	754.5
495.355	751.5
495.573	774.5
495.79	765.5
496.008	767.5
496.225	762.5
496.442	733.5
496.66	769.5
496.877	761.5
497.094	779.5
497.312	776.5
497.529	808.5
497.746	801.5
497.963	807.5
498.181	834.5
498.398	849.5
498.615	868.5
498.832	877.5
499.049	894.5
499.267	914.5
499.484	928.5
499.701	956.5
499.918	974.5
500.135	1009.5
500.352	1092.5
500.569	1110.5
500.786	1117.5
501.003	1095.5
501.22	1051.5
501.437	1035.5
501.654	979.5
501.871	973.5
502.088	935.5
502.305	939.5
502.522	904.5
502.739	873.5
502.956	850.5
503.172	819.5
503.389	798.5
503.606	827.5
503.823	822.5
504.04	792.5
504.256	795.5
504.473	800.5
504.69	785.5
504.907	787.5
505.123	742.5
505.34	739.5
505.557	748.5
505.773	749.5
505.99	745.5
506.207	728.5
506.423	757.5
506.64	736.5
506.856	707.5
507.073	726.5
507.289	716.5
507.506	710.5
507.722	723.5
507.939	757.5
508.155	710.5
508.372	703.5
508.588	678.5
508.805	674.5
509.021	706.5
509.238	728.5
509.454	712.5
509.67	672.5
509.887	693.5
510.103	702.5
510.319	703.5
510.536	810.5
510.752	1291.5
510.968	1091.5
511.184	705.5
511.401	681.5
511.617	659.5
511.833	651.5
512.049	643.5
512.265	659.5
512.481	660.5
512.698	655.5
512.914	637.5
513.13	653.5
513.346	664.5
513.562	672.5
513.778	680.5
513.994	671.5
514.21	680.5
514.426	700.5
514.642	764.5
514.858	770.5
515.074	821.5
515.29	965.5
515.506	1405.5
515.721	1191.5
515.937	799.5
516.153	722.5
516.369	705.5
516.585	701.5
516.801	694.5
517.016	687.5
517.232	706.5
517.448	713.5
517.664	699.5
517.879	709.5
518.095	717.5
518.311	720.5
518.527	701.5
518.742	693.5
518.958	675.5
519.173	659.5
519.389	654.5
519.605	684.5
