Data from 1988.PennyLincolnUp.Lamp.En5.5.200Scan.071819.P2_HRD10591_17-21-17-976.txt Node
Date: Thu Jul 18 17:21:17 EDT 2019
User: cochatt
Spectrometer: HR+D1059
Trigger mode: 1
Integration Time (sec): 1.000000E-1
Scans to average: 1
Electric dark correction enabled: true
Nonlinearity correction enabled: false
Boxcar width: 0
XAxis mode: Wavelengths
Number of Pixels in Spectrum: 2048
>>>>>Begin Spectral Data<<<<<
223.165	-10.44
223.4	-10.44
223.635	-10.44
223.869	-16.44
224.104	-27.44
224.338	-3.44
224.573	-30.44
224.808	-36.44
225.042	-4.44
225.277	-7.44
225.511	2.56
225.746	19.56
225.98	18.56
226.215	21.56
226.449	14.56
226.683	-0.44
226.918	20.56
227.152	39.56
227.387	39.56
227.621	31.56
227.856	50.56
228.09	58.56
228.324	60.56
228.559	62.56
228.793	69.56
229.027	95.56
229.262	118.56
229.496	113.56
229.73	127.56
229.964	169.56
230.199	142.56
230.433	124.56
230.667	126.56
230.901	125.56
231.136	122.56
231.37	111.56
231.604	123.56
231.838	120.56
232.072	110.56
232.306	117.56
232.541	119.56
232.775	115.56
233.009	118.56
233.243	119.56
233.477	118.56
233.711	116.56
233.945	121.56
234.179	131.56
234.413	120.56
234.647	128.56
234.881	125.56
235.115	137.56
235.349	133.56
235.583	122.56
235.817	140.56
236.051	138.56
236.285	141.56
236.519	141.56
236.753	120.56
236.987	162.56
237.221	202.56
237.455	269.56
237.689	207.56
237.922	155.56
238.156	143.56
238.39	133.56
238.624	135.56
238.858	133.56
239.091	123.56
239.325	137.56
239.559	138.56
239.793	143.56
240.027	144.56
240.26	161.56
240.494	200.56
240.728	172.56
240.961	164.56
241.195	165.56
241.429	151.56
241.662	141.56
241.896	162.56
242.13	153.56
242.363	142.56
242.597	141.56
242.83	163.56
243.064	151.56
243.298	160.56
243.531	150.56
243.765	142.56
243.998	139.56
244.232	146.56
244.465	153.56
244.699	155.56
244.932	141.56
245.166	169.56
245.399	156.56
245.633	152.56
245.866	157.56
246.099	162.56
246.333	145.56
246.566	152.56
246.8	188.56
247.033	177.56
247.266	165.56
247.5	173.56
247.733	168.56
247.966	190.56
248.2	182.56
248.433	193.56
248.666	198.56
248.899	211.56
249.133	211.56
249.366	226.56
249.599	226.56
249.832	212.56
250.066	202.56
250.299	193.56
250.532	190.56
250.765	217.56
250.998	230.56
251.231	257.56
251.465	239.56
251.698	225.56
251.931	208.56
252.164	214.56
252.397	231.56
252.63	224.56
252.863	243.56
253.096	218.56
253.329	249.56
253.562	241.56
253.795	243.56
254.028	234.56
254.261	230.56
254.494	230.56
254.727	269.56
254.96	311.56
255.193	279.56
255.426	265.56
255.659	247.56
255.892	235.56
256.124	257.56
256.357	251.56
256.59	225.56
256.823	227.56
257.056	204.56
257.289	241.56
257.521	233.56
257.754	245.56
257.987	243.56
258.22	231.56
258.452	217.56
258.685	230.56
258.918	222.56
259.151	232.56
259.383	232.56
259.616	235.56
259.849	249.56
260.081	245.56
260.314	277.56
260.547	301.56
260.779	287.56
261.012	257.56
261.244	251.56
261.477	237.56
261.71	252.56
261.942	250.56
262.175	246.56
262.407	249.56
262.64	238.56
262.872	242.56
263.105	241.56
263.337	244.56
263.57	245.56
263.802	221.56
264.035	215.56
264.267	225.56
264.499	234.56
264.732	228.56
264.964	249.56
265.197	243.56
265.429	242.56
265.661	255.56
265.894	230.56
266.126	234.56
266.358	233.56
266.591	234.56
266.823	258.56
267.055	257.56
267.287	245.56
267.52	265.56
267.752	261.56
267.984	247.56
268.216	248.56
268.448	266.56
268.681	251.56
268.913	270.56
269.145	288.56
269.377	309.56
269.609	305.56
269.841	299.56
270.073	296.56
270.306	309.56
270.538	350.56
270.77	341.56
271.002	359.56
271.234	324.56
271.466	324.56
271.698	356.56
271.93	351.56
272.162	339.56
272.394	334.56
272.626	348.56
272.858	335.56
273.09	301.56
273.322	323.56
273.553	292.56
273.785	302.56
274.017	298.56
274.249	287.56
274.481	271.56
274.713	275.56
274.945	297.56
275.176	290.56
275.408	297.56
275.64	288.56
275.872	292.56
276.104	293.56
276.335	301.56
276.567	298.56
276.799	321.56
277.031	328.56
277.262	353.56
277.494	356.56
277.726	332.56
277.957	325.56
278.189	299.56
278.421	303.56
278.652	314.56
278.884	331.56
279.115	295.56
279.347	278.56
279.579	280.56
279.81	290.56
280.042	287.56
280.273	298.56
280.505	298.56
280.736	298.56
280.968	299.56
281.199	300.56
281.431	299.56
281.662	284.56
281.894	299.56
282.125	304.56
282.356	309.56
282.588	332.56
282.819	362.56
283.051	310.56
283.282	302.56
283.513	302.56
283.745	307.56
283.976	308.56
284.207	299.56
284.439	313.56
284.67	329.56
284.901	319.56
285.132	295.56
285.364	290.56
285.595	300.56
285.826	306.56
286.057	313.56
286.288	318.56
286.52	325.56
286.751	310.56
286.982	308.56
287.213	317.56
287.444	337.56
287.675	342.56
287.906	326.56
288.138	333.56
288.369	330.56
288.6	336.56
288.831	340.56
289.062	318.56
289.293	332.56
289.524	329.56
289.755	331.56
289.986	317.56
290.217	354.56
290.448	335.56
290.679	309.56
290.91	325.56
291.141	309.56
291.371	351.56
291.602	306.56
291.833	321.56
292.064	322.56
292.295	334.56
292.526	330.56
292.757	336.56
292.987	305.56
293.218	316.56
293.449	338.56
293.68	331.56
293.91	332.56
294.141	316.56
294.372	333.56
294.603	330.56
294.833	338.56
295.064	356.56
295.295	335.56
295.525	347.56
295.756	332.56
295.987	349.56
296.217	358.56
296.448	365.56
296.679	351.56
296.909	337.56
297.14	332.56
297.37	341.56
297.601	346.56
297.831	344.56
298.062	331.56
298.292	324.56
298.523	336.56
298.753	355.56
298.984	336.56
299.214	353.56
299.445	359.56
299.675	357.56
299.905	359.56
300.136	316.56
300.366	362.56
300.597	374.56
300.827	357.56
301.057	371.56
301.288	386.56
301.518	371.56
301.748	371.56
301.979	385.56
302.209	366.56
302.439	357.56
302.669	369.56
302.9	380.56
303.13	364.56
303.36	377.56
303.59	376.56
303.82	370.56
304.051	386.56
304.281	357.56
304.511	372.56
304.741	354.56
304.971	361.56
305.201	348.56
305.431	358.56
305.661	366.56
305.891	355.56
306.121	356.56
306.352	366.56
306.582	382.56
306.812	377.56
307.042	375.56
307.272	375.56
307.502	364.56
307.731	381.56
307.961	371.56
308.191	384.56
308.421	395.56
308.651	413.56
308.881	379.56
309.111	394.56
309.341	402.56
309.571	401.56
309.8	404.56
310.03	408.56
310.26	422.56
310.49	421.56
310.72	418.56
310.949	446.56
311.179	482.56
311.409	427.56
311.639	419.56
311.868	414.56
312.098	418.56
312.328	424.56
312.557	442.56
312.787	466.56
313.017	485.56
313.246	444.56
313.476	441.56
313.706	418.56
313.935	439.56
314.165	436.56
314.394	458.56
314.624	446.56
314.853	448.56
315.083	443.56
315.312	449.56
315.542	431.56
315.771	421.56
316.001	428.56
316.23	426.56
316.46	433.56
316.689	447.56
316.919	437.56
317.148	422.56
317.377	433.56
317.607	430.56
317.836	439.56
318.065	434.56
318.295	438.56
318.524	426.56
318.753	411.56
318.983	433.56
319.212	431.56
319.441	439.56
319.67	450.56
319.9	437.56
320.129	437.56
320.358	439.56
320.587	437.56
320.816	456.56
321.046	445.56
321.275	447.56
321.504	433.56
321.733	447.56
321.962	466.56
322.191	490.56
322.42	492.56
322.649	538.56
322.878	494.56
323.108	528.56
323.337	580.56
323.566	585.56
323.795	634.56
324.024	657.56
324.253	834.56
324.482	1147.56
324.71	1817.56
324.939	2774.56
325.168	2379.56
325.397	1190.56
325.626	795.56
325.855	654.56
326.084	603.56
326.313	585.56
326.542	606.56
326.77	648.56
326.999	735.56
327.228	1061.56
327.457	1606.56
327.686	2061.56
327.914	1346.56
328.143	847.56
328.372	742.56
328.6	655.56
328.829	664.56
329.058	697.56
329.287	684.56
329.515	638.56
329.744	587.56
329.972	557.56
330.201	594.56
330.43	609.56
330.658	654.56
330.887	685.56
331.115	680.56
331.344	617.56
331.572	533.56
331.801	557.56
332.03	583.56
332.258	541.56
332.486	535.56
332.715	531.56
332.943	548.56
333.172	539.56
333.4	549.56
333.629	530.56
333.857	554.56
334.085	543.56
334.314	544.56
334.542	572.56
334.771	598.56
334.999	565.56
335.227	555.56
335.455	553.56
335.684	548.56
335.912	537.56
336.14	522.56
336.369	485.56
336.597	518.56
336.825	535.56
337.053	527.56
337.281	518.56
337.51	516.56
337.738	494.56
337.966	508.56
338.194	512.56
338.422	534.56
338.65	517.56
338.878	504.56
339.106	483.56
339.334	492.56
339.562	484.56
339.79	487.56
340.018	511.56
340.246	520.56
340.474	526.56
340.702	500.56
340.93	507.56
341.158	489.56
341.386	501.56
341.614	508.56
341.842	514.56
342.07	503.56
342.298	516.56
342.526	519.56
342.754	484.56
342.981	469.56
343.209	483.56
343.437	523.56
343.665	480.56
343.893	505.56
344.12	505.56
344.348	494.56
344.576	500.56
344.804	525.56
345.031	528.56
345.259	533.56
345.487	508.56
345.714	489.56
345.942	491.56
346.17	503.56
346.397	487.56
346.625	485.56
346.853	492.56
347.08	484.56
347.308	492.56
347.535	510.56
347.763	494.56
347.99	507.56
348.218	475.56
348.445	480.56
348.673	498.56
348.9	473.56
349.128	500.56
349.355	481.56
349.583	459.56
349.81	461.56
350.037	457.56
350.265	463.56
350.492	481.56
350.72	490.56
350.947	474.56
351.174	511.56
351.402	512.56
351.629	494.56
351.856	479.56
352.083	497.56
352.311	498.56
352.538	507.56
352.765	504.56
352.992	485.56
353.22	490.56
353.447	483.56
353.674	475.56
353.901	478.56
354.128	465.56
354.355	453.56
354.583	453.56
354.81	471.56
355.037	448.56
355.264	453.56
355.491	463.56
355.718	441.56
355.945	449.56
356.172	453.56
356.399	447.56
356.626	450.56
356.853	471.56
357.08	481.56
357.307	466.56
357.534	479.56
357.761	443.56
357.988	474.56
358.215	460.56
358.441	468.56
358.668	447.56
358.895	457.56
359.122	480.56
359.349	469.56
359.576	478.56
359.802	509.56
360.029	545.56
360.256	552.56
360.483	535.56
360.709	505.56
360.936	474.56
361.163	499.56
361.39	476.56
361.616	495.56
361.843	491.56
362.07	486.56
362.296	487.56
362.523	493.56
362.749	497.56
362.976	489.56
363.203	516.56
363.429	466.56
363.656	476.56
363.882	470.56
364.109	460.56
364.335	475.56
364.562	477.56
364.788	477.56
365.015	456.56
365.241	497.56
365.468	468.56
365.694	475.56
365.92	501.56
366.147	467.56
366.373	474.56
366.599	476.56
366.826	463.56
367.052	467.56
367.278	480.56
367.505	451.56
367.731	474.56
367.957	479.56
368.184	458.56
368.41	457.56
368.636	507.56
368.862	508.56
369.089	486.56
369.315	481.56
369.541	450.56
369.767	469.56
369.993	485.56
370.219	461.56
370.445	479.56
370.672	471.56
370.898	486.56
371.124	463.56
371.35	478.56
371.576	480.56
371.802	465.56
372.028	443.56
372.254	463.56
372.48	486.56
372.706	478.56
372.932	470.56
373.158	470.56
373.384	469.56
373.61	474.56
373.835	474.56
374.061	469.56
374.287	472.56
374.513	477.56
374.739	464.56
374.965	482.56
375.191	493.56
375.416	498.56
375.642	480.56
375.868	500.56
376.094	470.56
376.319	471.56
376.545	472.56
376.771	484.56
376.997	467.56
377.222	484.56
377.448	471.56
377.674	477.56
377.899	447.56
378.125	469.56
378.35	471.56
378.576	467.56
378.802	461.56
379.027	460.56
379.253	468.56
379.478	460.56
379.704	472.56
379.929	483.56
380.155	473.56
380.38	483.56
380.606	457.56
380.831	485.56
381.057	473.56
381.282	459.56
381.507	492.56
381.733	476.56
381.958	475.56
382.184	491.56
382.409	462.56
382.634	475.56
382.86	479.56
383.085	480.56
383.31	487.56
383.535	503.56
383.761	525.56
383.986	486.56
384.211	526.56
384.436	504.56
384.662	499.56
384.887	536.56
385.112	529.56
385.337	522.56
385.562	511.56
385.787	506.56
386.013	511.56
386.238	519.56
386.463	515.56
386.688	512.56
386.913	498.56
387.138	535.56
387.363	539.56
387.588	533.56
387.813	491.56
388.038	497.56
388.263	515.56
388.488	516.56
388.713	539.56
388.938	534.56
389.163	515.56
389.387	534.56
389.612	522.56
389.837	539.56
390.062	521.56
390.287	520.56
390.512	529.56
390.736	500.56
390.961	533.56
391.186	528.56
391.411	527.56
391.636	504.56
391.86	531.56
392.085	550.56
392.31	537.56
392.534	524.56
392.759	537.56
392.984	503.56
393.208	540.56
393.433	545.56
393.658	523.56
393.882	541.56
394.107	540.56
394.331	537.56
394.556	536.56
394.78	508.56
395.005	552.56
395.229	533.56
395.454	551.56
395.678	545.56
395.903	562.56
396.127	586.56
396.352	607.56
396.576	553.56
396.801	554.56
397.025	554.56
397.249	581.56
397.474	574.56
397.698	574.56
397.922	573.56
398.147	599.56
398.371	634.56
398.595	587.56
398.82	599.56
399.044	620.56
399.268	628.56
399.492	692.56
399.717	726.56
399.941	709.56
400.165	757.56
400.389	775.56
400.613	701.56
400.837	651.56
401.062	629.56
401.286	623.56
401.51	628.56
401.734	609.56
401.958	608.56
402.182	617.56
402.406	627.56
402.63	620.56
402.854	612.56
403.078	642.56
403.302	637.56
403.526	636.56
403.75	638.56
403.974	642.56
404.198	635.56
404.422	657.56
404.645	633.56
404.869	658.56
405.093	676.56
405.317	722.56
405.541	742.56
405.765	682.56
405.988	652.56
406.212	700.56
406.436	676.56
406.66	713.56
406.883	717.56
407.107	733.56
407.331	773.56
407.555	871.56
407.778	847.56
408.002	779.56
408.226	729.56
408.449	721.56
408.673	723.56
408.896	728.56
409.12	787.56
409.344	742.56
409.567	674.56
409.791	661.56
410.014	665.56
410.238	645.56
410.461	634.56
410.685	667.56
410.908	662.56
411.132	701.56
411.355	745.56
411.578	715.56
411.802	660.56
412.025	643.56
412.249	645.56
412.472	643.56
412.695	671.56
412.919	655.56
413.142	622.56
413.365	633.56
413.589	605.56
413.812	606.56
414.035	618.56
414.258	593.56
414.482	612.56
414.705	603.56
414.928	591.56
415.151	626.56
415.374	601.56
415.597	628.56
415.821	582.56
416.044	619.56
416.267	596.56
416.49	606.56
416.713	594.56
416.936	600.56
417.159	583.56
417.382	595.56
417.605	580.56
417.828	619.56
418.051	654.56
418.274	641.56
418.497	611.56
418.72	605.56
418.943	594.56
419.166	611.56
419.389	643.56
419.611	621.56
419.834	641.56
420.057	634.56
420.28	641.56
420.503	622.56
420.726	626.56
420.948	639.56
421.171	689.56
421.394	717.56
421.617	683.56
421.839	637.56
422.062	649.56
422.285	653.56
422.507	722.56
422.73	810.56
422.953	786.56
423.175	681.56
423.398	673.56
423.621	678.56
423.843	665.56
424.066	697.56
424.288	683.56
424.511	677.56
424.733	776.56
424.956	890.56
425.178	847.56
425.401	844.56
425.623	890.56
425.846	741.56
426.068	693.56
426.291	675.56
426.513	662.56
426.735	711.56
426.958	745.56
427.18	828.56
427.402	1021.56
427.625	1129.56
427.847	975.56
428.069	796.56
428.292	747.56
428.514	683.56
428.736	641.56
428.958	661.56
429.181	610.56
429.403	641.56
429.625	641.56
429.847	682.56
430.069	770.56
430.292	744.56
430.514	646.56
430.736	641.56
430.958	607.56
431.18	610.56
431.402	598.56
431.624	595.56
431.846	591.56
432.068	600.56
432.29	605.56
432.512	602.56
432.734	585.56
432.956	583.56
433.178	616.56
433.4	602.56
433.622	599.56
433.844	583.56
434.066	602.56
434.287	608.56
434.509	608.56
434.731	607.56
434.953	639.56
435.175	637.56
435.397	679.56
435.618	698.56
435.84	725.56
436.062	833.56
436.284	966.56
436.505	785.56
436.727	691.56
436.949	678.56
437.17	641.56
437.392	621.56
437.614	642.56
437.835	689.56
438.057	823.56
438.278	948.56
438.5	937.56
438.721	1038.56
438.943	1017.56
439.165	790.56
439.386	709.56
439.608	689.56
439.829	697.56
440.05	731.56
440.272	788.56
440.493	729.56
440.715	661.56
440.936	660.56
441.158	643.56
441.379	641.56
441.6	666.56
441.822	678.56
442.043	731.56
442.264	882.56
442.486	909.56
442.707	763.56
442.928	714.56
443.149	717.56
443.371	731.56
443.592	771.56
443.813	923.56
444.034	970.56
444.255	840.56
444.476	717.56
444.698	712.56
444.919	702.56
445.14	817.56
445.361	752.56
445.582	745.56
445.803	832.56
446.024	974.56
446.245	929.56
446.466	884.56
446.687	750.56
446.908	676.56
447.129	656.56
447.35	641.56
447.571	624.56
447.792	622.56
448.013	633.56
448.234	642.56
448.455	711.56
448.675	868.56
448.896	1027.56
449.117	843.56
449.338	801.56
449.559	969.56
449.779	1076.56
450	823.56
450.221	673.56
450.442	641.56
450.662	607.56
450.883	621.56
451.104	648.56
451.324	644.56
451.545	606.56
451.766	601.56
451.986	566.56
452.207	551.56
452.428	558.56
452.648	535.56
452.869	582.56
453.089	569.56
453.31	596.56
453.53	561.56
453.751	561.56
453.971	565.56
454.192	596.56
454.412	557.56
454.633	555.56
454.853	556.56
455.073	554.56
455.294	578.56
455.514	662.56
455.734	649.56
455.955	574.56
456.175	545.56
456.395	523.56
456.616	542.56
456.836	546.56
457.056	529.56
457.276	525.56
457.497	528.56
457.717	540.56
457.937	522.56
458.157	539.56
458.377	542.56
458.598	560.56
458.818	651.56
459.038	775.56
459.258	773.56
459.478	655.56
459.698	615.56
459.918	610.56
460.138	584.56
460.358	620.56
460.578	610.56
460.798	598.56
461.018	613.56
461.238	600.56
461.458	621.56
461.678	595.56
461.898	605.56
462.118	617.56
462.338	633.56
462.558	647.56
462.777	646.56
462.997	645.56
463.217	672.56
463.437	655.56
463.657	671.56
463.876	641.56
464.096	671.56
464.316	665.56
464.536	659.56
464.755	673.56
464.975	658.56
465.195	682.56
465.414	791.56
465.634	697.56
465.854	667.56
466.073	626.56
466.293	632.56
466.512	610.56
466.732	574.56
466.951	582.56
467.171	557.56
467.391	597.56
467.61	593.56
467.829	601.56
468.049	591.56
468.268	571.56
468.488	548.56
468.707	561.56
468.927	571.56
469.146	597.56
469.365	561.56
469.585	551.56
469.804	570.56
470.023	585.56
470.243	586.56
470.462	610.56
470.681	627.56
470.901	591.56
471.12	579.56
471.339	589.56
471.558	579.56
471.777	591.56
471.997	571.56
472.216	568.56
472.435	587.56
472.654	569.56
472.873	563.56
473.092	582.56
473.311	596.56
473.53	599.56
473.749	598.56
473.968	631.56
474.187	775.56
474.406	805.56
474.625	657.56
474.844	637.56
475.063	623.56
475.282	588.56
475.501	613.56
475.72	595.56
475.939	592.56
476.158	613.56
476.377	628.56
476.596	621.56
476.814	618.56
477.033	601.56
477.252	627.56
477.471	617.56
477.69	638.56
477.908	631.56
478.127	645.56
478.346	648.56
478.564	659.56
478.783	653.56
479.002	667.56
479.22	668.56
479.439	702.56
479.658	704.56
479.876	721.56
480.095	709.56
480.313	743.56
480.532	715.56
480.751	709.56
480.969	693.56
481.188	736.56
481.406	756.56
481.624	712.56
481.843	701.56
482.061	685.56
482.28	676.56
482.498	705.56
482.717	695.56
482.935	695.56
483.153	715.56
483.372	701.56
483.59	686.56
483.808	677.56
484.027	683.56
484.245	728.56
484.463	689.56
484.681	694.56
484.9	705.56
485.118	699.56
485.336	697.56
485.554	719.56
485.772	725.56
485.99	726.56
486.209	741.56
486.427	730.56
486.645	751.56
486.863	749.56
487.081	765.56
487.299	764.56
487.517	723.56
487.735	753.56
487.953	741.56
488.171	753.56
488.389	734.56
488.607	735.56
488.825	746.56
489.043	719.56
489.261	743.56
489.479	738.56
489.696	750.56
489.914	761.56
490.132	785.56
490.35	792.56
490.568	800.56
490.786	791.56
491.003	794.56
491.221	809.56
491.439	837.56
491.657	831.56
491.874	842.56
492.092	858.56
492.31	842.56
492.527	867.56
492.745	857.56
492.963	854.56
493.18	865.56
493.398	858.56
493.615	870.56
493.833	894.56
494.05	868.56
494.268	861.56
494.485	879.56
494.703	898.56
494.92	917.56
495.138	883.56
495.355	874.56
495.573	907.56
495.79	897.56
496.008	896.56
496.225	906.56
496.442	902.56
496.66	906.56
496.877	900.56
497.094	904.56
497.312	886.56
497.529	912.56
497.746	916.56
497.963	938.56
498.181	975.56
498.398	981.56
498.615	975.56
498.832	1003.56
499.049	1019.56
499.267	1051.56
499.484	1067.56
499.701	1117.56
499.918	1165.56
500.135	1219.56
500.352	1249.56
500.569	1265.56
500.786	1303.56
501.003	1261.56
501.22	1254.56
501.437	1171.56
501.654	1191.56
