Data from 1988.PennyLincolnUp.Lamp.En5.5.200Scan.071819.P2_HRD10591_17-19-46-972.txt Node
Date: Thu Jul 18 17:19:46 EDT 2019
User: cochatt
Spectrometer: HR+D1059
Trigger mode: 1
Integration Time (sec): 1.000000E-1
Scans to average: 1
Electric dark correction enabled: true
Nonlinearity correction enabled: false
Boxcar width: 0
XAxis mode: Wavelengths
Number of Pixels in Spectrum: 2048
>>>>>Begin Spectral Data<<<<<
223.165	-28.31
223.4	-28.31
223.635	-28.31
223.869	-22.31
224.104	-14.31
224.338	-17.31
224.573	-9.31
224.808	-20.31
225.042	-4.31
225.277	-15.31
225.511	-9.31
225.746	-7.31
225.98	18.69
226.215	21.69
226.449	13.69
226.683	26.69
226.918	25.69
227.152	41.69
227.387	50.69
227.621	27.69
227.856	37.69
228.09	42.69
228.324	46.69
228.559	69.69
228.793	70.69
229.027	95.69
229.262	106.69
229.496	112.69
229.73	137.69
229.964	164.69
230.199	126.69
230.433	117.69
230.667	126.69
230.901	114.69
231.136	115.69
231.37	108.69
231.604	105.69
231.838	106.69
232.072	113.69
232.306	106.69
232.541	113.69
232.775	110.69
233.009	85.69
233.243	105.69
233.477	116.69
233.711	113.69
233.945	106.69
234.179	132.69
234.413	121.69
234.647	104.69
234.881	122.69
235.115	119.69
235.349	108.69
235.583	132.69
235.817	114.69
236.051	106.69
236.285	138.69
236.519	141.69
236.753	139.69
236.987	160.69
237.221	188.69
237.455	233.69
237.689	208.69
237.922	149.69
238.156	138.69
238.39	136.69
238.624	118.69
238.858	127.69
239.091	122.69
239.325	122.69
239.559	138.69
239.793	139.69
240.027	139.69
240.26	128.69
240.494	166.69
240.728	164.69
240.961	159.69
241.195	148.69
241.429	139.69
241.662	136.69
241.896	137.69
242.13	132.69
242.363	152.69
242.597	124.69
242.83	131.69
243.064	126.69
243.298	133.69
243.531	149.69
243.765	138.69
243.998	124.69
244.232	155.69
244.465	140.69
244.699	147.69
244.932	162.69
245.166	146.69
245.399	154.69
245.633	142.69
245.866	164.69
246.099	154.69
246.333	155.69
246.566	146.69
246.8	163.69
247.033	149.69
247.266	146.69
247.5	161.69
247.733	152.69
247.966	155.69
248.2	190.69
248.433	193.69
248.666	185.69
248.899	175.69
249.133	207.69
249.366	215.69
249.599	191.69
249.832	174.69
250.066	183.69
250.299	174.69
250.532	194.69
250.765	194.69
250.998	226.69
251.231	234.69
251.465	234.69
251.698	223.69
251.931	210.69
252.164	209.69
252.397	205.69
252.63	213.69
252.863	228.69
253.096	219.69
253.329	227.69
253.562	206.69
253.795	216.69
254.028	224.69
254.261	218.69
254.494	238.69
254.727	278.69
254.96	285.69
255.193	287.69
255.426	265.69
255.659	232.69
255.892	221.69
256.124	218.69
256.357	218.69
256.59	211.69
256.823	221.69
257.056	212.69
257.289	201.69
257.521	211.69
257.754	218.69
257.987	192.69
258.22	231.69
258.452	213.69
258.685	219.69
258.918	195.69
259.151	218.69
259.383	232.69
259.616	230.69
259.849	219.69
260.081	239.69
260.314	269.69
260.547	263.69
260.779	257.69
261.012	254.69
261.244	231.69
261.477	225.69
261.71	218.69
261.942	249.69
262.175	258.69
262.407	246.69
262.64	206.69
262.872	219.69
263.105	212.69
263.337	230.69
263.57	219.69
263.802	209.69
264.035	212.69
264.267	213.69
264.499	210.69
264.732	225.69
264.964	211.69
265.197	223.69
265.429	216.69
265.661	218.69
265.894	206.69
266.126	242.69
266.358	229.69
266.591	223.69
266.823	231.69
267.055	239.69
267.287	244.69
267.52	233.69
267.752	250.69
267.984	219.69
268.216	234.69
268.448	236.69
268.681	246.69
268.913	262.69
269.145	267.69
269.377	266.69
269.609	296.69
269.841	277.69
270.073	273.69
270.306	287.69
270.538	307.69
270.77	325.69
271.002	326.69
271.234	313.69
271.466	325.69
271.698	336.69
271.93	327.69
272.162	321.69
272.394	343.69
272.626	304.69
272.858	294.69
273.09	287.69
273.322	282.69
273.553	274.69
273.785	294.69
274.017	267.69
274.249	274.69
274.481	292.69
274.713	286.69
274.945	280.69
275.176	280.69
275.408	276.69
275.64	270.69
275.872	278.69
276.104	282.69
276.335	285.69
276.567	298.69
276.799	291.69
277.031	323.69
277.262	318.69
277.494	324.69
277.726	327.69
277.957	314.69
278.189	294.69
278.421	299.69
278.652	275.69
278.884	287.69
279.115	263.69
279.347	270.69
279.579	270.69
279.81	285.69
280.042	302.69
280.273	281.69
280.505	275.69
280.736	280.69
280.968	283.69
281.199	284.69
281.431	272.69
281.662	292.69
281.894	278.69
282.125	267.69
282.356	314.69
282.588	314.69
282.819	311.69
283.051	277.69
283.282	285.69
283.513	300.69
283.745	309.69
283.976	287.69
284.207	300.69
284.439	302.69
284.67	298.69
284.901	293.69
285.132	307.69
285.364	280.69
285.595	294.69
285.826	286.69
286.057	291.69
286.288	301.69
286.52	291.69
286.751	294.69
286.982	297.69
287.213	310.69
287.444	302.69
287.675	314.69
287.906	322.69
288.138	321.69
288.369	313.69
288.6	319.69
288.831	304.69
289.062	306.69
289.293	302.69
289.524	310.69
289.755	311.69
289.986	304.69
290.217	316.69
290.448	316.69
290.679	304.69
290.91	289.69
291.141	311.69
291.371	323.69
291.602	304.69
291.833	314.69
292.064	302.69
292.295	294.69
292.526	295.69
292.757	289.69
292.987	287.69
293.218	316.69
293.449	302.69
293.68	309.69
293.91	311.69
294.141	305.69
294.372	310.69
294.603	304.69
294.833	310.69
295.064	321.69
295.295	313.69
295.525	326.69
295.756	311.69
295.987	320.69
296.217	375.69
296.448	362.69
296.679	321.69
296.909	306.69
297.14	324.69
297.37	331.69
297.601	318.69
297.831	316.69
298.062	311.69
298.292	330.69
298.523	338.69
298.753	337.69
298.984	322.69
299.214	314.69
299.445	334.69
299.675	343.69
299.905	329.69
300.136	347.69
300.366	328.69
300.597	325.69
300.827	344.69
301.057	362.69
301.288	359.69
301.518	362.69
301.748	337.69
301.979	344.69
302.209	346.69
302.439	363.69
302.669	367.69
302.9	368.69
303.13	351.69
303.36	346.69
303.59	352.69
303.82	351.69
304.051	360.69
304.281	352.69
304.511	354.69
304.741	343.69
304.971	331.69
305.201	324.69
305.431	369.69
305.661	344.69
305.891	358.69
306.121	343.69
306.352	356.69
306.582	353.69
306.812	360.69
307.042	338.69
307.272	354.69
307.502	367.69
307.731	346.69
307.961	353.69
308.191	379.69
308.421	368.69
308.651	373.69
308.881	375.69
309.111	358.69
309.341	362.69
309.571	361.69
309.8	386.69
310.03	396.69
310.26	382.69
310.49	393.69
310.72	412.69
310.949	437.69
311.179	432.69
311.409	414.69
311.639	410.69
311.868	402.69
312.098	405.69
312.328	411.69
312.557	438.69
312.787	444.69
313.017	430.69
313.246	427.69
313.476	386.69
313.706	395.69
313.935	419.69
314.165	400.69
314.394	426.69
314.624	418.69
314.853	417.69
315.083	417.69
315.312	402.69
315.542	398.69
315.771	395.69
316.001	398.69
316.23	420.69
316.46	395.69
316.689	407.69
316.919	410.69
317.148	416.69
317.377	435.69
317.607	422.69
317.836	417.69
318.065	412.69
318.295	414.69
318.524	422.69
318.753	395.69
318.983	402.69
319.212	407.69
319.441	416.69
319.67	414.69
319.9	415.69
320.129	417.69
320.358	430.69
320.587	448.69
320.816	439.69
321.046	442.69
321.275	442.69
321.504	433.69
321.733	412.69
321.962	436.69
322.191	470.69
322.42	450.69
322.649	474.69
322.878	497.69
323.108	497.69
323.337	508.69
323.566	552.69
323.795	559.69
324.024	613.69
324.253	731.69
324.482	1082.69
324.71	1648.69
324.939	2438.69
325.168	2149.69
325.397	1062.69
325.626	739.69
325.855	615.69
326.084	546.69
326.313	562.69
326.542	551.69
326.77	616.69
326.999	707.69
327.228	959.69
327.457	1466.69
327.686	1843.69
327.914	1226.69
328.143	777.69
328.372	673.69
328.6	630.69
328.829	569.69
329.058	615.69
329.287	644.69
329.515	603.69
329.744	552.69
329.972	524.69
330.201	544.69
330.43	572.69
330.658	611.69
330.887	644.69
331.115	632.69
331.344	552.69
331.572	522.69
331.801	519.69
332.03	548.69
332.258	514.69
332.486	506.69
332.715	490.69
332.943	493.69
333.172	525.69
333.4	503.69
333.629	490.69
333.857	502.69
334.085	490.69
334.314	488.69
334.542	516.69
334.771	511.69
334.999	521.69
335.227	522.69
335.455	523.69
335.684	497.69
335.912	483.69
336.14	490.69
336.369	481.69
336.597	484.69
336.825	498.69
337.053	475.69
337.281	494.69
337.51	473.69
337.738	496.69
337.966	485.69
338.194	482.69
338.422	499.69
338.65	472.69
338.878	460.69
339.106	469.69
339.334	463.69
339.562	470.69
339.79	473.69
340.018	486.69
340.246	491.69
340.474	489.69
340.702	468.69
340.93	464.69
341.158	489.69
341.386	480.69
341.614	490.69
341.842	466.69
342.07	459.69
342.298	479.69
342.526	457.69
342.754	466.69
342.981	461.69
343.209	449.69
343.437	468.69
343.665	502.69
343.893	473.69
344.12	498.69
344.348	488.69
344.576	489.69
344.804	485.69
345.031	499.69
345.259	508.69
345.487	465.69
345.714	486.69
345.942	505.69
346.17	466.69
346.397	482.69
346.625	497.69
346.853	471.69
347.08	460.69
347.308	491.69
347.535	476.69
347.763	458.69
347.99	476.69
348.218	473.69
348.445	474.69
348.673	490.69
348.9	483.69
349.128	443.69
349.355	451.69
349.583	424.69
349.81	436.69
350.037	454.69
350.265	455.69
350.492	442.69
350.72	438.69
350.947	460.69
351.174	471.69
351.402	472.69
351.629	478.69
351.856	466.69
352.083	508.69
352.311	489.69
352.538	490.69
352.765	484.69
352.992	478.69
353.22	485.69
353.447	480.69
353.674	472.69
353.901	437.69
354.128	459.69
354.355	434.69
354.583	433.69
354.81	448.69
355.037	438.69
355.264	438.69
355.491	443.69
355.718	422.69
355.945	453.69
356.172	424.69
356.399	421.69
356.626	449.69
356.853	414.69
357.08	446.69
357.307	452.69
357.534	409.69
357.761	457.69
357.988	448.69
358.215	440.69
358.441	429.69
358.668	458.69
358.895	437.69
359.122	448.69
359.349	438.69
359.576	455.69
359.802	495.69
360.029	518.69
360.256	519.69
360.483	487.69
360.709	477.69
360.936	468.69
361.163	446.69
361.39	465.69
361.616	476.69
361.843	493.69
362.07	474.69
362.296	451.69
362.523	470.69
362.749	452.69
362.976	444.69
363.203	448.69
363.429	437.69
363.656	442.69
363.882	446.69
364.109	450.69
364.335	446.69
364.562	440.69
364.788	436.69
365.015	445.69
365.241	461.69
365.468	436.69
365.694	457.69
365.92	454.69
366.147	435.69
366.373	444.69
366.599	449.69
366.826	434.69
367.052	431.69
367.278	438.69
367.505	465.69
367.731	482.69
367.957	443.69
368.184	452.69
368.41	447.69
368.636	478.69
368.862	476.69
369.089	462.69
369.315	465.69
369.541	417.69
369.767	440.69
369.993	454.69
370.219	434.69
370.445	432.69
370.672	457.69
370.898	439.69
371.124	442.69
371.35	450.69
371.576	452.69
371.802	440.69
372.028	423.69
372.254	446.69
372.48	436.69
372.706	470.69
372.932	460.69
373.158	433.69
373.384	466.69
373.61	475.69
373.835	471.69
374.061	437.69
374.287	449.69
374.513	466.69
374.739	460.69
374.965	457.69
375.191	516.69
375.416	464.69
375.642	450.69
375.868	464.69
376.094	467.69
376.319	436.69
376.545	451.69
376.771	450.69
376.997	470.69
377.222	437.69
377.448	440.69
377.674	442.69
377.899	448.69
378.125	452.69
378.35	435.69
378.576	463.69
378.802	460.69
379.027	458.69
379.253	445.69
379.478	457.69
379.704	446.69
379.929	454.69
380.155	463.69
380.38	438.69
380.606	442.69
380.831	455.69
381.057	458.69
381.282	463.69
381.507	443.69
381.733	473.69
381.958	473.69
382.184	453.69
382.409	479.69
382.634	462.69
382.86	463.69
383.085	474.69
383.31	464.69
383.535	488.69
383.761	479.69
383.986	474.69
384.211	477.69
384.436	472.69
384.662	496.69
384.887	484.69
385.112	488.69
385.337	482.69
385.562	475.69
385.787	495.69
386.013	498.69
386.238	501.69
386.463	513.69
386.688	523.69
386.913	503.69
387.138	475.69
387.363	498.69
387.588	490.69
387.813	493.69
388.038	498.69
388.263	498.69
388.488	488.69
388.713	486.69
388.938	506.69
389.163	485.69
389.387	508.69
389.612	498.69
389.837	491.69
390.062	488.69
390.287	508.69
390.512	498.69
390.736	525.69
390.961	510.69
391.186	506.69
391.411	516.69
391.636	516.69
391.86	523.69
392.085	508.69
392.31	541.69
392.534	523.69
392.759	521.69
392.984	514.69
393.208	522.69
393.433	523.69
393.658	525.69
393.882	481.69
394.107	501.69
394.331	519.69
394.556	530.69
394.78	501.69
395.005	539.69
395.229	517.69
395.454	512.69
395.678	540.69
395.903	547.69
396.127	576.69
396.352	562.69
396.576	556.69
396.801	525.69
397.025	520.69
397.249	544.69
397.474	537.69
397.698	582.69
397.922	578.69
398.147	584.69
398.371	586.69
398.595	570.69
398.82	567.69
399.044	614.69
399.268	607.69
399.492	647.69
399.717	666.69
399.941	702.69
400.165	743.69
400.389	727.69
400.613	687.69
400.837	640.69
401.062	631.69
401.286	617.69
401.51	570.69
401.734	578.69
401.958	601.69
402.182	592.69
402.406	581.69
402.63	596.69
402.854	584.69
403.078	600.69
403.302	590.69
403.526	619.69
403.75	609.69
403.974	600.69
404.198	617.69
404.422	613.69
404.645	601.69
404.869	616.69
405.093	640.69
405.317	657.69
405.541	677.69
405.765	651.69
405.988	632.69
406.212	656.69
406.436	650.69
406.66	682.69
406.883	663.69
407.107	681.69
407.331	756.69
407.555	816.69
407.778	806.69
408.002	739.69
408.226	688.69
408.449	680.69
408.673	693.69
408.896	720.69
409.12	748.69
409.344	696.69
409.567	643.69
409.791	638.69
410.014	626.69
410.238	616.69
410.461	635.69
410.685	588.69
410.908	628.69
411.132	678.69
411.355	695.69
411.578	698.69
411.802	640.69
412.025	619.69
412.249	594.69
412.472	610.69
412.695	606.69
412.919	602.69
413.142	591.69
413.365	588.69
413.589	592.69
413.812	578.69
414.035	580.69
414.258	592.69
414.482	579.69
414.705	583.69
414.928	578.69
415.151	569.69
415.374	586.69
415.597	551.69
415.821	566.69
416.044	569.69
416.267	589.69
416.49	570.69
416.713	571.69
416.936	588.69
417.159	558.69
417.382	578.69
417.605	584.69
417.828	578.69
418.051	593.69
418.274	608.69
418.497	577.69
418.72	584.69
418.943	564.69
419.166	596.69
419.389	629.69
419.611	598.69
419.834	596.69
420.057	594.69
420.28	611.69
420.503	594.69
420.726	574.69
420.948	610.69
421.171	643.69
421.394	670.69
421.617	636.69
421.839	600.69
422.062	606.69
422.285	609.69
422.507	682.69
422.73	757.69
422.953	760.69
423.175	662.69
423.398	630.69
423.621	627.69
423.843	640.69
424.066	643.69
424.288	635.69
424.511	666.69
424.733	739.69
424.956	823.69
425.178	773.69
425.401	805.69
425.623	837.69
425.846	696.69
426.068	653.69
426.291	668.69
426.513	661.69
426.735	681.69
426.958	688.69
427.18	811.69
427.402	929.69
427.625	1065.69
427.847	889.69
428.069	753.69
428.292	699.69
428.514	658.69
428.736	622.69
428.958	648.69
429.181	609.69
429.403	594.69
429.625	621.69
429.847	642.69
430.069	727.69
430.292	750.69
430.514	626.69
430.736	623.69
430.958	582.69
431.18	582.69
431.402	569.69
431.624	561.69
431.846	566.69
432.068	553.69
432.29	562.69
432.512	566.69
432.734	593.69
432.956	549.69
433.178	581.69
433.4	593.69
433.622	585.69
433.844	572.69
434.066	547.69
434.287	562.69
434.509	571.69
434.731	587.69
434.953	576.69
435.175	596.69
435.397	642.69
435.618	645.69
435.84	706.69
436.062	821.69
436.284	900.69
436.505	726.69
436.727	662.69
436.949	638.69
437.17	618.69
437.392	590.69
437.614	607.69
437.835	662.69
438.057	738.69
438.278	889.69
438.5	894.69
438.721	979.69
438.943	934.69
439.165	740.69
439.386	654.69
439.608	652.69
439.829	654.69
440.05	672.69
440.272	721.69
440.493	714.69
440.715	629.69
440.936	615.69
441.158	601.69
441.379	626.69
441.6	611.69
441.822	648.69
442.043	700.69
442.264	796.69
442.486	851.69
442.707	686.69
442.928	680.69
443.149	645.69
443.371	675.69
443.592	750.69
443.813	846.69
444.034	930.69
444.255	781.69
444.476	680.69
444.698	663.69
444.919	678.69
445.14	772.69
445.361	690.69
445.582	683.69
445.803	788.69
446.024	906.69
446.245	875.69
446.466	797.69
446.687	683.69
446.908	659.69
447.129	639.69
447.35	641.69
447.571	585.69
447.792	598.69
448.013	603.69
448.234	637.69
448.455	716.69
448.675	830.69
448.896	946.69
449.117	794.69
449.338	740.69
449.559	882.69
449.779	1028.69
450	795.69
450.221	675.69
450.442	615.69
450.662	586.69
450.883	597.69
451.104	613.69
451.324	596.69
451.545	569.69
451.766	549.69
451.986	548.69
452.207	553.69
452.428	536.69
452.648	548.69
452.869	527.69
453.089	529.69
453.31	567.69
453.53	522.69
453.751	526.69
453.971	532.69
454.192	542.69
454.412	562.69
454.633	520.69
454.853	540.69
455.073	535.69
455.294	574.69
455.514	636.69
455.734	626.69
455.955	540.69
456.175	513.69
456.395	512.69
456.616	494.69
456.836	506.69
457.056	513.69
457.276	516.69
457.497	495.69
457.717	494.69
457.937	509.69
458.157	531.69
458.377	534.69
458.598	581.69
458.818	630.69
459.038	684.69
459.258	731.69
459.478	623.69
459.698	594.69
459.918	574.69
460.138	564.69
460.358	602.69
460.578	578.69
460.798	598.69
461.018	577.69
461.238	592.69
461.458	588.69
461.678	570.69
461.898	587.69
462.118	580.69
462.338	570.69
462.558	596.69
462.777	625.69
462.997	627.69
463.217	630.69
463.437	648.69
463.657	640.69
463.876	631.69
464.096	614.69
464.316	607.69
464.536	634.69
464.755	627.69
464.975	658.69
465.195	665.69
465.414	768.69
465.634	670.69
465.854	631.69
466.073	594.69
466.293	588.69
466.512	590.69
466.732	528.69
466.951	576.69
467.171	552.69
467.391	562.69
467.61	565.69
467.829	576.69
468.049	585.69
468.268	551.69
468.488	545.69
468.707	529.69
468.927	544.69
469.146	550.69
469.365	546.69
469.585	542.69
469.804	537.69
470.023	567.69
470.243	554.69
470.462	584.69
470.681	578.69
470.901	576.69
471.12	548.69
471.339	565.69
471.558	561.69
471.777	567.69
471.997	561.69
472.216	559.69
472.435	555.69
472.654	548.69
472.873	564.69
473.092	534.69
473.311	548.69
473.53	551.69
473.749	565.69
473.968	609.69
474.187	730.69
474.406	742.69
474.625	629.69
474.844	598.69
475.063	567.69
475.282	569.69
475.501	552.69
475.72	570.69
475.939	589.69
476.158	582.69
476.377	573.69
476.596	608.69
476.814	582.69
477.033	597.69
477.252	605.69
477.471	582.69
477.69	609.69
477.908	598.69
478.127	623.69
478.346	612.69
478.564	626.69
478.783	636.69
479.002	618.69
479.22	638.69
479.439	661.69
479.658	661.69
479.876	657.69
480.095	700.69
480.313	696.69
480.532	719.69
480.751	691.69
480.969	658.69
481.188	705.69
481.406	682.69
481.624	670.69
481.843	660.69
482.061	664.69
482.28	649.69
482.498	622.69
482.717	638.69
482.935	646.69
483.153	660.69
483.372	662.69
483.59	674.69
483.808	677.69
484.027	647.69
484.245	677.69
484.463	667.69
484.681	668.69
484.9	673.69
485.118	680.69
485.336	679.69
485.554	670.69
485.772	669.69
485.99	674.69
486.209	686.69
486.427	692.69
486.645	684.69
486.863	739.69
487.081	716.69
487.299	699.69
487.517	708.69
487.735	708.69
487.953	711.69
488.171	688.69
488.389	711.69
488.607	723.69
488.825	699.69
489.043	709.69
489.261	727.69
489.479	739.69
489.696	750.69
489.914	739.69
490.132	726.69
490.35	733.69
490.568	728.69
490.786	740.69
491.003	760.69
491.221	791.69
491.439	791.69
491.657	796.69
491.874	821.69
492.092	788.69
492.31	787.69
492.527	794.69
492.745	800.69
492.963	800.69
493.18	807.69
493.398	809.69
493.615	804.69
493.833	819.69
494.05	836.69
494.268	801.69
494.485	834.69
494.703	824.69
494.92	825.69
495.138	840.69
495.355	845.69
495.573	841.69
495.79	861.69
496.008	868.69
496.225	840.69
496.442	842.69
496.66	838.69
496.877	857.69
497.094	853.69
497.312	864.69
497.529	846.69
497.746	898.69
497.963	886.69
498.181	902.69
498.398	922.69
498.615	938.69
498.832	960.69
499.049	974.69
499.267	1036.69
499.484	1028.69
499.701	1067.69
499.918	1092.69
500.135	1174.69
500.352	1219.69
500.569	1194.69
500.786	1202.69
501.003	1191.69
501.22	1172.69
501.437	1143.69
501.654	1116.69
