Data from 1988.PennyLincolnUp.Lamp.En5.5.200Scan.071819.P2_HRD10591_17-20-33-972.txt Node
Date: Thu Jul 18 17:20:33 EDT 2019
User: cochatt
Spectrometer: HR+D1059
Trigger mode: 1
Integration Time (sec): 1.000000E-1
Scans to average: 1
Electric dark correction enabled: true
Nonlinearity correction enabled: false
Boxcar width: 0
XAxis mode: Wavelengths
Number of Pixels in Spectrum: 2048
>>>>>Begin Spectral Data<<<<<
223.165	-22.75
223.4	-22.75
223.635	-22.75
223.869	-19.75
224.104	-8.75
224.338	-26.75
224.573	-18.75
224.808	-14.75
225.042	-7.75
225.277	-2.75
225.511	1.25
225.746	4.25
225.98	12.25
226.215	21.25
226.449	12.25
226.683	22.25
226.918	19.25
227.152	29.25
227.387	30.25
227.621	26.25
227.856	39.25
228.09	32.25
228.324	38.25
228.559	40.25
228.793	78.25
229.027	101.25
229.262	112.25
229.496	129.25
229.73	137.25
229.964	168.25
230.199	142.25
230.433	118.25
230.667	123.25
230.901	126.25
231.136	116.25
231.37	111.25
231.604	128.25
231.838	122.25
232.072	106.25
232.306	111.25
232.541	118.25
232.775	109.25
233.009	110.25
233.243	100.25
233.477	110.25
233.711	111.25
233.945	112.25
234.179	118.25
234.413	116.25
234.647	123.25
234.881	114.25
235.115	130.25
235.349	121.25
235.583	117.25
235.817	127.25
236.051	130.25
236.285	150.25
236.519	137.25
236.753	142.25
236.987	161.25
237.221	199.25
237.455	244.25
237.689	196.25
237.922	162.25
238.156	139.25
238.39	134.25
238.624	147.25
238.858	126.25
239.091	138.25
239.325	145.25
239.559	132.25
239.793	130.25
240.027	138.25
240.26	161.25
240.494	158.25
240.728	167.25
240.961	152.25
241.195	162.25
241.429	148.25
241.662	131.25
241.896	140.25
242.13	144.25
242.363	137.25
242.597	154.25
242.83	145.25
243.064	141.25
243.298	152.25
243.531	132.25
243.765	136.25
243.998	149.25
244.232	138.25
244.465	156.25
244.699	152.25
244.932	166.25
245.166	140.25
245.399	146.25
245.633	166.25
245.866	152.25
246.099	139.25
246.333	146.25
246.566	162.25
246.8	166.25
247.033	161.25
247.266	177.25
247.5	171.25
247.733	178.25
247.966	184.25
248.2	175.25
248.433	180.25
248.666	177.25
248.899	200.25
249.133	206.25
249.366	225.25
249.599	207.25
249.832	193.25
250.066	202.25
250.299	181.25
250.532	206.25
250.765	214.25
250.998	205.25
251.231	229.25
251.465	232.25
251.698	209.25
251.931	204.25
252.164	203.25
252.397	225.25
252.63	216.25
252.863	225.25
253.096	234.25
253.329	237.25
253.562	243.25
253.795	225.25
254.028	222.25
254.261	229.25
254.494	225.25
254.727	266.25
254.96	298.25
255.193	300.25
255.426	252.25
255.659	232.25
255.892	232.25
256.124	243.25
256.357	233.25
256.59	220.25
256.823	206.25
257.056	237.25
257.289	221.25
257.521	221.25
257.754	217.25
257.987	221.25
258.22	194.25
258.452	215.25
258.685	206.25
258.918	215.25
259.151	228.25
259.383	230.25
259.616	228.25
259.849	229.25
260.081	258.25
260.314	270.25
260.547	278.25
260.779	258.25
261.012	254.25
261.244	230.25
261.477	237.25
261.71	225.25
261.942	225.25
262.175	242.25
262.407	246.25
262.64	227.25
262.872	218.25
263.105	227.25
263.337	243.25
263.57	229.25
263.802	237.25
264.035	230.25
264.267	216.25
264.499	217.25
264.732	227.25
264.964	228.25
265.197	226.25
265.429	231.25
265.661	237.25
265.894	231.25
266.126	248.25
266.358	230.25
266.591	245.25
266.823	242.25
267.055	246.25
267.287	244.25
267.52	240.25
267.752	243.25
267.984	250.25
268.216	231.25
268.448	250.25
268.681	256.25
268.913	244.25
269.145	270.25
269.377	309.25
269.609	304.25
269.841	278.25
270.073	292.25
270.306	291.25
270.538	328.25
270.77	337.25
271.002	317.25
271.234	310.25
271.466	315.25
271.698	326.25
271.93	331.25
272.162	341.25
272.394	331.25
272.626	331.25
272.858	330.25
273.09	307.25
273.322	283.25
273.553	284.25
273.785	275.25
274.017	276.25
274.249	285.25
274.481	286.25
274.713	293.25
274.945	277.25
275.176	269.25
275.408	264.25
275.64	291.25
275.872	270.25
276.104	261.25
276.335	264.25
276.567	281.25
276.799	304.25
277.031	329.25
277.262	334.25
277.494	332.25
277.726	330.25
277.957	317.25
278.189	311.25
278.421	278.25
278.652	298.25
278.884	284.25
279.115	287.25
279.347	288.25
279.579	290.25
279.81	286.25
280.042	281.25
280.273	297.25
280.505	280.25
280.736	288.25
280.968	288.25
281.199	291.25
281.431	283.25
281.662	290.25
281.894	288.25
282.125	289.25
282.356	303.25
282.588	318.25
282.819	338.25
283.051	295.25
283.282	288.25
283.513	276.25
283.745	292.25
283.976	309.25
284.207	306.25
284.439	323.25
284.67	293.25
284.901	286.25
285.132	296.25
285.364	285.25
285.595	306.25
285.826	283.25
286.057	290.25
286.288	304.25
286.52	288.25
286.751	305.25
286.982	289.25
287.213	291.25
287.444	312.25
287.675	300.25
287.906	323.25
288.138	324.25
288.369	331.25
288.6	325.25
288.831	319.25
289.062	321.25
289.293	294.25
289.524	313.25
289.755	316.25
289.986	314.25
290.217	294.25
290.448	316.25
290.679	316.25
290.91	320.25
291.141	300.25
291.371	318.25
291.602	323.25
291.833	292.25
292.064	314.25
292.295	314.25
292.526	316.25
292.757	316.25
292.987	300.25
293.218	307.25
293.449	301.25
293.68	304.25
293.91	320.25
294.141	322.25
294.372	301.25
294.603	325.25
294.833	322.25
295.064	311.25
295.295	322.25
295.525	329.25
295.756	322.25
295.987	326.25
296.217	360.25
296.448	361.25
296.679	346.25
296.909	321.25
297.14	302.25
297.37	330.25
297.601	336.25
297.831	308.25
298.062	340.25
298.292	311.25
298.523	309.25
298.753	332.25
298.984	317.25
299.214	353.25
299.445	342.25
299.675	330.25
299.905	350.25
300.136	334.25
300.366	348.25
300.597	329.25
300.827	369.25
301.057	354.25
301.288	358.25
301.518	347.25
301.748	358.25
301.979	341.25
302.209	339.25
302.439	371.25
302.669	355.25
302.9	348.25
303.13	352.25
303.36	356.25
303.59	369.25
303.82	376.25
304.051	363.25
304.281	366.25
304.511	338.25
304.741	365.25
304.971	341.25
305.201	348.25
305.431	355.25
305.661	366.25
305.891	359.25
306.121	370.25
306.352	363.25
306.582	361.25
306.812	377.25
307.042	352.25
307.272	341.25
307.502	348.25
307.731	359.25
307.961	362.25
308.191	349.25
308.421	364.25
308.651	360.25
308.881	356.25
309.111	384.25
309.341	370.25
309.571	392.25
309.8	394.25
310.03	399.25
310.26	420.25
310.49	396.25
310.72	409.25
310.949	413.25
311.179	470.25
311.409	405.25
311.639	412.25
311.868	428.25
312.098	418.25
312.328	413.25
312.557	414.25
312.787	434.25
313.017	448.25
313.246	448.25
313.476	412.25
313.706	416.25
313.935	418.25
314.165	441.25
314.394	456.25
314.624	446.25
314.853	433.25
315.083	412.25
315.312	406.25
315.542	398.25
315.771	406.25
316.001	407.25
316.23	411.25
316.46	397.25
316.689	406.25
316.919	418.25
317.148	441.25
317.377	414.25
317.607	407.25
317.836	411.25
318.065	440.25
318.295	417.25
318.524	422.25
318.753	416.25
318.983	429.25
319.212	412.25
319.441	417.25
319.67	420.25
319.9	404.25
320.129	407.25
320.358	401.25
320.587	427.25
320.816	416.25
321.046	454.25
321.275	436.25
321.504	432.25
321.733	438.25
321.962	441.25
322.191	458.25
322.42	466.25
322.649	485.25
322.878	510.25
323.108	510.25
323.337	536.25
323.566	571.25
323.795	573.25
324.024	619.25
324.253	770.25
324.482	1097.25
324.71	1736.25
324.939	2570.25
325.168	2190.25
325.397	1126.25
325.626	756.25
325.855	620.25
326.084	585.25
326.313	568.25
326.542	591.25
326.77	592.25
326.999	708.25
327.228	977.25
327.457	1560.25
327.686	1893.25
327.914	1268.25
328.143	811.25
328.372	698.25
328.6	635.25
328.829	618.25
329.058	634.25
329.287	628.25
329.515	608.25
329.744	568.25
329.972	543.25
330.201	552.25
330.43	569.25
330.658	626.25
330.887	668.25
331.115	656.25
331.344	589.25
331.572	554.25
331.801	533.25
332.03	528.25
332.258	534.25
332.486	497.25
332.715	485.25
332.943	498.25
333.172	522.25
333.4	493.25
333.629	523.25
333.857	532.25
334.085	521.25
334.314	512.25
334.542	496.25
334.771	541.25
334.999	501.25
335.227	527.25
335.455	523.25
335.684	514.25
335.912	521.25
336.14	496.25
336.369	506.25
336.597	497.25
336.825	509.25
337.053	480.25
337.281	485.25
337.51	488.25
337.738	492.25
337.966	472.25
338.194	489.25
338.422	515.25
338.65	501.25
338.878	467.25
339.106	482.25
339.334	496.25
339.562	480.25
339.79	456.25
340.018	471.25
340.246	470.25
340.474	463.25
340.702	499.25
340.93	484.25
341.158	493.25
341.386	484.25
341.614	503.25
341.842	486.25
342.07	480.25
342.298	453.25
342.526	481.25
342.754	459.25
342.981	461.25
343.209	448.25
343.437	471.25
343.665	481.25
343.893	503.25
344.12	499.25
344.348	491.25
344.576	483.25
344.804	492.25
345.031	500.25
345.259	500.25
345.487	484.25
345.714	488.25
345.942	467.25
346.17	480.25
346.397	462.25
346.625	467.25
346.853	472.25
347.08	482.25
347.308	442.25
347.535	472.25
347.763	480.25
347.99	458.25
348.218	491.25
348.445	484.25
348.673	484.25
348.9	457.25
349.128	469.25
349.355	466.25
349.583	462.25
349.81	455.25
350.037	447.25
350.265	452.25
350.492	439.25
350.72	467.25
350.947	452.25
351.174	483.25
351.402	482.25
351.629	499.25
351.856	464.25
352.083	476.25
352.311	472.25
352.538	496.25
352.765	483.25
352.992	471.25
353.22	474.25
353.447	443.25
353.674	464.25
353.901	456.25
354.128	450.25
354.355	440.25
354.583	436.25
354.81	456.25
355.037	437.25
355.264	430.25
355.491	448.25
355.718	437.25
355.945	439.25
356.172	450.25
356.399	440.25
356.626	437.25
356.853	441.25
357.08	437.25
357.307	441.25
357.534	441.25
357.761	448.25
357.988	436.25
358.215	445.25
358.441	452.25
358.668	437.25
358.895	418.25
359.122	462.25
359.349	452.25
359.576	465.25
359.802	480.25
360.029	509.25
360.256	537.25
360.483	503.25
360.709	467.25
360.936	466.25
361.163	463.25
361.39	452.25
361.616	480.25
361.843	467.25
362.07	469.25
362.296	469.25
362.523	470.25
362.749	491.25
362.976	480.25
363.203	458.25
363.429	460.25
363.656	465.25
363.882	454.25
364.109	454.25
364.335	461.25
364.562	450.25
364.788	468.25
365.015	457.25
365.241	438.25
365.468	448.25
365.694	446.25
365.92	463.25
366.147	456.25
366.373	468.25
366.599	457.25
366.826	436.25
367.052	454.25
367.278	458.25
367.505	470.25
367.731	456.25
367.957	448.25
368.184	417.25
368.41	465.25
368.636	470.25
368.862	468.25
369.089	473.25
369.315	465.25
369.541	463.25
369.767	456.25
369.993	466.25
370.219	468.25
370.445	452.25
370.672	461.25
370.898	461.25
371.124	451.25
371.35	430.25
371.576	444.25
371.802	453.25
372.028	442.25
372.254	442.25
372.48	468.25
372.706	467.25
372.932	462.25
373.158	477.25
373.384	460.25
373.61	450.25
373.835	468.25
374.061	438.25
374.287	462.25
374.513	460.25
374.739	469.25
374.965	487.25
375.191	453.25
375.416	471.25
375.642	454.25
375.868	458.25
376.094	478.25
376.319	461.25
376.545	468.25
376.771	454.25
376.997	443.25
377.222	465.25
377.448	455.25
377.674	423.25
377.899	448.25
378.125	451.25
378.35	449.25
378.576	458.25
378.802	436.25
379.027	459.25
379.253	470.25
379.478	474.25
379.704	455.25
379.929	466.25
380.155	434.25
380.38	446.25
380.606	459.25
380.831	468.25
381.057	473.25
381.282	440.25
381.507	474.25
381.733	461.25
381.958	459.25
382.184	466.25
382.409	468.25
382.634	472.25
382.86	468.25
383.085	472.25
383.31	477.25
383.535	473.25
383.761	494.25
383.986	488.25
384.211	463.25
384.436	466.25
384.662	502.25
384.887	491.25
385.112	516.25
385.337	500.25
385.562	492.25
385.787	493.25
386.013	522.25
386.238	514.25
386.463	513.25
386.688	515.25
386.913	500.25
387.138	485.25
387.363	490.25
387.588	502.25
387.813	498.25
388.038	481.25
388.263	485.25
388.488	503.25
388.713	496.25
388.938	506.25
389.163	500.25
389.387	516.25
389.612	503.25
389.837	493.25
390.062	499.25
390.287	505.25
390.512	489.25
390.736	516.25
390.961	514.25
391.186	527.25
391.411	500.25
391.636	496.25
391.86	518.25
392.085	530.25
392.31	520.25
392.534	515.25
392.759	518.25
392.984	505.25
393.208	492.25
393.433	532.25
393.658	491.25
393.882	502.25
394.107	514.25
394.331	510.25
394.556	528.25
394.78	518.25
395.005	522.25
395.229	537.25
395.454	522.25
395.678	532.25
395.903	545.25
396.127	549.25
396.352	546.25
396.576	547.25
396.801	538.25
397.025	525.25
397.249	524.25
397.474	553.25
397.698	548.25
397.922	557.25
398.147	569.25
398.371	575.25
398.595	550.25
398.82	554.25
399.044	613.25
399.268	622.25
399.492	625.25
399.717	658.25
399.941	705.25
400.165	733.25
400.389	745.25
400.613	693.25
400.837	637.25
401.062	613.25
401.286	588.25
401.51	604.25
401.734	575.25
401.958	586.25
402.182	599.25
402.406	618.25
402.63	610.25
402.854	574.25
403.078	600.25
403.302	609.25
403.526	613.25
403.75	606.25
403.974	609.25
404.198	595.25
404.422	587.25
404.645	607.25
404.869	612.25
405.093	636.25
405.317	654.25
405.541	714.25
405.765	643.25
405.988	607.25
406.212	636.25
406.436	670.25
406.66	699.25
406.883	684.25
407.107	688.25
407.331	736.25
407.555	797.25
407.778	827.25
408.002	746.25
408.226	703.25
408.449	692.25
408.673	676.25
408.896	721.25
409.12	741.25
409.344	724.25
409.567	650.25
409.791	616.25
410.014	609.25
410.238	606.25
410.461	632.25
410.685	616.25
410.908	633.25
411.132	664.25
411.355	744.25
411.578	709.25
411.802	639.25
412.025	613.25
412.249	601.25
412.472	618.25
412.695	640.25
412.919	626.25
413.142	606.25
413.365	615.25
413.589	592.25
413.812	573.25
414.035	580.25
414.258	588.25
414.482	577.25
414.705	599.25
414.928	577.25
415.151	584.25
415.374	589.25
415.597	595.25
415.821	564.25
416.044	581.25
416.267	585.25
416.49	593.25
416.713	566.25
416.936	578.25
417.159	556.25
417.382	580.25
417.605	581.25
417.828	596.25
418.051	625.25
418.274	569.25
418.497	586.25
418.72	596.25
418.943	571.25
419.166	594.25
419.389	633.25
419.611	604.25
419.834	622.25
420.057	608.25
420.28	596.25
420.503	588.25
420.726	570.25
420.948	616.25
421.171	668.25
421.394	690.25
421.617	640.25
421.839	594.25
422.062	594.25
422.285	621.25
422.507	679.25
422.73	803.25
422.953	749.25
423.175	665.25
423.398	612.25
423.621	618.25
423.843	637.25
424.066	664.25
424.288	647.25
424.511	670.25
424.733	718.25
424.956	852.25
425.178	799.25
425.401	767.25
425.623	804.25
425.846	724.25
426.068	660.25
426.291	644.25
426.513	640.25
426.735	657.25
426.958	702.25
427.18	788.25
427.402	960.25
427.625	1067.25
427.847	898.25
428.069	778.25
428.292	704.25
428.514	648.25
428.736	632.25
428.958	634.25
429.181	602.25
429.403	641.25
429.625	617.25
429.847	665.25
430.069	719.25
430.292	730.25
430.514	637.25
430.736	607.25
430.958	578.25
431.18	584.25
431.402	568.25
431.624	564.25
431.846	548.25
432.068	566.25
432.29	566.25
432.512	593.25
432.734	575.25
432.956	577.25
433.178	568.25
433.4	567.25
433.622	577.25
433.844	584.25
434.066	549.25
434.287	568.25
434.509	591.25
434.731	589.25
434.953	588.25
435.175	598.25
435.397	642.25
435.618	666.25
435.84	708.25
436.062	806.25
436.284	912.25
436.505	761.25
436.727	666.25
436.949	632.25
437.17	605.25
437.392	618.25
437.614	604.25
437.835	668.25
438.057	812.25
438.278	896.25
438.5	900.25
438.721	986.25
438.943	921.25
439.165	738.25
439.386	673.25
439.608	661.25
439.829	674.25
440.05	701.25
440.272	749.25
440.493	712.25
440.715	646.25
440.936	637.25
441.158	613.25
441.379	622.25
441.6	633.25
441.822	652.25
442.043	692.25
442.264	789.25
442.486	841.25
442.707	723.25
442.928	694.25
443.149	696.25
443.371	690.25
443.592	739.25
443.813	865.25
444.034	937.25
444.255	760.25
444.476	704.25
444.698	682.25
444.919	663.25
445.14	778.25
445.361	731.25
445.582	725.25
445.803	773.25
446.024	924.25
446.245	932.25
446.466	837.25
446.687	706.25
446.908	642.25
447.129	620.25
447.35	617.25
447.571	612.25
447.792	592.25
448.013	598.25
448.234	627.25
448.455	676.25
448.675	841.25
448.896	946.25
449.117	823.25
449.338	789.25
449.559	907.25
449.779	1030.25
450	798.25
450.221	678.25
450.442	609.25
450.662	598.25
450.883	609.25
451.104	610.25
451.324	610.25
451.545	571.25
451.766	562.25
451.986	550.25
452.207	533.25
452.428	537.25
452.648	549.25
452.869	546.25
453.089	535.25
453.31	584.25
453.53	547.25
453.751	548.25
453.971	540.25
454.192	565.25
454.412	562.25
454.633	546.25
454.853	522.25
455.073	539.25
455.294	565.25
455.514	628.25
455.734	621.25
455.955	560.25
456.175	522.25
456.395	504.25
456.616	510.25
456.836	509.25
457.056	504.25
457.276	514.25
457.497	525.25
457.717	512.25
457.937	532.25
458.157	526.25
458.377	533.25
458.598	557.25
458.818	634.25
459.038	733.25
459.258	706.25
459.478	615.25
459.698	572.25
459.918	589.25
460.138	576.25
460.358	587.25
460.578	572.25
460.798	591.25
461.018	579.25
461.238	588.25
461.458	597.25
461.678	589.25
461.898	589.25
462.118	584.25
462.338	598.25
462.558	622.25
462.777	619.25
462.997	625.25
463.217	665.25
463.437	648.25
463.657	646.25
463.876	641.25
464.096	629.25
464.316	586.25
464.536	640.25
464.755	635.25
464.975	630.25
465.195	667.25
465.414	747.25
465.634	676.25
465.854	629.25
466.073	605.25
466.293	579.25
466.512	564.25
466.732	543.25
466.951	565.25
467.171	585.25
467.391	565.25
467.61	576.25
467.829	584.25
468.049	567.25
468.268	553.25
468.488	551.25
468.707	544.25
468.927	543.25
469.146	527.25
469.365	534.25
469.585	540.25
469.804	563.25
470.023	582.25
470.243	563.25
470.462	568.25
470.681	595.25
470.901	598.25
471.12	573.25
471.339	567.25
471.558	572.25
471.777	569.25
471.997	562.25
472.216	573.25
472.435	584.25
472.654	563.25
472.873	556.25
473.092	548.25
473.311	568.25
473.53	559.25
473.749	574.25
473.968	609.25
474.187	712.25
474.406	730.25
474.625	603.25
474.844	597.25
475.063	577.25
475.282	585.25
475.501	582.25
475.72	582.25
475.939	579.25
476.158	597.25
476.377	596.25
476.596	590.25
476.814	596.25
477.033	609.25
477.252	596.25
477.471	607.25
477.69	603.25
477.908	617.25
478.127	618.25
478.346	608.25
478.564	614.25
478.783	632.25
479.002	650.25
479.22	651.25
479.439	663.25
479.658	681.25
479.876	666.25
480.095	659.25
480.313	714.25
480.532	714.25
480.751	695.25
480.969	698.25
481.188	682.25
481.406	710.25
481.624	674.25
481.843	663.25
482.061	638.25
482.28	669.25
482.498	643.25
482.717	666.25
482.935	639.25
483.153	640.25
483.372	645.25
483.59	648.25
483.808	664.25
484.027	645.25
484.245	691.25
484.463	695.25
484.681	682.25
484.9	678.25
485.118	653.25
485.336	658.25
485.554	675.25
485.772	691.25
485.99	676.25
486.209	686.25
486.427	688.25
486.645	698.25
486.863	741.25
487.081	743.25
487.299	710.25
487.517	706.25
487.735	698.25
487.953	709.25
488.171	717.25
488.389	698.25
488.607	712.25
488.825	713.25
489.043	714.25
489.261	724.25
489.479	742.25
489.696	711.25
489.914	712.25
490.132	722.25
490.35	737.25
490.568	732.25
490.786	739.25
491.003	782.25
491.221	789.25
491.439	798.25
491.657	789.25
491.874	813.25
492.092	819.25
492.31	804.25
492.527	823.25
492.745	823.25
492.963	800.25
493.18	837.25
493.398	826.25
493.615	844.25
493.833	826.25
494.05	830.25
494.268	820.25
494.485	821.25
494.703	829.25
494.92	854.25
495.138	850.25
495.355	841.25
495.573	864.25
495.79	820.25
496.008	862.25
496.225	829.25
496.442	844.25
496.66	867.25
496.877	867.25
497.094	868.25
497.312	860.25
497.529	866.25
497.746	903.25
497.963	920.25
498.181	928.25
498.398	924.25
498.615	961.25
498.832	969.25
499.049	996.25
499.267	998.25
499.484	1049.25
499.701	1092.25
499.918	1117.25
500.135	1190.25
500.352	1203.25
500.569	1216.25
500.786	1218.25
501.003	1197.25
501.22	1188.25
501.437	1139.25
501.654	1092.25
