Data from 1988.PennyLincolnUp.Lamp.En5.5.200Scan.071819.P2_HRD10591_17-19-48-971.txt Node
Date: Thu Jul 18 17:19:48 EDT 2019
User: cochatt
Spectrometer: HR+D1059
Trigger mode: 1
Integration Time (sec): 1.000000E-1
Scans to average: 1
Electric dark correction enabled: true
Nonlinearity correction enabled: false
Boxcar width: 0
XAxis mode: Wavelengths
Number of Pixels in Spectrum: 2048
>>>>>Begin Spectral Data<<<<<
223.165	-18.44
223.4	-18.44
223.635	-18.44
223.869	-17.44
224.104	-12.44
224.338	-23.44
224.573	3.56
224.808	-10.44
225.042	-8.44
225.277	-7.44
225.511	2.56
225.746	2.56
225.98	5.56
226.215	-11.44
226.449	13.56
226.683	14.56
226.918	27.56
227.152	39.56
227.387	36.56
227.621	44.56
227.856	43.56
228.09	33.56
228.324	53.56
228.559	71.56
228.793	75.56
229.027	107.56
229.262	110.56
229.496	131.56
229.73	145.56
229.964	170.56
230.199	138.56
230.433	114.56
230.667	113.56
230.901	127.56
231.136	123.56
231.37	130.56
231.604	118.56
231.838	108.56
232.072	109.56
232.306	129.56
232.541	118.56
232.775	114.56
233.009	114.56
233.243	127.56
233.477	117.56
233.711	120.56
233.945	117.56
234.179	137.56
234.413	120.56
234.647	113.56
234.881	112.56
235.115	103.56
235.349	118.56
235.583	133.56
235.817	118.56
236.051	125.56
236.285	125.56
236.519	136.56
236.753	141.56
236.987	157.56
237.221	193.56
237.455	248.56
237.689	209.56
237.922	142.56
238.156	143.56
238.39	130.56
238.624	134.56
238.858	135.56
239.091	123.56
239.325	115.56
239.559	128.56
239.793	124.56
240.027	159.56
240.26	146.56
240.494	167.56
240.728	150.56
240.961	173.56
241.195	146.56
241.429	151.56
241.662	169.56
241.896	141.56
242.13	134.56
242.363	149.56
242.597	137.56
242.83	142.56
243.064	139.56
243.298	138.56
243.531	153.56
243.765	150.56
243.998	137.56
244.232	153.56
244.465	146.56
244.699	150.56
244.932	150.56
245.166	163.56
245.399	163.56
245.633	175.56
245.866	144.56
246.099	153.56
246.333	159.56
246.566	161.56
246.8	157.56
247.033	175.56
247.266	170.56
247.5	166.56
247.733	173.56
247.966	185.56
248.2	184.56
248.433	183.56
248.666	185.56
248.899	197.56
249.133	215.56
249.366	227.56
249.599	202.56
249.832	202.56
250.066	195.56
250.299	208.56
250.532	196.56
250.765	203.56
250.998	233.56
251.231	231.56
251.465	215.56
251.698	216.56
251.931	211.56
252.164	215.56
252.397	214.56
252.63	209.56
252.863	209.56
253.096	231.56
253.329	242.56
253.562	246.56
253.795	234.56
254.028	225.56
254.261	231.56
254.494	233.56
254.727	268.56
254.96	291.56
255.193	279.56
255.426	265.56
255.659	260.56
255.892	236.56
256.124	227.56
256.357	235.56
256.59	218.56
256.823	223.56
257.056	231.56
257.289	222.56
257.521	210.56
257.754	218.56
257.987	220.56
258.22	223.56
258.452	207.56
258.685	210.56
258.918	231.56
259.151	229.56
259.383	230.56
259.616	248.56
259.849	247.56
260.081	229.56
260.314	277.56
260.547	255.56
260.779	242.56
261.012	246.56
261.244	263.56
261.477	234.56
261.71	237.56
261.942	241.56
262.175	256.56
262.407	239.56
262.64	236.56
262.872	230.56
263.105	217.56
263.337	217.56
263.57	215.56
263.802	215.56
264.035	220.56
264.267	231.56
264.499	227.56
264.732	228.56
264.964	228.56
265.197	232.56
265.429	230.56
265.661	227.56
265.894	210.56
266.126	227.56
266.358	228.56
266.591	230.56
266.823	228.56
267.055	245.56
267.287	243.56
267.52	250.56
267.752	258.56
267.984	259.56
268.216	230.56
268.448	265.56
268.681	245.56
268.913	267.56
269.145	269.56
269.377	290.56
269.609	297.56
269.841	279.56
270.073	291.56
270.306	308.56
270.538	300.56
270.77	315.56
271.002	326.56
271.234	315.56
271.466	316.56
271.698	325.56
271.93	339.56
272.162	327.56
272.394	338.56
272.626	318.56
272.858	298.56
273.09	286.56
273.322	286.56
273.553	283.56
273.785	290.56
274.017	296.56
274.249	290.56
274.481	280.56
274.713	289.56
274.945	298.56
275.176	270.56
275.408	269.56
275.64	276.56
275.872	265.56
276.104	273.56
276.335	293.56
276.567	286.56
276.799	313.56
277.031	318.56
277.262	336.56
277.494	321.56
277.726	310.56
277.957	311.56
278.189	300.56
278.421	281.56
278.652	285.56
278.884	285.56
279.115	290.56
279.347	287.56
279.579	281.56
279.81	289.56
280.042	276.56
280.273	297.56
280.505	297.56
280.736	302.56
280.968	289.56
281.199	277.56
281.431	279.56
281.662	284.56
281.894	281.56
282.125	287.56
282.356	317.56
282.588	337.56
282.819	331.56
283.051	296.56
283.282	266.56
283.513	297.56
283.745	306.56
283.976	309.56
284.207	308.56
284.439	291.56
284.67	309.56
284.901	310.56
285.132	284.56
285.364	288.56
285.595	303.56
285.826	297.56
286.057	281.56
286.288	297.56
286.52	291.56
286.751	297.56
286.982	306.56
287.213	291.56
287.444	302.56
287.675	315.56
287.906	296.56
288.138	309.56
288.369	327.56
288.6	324.56
288.831	320.56
289.062	313.56
289.293	309.56
289.524	327.56
289.755	315.56
289.986	315.56
290.217	305.56
290.448	310.56
290.679	325.56
290.91	321.56
291.141	325.56
291.371	310.56
291.602	305.56
291.833	299.56
292.064	295.56
292.295	308.56
292.526	314.56
292.757	302.56
292.987	309.56
293.218	294.56
293.449	314.56
293.68	327.56
293.91	319.56
294.141	319.56
294.372	333.56
294.603	305.56
294.833	310.56
295.064	336.56
295.295	325.56
295.525	331.56
295.756	301.56
295.987	319.56
296.217	340.56
296.448	345.56
296.679	325.56
296.909	332.56
297.14	322.56
297.37	321.56
297.601	312.56
297.831	327.56
298.062	323.56
298.292	325.56
298.523	334.56
298.753	341.56
298.984	337.56
299.214	340.56
299.445	320.56
299.675	335.56
299.905	352.56
300.136	337.56
300.366	345.56
300.597	347.56
300.827	330.56
301.057	349.56
301.288	367.56
301.518	372.56
301.748	350.56
301.979	359.56
302.209	345.56
302.439	373.56
302.669	349.56
302.9	361.56
303.13	337.56
303.36	356.56
303.59	344.56
303.82	364.56
304.051	367.56
304.281	357.56
304.511	353.56
304.741	353.56
304.971	374.56
305.201	339.56
305.431	341.56
305.661	377.56
305.891	351.56
306.121	350.56
306.352	366.56
306.582	375.56
306.812	350.56
307.042	367.56
307.272	373.56
307.502	357.56
307.731	351.56
307.961	359.56
308.191	350.56
308.421	350.56
308.651	369.56
308.881	369.56
309.111	380.56
309.341	366.56
309.571	381.56
309.8	389.56
310.03	385.56
310.26	405.56
310.49	390.56
310.72	395.56
310.949	415.56
311.179	452.56
311.409	417.56
311.639	377.56
311.868	396.56
312.098	397.56
312.328	411.56
312.557	435.56
312.787	453.56
313.017	457.56
313.246	420.56
313.476	424.56
313.706	414.56
313.935	411.56
314.165	421.56
314.394	439.56
314.624	443.56
314.853	422.56
315.083	431.56
315.312	405.56
315.542	419.56
315.771	399.56
316.001	411.56
316.23	421.56
316.46	417.56
316.689	426.56
316.919	395.56
317.148	414.56
317.377	414.56
317.607	416.56
317.836	413.56
318.065	415.56
318.295	409.56
318.524	406.56
318.753	404.56
318.983	415.56
319.212	398.56
319.441	417.56
319.67	443.56
319.9	427.56
320.129	413.56
320.358	386.56
320.587	420.56
320.816	423.56
321.046	439.56
321.275	441.56
321.504	433.56
321.733	448.56
321.962	429.56
322.191	443.56
322.42	473.56
322.649	488.56
322.878	497.56
323.108	487.56
323.337	532.56
323.566	561.56
323.795	560.56
324.024	621.56
324.253	726.56
324.482	1083.56
324.71	1656.56
324.939	2455.56
325.168	2141.56
325.397	1096.56
325.626	700.56
325.855	634.56
326.084	579.56
326.313	548.56
326.542	556.56
326.77	617.56
326.999	696.56
327.228	954.56
327.457	1470.56
327.686	1837.56
327.914	1239.56
328.143	771.56
328.372	669.56
328.6	630.56
328.829	609.56
329.058	601.56
329.287	620.56
329.515	574.56
329.744	556.56
329.972	546.56
330.201	533.56
330.43	551.56
330.658	601.56
330.887	641.56
331.115	655.56
331.344	535.56
331.572	549.56
331.801	534.56
332.03	535.56
332.258	515.56
332.486	486.56
332.715	525.56
332.943	479.56
333.172	501.56
333.4	513.56
333.629	495.56
333.857	513.56
334.085	509.56
334.314	491.56
334.542	505.56
334.771	543.56
334.999	498.56
335.227	488.56
335.455	517.56
335.684	507.56
335.912	483.56
336.14	503.56
336.369	497.56
336.597	504.56
336.825	505.56
337.053	480.56
337.281	499.56
337.51	469.56
337.738	499.56
337.966	495.56
338.194	501.56
338.422	481.56
338.65	490.56
338.878	486.56
339.106	493.56
339.334	482.56
339.562	471.56
339.79	492.56
340.018	486.56
340.246	501.56
340.474	504.56
340.702	467.56
340.93	484.56
341.158	484.56
341.386	492.56
341.614	512.56
341.842	480.56
342.07	471.56
342.298	465.56
342.526	452.56
342.754	459.56
342.981	459.56
343.209	456.56
343.437	469.56
343.665	471.56
343.893	492.56
344.12	490.56
344.348	490.56
344.576	484.56
344.804	492.56
345.031	490.56
345.259	514.56
345.487	489.56
345.714	494.56
345.942	471.56
346.17	463.56
346.397	461.56
346.625	461.56
346.853	469.56
347.08	456.56
347.308	471.56
347.535	480.56
347.763	467.56
347.99	475.56
348.218	458.56
348.445	475.56
348.673	472.56
348.9	447.56
349.128	461.56
349.355	463.56
349.583	464.56
349.81	451.56
350.037	439.56
350.265	447.56
350.492	447.56
350.72	435.56
350.947	461.56
351.174	461.56
351.402	476.56
351.629	444.56
351.856	477.56
352.083	462.56
352.311	492.56
352.538	482.56
352.765	479.56
352.992	490.56
353.22	462.56
353.447	468.56
353.674	482.56
353.901	437.56
354.128	421.56
354.355	465.56
354.583	433.56
354.81	448.56
355.037	445.56
355.264	426.56
355.491	423.56
355.718	426.56
355.945	420.56
356.172	445.56
356.399	444.56
356.626	430.56
356.853	447.56
357.08	423.56
357.307	442.56
357.534	428.56
357.761	429.56
357.988	420.56
358.215	432.56
358.441	453.56
358.668	438.56
358.895	437.56
359.122	450.56
359.349	448.56
359.576	490.56
359.802	493.56
360.029	501.56
360.256	497.56
360.483	498.56
360.709	470.56
360.936	492.56
361.163	466.56
361.39	463.56
361.616	473.56
361.843	474.56
362.07	466.56
362.296	479.56
362.523	466.56
362.749	462.56
362.976	470.56
363.203	446.56
363.429	446.56
363.656	457.56
363.882	439.56
364.109	425.56
364.335	468.56
364.562	457.56
364.788	454.56
365.015	451.56
365.241	446.56
365.468	444.56
365.694	463.56
365.92	470.56
366.147	471.56
366.373	437.56
366.599	445.56
366.826	437.56
367.052	429.56
367.278	449.56
367.505	446.56
367.731	459.56
367.957	467.56
368.184	460.56
368.41	453.56
368.636	455.56
368.862	470.56
369.089	479.56
369.315	448.56
369.541	471.56
369.767	454.56
369.993	455.56
370.219	472.56
370.445	446.56
370.672	443.56
370.898	426.56
371.124	459.56
371.35	469.56
371.576	461.56
371.802	442.56
372.028	459.56
372.254	470.56
372.48	453.56
372.706	463.56
372.932	448.56
373.158	450.56
373.384	481.56
373.61	448.56
373.835	463.56
374.061	437.56
374.287	470.56
374.513	482.56
374.739	465.56
374.965	451.56
375.191	463.56
375.416	467.56
375.642	476.56
375.868	475.56
376.094	464.56
376.319	452.56
376.545	461.56
376.771	436.56
376.997	469.56
377.222	460.56
377.448	455.56
377.674	472.56
377.899	450.56
378.125	447.56
378.35	436.56
378.576	457.56
378.802	458.56
379.027	446.56
379.253	454.56
379.478	473.56
379.704	434.56
379.929	449.56
380.155	462.56
380.38	470.56
380.606	444.56
380.831	473.56
381.057	433.56
381.282	455.56
381.507	466.56
381.733	473.56
381.958	446.56
382.184	473.56
382.409	475.56
382.634	467.56
382.86	480.56
383.085	460.56
383.31	470.56
383.535	468.56
383.761	480.56
383.986	478.56
384.211	493.56
384.436	481.56
384.662	519.56
384.887	494.56
385.112	484.56
385.337	526.56
385.562	488.56
385.787	478.56
386.013	534.56
386.238	497.56
386.463	515.56
386.688	486.56
386.913	496.56
387.138	509.56
387.363	518.56
387.588	482.56
387.813	502.56
388.038	524.56
388.263	501.56
388.488	502.56
388.713	523.56
388.938	515.56
389.163	504.56
389.387	507.56
389.612	495.56
389.837	498.56
390.062	501.56
390.287	516.56
390.512	505.56
390.736	495.56
390.961	509.56
391.186	495.56
391.411	508.56
391.636	528.56
391.86	517.56
392.085	537.56
392.31	518.56
392.534	539.56
392.759	542.56
392.984	517.56
393.208	509.56
393.433	515.56
393.658	517.56
393.882	522.56
394.107	496.56
394.331	515.56
394.556	516.56
394.78	535.56
395.005	533.56
395.229	493.56
395.454	536.56
395.678	533.56
395.903	550.56
396.127	556.56
396.352	568.56
396.576	522.56
396.801	524.56
397.025	539.56
397.249	535.56
397.474	562.56
397.698	568.56
397.922	567.56
398.147	584.56
398.371	577.56
398.595	583.56
398.82	577.56
399.044	606.56
399.268	601.56
399.492	633.56
399.717	673.56
399.941	699.56
400.165	733.56
400.389	726.56
400.613	670.56
400.837	625.56
401.062	618.56
401.286	611.56
401.51	576.56
401.734	567.56
401.958	593.56
402.182	591.56
402.406	615.56
402.63	584.56
402.854	604.56
403.078	607.56
403.302	587.56
403.526	634.56
403.75	609.56
403.974	589.56
404.198	598.56
404.422	602.56
404.645	607.56
404.869	598.56
405.093	627.56
405.317	656.56
405.541	667.56
405.765	674.56
405.988	645.56
406.212	653.56
406.436	669.56
406.66	689.56
406.883	643.56
407.107	693.56
407.331	727.56
407.555	796.56
407.778	808.56
408.002	734.56
408.226	686.56
408.449	694.56
408.673	699.56
408.896	726.56
409.12	782.56
409.344	736.56
409.567	663.56
409.791	651.56
410.014	633.56
410.238	631.56
410.461	618.56
410.685	625.56
410.908	625.56
411.132	678.56
411.355	693.56
411.578	673.56
411.802	629.56
412.025	620.56
412.249	603.56
412.472	639.56
412.695	616.56
412.919	612.56
413.142	596.56
413.365	599.56
413.589	599.56
413.812	595.56
414.035	578.56
414.258	578.56
414.482	583.56
414.705	582.56
414.928	587.56
415.151	590.56
415.374	541.56
415.597	582.56
415.821	561.56
416.044	580.56
416.267	586.56
416.49	566.56
416.713	563.56
416.936	582.56
417.159	574.56
417.382	561.56
417.605	596.56
417.828	604.56
418.051	618.56
418.274	595.56
418.497	577.56
418.72	583.56
418.943	571.56
419.166	622.56
419.389	630.56
419.611	605.56
419.834	612.56
420.057	577.56
420.28	620.56
420.503	582.56
420.726	576.56
420.948	606.56
421.171	659.56
421.394	722.56
421.617	652.56
421.839	595.56
422.062	605.56
422.285	600.56
422.507	666.56
422.73	757.56
422.953	749.56
423.175	655.56
423.398	667.56
423.621	651.56
423.843	641.56
424.066	659.56
424.288	657.56
424.511	654.56
424.733	718.56
424.956	822.56
425.178	809.56
425.401	811.56
425.623	815.56
425.846	701.56
426.068	667.56
426.291	656.56
426.513	650.56
426.735	665.56
426.958	709.56
427.18	819.56
427.402	955.56
427.625	1048.56
427.847	885.56
428.069	763.56
428.292	687.56
428.514	653.56
428.736	619.56
428.958	621.56
429.181	583.56
429.403	603.56
429.625	626.56
429.847	665.56
430.069	713.56
430.292	708.56
430.514	634.56
430.736	607.56
430.958	581.56
431.18	578.56
431.402	582.56
431.624	585.56
431.846	564.56
432.068	553.56
432.29	583.56
432.512	587.56
432.734	581.56
432.956	573.56
433.178	576.56
433.4	585.56
433.622	600.56
433.844	582.56
434.066	573.56
434.287	580.56
434.509	581.56
434.731	590.56
434.953	602.56
435.175	617.56
435.397	653.56
435.618	645.56
435.84	680.56
436.062	814.56
436.284	891.56
436.505	746.56
436.727	664.56
436.949	622.56
437.17	619.56
437.392	606.56
437.614	614.56
437.835	637.56
438.057	745.56
438.278	878.56
438.5	884.56
438.721	982.56
438.943	956.56
439.165	742.56
439.386	677.56
439.608	674.56
439.829	663.56
440.05	678.56
440.272	730.56
440.493	705.56
440.715	660.56
440.936	650.56
441.158	612.56
441.379	613.56
441.6	612.56
441.822	627.56
442.043	719.56
442.264	798.56
442.486	819.56
442.707	743.56
442.928	665.56
443.149	686.56
443.371	722.56
443.592	746.56
443.813	849.56
444.034	915.56
444.255	783.56
444.476	715.56
444.698	657.56
444.919	675.56
445.14	735.56
445.361	707.56
445.582	722.56
445.803	775.56
446.024	872.56
446.245	887.56
446.466	830.56
446.687	693.56
446.908	648.56
447.129	615.56
447.35	619.56
447.571	602.56
447.792	602.56
448.013	593.56
448.234	627.56
448.455	673.56
448.675	797.56
448.896	937.56
449.117	793.56
449.338	769.56
449.559	906.56
449.779	981.56
450	786.56
450.221	679.56
450.442	613.56
450.662	579.56
450.883	582.56
451.104	637.56
451.324	614.56
451.545	597.56
451.766	573.56
451.986	558.56
452.207	553.56
452.428	541.56
452.648	551.56
452.869	541.56
453.089	557.56
453.31	557.56
453.53	554.56
453.751	552.56
453.971	537.56
454.192	548.56
454.412	563.56
454.633	573.56
454.853	516.56
455.073	531.56
455.294	581.56
455.514	662.56
455.734	633.56
455.955	543.56
456.175	520.56
456.395	497.56
456.616	496.56
456.836	524.56
457.056	525.56
457.276	507.56
457.497	503.56
457.717	502.56
457.937	543.56
458.157	536.56
458.377	525.56
458.598	580.56
458.818	589.56
459.038	705.56
459.258	724.56
459.478	623.56
459.698	583.56
459.918	579.56
460.138	558.56
460.358	592.56
460.578	595.56
460.798	609.56
461.018	576.56
461.238	554.56
461.458	604.56
461.678	590.56
461.898	567.56
462.118	581.56
462.338	620.56
462.558	611.56
462.777	617.56
462.997	637.56
463.217	652.56
463.437	645.56
463.657	634.56
463.876	652.56
464.096	617.56
464.316	630.56
464.536	629.56
464.755	645.56
464.975	635.56
465.195	634.56
465.414	722.56
465.634	654.56
465.854	616.56
466.073	569.56
466.293	600.56
466.512	559.56
466.732	548.56
466.951	551.56
467.171	568.56
467.391	567.56
467.61	580.56
467.829	583.56
468.049	567.56
468.268	548.56
468.488	543.56
468.707	544.56
468.927	529.56
469.146	530.56
469.365	549.56
469.585	549.56
469.804	540.56
470.023	569.56
470.243	557.56
470.462	549.56
470.681	575.56
470.901	563.56
471.12	560.56
471.339	551.56
471.558	555.56
471.777	566.56
471.997	556.56
472.216	556.56
472.435	567.56
472.654	543.56
472.873	537.56
473.092	547.56
473.311	578.56
473.53	567.56
473.749	564.56
473.968	608.56
474.187	741.56
474.406	744.56
474.625	640.56
474.844	569.56
475.063	558.56
475.282	572.56
475.501	578.56
475.72	581.56
475.939	567.56
476.158	581.56
476.377	588.56
476.596	584.56
476.814	573.56
477.033	589.56
477.252	618.56
477.471	614.56
477.69	613.56
477.908	597.56
478.127	615.56
478.346	605.56
478.564	630.56
478.783	637.56
479.002	638.56
479.22	640.56
479.439	661.56
479.658	665.56
479.876	678.56
480.095	707.56
480.313	728.56
480.532	704.56
480.751	683.56
480.969	676.56
481.188	691.56
481.406	709.56
481.624	681.56
481.843	659.56
482.061	686.56
482.28	661.56
482.498	656.56
482.717	649.56
482.935	647.56
483.153	659.56
483.372	654.56
483.59	644.56
483.808	651.56
484.027	661.56
484.245	667.56
484.463	662.56
484.681	660.56
484.9	698.56
485.118	696.56
485.336	663.56
485.554	652.56
485.772	691.56
485.99	682.56
486.209	681.56
486.427	707.56
486.645	713.56
486.863	713.56
487.081	722.56
487.299	721.56
487.517	688.56
487.735	698.56
487.953	695.56
488.171	666.56
488.389	706.56
488.607	709.56
488.825	746.56
489.043	724.56
489.261	706.56
489.479	743.56
489.696	714.56
489.914	727.56
490.132	731.56
490.35	744.56
490.568	740.56
490.786	771.56
491.003	777.56
491.221	778.56
491.439	797.56
491.657	796.56
491.874	796.56
492.092	770.56
492.31	812.56
492.527	792.56
492.745	791.56
492.963	809.56
493.18	825.56
493.398	844.56
493.615	833.56
493.833	831.56
494.05	827.56
494.268	823.56
494.485	842.56
494.703	835.56
494.92	822.56
495.138	825.56
495.355	865.56
495.573	844.56
495.79	847.56
496.008	854.56
496.225	851.56
496.442	866.56
496.66	849.56
496.877	856.56
497.094	858.56
497.312	863.56
497.529	891.56
497.746	910.56
497.963	899.56
498.181	939.56
498.398	918.56
498.615	946.56
498.832	958.56
499.049	962.56
499.267	1001.56
499.484	1046.56
499.701	1053.56
499.918	1099.56
500.135	1138.56
500.352	1194.56
500.569	1230.56
500.786	1266.56
501.003	1194.56
501.22	1183.56
501.437	1124.56
501.654	1087.56
