Data from 1988.PennyLincolnUp.Lamp.En5.5.200Scan.071819.P2_HRD10591_17-19-57-973.txt Node
Date: Thu Jul 18 17:19:57 EDT 2019
User: cochatt
Spectrometer: HR+D1059
Trigger mode: 1
Integration Time (sec): 1.000000E-1
Scans to average: 1
Electric dark correction enabled: true
Nonlinearity correction enabled: false
Boxcar width: 0
XAxis mode: Wavelengths
Number of Pixels in Spectrum: 2048
>>>>>Begin Spectral Data<<<<<
223.165	-14.81
223.4	-14.81
223.635	-14.81
223.869	-35.81
224.104	-9.81
224.338	-9.81
224.573	-8.81
224.808	-6.81
225.042	-8.81
225.277	-5.81
225.511	-16.81
225.746	7.19
225.98	9.19
226.215	10.19
226.449	9.19
226.683	22.19
226.918	27.19
227.152	32.19
227.387	31.19
227.621	36.19
227.856	36.19
228.09	44.19
228.324	44.19
228.559	56.19
228.793	60.19
229.027	103.19
229.262	88.19
229.496	136.19
229.73	132.19
229.964	161.19
230.199	143.19
230.433	126.19
230.667	122.19
230.901	130.19
231.136	126.19
231.37	112.19
231.604	127.19
231.838	122.19
232.072	125.19
232.306	119.19
232.541	122.19
232.775	112.19
233.009	124.19
233.243	120.19
233.477	127.19
233.711	119.19
233.945	128.19
234.179	136.19
234.413	131.19
234.647	140.19
234.881	142.19
235.115	129.19
235.349	119.19
235.583	135.19
235.817	122.19
236.051	133.19
236.285	130.19
236.519	123.19
236.753	138.19
236.987	130.19
237.221	212.19
237.455	260.19
237.689	218.19
237.922	158.19
238.156	144.19
238.39	144.19
238.624	130.19
238.858	130.19
239.091	127.19
239.325	123.19
239.559	136.19
239.793	138.19
240.027	152.19
240.26	145.19
240.494	174.19
240.728	172.19
240.961	167.19
241.195	159.19
241.429	152.19
241.662	153.19
241.896	151.19
242.13	137.19
242.363	129.19
242.597	142.19
242.83	150.19
243.064	143.19
243.298	151.19
243.531	166.19
243.765	149.19
243.998	144.19
244.232	155.19
244.465	158.19
244.699	166.19
244.932	168.19
245.166	158.19
245.399	154.19
245.633	153.19
245.866	166.19
246.099	156.19
246.333	158.19
246.566	172.19
246.8	160.19
247.033	157.19
247.266	170.19
247.5	168.19
247.733	169.19
247.966	194.19
248.2	160.19
248.433	177.19
248.666	176.19
248.899	218.19
249.133	205.19
249.366	223.19
249.599	207.19
249.832	194.19
250.066	192.19
250.299	194.19
250.532	194.19
250.765	226.19
250.998	222.19
251.231	235.19
251.465	215.19
251.698	227.19
251.931	217.19
252.164	202.19
252.397	227.19
252.63	208.19
252.863	230.19
253.096	210.19
253.329	253.19
253.562	245.19
253.795	228.19
254.028	228.19
254.261	238.19
254.494	247.19
254.727	282.19
254.96	297.19
255.193	282.19
255.426	271.19
255.659	235.19
255.892	222.19
256.124	244.19
256.357	240.19
256.59	236.19
256.823	210.19
257.056	207.19
257.289	205.19
257.521	202.19
257.754	229.19
257.987	214.19
258.22	230.19
258.452	222.19
258.685	211.19
258.918	233.19
259.151	213.19
259.383	232.19
259.616	231.19
259.849	231.19
260.081	244.19
260.314	270.19
260.547	277.19
260.779	263.19
261.012	242.19
261.244	239.19
261.477	245.19
261.71	231.19
261.942	250.19
262.175	254.19
262.407	258.19
262.64	225.19
262.872	233.19
263.105	228.19
263.337	237.19
263.57	229.19
263.802	220.19
264.035	217.19
264.267	229.19
264.499	239.19
264.732	234.19
264.964	247.19
265.197	226.19
265.429	217.19
265.661	236.19
265.894	237.19
266.126	226.19
266.358	241.19
266.591	249.19
266.823	237.19
267.055	246.19
267.287	254.19
267.52	243.19
267.752	259.19
267.984	244.19
268.216	237.19
268.448	249.19
268.681	233.19
268.913	273.19
269.145	269.19
269.377	293.19
269.609	302.19
269.841	291.19
270.073	295.19
270.306	317.19
270.538	344.19
270.77	321.19
271.002	325.19
271.234	321.19
271.466	312.19
271.698	322.19
271.93	338.19
272.162	335.19
272.394	325.19
272.626	320.19
272.858	308.19
273.09	300.19
273.322	285.19
273.553	289.19
273.785	301.19
274.017	299.19
274.249	291.19
274.481	278.19
274.713	272.19
274.945	300.19
275.176	290.19
275.408	292.19
275.64	285.19
275.872	274.19
276.104	281.19
276.335	282.19
276.567	298.19
276.799	310.19
277.031	317.19
277.262	342.19
277.494	319.19
277.726	331.19
277.957	303.19
278.189	303.19
278.421	282.19
278.652	273.19
278.884	293.19
279.115	303.19
279.347	294.19
279.579	291.19
279.81	293.19
280.042	274.19
280.273	283.19
280.505	299.19
280.736	271.19
280.968	292.19
281.199	286.19
281.431	296.19
281.662	280.19
281.894	288.19
282.125	282.19
282.356	305.19
282.588	337.19
282.819	326.19
283.051	288.19
283.282	280.19
283.513	318.19
283.745	304.19
283.976	284.19
284.207	304.19
284.439	294.19
284.67	296.19
284.901	299.19
285.132	294.19
285.364	281.19
285.595	295.19
285.826	296.19
286.057	288.19
286.288	282.19
286.52	301.19
286.751	308.19
286.982	324.19
287.213	312.19
287.444	317.19
287.675	318.19
287.906	315.19
288.138	320.19
288.369	321.19
288.6	318.19
288.831	346.19
289.062	332.19
289.293	340.19
289.524	333.19
289.755	321.19
289.986	318.19
290.217	314.19
290.448	316.19
290.679	309.19
290.91	316.19
291.141	316.19
291.371	313.19
291.602	324.19
291.833	313.19
292.064	325.19
292.295	293.19
292.526	333.19
292.757	309.19
292.987	299.19
293.218	297.19
293.449	312.19
293.68	318.19
293.91	304.19
294.141	325.19
294.372	312.19
294.603	331.19
294.833	316.19
295.064	320.19
295.295	320.19
295.525	326.19
295.756	320.19
295.987	349.19
296.217	349.19
296.448	369.19
296.679	346.19
296.909	337.19
297.14	342.19
297.37	309.19
297.601	327.19
297.831	332.19
298.062	328.19
298.292	332.19
298.523	336.19
298.753	344.19
298.984	335.19
299.214	341.19
299.445	348.19
299.675	348.19
299.905	336.19
300.136	350.19
300.366	354.19
300.597	345.19
300.827	351.19
301.057	353.19
301.288	352.19
301.518	357.19
301.748	352.19
301.979	340.19
302.209	363.19
302.439	361.19
302.669	363.19
302.9	359.19
303.13	355.19
303.36	373.19
303.59	378.19
303.82	379.19
304.051	364.19
304.281	353.19
304.511	361.19
304.741	348.19
304.971	367.19
305.201	369.19
305.431	360.19
305.661	354.19
305.891	357.19
306.121	350.19
306.352	358.19
306.582	377.19
306.812	339.19
307.042	343.19
307.272	352.19
307.502	376.19
307.731	393.19
307.961	353.19
308.191	358.19
308.421	372.19
308.651	384.19
308.881	363.19
309.111	374.19
309.341	383.19
309.571	382.19
309.8	395.19
310.03	384.19
310.26	420.19
310.49	423.19
310.72	427.19
310.949	439.19
311.179	440.19
311.409	429.19
311.639	404.19
311.868	422.19
312.098	400.19
312.328	436.19
312.557	452.19
312.787	452.19
313.017	430.19
313.246	432.19
313.476	405.19
313.706	420.19
313.935	422.19
314.165	445.19
314.394	449.19
314.624	442.19
314.853	411.19
315.083	425.19
315.312	442.19
315.542	412.19
315.771	396.19
316.001	401.19
316.23	391.19
316.46	417.19
316.689	423.19
316.919	434.19
317.148	426.19
317.377	426.19
317.607	431.19
317.836	428.19
318.065	401.19
318.295	410.19
318.524	410.19
318.753	412.19
318.983	430.19
319.212	413.19
319.441	438.19
319.67	428.19
319.9	423.19
320.129	429.19
320.358	444.19
320.587	420.19
320.816	403.19
321.046	435.19
321.275	450.19
321.504	451.19
321.733	440.19
321.962	465.19
322.191	468.19
322.42	480.19
322.649	506.19
322.878	487.19
323.108	506.19
323.337	566.19
323.566	560.19
323.795	588.19
324.024	633.19
324.253	780.19
324.482	1072.19
324.71	1677.19
324.939	2444.19
325.168	2180.19
325.397	1097.19
325.626	747.19
325.855	633.19
326.084	570.19
326.313	560.19
326.542	563.19
326.77	610.19
326.999	701.19
327.228	998.19
327.457	1505.19
327.686	1831.19
327.914	1253.19
328.143	788.19
328.372	692.19
328.6	665.19
328.829	638.19
329.058	638.19
329.287	668.19
329.515	599.19
329.744	558.19
329.972	554.19
330.201	544.19
330.43	571.19
330.658	622.19
330.887	666.19
331.115	657.19
331.344	583.19
331.572	545.19
331.801	532.19
332.03	544.19
332.258	522.19
332.486	516.19
332.715	510.19
332.943	497.19
333.172	532.19
333.4	503.19
333.629	509.19
333.857	547.19
334.085	527.19
334.314	529.19
334.542	526.19
334.771	534.19
334.999	522.19
335.227	506.19
335.455	507.19
335.684	517.19
335.912	497.19
336.14	520.19
336.369	506.19
336.597	488.19
336.825	499.19
337.053	507.19
337.281	478.19
337.51	491.19
337.738	496.19
337.966	497.19
338.194	486.19
338.422	494.19
338.65	517.19
338.878	479.19
339.106	480.19
339.334	485.19
339.562	466.19
339.79	487.19
340.018	456.19
340.246	488.19
340.474	474.19
340.702	482.19
340.93	489.19
341.158	492.19
341.386	485.19
341.614	501.19
341.842	502.19
342.07	477.19
342.298	460.19
342.526	467.19
342.754	478.19
342.981	494.19
343.209	476.19
343.437	486.19
343.665	470.19
343.893	486.19
344.12	504.19
344.348	493.19
344.576	487.19
344.804	505.19
345.031	521.19
345.259	531.19
345.487	499.19
345.714	505.19
345.942	499.19
346.17	476.19
346.397	461.19
346.625	463.19
346.853	466.19
347.08	461.19
347.308	486.19
347.535	504.19
347.763	477.19
347.99	480.19
348.218	476.19
348.445	492.19
348.673	486.19
348.9	456.19
349.128	459.19
349.355	465.19
349.583	468.19
349.81	448.19
350.037	448.19
350.265	471.19
350.492	457.19
350.72	469.19
350.947	459.19
351.174	483.19
351.402	476.19
351.629	461.19
351.856	467.19
352.083	464.19
352.311	489.19
352.538	486.19
352.765	491.19
352.992	487.19
353.22	468.19
353.447	463.19
353.674	463.19
353.901	469.19
354.128	469.19
354.355	453.19
354.583	467.19
354.81	463.19
355.037	453.19
355.264	444.19
355.491	436.19
355.718	429.19
355.945	436.19
356.172	464.19
356.399	448.19
356.626	457.19
356.853	438.19
357.08	435.19
357.307	449.19
357.534	454.19
357.761	438.19
357.988	439.19
358.215	448.19
358.441	459.19
358.668	461.19
358.895	449.19
359.122	457.19
359.349	460.19
359.576	467.19
359.802	515.19
360.029	528.19
360.256	532.19
360.483	499.19
360.709	492.19
360.936	502.19
361.163	477.19
361.39	482.19
361.616	490.19
361.843	486.19
362.07	472.19
362.296	483.19
362.523	493.19
362.749	479.19
362.976	471.19
363.203	459.19
363.429	452.19
363.656	456.19
363.882	440.19
364.109	455.19
364.335	452.19
364.562	475.19
364.788	474.19
365.015	457.19
365.241	456.19
365.468	454.19
365.694	480.19
365.92	450.19
366.147	454.19
366.373	441.19
366.599	441.19
366.826	477.19
367.052	447.19
367.278	465.19
367.505	455.19
367.731	487.19
367.957	457.19
368.184	454.19
368.41	468.19
368.636	469.19
368.862	476.19
369.089	491.19
369.315	472.19
369.541	449.19
369.767	452.19
369.993	452.19
370.219	470.19
370.445	454.19
370.672	441.19
370.898	461.19
371.124	463.19
371.35	471.19
371.576	466.19
371.802	463.19
372.028	460.19
372.254	481.19
372.48	448.19
372.706	470.19
372.932	474.19
373.158	468.19
373.384	474.19
373.61	472.19
373.835	471.19
374.061	483.19
374.287	505.19
374.513	485.19
374.739	462.19
374.965	466.19
375.191	480.19
375.416	485.19
375.642	463.19
375.868	486.19
376.094	475.19
376.319	465.19
376.545	458.19
376.771	449.19
376.997	479.19
377.222	465.19
377.448	456.19
377.674	463.19
377.899	442.19
378.125	463.19
378.35	450.19
378.576	437.19
378.802	453.19
379.027	444.19
379.253	448.19
379.478	470.19
379.704	460.19
379.929	466.19
380.155	460.19
380.38	457.19
380.606	468.19
380.831	460.19
381.057	456.19
381.282	469.19
381.507	478.19
381.733	474.19
381.958	463.19
382.184	472.19
382.409	491.19
382.634	451.19
382.86	488.19
383.085	470.19
383.31	475.19
383.535	487.19
383.761	472.19
383.986	487.19
384.211	483.19
384.436	496.19
384.662	520.19
384.887	502.19
385.112	515.19
385.337	485.19
385.562	488.19
385.787	498.19
386.013	509.19
386.238	526.19
386.463	546.19
386.688	530.19
386.913	517.19
387.138	496.19
387.363	513.19
387.588	489.19
387.813	511.19
388.038	510.19
388.263	538.19
388.488	513.19
388.713	508.19
388.938	502.19
389.163	521.19
389.387	524.19
389.612	529.19
389.837	528.19
390.062	491.19
390.287	524.19
390.512	515.19
390.736	530.19
390.961	539.19
391.186	504.19
391.411	521.19
391.636	512.19
391.86	523.19
392.085	522.19
392.31	556.19
392.534	553.19
392.759	504.19
392.984	500.19
393.208	501.19
393.433	526.19
393.658	513.19
393.882	497.19
394.107	527.19
394.331	516.19
394.556	529.19
394.78	517.19
395.005	530.19
395.229	522.19
395.454	530.19
395.678	543.19
395.903	558.19
396.127	572.19
396.352	606.19
396.576	539.19
396.801	533.19
397.025	565.19
397.249	544.19
397.474	559.19
397.698	548.19
397.922	577.19
398.147	594.19
398.371	595.19
398.595	608.19
398.82	605.19
399.044	597.19
399.268	619.19
399.492	671.19
399.717	660.19
399.941	728.19
400.165	716.19
400.389	747.19
400.613	678.19
400.837	638.19
401.062	636.19
401.286	613.19
401.51	602.19
401.734	570.19
401.958	610.19
402.182	598.19
402.406	620.19
402.63	621.19
402.854	593.19
403.078	613.19
403.302	618.19
403.526	621.19
403.75	599.19
403.974	626.19
404.198	615.19
404.422	632.19
404.645	639.19
404.869	607.19
405.093	652.19
405.317	672.19
405.541	697.19
405.765	652.19
405.988	624.19
406.212	637.19
406.436	678.19
406.66	706.19
406.883	676.19
407.107	706.19
407.331	749.19
407.555	813.19
407.778	806.19
408.002	755.19
408.226	704.19
408.449	698.19
408.673	698.19
408.896	703.19
409.12	781.19
409.344	732.19
409.567	648.19
409.791	634.19
410.014	626.19
410.238	637.19
410.461	627.19
410.685	630.19
410.908	656.19
411.132	679.19
411.355	732.19
411.578	685.19
411.802	649.19
412.025	621.19
412.249	623.19
412.472	637.19
412.695	636.19
412.919	613.19
413.142	615.19
413.365	607.19
413.589	616.19
413.812	598.19
414.035	606.19
414.258	570.19
414.482	599.19
414.705	576.19
414.928	595.19
415.151	587.19
415.374	591.19
415.597	585.19
415.821	590.19
416.044	586.19
416.267	606.19
416.49	593.19
416.713	591.19
416.936	580.19
417.159	591.19
417.382	593.19
417.605	600.19
417.828	614.19
418.051	615.19
418.274	588.19
418.497	591.19
418.72	609.19
418.943	561.19
419.166	610.19
419.389	632.19
419.611	638.19
419.834	635.19
420.057	614.19
420.28	588.19
420.503	581.19
420.726	597.19
420.948	621.19
421.171	682.19
421.394	703.19
421.617	646.19
421.839	630.19
422.062	615.19
422.285	638.19
422.507	711.19
422.73	807.19
422.953	721.19
423.175	659.19
423.398	646.19
423.621	632.19
423.843	662.19
424.066	643.19
424.288	660.19
424.511	688.19
424.733	730.19
424.956	875.19
425.178	820.19
425.401	824.19
425.623	829.19
425.846	711.19
426.068	671.19
426.291	670.19
426.513	650.19
426.735	682.19
426.958	711.19
427.18	792.19
427.402	959.19
427.625	1058.19
427.847	920.19
428.069	774.19
428.292	719.19
428.514	654.19
428.736	620.19
428.958	618.19
429.181	624.19
429.403	610.19
429.625	598.19
429.847	661.19
430.069	752.19
430.292	747.19
430.514	634.19
430.736	633.19
430.958	598.19
431.18	596.19
431.402	596.19
431.624	573.19
431.846	586.19
432.068	574.19
432.29	587.19
432.512	588.19
432.734	577.19
432.956	580.19
433.178	619.19
433.4	604.19
433.622	596.19
433.844	573.19
434.066	592.19
434.287	575.19
434.509	604.19
434.731	596.19
434.953	617.19
435.175	623.19
435.397	659.19
435.618	672.19
435.84	710.19
436.062	818.19
436.284	895.19
436.505	767.19
436.727	679.19
436.949	654.19
437.17	601.19
437.392	595.19
437.614	638.19
437.835	665.19
438.057	788.19
438.278	883.19
438.5	879.19
438.721	974.19
438.943	954.19
439.165	751.19
439.386	686.19
439.608	688.19
439.829	674.19
440.05	717.19
440.272	770.19
440.493	714.19
440.715	644.19
440.936	658.19
441.158	604.19
441.379	629.19
441.6	630.19
441.822	687.19
442.043	726.19
442.264	815.19
442.486	865.19
442.707	738.19
442.928	683.19
443.149	698.19
443.371	714.19
443.592	749.19
443.813	869.19
444.034	973.19
444.255	800.19
444.476	692.19
444.698	692.19
444.919	677.19
445.14	794.19
445.361	733.19
445.582	724.19
445.803	804.19
446.024	912.19
446.245	926.19
446.466	849.19
446.687	723.19
446.908	644.19
447.129	623.19
447.35	631.19
447.571	609.19
447.792	602.19
448.013	623.19
448.234	639.19
448.455	697.19
448.675	830.19
448.896	958.19
449.117	815.19
449.338	770.19
449.559	892.19
449.779	1028.19
450	823.19
450.221	659.19
450.442	628.19
450.662	618.19
450.883	602.19
451.104	604.19
451.324	616.19
451.545	594.19
451.766	583.19
451.986	558.19
452.207	538.19
452.428	552.19
452.648	541.19
452.869	537.19
453.089	569.19
453.31	584.19
453.53	550.19
453.751	537.19
453.971	564.19
454.192	594.19
454.412	577.19
454.633	556.19
454.853	554.19
455.073	536.19
455.294	577.19
455.514	644.19
455.734	641.19
455.955	559.19
456.175	530.19
456.395	501.19
456.616	477.19
456.836	497.19
457.056	524.19
457.276	525.19
457.497	515.19
457.717	530.19
457.937	528.19
458.157	570.19
458.377	536.19
458.598	554.19
458.818	628.19
459.038	720.19
459.258	737.19
459.478	646.19
459.698	622.19
459.918	584.19
460.138	579.19
460.358	583.19
460.578	627.19
460.798	620.19
461.018	585.19
461.238	616.19
461.458	594.19
461.678	589.19
461.898	595.19
462.118	594.19
462.338	595.19
462.558	594.19
462.777	618.19
462.997	657.19
463.217	662.19
463.437	640.19
463.657	648.19
463.876	650.19
464.096	652.19
464.316	635.19
464.536	639.19
464.755	640.19
464.975	645.19
465.195	662.19
465.414	777.19
465.634	670.19
465.854	637.19
466.073	610.19
466.293	590.19
466.512	554.19
466.732	570.19
466.951	589.19
467.171	554.19
467.391	565.19
467.61	586.19
467.829	575.19
468.049	576.19
468.268	585.19
468.488	555.19
468.707	554.19
468.927	550.19
469.146	549.19
469.365	557.19
469.585	577.19
469.804	584.19
470.023	585.19
470.243	568.19
470.462	585.19
470.681	593.19
470.901	608.19
471.12	576.19
471.339	585.19
471.558	603.19
471.777	598.19
471.997	582.19
472.216	569.19
472.435	583.19
472.654	567.19
472.873	561.19
473.092	558.19
473.311	558.19
473.53	587.19
473.749	570.19
473.968	603.19
474.187	744.19
474.406	782.19
474.625	621.19
474.844	601.19
475.063	578.19
475.282	556.19
475.501	584.19
475.72	592.19
475.939	572.19
476.158	592.19
476.377	603.19
476.596	603.19
476.814	599.19
477.033	613.19
477.252	612.19
477.471	583.19
477.69	628.19
477.908	612.19
478.127	636.19
478.346	646.19
478.564	650.19
478.783	638.19
479.002	632.19
479.22	644.19
479.439	668.19
479.658	697.19
479.876	683.19
480.095	698.19
480.313	718.19
480.532	725.19
480.751	698.19
480.969	709.19
481.188	718.19
481.406	728.19
481.624	678.19
481.843	694.19
482.061	681.19
482.28	656.19
482.498	662.19
482.717	650.19
482.935	674.19
483.153	685.19
483.372	678.19
483.59	671.19
483.808	679.19
484.027	693.19
484.245	659.19
484.463	675.19
484.681	699.19
484.9	686.19
485.118	672.19
485.336	678.19
485.554	702.19
485.772	701.19
485.99	690.19
486.209	720.19
486.427	699.19
486.645	719.19
486.863	744.19
487.081	759.19
487.299	727.19
487.517	710.19
487.735	715.19
487.953	751.19
488.171	737.19
488.389	701.19
488.607	706.19
488.825	709.19
489.043	735.19
489.261	726.19
489.479	748.19
489.696	733.19
489.914	706.19
490.132	750.19
490.35	761.19
490.568	738.19
490.786	751.19
491.003	780.19
491.221	814.19
491.439	799.19
491.657	796.19
491.874	801.19
492.092	806.19
492.31	815.19
492.527	830.19
492.745	819.19
492.963	820.19
493.18	842.19
493.398	841.19
493.615	833.19
493.833	838.19
494.05	842.19
494.268	833.19
494.485	846.19
494.703	833.19
494.92	831.19
495.138	864.19
495.355	838.19
495.573	830.19
495.79	853.19
496.008	856.19
496.225	868.19
496.442	852.19
496.66	870.19
496.877	847.19
497.094	856.19
497.312	884.19
497.529	889.19
497.746	886.19
497.963	900.19
498.181	926.19
498.398	954.19
498.615	942.19
498.832	1000.19
499.049	1000.19
499.267	1032.19
499.484	1064.19
499.701	1092.19
499.918	1120.19
500.135	1169.19
500.352	1248.19
500.569	1266.19
500.786	1217.19
501.003	1250.19
501.22	1215.19
501.437	1148.19
501.654	1138.19
