Data from 1988.PennyLincolnUp.Lamp.En5.5.200Scan.071819.P2_HRD10591_17-18-55-975.txt Node
Date: Thu Jul 18 17:18:55 EDT 2019
User: cochatt
Spectrometer: HR+D1059
Trigger mode: 1
Integration Time (sec): 1.000000E-1
Scans to average: 1
Electric dark correction enabled: true
Nonlinearity correction enabled: false
Boxcar width: 0
XAxis mode: Wavelengths
Number of Pixels in Spectrum: 2048
>>>>>Begin Spectral Data<<<<<
223.165	-6.88
223.4	-6.88
223.635	-6.88
223.869	0.12
224.104	-8.88
224.338	-12.88
224.573	-16.88
224.808	-20.88
225.042	-25.88
225.277	-11.88
225.511	-0.88
225.746	8.12
225.98	-3.88
226.215	13.12
226.449	24.12
226.683	12.12
226.918	16.12
227.152	35.12
227.387	27.12
227.621	38.12
227.856	36.12
228.09	54.12
228.324	49.12
228.559	56.12
228.793	71.12
229.027	103.12
229.262	117.12
229.496	119.12
229.73	131.12
229.964	151.12
230.199	137.12
230.433	121.12
230.667	106.12
230.901	114.12
231.136	105.12
231.37	110.12
231.604	105.12
231.838	109.12
232.072	111.12
232.306	123.12
232.541	123.12
232.775	113.12
233.009	110.12
233.243	105.12
233.477	111.12
233.711	117.12
233.945	117.12
234.179	124.12
234.413	104.12
234.647	115.12
234.881	111.12
235.115	104.12
235.349	116.12
235.583	101.12
235.817	125.12
236.051	114.12
236.285	124.12
236.519	128.12
236.753	143.12
236.987	148.12
237.221	175.12
237.455	213.12
237.689	185.12
237.922	141.12
238.156	136.12
238.39	134.12
238.624	119.12
238.858	130.12
239.091	133.12
239.325	128.12
239.559	122.12
239.793	118.12
240.027	148.12
240.26	129.12
240.494	160.12
240.728	150.12
240.961	158.12
241.195	139.12
241.429	149.12
241.662	136.12
241.896	137.12
242.13	127.12
242.363	126.12
242.597	140.12
242.83	127.12
243.064	139.12
243.298	149.12
243.531	139.12
243.765	131.12
243.998	135.12
244.232	141.12
244.465	150.12
244.699	141.12
244.932	141.12
245.166	150.12
245.399	151.12
245.633	145.12
245.866	146.12
246.099	151.12
246.333	152.12
246.566	150.12
246.8	149.12
247.033	154.12
247.266	161.12
247.5	151.12
247.733	160.12
247.966	179.12
248.2	171.12
248.433	188.12
248.666	174.12
248.899	185.12
249.133	197.12
249.366	205.12
249.599	191.12
249.832	195.12
250.066	181.12
250.299	170.12
250.532	184.12
250.765	187.12
250.998	210.12
251.231	222.12
251.465	210.12
251.698	196.12
251.931	186.12
252.164	191.12
252.397	192.12
252.63	200.12
252.863	201.12
253.096	204.12
253.329	225.12
253.562	212.12
253.795	209.12
254.028	208.12
254.261	212.12
254.494	222.12
254.727	219.12
254.96	271.12
255.193	264.12
255.426	235.12
255.659	211.12
255.892	214.12
256.124	204.12
256.357	209.12
256.59	213.12
256.823	209.12
257.056	216.12
257.289	199.12
257.521	210.12
257.754	195.12
257.987	204.12
258.22	196.12
258.452	211.12
258.685	197.12
258.918	201.12
259.151	209.12
259.383	214.12
259.616	216.12
259.849	202.12
260.081	227.12
260.314	238.12
260.547	236.12
260.779	222.12
261.012	219.12
261.244	220.12
261.477	232.12
261.71	195.12
261.942	222.12
262.175	223.12
262.407	217.12
262.64	220.12
262.872	216.12
263.105	218.12
263.337	216.12
263.57	210.12
263.802	202.12
264.035	212.12
264.267	221.12
264.499	201.12
264.732	215.12
264.964	216.12
265.197	200.12
265.429	214.12
265.661	223.12
265.894	220.12
266.126	216.12
266.358	215.12
266.591	204.12
266.823	236.12
267.055	227.12
267.287	207.12
267.52	212.12
267.752	229.12
267.984	214.12
268.216	216.12
268.448	219.12
268.681	230.12
268.913	216.12
269.145	237.12
269.377	277.12
269.609	263.12
269.841	251.12
270.073	248.12
270.306	284.12
270.538	300.12
270.77	309.12
271.002	301.12
271.234	267.12
271.466	300.12
271.698	296.12
271.93	296.12
272.162	281.12
272.394	312.12
272.626	298.12
272.858	271.12
273.09	269.12
273.322	242.12
273.553	255.12
273.785	251.12
274.017	261.12
274.249	281.12
274.481	239.12
274.713	276.12
274.945	277.12
275.176	264.12
275.408	269.12
275.64	248.12
275.872	249.12
276.104	250.12
276.335	272.12
276.567	246.12
276.799	265.12
277.031	301.12
277.262	283.12
277.494	299.12
277.726	287.12
277.957	268.12
278.189	277.12
278.421	263.12
278.652	251.12
278.884	262.12
279.115	264.12
279.347	251.12
279.579	268.12
279.81	279.12
280.042	263.12
280.273	264.12
280.505	283.12
280.736	259.12
280.968	266.12
281.199	252.12
281.431	266.12
281.662	259.12
281.894	271.12
282.125	278.12
282.356	282.12
282.588	289.12
282.819	309.12
283.051	291.12
283.282	267.12
283.513	286.12
283.745	280.12
283.976	269.12
284.207	263.12
284.439	271.12
284.67	279.12
284.901	267.12
285.132	249.12
285.364	273.12
285.595	279.12
285.826	259.12
286.057	270.12
286.288	280.12
286.52	287.12
286.751	273.12
286.982	263.12
287.213	269.12
287.444	287.12
287.675	287.12
287.906	309.12
288.138	301.12
288.369	282.12
288.6	303.12
288.831	293.12
289.062	295.12
289.293	304.12
289.524	285.12
289.755	287.12
289.986	286.12
290.217	289.12
290.448	281.12
290.679	285.12
290.91	283.12
291.141	294.12
291.371	293.12
291.602	287.12
291.833	288.12
292.064	295.12
292.295	299.12
292.526	282.12
292.757	277.12
292.987	279.12
293.218	300.12
293.449	291.12
293.68	304.12
293.91	297.12
294.141	302.12
294.372	269.12
294.603	300.12
294.833	307.12
295.064	302.12
295.295	303.12
295.525	300.12
295.756	289.12
295.987	308.12
296.217	330.12
296.448	348.12
296.679	317.12
296.909	313.12
297.14	296.12
297.37	295.12
297.601	322.12
297.831	304.12
298.062	311.12
298.292	299.12
298.523	319.12
298.753	313.12
298.984	309.12
299.214	288.12
299.445	291.12
299.675	305.12
299.905	318.12
300.136	334.12
300.366	323.12
300.597	328.12
300.827	334.12
301.057	315.12
301.288	333.12
301.518	350.12
301.748	315.12
301.979	339.12
302.209	324.12
302.439	327.12
302.669	329.12
302.9	315.12
303.13	323.12
303.36	328.12
303.59	335.12
303.82	333.12
304.051	343.12
304.281	324.12
304.511	339.12
304.741	327.12
304.971	328.12
305.201	336.12
305.431	329.12
305.661	327.12
305.891	351.12
306.121	331.12
306.352	341.12
306.582	330.12
306.812	335.12
307.042	332.12
307.272	341.12
307.502	349.12
307.731	335.12
307.961	326.12
308.191	320.12
308.421	352.12
308.651	328.12
308.881	339.12
309.111	339.12
309.341	357.12
309.571	355.12
309.8	379.12
310.03	347.12
310.26	383.12
310.49	359.12
310.72	379.12
310.949	372.12
311.179	393.12
311.409	378.12
311.639	382.12
311.868	395.12
312.098	387.12
312.328	409.12
312.557	407.12
312.787	398.12
313.017	397.12
313.246	393.12
313.476	389.12
313.706	396.12
313.935	376.12
314.165	401.12
314.394	397.12
314.624	403.12
314.853	383.12
315.083	382.12
315.312	388.12
315.542	389.12
315.771	383.12
316.001	379.12
316.23	395.12
316.46	398.12
316.689	371.12
316.919	368.12
317.148	385.12
317.377	394.12
317.607	402.12
317.836	383.12
318.065	379.12
318.295	372.12
318.524	373.12
318.753	367.12
318.983	389.12
319.212	382.12
319.441	415.12
319.67	382.12
319.9	385.12
320.129	399.12
320.358	404.12
320.587	401.12
320.816	369.12
321.046	406.12
321.275	415.12
321.504	399.12
321.733	418.12
321.962	392.12
322.191	416.12
322.42	439.12
322.649	441.12
322.878	471.12
323.108	469.12
323.337	465.12
323.566	486.12
323.795	526.12
324.024	586.12
324.253	691.12
324.482	955.12
324.71	1445.12
324.939	2137.12
325.168	1856.12
325.397	960.12
325.626	633.12
325.855	548.12
326.084	520.12
326.313	505.12
326.542	508.12
326.77	576.12
326.999	670.12
327.228	858.12
327.457	1315.12
327.686	1582.12
327.914	1056.12
328.143	673.12
328.372	592.12
328.6	559.12
328.829	547.12
329.058	551.12
329.287	575.12
329.515	530.12
329.744	496.12
329.972	484.12
330.201	496.12
330.43	535.12
330.658	531.12
330.887	573.12
331.115	579.12
331.344	526.12
331.572	479.12
331.801	491.12
332.03	494.12
332.258	465.12
332.486	458.12
332.715	442.12
332.943	446.12
333.172	465.12
333.4	449.12
333.629	447.12
333.857	471.12
334.085	493.12
334.314	478.12
334.542	463.12
334.771	484.12
334.999	454.12
335.227	481.12
335.455	454.12
335.684	435.12
335.912	454.12
336.14	448.12
336.369	462.12
336.597	460.12
336.825	458.12
337.053	439.12
337.281	453.12
337.51	444.12
337.738	441.12
337.966	471.12
338.194	439.12
338.422	451.12
338.65	462.12
338.878	448.12
339.106	441.12
339.334	431.12
339.562	431.12
339.79	412.12
340.018	442.12
340.246	416.12
340.474	419.12
340.702	441.12
340.93	443.12
341.158	443.12
341.386	451.12
341.614	448.12
341.842	442.12
342.07	431.12
342.298	412.12
342.526	405.12
342.754	410.12
342.981	439.12
343.209	422.12
343.437	417.12
343.665	444.12
343.893	454.12
344.12	459.12
344.348	451.12
344.576	452.12
344.804	438.12
345.031	468.12
345.259	449.12
345.487	454.12
345.714	443.12
345.942	428.12
346.17	423.12
346.397	447.12
346.625	418.12
346.853	425.12
347.08	408.12
347.308	430.12
347.535	419.12
347.763	419.12
347.99	423.12
348.218	427.12
348.445	436.12
348.673	449.12
348.9	437.12
349.128	420.12
349.355	415.12
349.583	412.12
349.81	408.12
350.037	422.12
350.265	397.12
350.492	409.12
350.72	411.12
350.947	392.12
351.174	429.12
351.402	436.12
351.629	427.12
351.856	420.12
352.083	432.12
352.311	448.12
352.538	435.12
352.765	445.12
352.992	426.12
353.22	409.12
353.447	423.12
353.674	417.12
353.901	399.12
354.128	398.12
354.355	420.12
354.583	378.12
354.81	383.12
355.037	399.12
355.264	394.12
355.491	397.12
355.718	405.12
355.945	375.12
356.172	385.12
356.399	410.12
356.626	389.12
356.853	404.12
357.08	385.12
357.307	399.12
357.534	376.12
357.761	387.12
357.988	410.12
358.215	402.12
358.441	410.12
358.668	399.12
358.895	410.12
359.122	400.12
359.349	423.12
359.576	407.12
359.802	462.12
360.029	470.12
360.256	458.12
360.483	464.12
360.709	441.12
360.936	423.12
361.163	428.12
361.39	448.12
361.616	424.12
361.843	424.12
362.07	437.12
362.296	421.12
362.523	416.12
362.749	402.12
362.976	406.12
363.203	412.12
363.429	403.12
363.656	400.12
363.882	422.12
364.109	421.12
364.335	407.12
364.562	419.12
364.788	420.12
365.015	413.12
365.241	440.12
365.468	420.12
365.694	385.12
365.92	421.12
366.147	395.12
366.373	415.12
366.599	404.12
366.826	438.12
367.052	425.12
367.278	415.12
367.505	412.12
367.731	399.12
367.957	384.12
368.184	402.12
368.41	425.12
368.636	426.12
368.862	417.12
369.089	411.12
369.315	424.12
369.541	406.12
369.767	399.12
369.993	409.12
370.219	427.12
370.445	402.12
370.672	395.12
370.898	411.12
371.124	419.12
371.35	409.12
371.576	409.12
371.802	414.12
372.028	403.12
372.254	399.12
372.48	401.12
372.706	409.12
372.932	401.12
373.158	422.12
373.384	416.12
373.61	421.12
373.835	432.12
374.061	416.12
374.287	394.12
374.513	423.12
374.739	421.12
374.965	415.12
375.191	405.12
375.416	414.12
375.642	417.12
375.868	416.12
376.094	423.12
376.319	395.12
376.545	399.12
376.771	417.12
376.997	413.12
377.222	415.12
377.448	409.12
377.674	405.12
377.899	399.12
378.125	381.12
378.35	399.12
378.576	423.12
378.802	378.12
379.027	406.12
379.253	399.12
379.478	407.12
379.704	419.12
379.929	415.12
380.155	409.12
380.38	409.12
380.606	416.12
380.831	384.12
381.057	403.12
381.282	407.12
381.507	397.12
381.733	403.12
381.958	410.12
382.184	394.12
382.409	416.12
382.634	432.12
382.86	416.12
383.085	420.12
383.31	428.12
383.535	413.12
383.761	428.12
383.986	456.12
384.211	435.12
384.436	431.12
384.662	442.12
384.887	441.12
385.112	449.12
385.337	427.12
385.562	440.12
385.787	453.12
386.013	465.12
386.238	453.12
386.463	443.12
386.688	453.12
386.913	444.12
387.138	430.12
387.363	444.12
387.588	443.12
387.813	447.12
388.038	442.12
388.263	443.12
388.488	496.12
388.713	456.12
388.938	461.12
389.163	446.12
389.387	470.12
389.612	457.12
389.837	436.12
390.062	441.12
390.287	459.12
390.512	456.12
390.736	440.12
390.961	463.12
391.186	451.12
391.411	458.12
391.636	440.12
391.86	463.12
392.085	478.12
392.31	451.12
392.534	478.12
392.759	474.12
392.984	447.12
393.208	457.12
393.433	452.12
393.658	453.12
393.882	456.12
394.107	457.12
394.331	461.12
394.556	470.12
394.78	463.12
395.005	449.12
395.229	479.12
395.454	454.12
395.678	470.12
395.903	468.12
396.127	486.12
396.352	477.12
396.576	495.12
396.801	473.12
397.025	475.12
397.249	481.12
397.474	454.12
397.698	462.12
397.922	491.12
398.147	501.12
398.371	496.12
398.595	521.12
398.82	520.12
399.044	516.12
399.268	545.12
399.492	586.12
399.717	600.12
399.941	612.12
400.165	632.12
400.389	631.12
400.613	604.12
400.837	563.12
401.062	534.12
401.286	504.12
401.51	533.12
401.734	512.12
401.958	511.12
402.182	536.12
402.406	553.12
402.63	539.12
402.854	518.12
403.078	525.12
403.302	524.12
403.526	565.12
403.75	535.12
403.974	527.12
404.198	507.12
404.422	543.12
404.645	532.12
404.869	567.12
405.093	569.12
405.317	572.12
405.541	583.12
405.765	560.12
405.988	580.12
406.212	570.12
406.436	590.12
406.66	604.12
406.883	584.12
407.107	613.12
407.331	651.12
407.555	719.12
407.778	716.12
408.002	665.12
408.226	590.12
408.449	599.12
408.673	585.12
408.896	629.12
409.12	671.12
409.344	623.12
409.567	549.12
409.791	587.12
410.014	547.12
410.238	508.12
410.461	543.12
410.685	551.12
410.908	568.12
411.132	605.12
411.355	610.12
411.578	606.12
411.802	566.12
412.025	513.12
412.249	522.12
412.472	549.12
412.695	565.12
412.919	543.12
413.142	523.12
413.365	527.12
413.589	516.12
413.812	517.12
414.035	496.12
414.258	522.12
414.482	504.12
414.705	501.12
414.928	509.12
415.151	493.12
415.374	511.12
415.597	493.12
415.821	477.12
416.044	518.12
416.267	517.12
416.49	523.12
416.713	523.12
416.936	499.12
417.159	476.12
417.382	511.12
417.605	527.12
417.828	526.12
418.051	516.12
418.274	529.12
418.497	507.12
418.72	494.12
418.943	501.12
419.166	517.12
419.389	536.12
419.611	531.12
419.834	529.12
420.057	502.12
420.28	525.12
420.503	497.12
420.726	526.12
420.948	542.12
421.171	577.12
421.394	577.12
421.617	554.12
421.839	519.12
422.062	523.12
422.285	530.12
422.507	592.12
422.73	666.12
422.953	656.12
423.175	578.12
423.398	551.12
423.621	549.12
423.843	566.12
424.066	558.12
424.288	571.12
424.511	595.12
424.733	656.12
424.956	715.12
425.178	693.12
425.401	679.12
425.623	689.12
425.846	593.12
426.068	590.12
426.291	560.12
426.513	581.12
426.735	575.12
426.958	621.12
427.18	695.12
427.402	819.12
427.625	875.12
427.847	789.12
428.069	658.12
428.292	590.12
428.514	583.12
428.736	552.12
428.958	545.12
429.181	513.12
429.403	526.12
429.625	545.12
429.847	595.12
430.069	652.12
430.292	629.12
430.514	555.12
430.736	530.12
430.958	501.12
431.18	515.12
431.402	512.12
431.624	479.12
431.846	492.12
432.068	487.12
432.29	494.12
432.512	501.12
432.734	505.12
432.956	512.12
433.178	503.12
433.4	517.12
433.622	502.12
433.844	505.12
434.066	534.12
434.287	495.12
434.509	528.12
434.731	513.12
434.953	508.12
435.175	542.12
435.397	533.12
435.618	577.12
435.84	627.12
436.062	711.12
436.284	768.12
436.505	649.12
436.727	584.12
436.949	551.12
437.17	529.12
437.392	515.12
437.614	533.12
437.835	567.12
438.057	649.12
438.278	778.12
438.5	765.12
438.721	851.12
438.943	797.12
439.165	627.12
439.386	571.12
439.608	583.12
439.829	547.12
440.05	592.12
440.272	640.12
440.493	609.12
440.715	573.12
440.936	529.12
441.158	517.12
441.379	509.12
441.6	556.12
441.822	559.12
442.043	572.12
442.264	683.12
442.486	716.12
442.707	622.12
442.928	609.12
443.149	591.12
443.371	596.12
443.592	646.12
443.813	745.12
444.034	799.12
444.255	687.12
444.476	591.12
444.698	574.12
444.919	591.12
445.14	633.12
445.361	632.12
445.582	624.12
445.803	676.12
446.024	779.12
446.245	758.12
446.466	717.12
446.687	624.12
446.908	577.12
447.129	550.12
447.35	531.12
447.571	530.12
447.792	522.12
448.013	525.12
448.234	543.12
448.455	633.12
448.675	719.12
448.896	847.12
449.117	709.12
449.338	661.12
449.559	772.12
449.779	858.12
450	694.12
450.221	567.12
450.442	536.12
450.662	519.12
450.883	538.12
451.104	531.12
451.324	536.12
451.545	521.12
451.766	506.12
451.986	491.12
452.207	483.12
452.428	498.12
452.648	474.12
452.869	471.12
453.089	493.12
453.31	488.12
453.53	458.12
453.751	454.12
453.971	472.12
454.192	484.12
454.412	486.12
454.633	477.12
454.853	459.12
455.073	468.12
455.294	515.12
455.514	560.12
455.734	535.12
455.955	464.12
456.175	447.12
456.395	431.12
456.616	441.12
456.836	457.12
457.056	443.12
457.276	437.12
457.497	474.12
457.717	452.12
457.937	433.12
458.157	464.12
458.377	469.12
458.598	496.12
458.818	530.12
459.038	597.12
459.258	614.12
459.478	551.12
459.698	514.12
459.918	501.12
460.138	486.12
460.358	501.12
460.578	504.12
460.798	496.12
461.018	536.12
461.238	519.12
461.458	515.12
461.678	518.12
461.898	536.12
462.118	529.12
462.338	534.12
462.558	547.12
462.777	547.12
462.997	574.12
463.217	571.12
463.437	596.12
463.657	583.12
463.876	547.12
464.096	533.12
464.316	526.12
464.536	556.12
464.755	573.12
464.975	571.12
465.195	599.12
465.414	643.12
465.634	584.12
465.854	549.12
466.073	529.12
466.293	507.12
466.512	505.12
466.732	493.12
466.951	487.12
467.171	491.12
467.391	477.12
467.61	473.12
467.829	501.12
468.049	487.12
468.268	481.12
468.488	475.12
468.707	479.12
468.927	463.12
469.146	482.12
469.365	501.12
469.585	483.12
469.804	480.12
470.023	493.12
470.243	502.12
470.462	505.12
470.681	522.12
470.901	510.12
471.12	495.12
471.339	480.12
471.558	476.12
471.777	509.12
471.997	480.12
472.216	489.12
472.435	490.12
472.654	479.12
472.873	483.12
473.092	479.12
473.311	476.12
473.53	485.12
473.749	506.12
473.968	535.12
474.187	647.12
474.406	647.12
474.625	568.12
474.844	511.12
475.063	524.12
475.282	520.12
475.501	510.12
475.72	524.12
475.939	497.12
476.158	517.12
476.377	490.12
476.596	522.12
476.814	519.12
477.033	521.12
477.252	527.12
477.471	529.12
477.69	544.12
477.908	537.12
478.127	551.12
478.346	544.12
478.564	550.12
478.783	550.12
479.002	552.12
479.22	559.12
479.439	566.12
479.658	588.12
479.876	611.12
480.095	606.12
480.313	622.12
480.532	587.12
480.751	588.12
480.969	608.12
481.188	606.12
481.406	579.12
481.624	598.12
481.843	596.12
482.061	571.12
482.28	584.12
482.498	579.12
482.717	573.12
482.935	557.12
483.153	584.12
483.372	564.12
483.59	590.12
483.808	581.12
484.027	568.12
484.245	591.12
484.463	584.12
484.681	581.12
484.9	570.12
485.118	571.12
485.336	629.12
485.554	599.12
485.772	605.12
485.99	595.12
486.209	625.12
486.427	620.12
486.645	606.12
486.863	608.12
487.081	600.12
487.299	625.12
487.517	627.12
487.735	601.12
487.953	611.12
488.171	617.12
488.389	629.12
488.607	639.12
488.825	645.12
489.043	622.12
489.261	614.12
489.479	633.12
489.696	619.12
489.914	637.12
490.132	592.12
490.35	641.12
490.568	636.12
490.786	651.12
491.003	639.12
491.221	672.12
491.439	676.12
491.657	681.12
491.874	668.12
492.092	691.12
492.31	699.12
492.527	676.12
492.745	669.12
492.963	700.12
493.18	692.12
493.398	703.12
493.615	707.12
493.833	717.12
494.05	726.12
494.268	737.12
494.485	717.12
494.703	692.12
494.92	719.12
495.138	716.12
495.355	705.12
495.573	736.12
495.79	731.12
496.008	737.12
496.225	731.12
496.442	728.12
496.66	741.12
496.877	721.12
497.094	744.12
497.312	749.12
497.529	781.12
497.746	788.12
497.963	774.12
498.181	813.12
498.398	819.12
498.615	810.12
498.832	856.12
499.049	845.12
499.267	869.12
499.484	901.12
499.701	933.12
499.918	929.12
500.135	982.12
500.352	1033.12
500.569	1067.12
500.786	1059.12
501.003	1035.12
501.22	1032.12
501.437	968.12
501.654	944.12
501.871	948.12
