Data from 1988.PennyLincolnUp.Lamp.En5.5.200Scan.071819.P2_HRD10591_17-19-10-971.txt Node
Date: Thu Jul 18 17:19:10 EDT 2019
User: cochatt
Spectrometer: HR+D1059
Trigger mode: 1
Integration Time (sec): 1.000000E-1
Scans to average: 1
Electric dark correction enabled: true
Nonlinearity correction enabled: false
Boxcar width: 0
XAxis mode: Wavelengths
Number of Pixels in Spectrum: 2048
>>>>>Begin Spectral Data<<<<<
223.165	-14.88
223.4	-14.88
223.635	-14.88
223.869	-16.88
224.104	-32.88
224.338	-23.88
224.573	-0.88
224.808	-19.88
225.042	-10.88
225.277	-12.88
225.511	0.12
225.746	15.12
225.98	11.12
226.215	5.12
226.449	28.12
226.683	26.12
226.918	17.12
227.152	30.12
227.387	39.12
227.621	56.12
227.856	48.12
228.09	49.12
228.324	48.12
228.559	47.12
228.793	58.12
229.027	89.12
229.262	103.12
229.496	109.12
229.73	129.12
229.964	157.12
230.199	137.12
230.433	106.12
230.667	122.12
230.901	120.12
231.136	120.12
231.37	110.12
231.604	115.12
231.838	114.12
232.072	109.12
232.306	109.12
232.541	106.12
232.775	111.12
233.009	115.12
233.243	124.12
233.477	131.12
233.711	116.12
233.945	120.12
234.179	119.12
234.413	117.12
234.647	126.12
234.881	125.12
235.115	114.12
235.349	113.12
235.583	124.12
235.817	112.12
236.051	131.12
236.285	112.12
236.519	128.12
236.753	135.12
236.987	138.12
237.221	182.12
237.455	233.12
237.689	187.12
237.922	144.12
238.156	128.12
238.39	124.12
238.624	116.12
238.858	140.12
239.091	139.12
239.325	129.12
239.559	117.12
239.793	124.12
240.027	132.12
240.26	137.12
240.494	148.12
240.728	151.12
240.961	142.12
241.195	142.12
241.429	138.12
241.662	147.12
241.896	127.12
242.13	126.12
242.363	133.12
242.597	134.12
242.83	136.12
243.064	133.12
243.298	152.12
243.531	137.12
243.765	145.12
243.998	135.12
244.232	136.12
244.465	140.12
244.699	145.12
244.932	145.12
245.166	136.12
245.399	155.12
245.633	127.12
245.866	135.12
246.099	148.12
246.333	152.12
246.566	153.12
246.8	148.12
247.033	165.12
247.266	159.12
247.5	164.12
247.733	170.12
247.966	172.12
248.2	176.12
248.433	169.12
248.666	171.12
248.899	167.12
249.133	202.12
249.366	210.12
249.599	181.12
249.832	172.12
250.066	176.12
250.299	169.12
250.532	194.12
250.765	183.12
250.998	205.12
251.231	229.12
251.465	209.12
251.698	215.12
251.931	195.12
252.164	184.12
252.397	183.12
252.63	186.12
252.863	190.12
253.096	201.12
253.329	218.12
253.562	219.12
253.795	216.12
254.028	229.12
254.261	216.12
254.494	239.12
254.727	237.12
254.96	263.12
255.193	249.12
255.426	236.12
255.659	223.12
255.892	228.12
256.124	212.12
256.357	202.12
256.59	207.12
256.823	207.12
257.056	210.12
257.289	220.12
257.521	203.12
257.754	203.12
257.987	211.12
258.22	216.12
258.452	191.12
258.685	200.12
258.918	214.12
259.151	199.12
259.383	209.12
259.616	193.12
259.849	213.12
260.081	221.12
260.314	247.12
260.547	235.12
260.779	232.12
261.012	239.12
261.244	216.12
261.477	206.12
261.71	197.12
261.942	234.12
262.175	212.12
262.407	224.12
262.64	216.12
262.872	206.12
263.105	211.12
263.337	224.12
263.57	213.12
263.802	215.12
264.035	221.12
264.267	213.12
264.499	208.12
264.732	204.12
264.964	213.12
265.197	205.12
265.429	211.12
265.661	203.12
265.894	218.12
266.126	221.12
266.358	206.12
266.591	208.12
266.823	219.12
267.055	223.12
267.287	242.12
267.52	215.12
267.752	235.12
267.984	212.12
268.216	211.12
268.448	234.12
268.681	233.12
268.913	249.12
269.145	260.12
269.377	279.12
269.609	280.12
269.841	263.12
270.073	268.12
270.306	266.12
270.538	301.12
270.77	303.12
271.002	284.12
271.234	284.12
271.466	280.12
271.698	282.12
271.93	313.12
272.162	303.12
272.394	292.12
272.626	295.12
272.858	273.12
273.09	270.12
273.322	283.12
273.553	233.12
273.785	265.12
274.017	275.12
274.249	252.12
274.481	250.12
274.713	253.12
274.945	259.12
275.176	265.12
275.408	265.12
275.64	280.12
275.872	255.12
276.104	260.12
276.335	277.12
276.567	265.12
276.799	259.12
277.031	307.12
277.262	303.12
277.494	311.12
277.726	304.12
277.957	286.12
278.189	278.12
278.421	270.12
278.652	267.12
278.884	283.12
279.115	277.12
279.347	276.12
279.579	270.12
279.81	265.12
280.042	275.12
280.273	253.12
280.505	275.12
280.736	263.12
280.968	262.12
281.199	270.12
281.431	269.12
281.662	298.12
281.894	276.12
282.125	258.12
282.356	275.12
282.588	301.12
282.819	311.12
283.051	270.12
283.282	275.12
283.513	277.12
283.745	288.12
283.976	283.12
284.207	296.12
284.439	277.12
284.67	274.12
284.901	269.12
285.132	278.12
285.364	265.12
285.595	276.12
285.826	276.12
286.057	282.12
286.288	286.12
286.52	283.12
286.751	280.12
286.982	263.12
287.213	291.12
287.444	284.12
287.675	278.12
287.906	304.12
288.138	287.12
288.369	307.12
288.6	298.12
288.831	290.12
289.062	289.12
289.293	291.12
289.524	291.12
289.755	276.12
289.986	282.12
290.217	267.12
290.448	287.12
290.679	287.12
290.91	298.12
291.141	278.12
291.371	293.12
291.602	304.12
291.833	283.12
292.064	293.12
292.295	293.12
292.526	298.12
292.757	303.12
292.987	297.12
293.218	293.12
293.449	304.12
293.68	283.12
293.91	292.12
294.141	301.12
294.372	282.12
294.603	266.12
294.833	295.12
295.064	300.12
295.295	310.12
295.525	314.12
295.756	296.12
295.987	315.12
296.217	353.12
296.448	351.12
296.679	318.12
296.909	292.12
297.14	313.12
297.37	307.12
297.601	306.12
297.831	314.12
298.062	305.12
298.292	292.12
298.523	319.12
298.753	312.12
298.984	311.12
299.214	295.12
299.445	323.12
299.675	308.12
299.905	300.12
300.136	296.12
300.366	311.12
300.597	323.12
300.827	323.12
301.057	315.12
301.288	340.12
301.518	330.12
301.748	312.12
301.979	316.12
302.209	321.12
302.439	349.12
302.669	333.12
302.9	330.12
303.13	328.12
303.36	324.12
303.59	330.12
303.82	351.12
304.051	346.12
304.281	341.12
304.511	347.12
304.741	343.12
304.971	341.12
305.201	338.12
305.431	324.12
305.661	320.12
305.891	331.12
306.121	344.12
306.352	348.12
306.582	325.12
306.812	325.12
307.042	338.12
307.272	330.12
307.502	336.12
307.731	353.12
307.961	320.12
308.191	354.12
308.421	340.12
308.651	336.12
308.881	346.12
309.111	342.12
309.341	344.12
309.571	353.12
309.8	362.12
310.03	375.12
310.26	371.12
310.49	372.12
310.72	388.12
310.949	389.12
311.179	397.12
311.409	384.12
311.639	382.12
311.868	397.12
312.098	411.12
312.328	389.12
312.557	391.12
312.787	413.12
313.017	401.12
313.246	402.12
313.476	395.12
313.706	395.12
313.935	383.12
314.165	402.12
314.394	392.12
314.624	416.12
314.853	397.12
315.083	383.12
315.312	377.12
315.542	384.12
315.771	394.12
316.001	385.12
316.23	388.12
316.46	387.12
316.689	376.12
316.919	376.12
317.148	411.12
317.377	405.12
317.607	400.12
317.836	407.12
318.065	380.12
318.295	375.12
318.524	399.12
318.753	397.12
318.983	395.12
319.212	379.12
319.441	391.12
319.67	402.12
319.9	381.12
320.129	402.12
320.358	401.12
320.587	396.12
320.816	412.12
321.046	385.12
321.275	413.12
321.504	428.12
321.733	423.12
321.962	435.12
322.191	410.12
322.42	448.12
322.649	466.12
322.878	465.12
323.108	482.12
323.337	503.12
323.566	515.12
323.795	554.12
324.024	593.12
324.253	696.12
324.482	1005.12
324.71	1512.12
324.939	2200.12
325.168	1891.12
325.397	956.12
325.626	655.12
325.855	592.12
326.084	556.12
326.313	521.12
326.542	524.12
326.77	565.12
326.999	664.12
327.228	905.12
327.457	1386.12
327.686	1659.12
327.914	1092.12
328.143	727.12
328.372	639.12
328.6	587.12
328.829	584.12
329.058	581.12
329.287	598.12
329.515	564.12
329.744	503.12
329.972	498.12
330.201	502.12
330.43	519.12
330.658	570.12
330.887	610.12
331.115	585.12
331.344	529.12
331.572	478.12
331.801	487.12
332.03	506.12
332.258	479.12
332.486	466.12
332.715	453.12
332.943	450.12
333.172	477.12
333.4	472.12
333.629	484.12
333.857	465.12
334.085	474.12
334.314	467.12
334.542	468.12
334.771	464.12
334.999	457.12
335.227	470.12
335.455	474.12
335.684	476.12
335.912	449.12
336.14	435.12
336.369	449.12
336.597	445.12
336.825	450.12
337.053	467.12
337.281	451.12
337.51	430.12
337.738	459.12
337.966	426.12
338.194	442.12
338.422	452.12
338.65	448.12
338.878	451.12
339.106	432.12
339.334	444.12
339.562	450.12
339.79	421.12
340.018	434.12
340.246	441.12
340.474	454.12
340.702	455.12
340.93	450.12
341.158	431.12
341.386	436.12
341.614	433.12
341.842	453.12
342.07	441.12
342.298	424.12
342.526	428.12
342.754	436.12
342.981	440.12
343.209	423.12
343.437	432.12
343.665	459.12
343.893	456.12
344.12	443.12
344.348	459.12
344.576	463.12
344.804	461.12
345.031	452.12
345.259	468.12
345.487	467.12
345.714	471.12
345.942	445.12
346.17	439.12
346.397	453.12
346.625	433.12
346.853	427.12
347.08	420.12
347.308	428.12
347.535	448.12
347.763	444.12
347.99	424.12
348.218	440.12
348.445	441.12
348.673	434.12
348.9	446.12
349.128	439.12
349.355	425.12
349.583	397.12
349.81	419.12
350.037	413.12
350.265	424.12
350.492	418.12
350.72	431.12
350.947	431.12
351.174	441.12
351.402	429.12
351.629	458.12
351.856	442.12
352.083	431.12
352.311	464.12
352.538	438.12
352.765	454.12
352.992	439.12
353.22	414.12
353.447	417.12
353.674	421.12
353.901	428.12
354.128	413.12
354.355	426.12
354.583	396.12
354.81	402.12
355.037	393.12
355.264	390.12
355.491	391.12
355.718	410.12
355.945	399.12
356.172	401.12
356.399	400.12
356.626	388.12
356.853	392.12
357.08	376.12
357.307	389.12
357.534	369.12
357.761	394.12
357.988	413.12
358.215	397.12
358.441	408.12
358.668	415.12
358.895	415.12
359.122	409.12
359.349	423.12
359.576	419.12
359.802	462.12
360.029	479.12
360.256	498.12
360.483	473.12
360.709	439.12
360.936	434.12
361.163	426.12
361.39	422.12
361.616	444.12
361.843	437.12
362.07	412.12
362.296	430.12
362.523	423.12
362.749	410.12
362.976	421.12
363.203	431.12
363.429	415.12
363.656	413.12
363.882	423.12
364.109	420.12
364.335	408.12
364.562	407.12
364.788	415.12
365.015	424.12
365.241	391.12
365.468	418.12
365.694	394.12
365.92	410.12
366.147	401.12
366.373	407.12
366.599	407.12
366.826	408.12
367.052	441.12
367.278	420.12
367.505	411.12
367.731	412.12
367.957	397.12
368.184	413.12
368.41	412.12
368.636	429.12
368.862	432.12
369.089	399.12
369.315	424.12
369.541	395.12
369.767	401.12
369.993	428.12
370.219	405.12
370.445	409.12
370.672	432.12
370.898	403.12
371.124	425.12
371.35	407.12
371.576	391.12
371.802	407.12
372.028	397.12
372.254	407.12
372.48	406.12
372.706	406.12
372.932	399.12
373.158	429.12
373.384	414.12
373.61	428.12
373.835	416.12
374.061	411.12
374.287	406.12
374.513	417.12
374.739	420.12
374.965	417.12
375.191	415.12
375.416	412.12
375.642	405.12
375.868	426.12
376.094	414.12
376.319	416.12
376.545	423.12
376.771	417.12
376.997	405.12
377.222	420.12
377.448	424.12
377.674	395.12
377.899	407.12
378.125	395.12
378.35	397.12
378.576	412.12
378.802	394.12
379.027	413.12
379.253	411.12
379.478	424.12
379.704	397.12
379.929	425.12
380.155	405.12
380.38	402.12
380.606	410.12
380.831	400.12
381.057	419.12
381.282	412.12
381.507	415.12
381.733	416.12
381.958	411.12
382.184	412.12
382.409	437.12
382.634	417.12
382.86	412.12
383.085	426.12
383.31	415.12
383.535	417.12
383.761	410.12
383.986	437.12
384.211	429.12
384.436	445.12
384.662	429.12
384.887	451.12
385.112	425.12
385.337	439.12
385.562	449.12
385.787	459.12
386.013	466.12
386.238	468.12
386.463	444.12
386.688	447.12
386.913	443.12
387.138	465.12
387.363	445.12
387.588	441.12
387.813	449.12
388.038	444.12
388.263	459.12
388.488	445.12
388.713	448.12
388.938	446.12
389.163	437.12
389.387	456.12
389.612	463.12
389.837	453.12
390.062	445.12
390.287	434.12
390.512	460.12
390.736	449.12
390.961	448.12
391.186	468.12
391.411	463.12
391.636	481.12
391.86	459.12
392.085	479.12
392.31	452.12
392.534	456.12
392.759	473.12
392.984	470.12
393.208	453.12
393.433	456.12
393.658	460.12
393.882	470.12
394.107	460.12
394.331	461.12
394.556	444.12
394.78	465.12
395.005	462.12
395.229	456.12
395.454	456.12
395.678	480.12
395.903	506.12
396.127	495.12
396.352	513.12
396.576	497.12
396.801	472.12
397.025	486.12
397.249	458.12
397.474	468.12
397.698	484.12
397.922	497.12
398.147	506.12
398.371	502.12
398.595	492.12
398.82	511.12
399.044	563.12
399.268	521.12
399.492	561.12
399.717	610.12
399.941	607.12
400.165	644.12
400.389	655.12
400.613	604.12
400.837	561.12
401.062	533.12
401.286	513.12
401.51	531.12
401.734	521.12
401.958	499.12
402.182	520.12
402.406	525.12
402.63	528.12
402.854	501.12
403.078	541.12
403.302	524.12
403.526	561.12
403.75	539.12
403.974	523.12
404.198	533.12
404.422	573.12
404.645	563.12
404.869	547.12
405.093	572.12
405.317	587.12
405.541	582.12
405.765	586.12
405.988	577.12
406.212	556.12
406.436	588.12
406.66	628.12
406.883	597.12
407.107	627.12
407.331	647.12
407.555	726.12
407.778	732.12
408.002	649.12
408.226	623.12
408.449	593.12
408.673	604.12
408.896	622.12
409.12	671.12
409.344	610.12
409.567	561.12
409.791	559.12
410.014	545.12
410.238	560.12
410.461	535.12
410.685	548.12
410.908	554.12
411.132	577.12
411.355	639.12
411.578	588.12
411.802	561.12
412.025	527.12
412.249	535.12
412.472	546.12
412.695	535.12
412.919	515.12
413.142	523.12
413.365	513.12
413.589	503.12
413.812	506.12
414.035	502.12
414.258	537.12
414.482	514.12
414.705	513.12
414.928	493.12
415.151	499.12
415.374	514.12
415.597	513.12
415.821	517.12
416.044	488.12
416.267	523.12
416.49	493.12
416.713	513.12
416.936	496.12
417.159	521.12
417.382	535.12
417.605	526.12
417.828	516.12
418.051	552.12
418.274	544.12
418.497	504.12
418.72	526.12
418.943	512.12
419.166	535.12
419.389	528.12
419.611	532.12
419.834	548.12
420.057	529.12
420.28	530.12
420.503	529.12
420.726	521.12
420.948	531.12
421.171	589.12
421.394	613.12
421.617	547.12
421.839	532.12
422.062	523.12
422.285	538.12
422.507	600.12
422.73	691.12
422.953	641.12
423.175	577.12
423.398	552.12
423.621	579.12
423.843	585.12
424.066	569.12
424.288	547.12
424.511	575.12
424.733	644.12
424.956	723.12
425.178	696.12
425.401	688.12
425.623	695.12
425.846	628.12
426.068	583.12
426.291	557.12
426.513	561.12
426.735	594.12
426.958	604.12
427.18	700.12
427.402	844.12
427.625	903.12
427.847	785.12
428.069	653.12
428.292	601.12
428.514	557.12
428.736	523.12
428.958	543.12
429.181	529.12
429.403	519.12
429.625	510.12
429.847	570.12
430.069	624.12
430.292	624.12
430.514	582.12
430.736	535.12
430.958	533.12
431.18	531.12
431.402	496.12
431.624	514.12
431.846	515.12
432.068	512.12
432.29	524.12
432.512	508.12
432.734	505.12
432.956	482.12
433.178	515.12
433.4	520.12
433.622	500.12
433.844	510.12
434.066	517.12
434.287	523.12
434.509	539.12
434.731	500.12
434.953	529.12
435.175	530.12
435.397	568.12
435.618	584.12
435.84	620.12
436.062	734.12
436.284	756.12
436.505	639.12
436.727	571.12
436.949	556.12
437.17	547.12
437.392	526.12
437.614	524.12
437.835	555.12
438.057	670.12
438.278	810.12
438.5	773.12
438.721	853.12
438.943	817.12
439.165	636.12
439.386	575.12
439.608	600.12
439.829	568.12
440.05	621.12
440.272	641.12
440.493	626.12
440.715	563.12
440.936	552.12
441.158	536.12
441.379	541.12
441.6	555.12
441.822	588.12
442.043	627.12
442.264	696.12
442.486	753.12
442.707	651.12
442.928	612.12
443.149	582.12
443.371	608.12
443.592	646.12
443.813	734.12
444.034	806.12
444.255	667.12
444.476	603.12
444.698	596.12
444.919	579.12
445.14	664.12
445.361	633.12
445.582	577.12
445.803	663.12
446.024	786.12
446.245	794.12
446.466	756.12
446.687	595.12
446.908	588.12
447.129	565.12
447.35	535.12
447.571	537.12
447.792	537.12
448.013	541.12
448.234	548.12
448.455	598.12
448.675	705.12
448.896	853.12
449.117	707.12
449.338	665.12
449.559	771.12
449.779	910.12
450	693.12
450.221	567.12
450.442	520.12
450.662	518.12
450.883	536.12
451.104	549.12
451.324	543.12
451.545	499.12
451.766	497.12
451.986	455.12
452.207	466.12
452.428	469.12
452.648	469.12
452.869	496.12
453.089	471.12
453.31	519.12
453.53	477.12
453.751	489.12
453.971	482.12
454.192	517.12
454.412	496.12
454.633	474.12
454.853	482.12
455.073	499.12
455.294	519.12
455.514	571.12
455.734	552.12
455.955	505.12
456.175	459.12
456.395	460.12
456.616	444.12
456.836	481.12
457.056	440.12
457.276	434.12
457.497	439.12
457.717	452.12
457.937	460.12
458.157	479.12
458.377	480.12
458.598	498.12
458.818	569.12
459.038	627.12
459.258	624.12
459.478	573.12
459.698	504.12
459.918	488.12
460.138	510.12
460.358	513.12
460.578	523.12
460.798	512.12
461.018	524.12
461.238	517.12
461.458	509.12
461.678	512.12
461.898	521.12
462.118	533.12
462.338	530.12
462.558	537.12
462.777	561.12
462.997	579.12
463.217	566.12
463.437	583.12
463.657	565.12
463.876	551.12
464.096	571.12
464.316	546.12
464.536	550.12
464.755	547.12
464.975	574.12
465.195	596.12
465.414	646.12
465.634	583.12
465.854	550.12
466.073	529.12
466.293	505.12
466.512	494.12
466.732	487.12
466.951	501.12
467.171	496.12
467.391	493.12
467.61	496.12
467.829	511.12
468.049	497.12
468.268	471.12
468.488	459.12
468.707	452.12
468.927	457.12
469.146	477.12
469.365	476.12
469.585	462.12
469.804	489.12
470.023	519.12
470.243	514.12
470.462	520.12
470.681	495.12
470.901	528.12
471.12	501.12
471.339	497.12
471.558	511.12
471.777	492.12
471.997	478.12
472.216	493.12
472.435	484.12
472.654	491.12
472.873	480.12
473.092	485.12
473.311	490.12
473.53	501.12
473.749	484.12
473.968	539.12
474.187	660.12
474.406	669.12
474.625	568.12
474.844	509.12
475.063	493.12
475.282	501.12
475.501	536.12
475.72	509.12
475.939	504.12
476.158	508.12
476.377	513.12
476.596	516.12
476.814	519.12
477.033	515.12
477.252	536.12
477.471	538.12
477.69	532.12
477.908	553.12
478.127	568.12
478.346	522.12
478.564	563.12
478.783	576.12
479.002	573.12
479.22	547.12
479.439	595.12
479.658	601.12
479.876	611.12
480.095	586.12
480.313	641.12
480.532	609.12
480.751	585.12
480.969	601.12
481.188	607.12
481.406	629.12
481.624	577.12
481.843	584.12
482.061	599.12
482.28	593.12
482.498	583.12
482.717	572.12
482.935	579.12
483.153	578.12
483.372	584.12
483.59	581.12
483.808	576.12
484.027	617.12
484.245	567.12
484.463	575.12
484.681	591.12
484.9	610.12
485.118	584.12
485.336	613.12
485.554	612.12
485.772	601.12
485.99	606.12
486.209	608.12
486.427	603.12
486.645	592.12
486.863	659.12
487.081	648.12
487.299	633.12
487.517	629.12
487.735	624.12
487.953	626.12
488.171	620.12
488.389	617.12
488.607	608.12
488.825	636.12
489.043	602.12
489.261	633.12
489.479	632.12
489.696	649.12
489.914	645.12
490.132	635.12
490.35	652.12
490.568	643.12
490.786	637.12
491.003	661.12
491.221	666.12
491.439	697.12
491.657	693.12
491.874	680.12
492.092	698.12
492.31	695.12
492.527	702.12
492.745	702.12
492.963	721.12
493.18	705.12
493.398	688.12
493.615	725.12
493.833	731.12
494.05	698.12
494.268	731.12
494.485	712.12
494.703	721.12
494.92	710.12
495.138	713.12
495.355	726.12
495.573	752.12
495.79	729.12
496.008	730.12
496.225	724.12
496.442	745.12
496.66	753.12
496.877	767.12
497.094	755.12
497.312	759.12
497.529	769.12
497.746	756.12
497.963	798.12
498.181	795.12
498.398	815.12
498.615	833.12
498.832	856.12
499.049	869.12
499.267	879.12
499.484	917.12
499.701	945.12
499.918	934.12
500.135	1010.12
500.352	1059.12
500.569	1055.12
500.786	1065.12
501.003	1043.12
501.22	1017.12
501.437	1000.12
501.654	972.12
501.871	973.12
