Data from 1988.PennyLincolnUp.Lamp.En5.5.200Scan.071819.P2_HRD10591_17-19-06-972.txt Node
Date: Thu Jul 18 17:19:06 EDT 2019
User: cochatt
Spectrometer: HR+D1059
Trigger mode: 1
Integration Time (sec): 1.000000E-1
Scans to average: 1
Electric dark correction enabled: true
Nonlinearity correction enabled: false
Boxcar width: 0
XAxis mode: Wavelengths
Number of Pixels in Spectrum: 2048
>>>>>Begin Spectral Data<<<<<
223.165	-15.31
223.4	-15.31
223.635	-15.31
223.869	-29.31
224.104	-11.31
224.338	-14.31
224.573	-9.31
224.808	-6.31
225.042	1.69
225.277	-12.31
225.511	-9.31
225.746	7.69
225.98	-0.31
226.215	2.69
226.449	20.69
226.683	27.69
226.918	23.69
227.152	23.69
227.387	42.69
227.621	34.69
227.856	39.69
228.09	49.69
228.324	55.69
228.559	61.69
228.793	78.69
229.027	92.69
229.262	93.69
229.496	127.69
229.73	117.69
229.964	156.69
230.199	116.69
230.433	108.69
230.667	118.69
230.901	127.69
231.136	109.69
231.37	115.69
231.604	125.69
231.838	113.69
232.072	118.69
232.306	110.69
232.541	121.69
232.775	115.69
233.009	122.69
233.243	110.69
233.477	129.69
233.711	133.69
233.945	119.69
234.179	124.69
234.413	118.69
234.647	103.69
234.881	115.69
235.115	109.69
235.349	131.69
235.583	124.69
235.817	115.69
236.051	134.69
236.285	126.69
236.519	125.69
236.753	129.69
236.987	142.69
237.221	192.69
237.455	241.69
237.689	180.69
237.922	143.69
238.156	141.69
238.39	126.69
238.624	117.69
238.858	112.69
239.091	130.69
239.325	137.69
239.559	130.69
239.793	137.69
240.027	131.69
240.26	142.69
240.494	156.69
240.728	158.69
240.961	135.69
241.195	150.69
241.429	127.69
241.662	134.69
241.896	126.69
242.13	131.69
242.363	135.69
242.597	129.69
242.83	122.69
243.064	149.69
243.298	141.69
243.531	143.69
243.765	135.69
243.998	140.69
244.232	149.69
244.465	140.69
244.699	142.69
244.932	148.69
245.166	153.69
245.399	134.69
245.633	151.69
245.866	132.69
246.099	154.69
246.333	151.69
246.566	156.69
246.8	155.69
247.033	156.69
247.266	145.69
247.5	151.69
247.733	161.69
247.966	138.69
248.2	177.69
248.433	175.69
248.666	162.69
248.899	185.69
249.133	201.69
249.366	189.69
249.599	209.69
249.832	169.69
250.066	192.69
250.299	177.69
250.532	178.69
250.765	197.69
250.998	215.69
251.231	200.69
251.465	192.69
251.698	193.69
251.931	189.69
252.164	186.69
252.397	201.69
252.63	205.69
252.863	213.69
253.096	202.69
253.329	215.69
253.562	197.69
253.795	205.69
254.028	221.69
254.261	220.69
254.494	220.69
254.727	262.69
254.96	281.69
255.193	238.69
255.426	241.69
255.659	219.69
255.892	197.69
256.124	219.69
256.357	212.69
256.59	213.69
256.823	209.69
257.056	181.69
257.289	198.69
257.521	205.69
257.754	206.69
257.987	207.69
258.22	203.69
258.452	205.69
258.685	211.69
258.918	200.69
259.151	209.69
259.383	198.69
259.616	206.69
259.849	229.69
260.081	214.69
260.314	238.69
260.547	237.69
260.779	245.69
261.012	236.69
261.244	225.69
261.477	211.69
261.71	227.69
261.942	209.69
262.175	239.69
262.407	228.69
262.64	189.69
262.872	215.69
263.105	193.69
263.337	191.69
263.57	209.69
263.802	209.69
264.035	217.69
264.267	212.69
264.499	207.69
264.732	215.69
264.964	213.69
265.197	202.69
265.429	212.69
265.661	225.69
265.894	216.69
266.126	220.69
266.358	203.69
266.591	214.69
266.823	217.69
267.055	235.69
267.287	214.69
267.52	235.69
267.752	220.69
267.984	218.69
268.216	224.69
268.448	232.69
268.681	242.69
268.913	238.69
269.145	263.69
269.377	273.69
269.609	258.69
269.841	282.69
270.073	258.69
270.306	290.69
270.538	323.69
270.77	317.69
271.002	289.69
271.234	276.69
271.466	287.69
271.698	309.69
271.93	328.69
272.162	290.69
272.394	310.69
272.626	297.69
272.858	287.69
273.09	274.69
273.322	250.69
273.553	264.69
273.785	260.69
274.017	249.69
274.249	261.69
274.481	257.69
274.713	267.69
274.945	276.69
275.176	259.69
275.408	259.69
275.64	270.69
275.872	269.69
276.104	278.69
276.335	255.69
276.567	283.69
276.799	270.69
277.031	301.69
277.262	307.69
277.494	304.69
277.726	303.69
277.957	298.69
278.189	268.69
278.421	271.69
278.652	252.69
278.884	279.69
279.115	268.69
279.347	254.69
279.579	267.69
279.81	271.69
280.042	268.69
280.273	271.69
280.505	271.69
280.736	277.69
280.968	271.69
281.199	267.69
281.431	250.69
281.662	261.69
281.894	267.69
282.125	274.69
282.356	287.69
282.588	297.69
282.819	301.69
283.051	270.69
283.282	281.69
283.513	294.69
283.745	296.69
283.976	282.69
284.207	285.69
284.439	276.69
284.67	277.69
284.901	282.69
285.132	287.69
285.364	254.69
285.595	274.69
285.826	288.69
286.057	281.69
286.288	289.69
286.52	296.69
286.751	289.69
286.982	283.69
287.213	277.69
287.444	283.69
287.675	280.69
287.906	288.69
288.138	289.69
288.369	293.69
288.6	310.69
288.831	319.69
289.062	279.69
289.293	289.69
289.524	289.69
289.755	290.69
289.986	308.69
290.217	290.69
290.448	275.69
290.679	270.69
290.91	297.69
291.141	294.69
291.371	281.69
291.602	299.69
291.833	310.69
292.064	279.69
292.295	289.69
292.526	283.69
292.757	300.69
292.987	295.69
293.218	301.69
293.449	296.69
293.68	310.69
293.91	301.69
294.141	306.69
294.372	291.69
294.603	301.69
294.833	300.69
295.064	302.69
295.295	292.69
295.525	312.69
295.756	317.69
295.987	322.69
296.217	309.69
296.448	333.69
296.679	321.69
296.909	303.69
297.14	295.69
297.37	297.69
297.601	311.69
297.831	323.69
298.062	301.69
298.292	294.69
298.523	318.69
298.753	299.69
298.984	283.69
299.214	310.69
299.445	296.69
299.675	310.69
299.905	317.69
300.136	293.69
300.366	312.69
300.597	304.69
300.827	331.69
301.057	334.69
301.288	327.69
301.518	319.69
301.748	305.69
301.979	329.69
302.209	329.69
302.439	315.69
302.669	345.69
302.9	312.69
303.13	330.69
303.36	331.69
303.59	330.69
303.82	339.69
304.051	366.69
304.281	351.69
304.511	342.69
304.741	356.69
304.971	335.69
305.201	331.69
305.431	320.69
305.661	341.69
305.891	322.69
306.121	331.69
306.352	354.69
306.582	334.69
306.812	340.69
307.042	345.69
307.272	334.69
307.502	343.69
307.731	325.69
307.961	326.69
308.191	338.69
308.421	335.69
308.651	336.69
308.881	342.69
309.111	341.69
309.341	352.69
309.571	362.69
309.8	375.69
310.03	377.69
310.26	358.69
310.49	362.69
310.72	385.69
310.949	389.69
311.179	398.69
311.409	394.69
311.639	390.69
311.868	377.69
312.098	385.69
312.328	388.69
312.557	414.69
312.787	417.69
313.017	405.69
313.246	413.69
313.476	373.69
313.706	369.69
313.935	396.69
314.165	411.69
314.394	410.69
314.624	414.69
314.853	389.69
315.083	381.69
315.312	381.69
315.542	402.69
315.771	385.69
316.001	393.69
316.23	371.69
316.46	400.69
316.689	386.69
316.919	399.69
317.148	373.69
317.377	405.69
317.607	406.69
317.836	384.69
318.065	370.69
318.295	381.69
318.524	366.69
318.753	389.69
318.983	373.69
319.212	385.69
319.441	387.69
319.67	388.69
319.9	403.69
320.129	385.69
320.358	380.69
320.587	407.69
320.816	398.69
321.046	423.69
321.275	417.69
321.504	413.69
321.733	417.69
321.962	413.69
322.191	418.69
322.42	450.69
322.649	458.69
322.878	468.69
323.108	446.69
323.337	464.69
323.566	504.69
323.795	535.69
324.024	581.69
324.253	721.69
324.482	982.69
324.71	1549.69
324.939	2173.69
325.168	1891.69
325.397	994.69
325.626	660.69
325.855	550.69
326.084	542.69
326.313	514.69
326.542	526.69
326.77	556.69
326.999	643.69
327.228	909.69
327.457	1374.69
327.686	1652.69
327.914	1073.69
328.143	709.69
328.372	607.69
328.6	573.69
328.829	550.69
329.058	573.69
329.287	581.69
329.515	545.69
329.744	508.69
329.972	497.69
330.201	495.69
330.43	519.69
330.658	537.69
330.887	585.69
331.115	581.69
331.344	507.69
331.572	485.69
331.801	480.69
332.03	507.69
332.258	480.69
332.486	459.69
332.715	467.69
332.943	457.69
333.172	466.69
333.4	500.69
333.629	471.69
333.857	464.69
334.085	477.69
334.314	474.69
334.542	476.69
334.771	468.69
334.999	491.69
335.227	460.69
335.455	428.69
335.684	457.69
335.912	448.69
336.14	467.69
336.369	458.69
336.597	462.69
336.825	457.69
337.053	454.69
337.281	455.69
337.51	446.69
337.738	433.69
337.966	453.69
338.194	450.69
338.422	463.69
338.65	464.69
338.878	449.69
339.106	456.69
339.334	433.69
339.562	437.69
339.79	437.69
340.018	462.69
340.246	450.69
340.474	452.69
340.702	429.69
340.93	423.69
341.158	435.69
341.386	445.69
341.614	425.69
341.842	421.69
342.07	450.69
342.298	423.69
342.526	441.69
342.754	432.69
342.981	417.69
343.209	414.69
343.437	439.69
343.665	441.69
343.893	426.69
344.12	434.69
344.348	453.69
344.576	462.69
344.804	452.69
345.031	467.69
345.259	467.69
345.487	456.69
345.714	447.69
345.942	419.69
346.17	441.69
346.397	427.69
346.625	421.69
346.853	451.69
347.08	428.69
347.308	441.69
347.535	431.69
347.763	447.69
347.99	430.69
348.218	462.69
348.445	440.69
348.673	424.69
348.9	423.69
349.128	426.69
349.355	423.69
349.583	423.69
349.81	421.69
350.037	430.69
350.265	412.69
350.492	425.69
350.72	410.69
350.947	441.69
351.174	433.69
351.402	446.69
351.629	433.69
351.856	439.69
352.083	439.69
352.311	463.69
352.538	419.69
352.765	447.69
352.992	432.69
353.22	420.69
353.447	428.69
353.674	434.69
353.901	410.69
354.128	408.69
354.355	410.69
354.583	415.69
354.81	416.69
355.037	397.69
355.264	398.69
355.491	394.69
355.718	387.69
355.945	404.69
356.172	374.69
356.399	398.69
356.626	399.69
356.853	413.69
357.08	413.69
357.307	405.69
357.534	410.69
357.761	394.69
357.988	420.69
358.215	412.69
358.441	407.69
358.668	414.69
358.895	380.69
359.122	422.69
359.349	420.69
359.576	429.69
359.802	443.69
360.029	478.69
360.256	467.69
360.483	468.69
360.709	429.69
360.936	434.69
361.163	428.69
361.39	436.69
361.616	430.69
361.843	431.69
362.07	431.69
362.296	442.69
362.523	430.69
362.749	414.69
362.976	428.69
363.203	415.69
363.429	419.69
363.656	422.69
363.882	430.69
364.109	419.69
364.335	422.69
364.562	405.69
364.788	418.69
365.015	400.69
365.241	383.69
365.468	423.69
365.694	405.69
365.92	435.69
366.147	414.69
366.373	401.69
366.599	402.69
366.826	395.69
367.052	415.69
367.278	418.69
367.505	412.69
367.731	413.69
367.957	406.69
368.184	415.69
368.41	426.69
368.636	447.69
368.862	440.69
369.089	423.69
369.315	396.69
369.541	421.69
369.767	425.69
369.993	411.69
370.219	419.69
370.445	413.69
370.672	417.69
370.898	405.69
371.124	417.69
371.35	407.69
371.576	406.69
371.802	419.69
372.028	414.69
372.254	410.69
372.48	407.69
372.706	420.69
372.932	418.69
373.158	415.69
373.384	415.69
373.61	412.69
373.835	410.69
374.061	421.69
374.287	438.69
374.513	417.69
374.739	436.69
374.965	418.69
375.191	425.69
375.416	404.69
375.642	409.69
375.868	399.69
376.094	407.69
376.319	403.69
376.545	421.69
376.771	418.69
376.997	429.69
377.222	433.69
377.448	416.69
377.674	413.69
377.899	403.69
378.125	418.69
378.35	407.69
378.576	394.69
378.802	394.69
379.027	404.69
379.253	402.69
379.478	400.69
379.704	405.69
379.929	420.69
380.155	394.69
380.38	418.69
380.606	423.69
380.831	429.69
381.057	413.69
381.282	422.69
381.507	419.69
381.733	410.69
381.958	405.69
382.184	430.69
382.409	411.69
382.634	443.69
382.86	425.69
383.085	427.69
383.31	433.69
383.535	413.69
383.761	431.69
383.986	425.69
384.211	449.69
384.436	447.69
384.662	424.69
384.887	445.69
385.112	433.69
385.337	446.69
385.562	445.69
385.787	446.69
386.013	481.69
386.238	477.69
386.463	465.69
386.688	458.69
386.913	440.69
387.138	433.69
387.363	441.69
387.588	429.69
387.813	459.69
388.038	450.69
388.263	438.69
388.488	457.69
388.713	459.69
388.938	445.69
389.163	458.69
389.387	445.69
389.612	453.69
389.837	450.69
390.062	454.69
390.287	436.69
390.512	441.69
390.736	461.69
390.961	453.69
391.186	477.69
391.411	459.69
391.636	466.69
391.86	456.69
392.085	463.69
392.31	477.69
392.534	443.69
392.759	458.69
392.984	459.69
393.208	460.69
393.433	477.69
393.658	458.69
393.882	459.69
394.107	457.69
394.331	449.69
394.556	469.69
394.78	470.69
395.005	478.69
395.229	460.69
395.454	471.69
395.678	465.69
395.903	478.69
396.127	519.69
396.352	486.69
396.576	481.69
396.801	514.69
397.025	477.69
397.249	475.69
397.474	481.69
397.698	473.69
397.922	505.69
398.147	509.69
398.371	504.69
398.595	506.69
398.82	511.69
399.044	535.69
399.268	559.69
399.492	589.69
399.717	599.69
399.941	617.69
400.165	642.69
400.389	641.69
400.613	596.69
400.837	564.69
401.062	541.69
401.286	547.69
401.51	537.69
401.734	513.69
401.958	531.69
402.182	528.69
402.406	539.69
402.63	531.69
402.854	533.69
403.078	554.69
403.302	541.69
403.526	558.69
403.75	525.69
403.974	534.69
404.198	531.69
404.422	538.69
404.645	550.69
404.869	534.69
405.093	552.69
405.317	598.69
405.541	610.69
405.765	601.69
405.988	581.69
406.212	584.69
406.436	589.69
406.66	591.69
406.883	582.69
407.107	622.69
407.331	653.69
407.555	697.69
407.778	707.69
408.002	652.69
408.226	611.69
408.449	619.69
408.673	611.69
408.896	613.69
409.12	674.69
409.344	621.69
409.567	584.69
409.791	559.69
410.014	538.69
410.238	539.69
410.461	538.69
410.685	538.69
410.908	583.69
411.132	605.69
411.355	623.69
411.578	605.69
411.802	557.69
412.025	544.69
412.249	532.69
412.472	546.69
412.695	543.69
412.919	553.69
413.142	541.69
413.365	502.69
413.589	525.69
413.812	537.69
414.035	503.69
414.258	506.69
414.482	505.69
414.705	505.69
414.928	485.69
415.151	515.69
415.374	504.69
415.597	486.69
415.821	494.69
416.044	517.69
416.267	504.69
416.49	513.69
416.713	499.69
416.936	501.69
417.159	504.69
417.382	514.69
417.605	513.69
417.828	533.69
418.051	549.69
418.274	538.69
418.497	507.69
418.72	494.69
418.943	513.69
419.166	529.69
419.389	562.69
419.611	551.69
419.834	519.69
420.057	528.69
420.28	513.69
420.503	517.69
420.726	502.69
420.948	554.69
421.171	610.69
421.394	609.69
421.617	515.69
421.839	520.69
422.062	535.69
422.285	527.69
422.507	613.69
422.73	677.69
422.953	652.69
423.175	586.69
423.398	547.69
423.621	569.69
423.843	571.69
424.066	592.69
424.288	555.69
424.511	597.69
424.733	635.69
424.956	711.69
425.178	689.69
425.401	676.69
425.623	697.69
425.846	613.69
426.068	576.69
426.291	570.69
426.513	555.69
426.735	575.69
426.958	617.69
427.18	712.69
427.402	825.69
427.625	920.69
427.847	787.69
428.069	659.69
428.292	599.69
428.514	569.69
428.736	547.69
428.958	545.69
429.181	515.69
429.403	518.69
429.625	537.69
429.847	558.69
430.069	635.69
430.292	638.69
430.514	542.69
430.736	532.69
430.958	533.69
431.18	524.69
431.402	509.69
431.624	520.69
431.846	515.69
432.068	502.69
432.29	498.69
432.512	507.69
432.734	507.69
432.956	495.69
433.178	493.69
433.4	531.69
433.622	525.69
433.844	487.69
434.066	500.69
434.287	487.69
434.509	509.69
434.731	528.69
434.953	511.69
435.175	540.69
435.397	547.69
435.618	584.69
435.84	605.69
436.062	710.69
436.284	795.69
436.505	657.69
436.727	572.69
436.949	553.69
437.17	524.69
437.392	541.69
437.614	534.69
437.835	574.69
438.057	697.69
438.278	784.69
438.5	750.69
438.721	854.69
438.943	799.69
439.165	637.69
439.386	609.69
439.608	567.69
439.829	574.69
440.05	581.69
440.272	631.69
440.493	606.69
440.715	577.69
440.936	535.69
441.158	525.69
441.379	543.69
441.6	537.69
441.822	588.69
442.043	604.69
442.264	708.69
442.486	729.69
442.707	622.69
442.928	595.69
443.149	574.69
443.371	619.69
443.592	646.69
443.813	755.69
444.034	801.69
444.255	653.69
444.476	594.69
444.698	604.69
444.919	582.69
445.14	648.69
445.361	609.69
445.582	615.69
445.803	684.69
446.024	789.69
446.245	784.69
446.466	711.69
446.687	609.69
446.908	568.69
447.129	550.69
447.35	550.69
447.571	542.69
447.792	543.69
448.013	511.69
448.234	543.69
448.455	600.69
448.675	726.69
448.896	845.69
449.117	693.69
449.338	656.69
449.559	785.69
449.779	889.69
450	699.69
450.221	591.69
450.442	516.69
450.662	505.69
450.883	515.69
451.104	523.69
451.324	534.69
451.545	499.69
451.766	481.69
451.986	469.69
452.207	468.69
452.428	455.69
452.648	477.69
452.869	489.69
453.089	475.69
453.31	482.69
453.53	488.69
453.751	462.69
453.971	485.69
454.192	501.69
454.412	488.69
454.633	482.69
454.853	467.69
455.073	479.69
455.294	493.69
455.514	571.69
455.734	547.69
455.955	473.69
456.175	455.69
456.395	460.69
456.616	444.69
456.836	440.69
457.056	446.69
457.276	438.69
457.497	461.69
457.717	442.69
457.937	464.69
458.157	455.69
458.377	450.69
458.598	502.69
458.818	552.69
459.038	632.69
459.258	645.69
459.478	533.69
459.698	499.69
459.918	499.69
460.138	506.69
460.358	518.69
460.578	515.69
460.798	523.69
461.018	540.69
461.238	531.69
461.458	522.69
461.678	498.69
461.898	535.69
462.118	516.69
462.338	546.69
462.558	541.69
462.777	507.69
462.997	568.69
463.217	562.69
463.437	553.69
463.657	565.69
463.876	561.69
464.096	572.69
464.316	543.69
464.536	565.69
464.755	552.69
464.975	556.69
465.195	573.69
465.414	674.69
465.634	579.69
465.854	579.69
466.073	530.69
466.293	489.69
466.512	477.69
466.732	473.69
466.951	487.69
467.171	500.69
467.391	492.69
467.61	500.69
467.829	508.69
468.049	523.69
468.268	492.69
468.488	491.69
468.707	491.69
468.927	474.69
469.146	473.69
469.365	479.69
469.585	484.69
469.804	485.69
470.023	506.69
470.243	499.69
470.462	517.69
470.681	514.69
470.901	503.69
471.12	508.69
471.339	501.69
471.558	498.69
471.777	491.69
471.997	479.69
472.216	475.69
472.435	465.69
472.654	481.69
472.873	458.69
473.092	487.69
473.311	466.69
473.53	485.69
473.749	512.69
473.968	522.69
474.187	629.69
474.406	655.69
474.625	542.69
474.844	493.69
475.063	509.69
475.282	524.69
475.501	479.69
475.72	517.69
475.939	523.69
476.158	490.69
476.377	505.69
476.596	501.69
476.814	506.69
477.033	527.69
477.252	529.69
477.471	526.69
477.69	545.69
477.908	538.69
478.127	548.69
478.346	541.69
478.564	533.69
478.783	577.69
479.002	568.69
479.22	584.69
479.439	578.69
479.658	601.69
479.876	612.69
480.095	612.69
480.313	647.69
480.532	636.69
480.751	586.69
480.969	611.69
481.188	602.69
481.406	601.69
481.624	613.69
481.843	597.69
482.061	573.69
482.28	565.69
482.498	588.69
482.717	567.69
482.935	566.69
483.153	567.69
483.372	567.69
483.59	580.69
483.808	585.69
484.027	585.69
484.245	582.69
484.463	562.69
484.681	611.69
484.9	575.69
485.118	597.69
485.336	589.69
485.554	614.69
485.772	598.69
485.99	597.69
486.209	581.69
486.427	605.69
486.645	638.69
486.863	598.69
487.081	620.69
487.299	618.69
487.517	614.69
487.735	598.69
487.953	612.69
488.171	625.69
488.389	604.69
488.607	616.69
488.825	622.69
489.043	607.69
489.261	634.69
489.479	629.69
489.696	621.69
489.914	635.69
490.132	645.69
490.35	632.69
490.568	640.69
490.786	661.69
491.003	651.69
491.221	667.69
491.439	672.69
491.657	687.69
491.874	708.69
492.092	675.69
492.31	701.69
492.527	700.69
492.745	717.69
492.963	701.69
493.18	713.69
493.398	727.69
493.615	707.69
493.833	707.69
494.05	683.69
494.268	716.69
494.485	720.69
494.703	698.69
494.92	746.69
495.138	724.69
495.355	719.69
495.573	729.69
495.79	746.69
496.008	759.69
496.225	738.69
496.442	695.69
496.66	771.69
496.877	736.69
497.094	748.69
497.312	764.69
497.529	761.69
497.746	763.69
497.963	794.69
498.181	829.69
498.398	824.69
498.615	836.69
498.832	834.69
499.049	835.69
499.267	865.69
499.484	893.69
499.701	934.69
499.918	973.69
500.135	958.69
500.352	1063.69
500.569	1039.69
500.786	1093.69
501.003	1049.69
501.22	1029.69
501.437	980.69
501.654	964.69
501.871	963.69
