Data from 1988.PennyLincolnUp.Lamp.En5.5.200Scan.071819.P2_HRD10591_17-20-49-973.txt Node
Date: Thu Jul 18 17:20:49 EDT 2019
User: cochatt
Spectrometer: HR+D1059
Trigger mode: 1
Integration Time (sec): 1.000000E-1
Scans to average: 1
Electric dark correction enabled: true
Nonlinearity correction enabled: false
Boxcar width: 0
XAxis mode: Wavelengths
Number of Pixels in Spectrum: 2048
>>>>>Begin Spectral Data<<<<<
223.165	-10.12
223.4	-10.12
223.635	-10.12
223.869	-9.12
224.104	-37.12
224.338	-8.12
224.573	-9.12
224.808	-8.12
225.042	0.88
225.277	-10.12
225.511	-11.12
225.746	6.88
225.98	-0.12
226.215	15.88
226.449	10.88
226.683	13.88
226.918	32.88
227.152	21.88
227.387	31.88
227.621	40.88
227.856	41.88
228.09	36.88
228.324	56.88
228.559	58.88
228.793	86.88
229.027	111.88
229.262	108.88
229.496	127.88
229.73	128.88
229.964	162.88
230.199	153.88
230.433	122.88
230.667	109.88
230.901	121.88
231.136	108.88
231.37	125.88
231.604	111.88
231.838	130.88
232.072	134.88
232.306	103.88
232.541	126.88
232.775	114.88
233.009	111.88
233.243	113.88
233.477	127.88
233.711	104.88
233.945	124.88
234.179	118.88
234.413	114.88
234.647	121.88
234.881	130.88
235.115	124.88
235.349	126.88
235.583	129.88
235.817	124.88
236.051	118.88
236.285	141.88
236.519	126.88
236.753	140.88
236.987	159.88
237.221	205.88
237.455	270.88
237.689	206.88
237.922	159.88
238.156	150.88
238.39	139.88
238.624	152.88
238.858	136.88
239.091	143.88
239.325	150.88
239.559	140.88
239.793	130.88
240.027	153.88
240.26	154.88
240.494	168.88
240.728	168.88
240.961	170.88
241.195	155.88
241.429	154.88
241.662	139.88
241.896	142.88
242.13	138.88
242.363	142.88
242.597	157.88
242.83	158.88
243.064	155.88
243.298	142.88
243.531	145.88
243.765	158.88
243.998	156.88
244.232	155.88
244.465	155.88
244.699	167.88
244.932	156.88
245.166	158.88
245.399	150.88
245.633	151.88
245.866	160.88
246.099	154.88
246.333	162.88
246.566	167.88
246.8	168.88
247.033	157.88
247.266	178.88
247.5	187.88
247.733	184.88
247.966	181.88
248.2	182.88
248.433	186.88
248.666	195.88
248.899	192.88
249.133	220.88
249.366	222.88
249.599	214.88
249.832	200.88
250.066	206.88
250.299	175.88
250.532	201.88
250.765	206.88
250.998	215.88
251.231	237.88
251.465	222.88
251.698	220.88
251.931	221.88
252.164	222.88
252.397	213.88
252.63	226.88
252.863	204.88
253.096	224.88
253.329	235.88
253.562	225.88
253.795	220.88
254.028	229.88
254.261	240.88
254.494	237.88
254.727	272.88
254.96	320.88
255.193	290.88
255.426	274.88
255.659	265.88
255.892	235.88
256.124	234.88
256.357	240.88
256.59	223.88
256.823	212.88
257.056	218.88
257.289	210.88
257.521	233.88
257.754	233.88
257.987	229.88
258.22	213.88
258.452	241.88
258.685	221.88
258.918	223.88
259.151	223.88
259.383	232.88
259.616	250.88
259.849	251.88
260.081	248.88
260.314	278.88
260.547	271.88
260.779	274.88
261.012	242.88
261.244	238.88
261.477	239.88
261.71	237.88
261.942	239.88
262.175	254.88
262.407	258.88
262.64	249.88
262.872	252.88
263.105	222.88
263.337	224.88
263.57	241.88
263.802	228.88
264.035	215.88
264.267	235.88
264.499	208.88
264.732	243.88
264.964	242.88
265.197	229.88
265.429	225.88
265.661	232.88
265.894	231.88
266.126	235.88
266.358	237.88
266.591	253.88
266.823	246.88
267.055	251.88
267.287	238.88
267.52	245.88
267.752	244.88
267.984	265.88
268.216	272.88
268.448	250.88
268.681	250.88
268.913	262.88
269.145	281.88
269.377	303.88
269.609	291.88
269.841	297.88
270.073	295.88
270.306	323.88
270.538	343.88
270.77	348.88
271.002	317.88
271.234	306.88
271.466	326.88
271.698	334.88
271.93	317.88
272.162	345.88
272.394	350.88
272.626	329.88
272.858	331.88
273.09	294.88
273.322	312.88
273.553	290.88
273.785	284.88
274.017	281.88
274.249	308.88
274.481	292.88
274.713	287.88
274.945	295.88
275.176	272.88
275.408	294.88
275.64	282.88
275.872	287.88
276.104	272.88
276.335	275.88
276.567	298.88
276.799	305.88
277.031	319.88
277.262	340.88
277.494	343.88
277.726	333.88
277.957	306.88
278.189	312.88
278.421	292.88
278.652	287.88
278.884	308.88
279.115	299.88
279.347	310.88
279.579	298.88
279.81	288.88
280.042	292.88
280.273	288.88
280.505	274.88
280.736	278.88
280.968	286.88
281.199	273.88
281.431	293.88
281.662	294.88
281.894	284.88
282.125	305.88
282.356	312.88
282.588	315.88
282.819	355.88
283.051	308.88
283.282	302.88
283.513	308.88
283.745	314.88
283.976	317.88
284.207	320.88
284.439	290.88
284.67	318.88
284.901	310.88
285.132	315.88
285.364	301.88
285.595	298.88
285.826	299.88
286.057	292.88
286.288	302.88
286.52	303.88
286.751	302.88
286.982	307.88
287.213	298.88
287.444	296.88
287.675	301.88
287.906	309.88
288.138	329.88
288.369	342.88
288.6	343.88
288.831	318.88
289.062	323.88
289.293	314.88
289.524	343.88
289.755	327.88
289.986	327.88
290.217	327.88
290.448	332.88
290.679	309.88
290.91	317.88
291.141	315.88
291.371	320.88
291.602	315.88
291.833	303.88
292.064	294.88
292.295	312.88
292.526	336.88
292.757	330.88
292.987	324.88
293.218	307.88
293.449	327.88
293.68	302.88
293.91	326.88
294.141	326.88
294.372	315.88
294.603	325.88
294.833	319.88
295.064	325.88
295.295	323.88
295.525	317.88
295.756	327.88
295.987	333.88
296.217	356.88
296.448	354.88
296.679	342.88
296.909	339.88
297.14	322.88
297.37	340.88
297.601	331.88
297.831	323.88
298.062	327.88
298.292	332.88
298.523	335.88
298.753	336.88
298.984	338.88
299.214	325.88
299.445	341.88
299.675	326.88
299.905	340.88
300.136	350.88
300.366	347.88
300.597	359.88
300.827	348.88
301.057	354.88
301.288	364.88
301.518	377.88
301.748	348.88
301.979	361.88
302.209	364.88
302.439	361.88
302.669	348.88
302.9	361.88
303.13	350.88
303.36	383.88
303.59	371.88
303.82	372.88
304.051	381.88
304.281	364.88
304.511	343.88
304.741	365.88
304.971	347.88
305.201	365.88
305.431	358.88
305.661	351.88
305.891	364.88
306.121	360.88
306.352	374.88
306.582	362.88
306.812	366.88
307.042	354.88
307.272	355.88
307.502	361.88
307.731	354.88
307.961	404.88
308.191	378.88
308.421	371.88
308.651	382.88
308.881	379.88
309.111	383.88
309.341	378.88
309.571	384.88
309.8	406.88
310.03	436.88
310.26	438.88
310.49	431.88
310.72	423.88
310.949	421.88
311.179	440.88
311.409	426.88
311.639	396.88
311.868	419.88
312.098	412.88
312.328	426.88
312.557	446.88
312.787	443.88
313.017	454.88
313.246	424.88
313.476	400.88
313.706	422.88
313.935	448.88
314.165	426.88
314.394	464.88
314.624	437.88
314.853	438.88
315.083	439.88
315.312	429.88
315.542	431.88
315.771	418.88
316.001	412.88
316.23	400.88
316.46	435.88
316.689	423.88
316.919	457.88
317.148	447.88
317.377	440.88
317.607	451.88
317.836	452.88
318.065	435.88
318.295	423.88
318.524	423.88
318.753	426.88
318.983	415.88
319.212	419.88
319.441	397.88
319.67	446.88
319.9	418.88
320.129	449.88
320.358	436.88
320.587	434.88
320.816	445.88
321.046	444.88
321.275	463.88
321.504	459.88
321.733	468.88
321.962	477.88
322.191	486.88
322.42	494.88
322.649	484.88
322.878	492.88
323.108	521.88
323.337	560.88
323.566	559.88
323.795	594.88
324.024	655.88
324.253	765.88
324.482	1119.88
324.71	1772.88
324.939	2614.88
325.168	2207.88
325.397	1151.88
325.626	753.88
325.855	646.88
326.084	598.88
326.313	553.88
326.542	590.88
326.77	623.88
326.999	733.88
327.228	1017.88
327.457	1561.88
327.686	1941.88
327.914	1305.88
328.143	831.88
328.372	707.88
328.6	630.88
328.829	627.88
329.058	649.88
329.287	650.88
329.515	617.88
329.744	578.88
329.972	556.88
330.201	546.88
330.43	587.88
330.658	619.88
330.887	662.88
331.115	662.88
331.344	568.88
331.572	533.88
331.801	552.88
332.03	544.88
332.258	548.88
332.486	509.88
332.715	500.88
332.943	501.88
333.172	521.88
333.4	487.88
333.629	530.88
333.857	535.88
334.085	527.88
334.314	536.88
334.542	564.88
334.771	556.88
334.999	522.88
335.227	513.88
335.455	525.88
335.684	493.88
335.912	486.88
336.14	505.88
336.369	512.88
336.597	520.88
336.825	519.88
337.053	521.88
337.281	493.88
337.51	512.88
337.738	502.88
337.966	505.88
338.194	516.88
338.422	515.88
338.65	482.88
338.878	498.88
339.106	490.88
339.334	495.88
339.562	492.88
339.79	472.88
340.018	486.88
340.246	500.88
340.474	500.88
340.702	494.88
340.93	484.88
341.158	489.88
341.386	517.88
341.614	484.88
341.842	505.88
342.07	486.88
342.298	474.88
342.526	466.88
342.754	452.88
342.981	470.88
343.209	472.88
343.437	479.88
343.665	512.88
343.893	476.88
344.12	484.88
344.348	504.88
344.576	512.88
344.804	514.88
345.031	505.88
345.259	522.88
345.487	499.88
345.714	504.88
345.942	490.88
346.17	489.88
346.397	462.88
346.625	486.88
346.853	472.88
347.08	468.88
347.308	475.88
347.535	488.88
347.763	474.88
347.99	486.88
348.218	488.88
348.445	492.88
348.673	482.88
348.9	477.88
349.128	475.88
349.355	436.88
349.583	455.88
349.81	461.88
350.037	468.88
350.265	468.88
350.492	445.88
350.72	444.88
350.947	482.88
351.174	485.88
351.402	478.88
351.629	471.88
351.856	483.88
352.083	477.88
352.311	526.88
352.538	494.88
352.765	495.88
352.992	486.88
353.22	471.88
353.447	496.88
353.674	488.88
353.901	459.88
354.128	465.88
354.355	450.88
354.583	445.88
354.81	436.88
355.037	457.88
355.264	442.88
355.491	440.88
355.718	460.88
355.945	422.88
356.172	444.88
356.399	438.88
356.626	447.88
356.853	453.88
357.08	448.88
357.307	431.88
357.534	427.88
357.761	429.88
357.988	441.88
358.215	462.88
358.441	446.88
358.668	430.88
358.895	460.88
359.122	472.88
359.349	458.88
359.576	461.88
359.802	516.88
360.029	532.88
360.256	557.88
360.483	533.88
360.709	486.88
360.936	499.88
361.163	484.88
361.39	486.88
361.616	472.88
361.843	480.88
362.07	486.88
362.296	500.88
362.523	484.88
362.749	479.88
362.976	487.88
363.203	455.88
363.429	460.88
363.656	453.88
363.882	476.88
364.109	465.88
364.335	468.88
364.562	467.88
364.788	437.88
365.015	451.88
365.241	460.88
365.468	455.88
365.694	466.88
365.92	470.88
366.147	453.88
366.373	462.88
366.599	455.88
366.826	467.88
367.052	436.88
367.278	477.88
367.505	456.88
367.731	481.88
367.957	467.88
368.184	465.88
368.41	486.88
368.636	468.88
368.862	472.88
369.089	469.88
369.315	471.88
369.541	461.88
369.767	467.88
369.993	460.88
370.219	453.88
370.445	475.88
370.672	478.88
370.898	466.88
371.124	495.88
371.35	452.88
371.576	451.88
371.802	470.88
372.028	465.88
372.254	462.88
372.48	456.88
372.706	438.88
372.932	460.88
373.158	444.88
373.384	463.88
373.61	460.88
373.835	487.88
374.061	461.88
374.287	471.88
374.513	454.88
374.739	491.88
374.965	470.88
375.191	484.88
375.416	475.88
375.642	477.88
375.868	474.88
376.094	460.88
376.319	434.88
376.545	468.88
376.771	443.88
376.997	462.88
377.222	462.88
377.448	466.88
377.674	462.88
377.899	454.88
378.125	458.88
378.35	445.88
378.576	466.88
378.802	435.88
379.027	465.88
379.253	458.88
379.478	469.88
379.704	453.88
379.929	461.88
380.155	478.88
380.38	475.88
380.606	464.88
380.831	464.88
381.057	461.88
381.282	485.88
381.507	469.88
381.733	458.88
381.958	472.88
382.184	483.88
382.409	484.88
382.634	487.88
382.86	473.88
383.085	455.88
383.31	485.88
383.535	488.88
383.761	491.88
383.986	483.88
384.211	480.88
384.436	492.88
384.662	503.88
384.887	495.88
385.112	495.88
385.337	516.88
385.562	506.88
385.787	486.88
386.013	538.88
386.238	534.88
386.463	512.88
386.688	492.88
386.913	501.88
387.138	504.88
387.363	515.88
387.588	509.88
387.813	507.88
388.038	532.88
388.263	524.88
388.488	534.88
388.713	502.88
388.938	503.88
389.163	527.88
389.387	517.88
389.612	527.88
389.837	508.88
390.062	514.88
390.287	519.88
390.512	504.88
390.736	520.88
390.961	515.88
391.186	491.88
391.411	518.88
391.636	530.88
391.86	513.88
392.085	523.88
392.31	535.88
392.534	562.88
392.759	530.88
392.984	523.88
393.208	532.88
393.433	522.88
393.658	510.88
393.882	524.88
394.107	528.88
394.331	540.88
394.556	524.88
394.78	530.88
395.005	520.88
395.229	518.88
395.454	528.88
395.678	538.88
395.903	526.88
396.127	591.88
396.352	574.88
396.576	550.88
396.801	543.88
397.025	543.88
397.249	558.88
397.474	559.88
397.698	565.88
397.922	577.88
398.147	584.88
398.371	578.88
398.595	595.88
398.82	600.88
399.044	605.88
399.268	636.88
399.492	648.88
399.717	677.88
399.941	710.88
400.165	729.88
400.389	736.88
400.613	684.88
400.837	629.88
401.062	622.88
401.286	628.88
401.51	614.88
401.734	600.88
401.958	592.88
402.182	590.88
402.406	605.88
402.63	599.88
402.854	607.88
403.078	600.88
403.302	604.88
403.526	633.88
403.75	613.88
403.974	612.88
404.198	631.88
404.422	624.88
404.645	632.88
404.869	648.88
405.093	662.88
405.317	655.88
405.541	702.88
405.765	661.88
405.988	628.88
406.212	690.88
406.436	650.88
406.66	683.88
406.883	676.88
407.107	684.88
407.331	753.88
407.555	834.88
407.778	858.88
408.002	765.88
408.226	702.88
408.449	687.88
408.673	680.88
408.896	724.88
409.12	770.88
409.344	730.88
409.567	664.88
409.791	650.88
410.014	659.88
410.238	634.88
410.461	623.88
410.685	644.88
410.908	650.88
411.132	663.88
411.355	704.88
411.578	688.88
411.802	652.88
412.025	622.88
412.249	621.88
412.472	644.88
412.695	654.88
412.919	638.88
413.142	602.88
413.365	623.88
413.589	619.88
413.812	596.88
414.035	590.88
414.258	580.88
414.482	582.88
414.705	572.88
414.928	604.88
415.151	599.88
415.374	590.88
415.597	588.88
415.821	568.88
416.044	596.88
416.267	592.88
416.49	580.88
416.713	587.88
416.936	606.88
417.159	566.88
417.382	591.88
417.605	591.88
417.828	615.88
418.051	617.88
418.274	618.88
418.497	589.88
418.72	581.88
418.943	580.88
419.166	598.88
419.389	635.88
419.611	612.88
419.834	622.88
420.057	641.88
420.28	610.88
420.503	601.88
420.726	594.88
420.948	636.88
421.171	663.88
421.394	712.88
421.617	641.88
421.839	606.88
422.062	622.88
422.285	636.88
422.507	702.88
422.73	787.88
422.953	770.88
423.175	694.88
423.398	672.88
423.621	651.88
423.843	685.88
424.066	674.88
424.288	686.88
424.511	706.88
424.733	746.88
424.956	858.88
425.178	805.88
425.401	815.88
425.623	823.88
425.846	720.88
426.068	676.88
426.291	672.88
426.513	670.88
426.735	687.88
426.958	720.88
427.18	845.88
427.402	970.88
427.625	1076.88
427.847	937.88
428.069	774.88
428.292	714.88
428.514	651.88
428.736	636.88
428.958	630.88
429.181	629.88
429.403	630.88
429.625	611.88
429.847	665.88
430.069	744.88
430.292	754.88
430.514	607.88
430.736	601.88
430.958	618.88
431.18	586.88
431.402	591.88
431.624	583.88
431.846	573.88
432.068	578.88
432.29	598.88
432.512	575.88
432.734	606.88
432.956	581.88
433.178	578.88
433.4	616.88
433.622	585.88
433.844	593.88
434.066	584.88
434.287	582.88
434.509	569.88
434.731	602.88
434.953	597.88
435.175	646.88
435.397	660.88
435.618	683.88
435.84	709.88
436.062	850.88
436.284	926.88
436.505	768.88
436.727	670.88
436.949	637.88
437.17	619.88
437.392	613.88
437.614	635.88
437.835	676.88
438.057	782.88
438.278	916.88
438.5	878.88
438.721	996.88
438.943	939.88
439.165	790.88
439.386	652.88
439.608	648.88
439.829	669.88
440.05	710.88
440.272	740.88
440.493	729.88
440.715	667.88
440.936	646.88
441.158	616.88
441.379	640.88
441.6	610.88
441.822	672.88
442.043	702.88
442.264	800.88
442.486	884.88
442.707	741.88
442.928	706.88
443.149	683.88
443.371	722.88
443.592	755.88
443.813	864.88
444.034	934.88
444.255	784.88
444.476	708.88
444.698	698.88
444.919	686.88
445.14	823.88
445.361	746.88
445.582	742.88
445.803	795.88
446.024	926.88
446.245	902.88
446.466	828.88
446.687	716.88
446.908	668.88
447.129	640.88
447.35	621.88
447.571	615.88
447.792	612.88
448.013	636.88
448.234	639.88
448.455	682.88
448.675	848.88
448.896	969.88
449.117	822.88
449.338	769.88
449.559	913.88
449.779	1019.88
450	800.88
450.221	681.88
450.442	646.88
450.662	606.88
450.883	618.88
451.104	644.88
451.324	619.88
451.545	591.88
451.766	563.88
451.986	550.88
452.207	545.88
452.428	569.88
452.648	557.88
452.869	567.88
453.089	569.88
453.31	561.88
453.53	581.88
453.751	563.88
453.971	559.88
454.192	581.88
454.412	565.88
454.633	517.88
454.853	535.88
455.073	565.88
455.294	584.88
455.514	677.88
455.734	646.88
455.955	562.88
456.175	536.88
456.395	492.88
456.616	547.88
456.836	503.88
457.056	534.88
457.276	499.88
457.497	529.88
457.717	527.88
457.937	541.88
458.157	528.88
458.377	529.88
458.598	582.88
458.818	624.88
459.038	739.88
459.258	748.88
459.478	628.88
459.698	598.88
459.918	578.88
460.138	582.88
460.358	614.88
460.578	599.88
460.798	579.88
461.018	622.88
461.238	614.88
461.458	582.88
461.678	598.88
461.898	629.88
462.118	607.88
462.338	591.88
462.558	607.88
462.777	627.88
462.997	639.88
463.217	652.88
463.437	653.88
463.657	658.88
463.876	661.88
464.096	629.88
464.316	645.88
464.536	648.88
464.755	619.88
464.975	635.88
465.195	683.88
465.414	775.88
465.634	677.88
465.854	628.88
466.073	608.88
466.293	586.88
466.512	577.88
466.732	570.88
466.951	583.88
467.171	548.88
467.391	579.88
467.61	581.88
467.829	566.88
468.049	594.88
468.268	562.88
468.488	544.88
468.707	542.88
468.927	548.88
469.146	552.88
469.365	539.88
469.585	566.88
469.804	566.88
470.023	558.88
470.243	562.88
470.462	554.88
470.681	597.88
470.901	587.88
471.12	591.88
471.339	572.88
471.558	567.88
471.777	589.88
471.997	566.88
472.216	539.88
472.435	585.88
472.654	562.88
472.873	568.88
473.092	568.88
473.311	562.88
473.53	558.88
473.749	584.88
473.968	637.88
474.187	732.88
474.406	770.88
474.625	679.88
474.844	583.88
475.063	580.88
475.282	579.88
475.501	597.88
475.72	596.88
475.939	594.88
476.158	594.88
476.377	595.88
476.596	589.88
476.814	602.88
477.033	613.88
477.252	613.88
477.471	638.88
477.69	607.88
477.908	634.88
478.127	615.88
478.346	626.88
478.564	646.88
478.783	653.88
479.002	656.88
479.22	646.88
479.439	655.88
479.658	688.88
479.876	681.88
480.095	702.88
480.313	735.88
480.532	707.88
480.751	701.88
480.969	696.88
481.188	735.88
481.406	711.88
481.624	687.88
481.843	694.88
482.061	678.88
482.28	675.88
482.498	671.88
482.717	667.88
482.935	671.88
483.153	666.88
483.372	652.88
483.59	651.88
483.808	690.88
484.027	686.88
484.245	695.88
484.463	696.88
484.681	680.88
484.9	701.88
485.118	692.88
485.336	678.88
485.554	695.88
485.772	704.88
485.99	695.88
486.209	711.88
486.427	722.88
486.645	708.88
486.863	736.88
487.081	745.88
487.299	736.88
487.517	715.88
487.735	738.88
487.953	730.88
488.171	753.88
488.389	720.88
488.607	711.88
488.825	723.88
489.043	731.88
489.261	747.88
489.479	735.88
489.696	729.88
489.914	728.88
490.132	772.88
490.35	741.88
490.568	748.88
490.786	742.88
491.003	766.88
491.221	799.88
491.439	805.88
491.657	813.88
491.874	827.88
492.092	815.88
492.31	826.88
492.527	830.88
492.745	814.88
492.963	828.88
493.18	840.88
493.398	856.88
493.615	826.88
493.833	831.88
494.05	850.88
494.268	847.88
494.485	860.88
494.703	839.88
494.92	814.88
495.138	862.88
495.355	848.88
495.573	862.88
495.79	854.88
496.008	876.88
496.225	861.88
496.442	870.88
496.66	848.88
496.877	889.88
497.094	886.88
497.312	888.88
497.529	893.88
497.746	913.88
497.963	949.88
498.181	943.88
498.398	984.88
498.615	953.88
498.832	1003.88
499.049	1006.88
499.267	1040.88
499.484	1098.88
499.701	1103.88
499.918	1127.88
500.135	1167.88
500.352	1234.88
500.569	1244.88
500.786	1243.88
501.003	1222.88
501.22	1206.88
501.437	1151.88
501.654	1121.88
