Data from 1988.PennyLincolnUp.Lamp.En5.5.200Scan.071819.P2_HRD10591_17-19-54-972.txt Node
Date: Thu Jul 18 17:19:54 EDT 2019
User: cochatt
Spectrometer: HR+D1059
Trigger mode: 1
Integration Time (sec): 1.000000E-1
Scans to average: 1
Electric dark correction enabled: true
Nonlinearity correction enabled: false
Boxcar width: 0
XAxis mode: Wavelengths
Number of Pixels in Spectrum: 2048
>>>>>Begin Spectral Data<<<<<
223.165	-16.06
223.4	-16.06
223.635	-16.06
223.869	-28.06
224.104	-25.06
224.338	2.94
224.573	-10.06
224.808	-1.06
225.042	-7.06
225.277	-4.06
225.511	6.94
225.746	-7.06
225.98	6.94
226.215	11.94
226.449	8.94
226.683	15.94
226.918	16.94
227.152	27.94
227.387	26.94
227.621	48.94
227.856	53.94
228.09	42.94
228.324	60.94
228.559	71.94
228.793	66.94
229.027	101.94
229.262	115.94
229.496	119.94
229.73	149.94
229.964	175.94
230.199	136.94
230.433	119.94
230.667	115.94
230.901	121.94
231.136	118.94
231.37	129.94
231.604	123.94
231.838	119.94
232.072	117.94
232.306	106.94
232.541	125.94
232.775	124.94
233.009	119.94
233.243	120.94
233.477	128.94
233.711	102.94
233.945	128.94
234.179	124.94
234.413	110.94
234.647	111.94
234.881	121.94
235.115	125.94
235.349	130.94
235.583	124.94
235.817	122.94
236.051	136.94
236.285	140.94
236.519	141.94
236.753	130.94
236.987	172.94
237.221	183.94
237.455	265.94
237.689	191.94
237.922	144.94
238.156	143.94
238.39	146.94
238.624	135.94
238.858	128.94
239.091	133.94
239.325	128.94
239.559	147.94
239.793	132.94
240.027	134.94
240.26	158.94
240.494	152.94
240.728	160.94
240.961	158.94
241.195	154.94
241.429	150.94
241.662	142.94
241.896	139.94
242.13	155.94
242.363	138.94
242.597	130.94
242.83	149.94
243.064	166.94
243.298	145.94
243.531	143.94
243.765	147.94
243.998	156.94
244.232	151.94
244.465	136.94
244.699	146.94
244.932	146.94
245.166	157.94
245.399	162.94
245.633	144.94
245.866	155.94
246.099	144.94
246.333	164.94
246.566	159.94
246.8	154.94
247.033	159.94
247.266	168.94
247.5	166.94
247.733	165.94
247.966	167.94
248.2	162.94
248.433	170.94
248.666	180.94
248.899	195.94
249.133	207.94
249.366	222.94
249.599	218.94
249.832	196.94
250.066	195.94
250.299	184.94
250.532	193.94
250.765	203.94
250.998	230.94
251.231	222.94
251.465	231.94
251.698	224.94
251.931	219.94
252.164	190.94
252.397	198.94
252.63	207.94
252.863	213.94
253.096	227.94
253.329	220.94
253.562	225.94
253.795	218.94
254.028	211.94
254.261	221.94
254.494	230.94
254.727	273.94
254.96	286.94
255.193	289.94
255.426	266.94
255.659	236.94
255.892	230.94
256.124	214.94
256.357	215.94
256.59	210.94
256.823	220.94
257.056	210.94
257.289	219.94
257.521	225.94
257.754	210.94
257.987	220.94
258.22	230.94
258.452	231.94
258.685	212.94
258.918	218.94
259.151	226.94
259.383	242.94
259.616	229.94
259.849	248.94
260.081	249.94
260.314	274.94
260.547	259.94
260.779	266.94
261.012	260.94
261.244	243.94
261.477	239.94
261.71	238.94
261.942	232.94
262.175	251.94
262.407	256.94
262.64	235.94
262.872	227.94
263.105	227.94
263.337	207.94
263.57	221.94
263.802	237.94
264.035	232.94
264.267	208.94
264.499	220.94
264.732	211.94
264.964	215.94
265.197	231.94
265.429	233.94
265.661	222.94
265.894	231.94
266.126	231.94
266.358	224.94
266.591	220.94
266.823	231.94
267.055	244.94
267.287	241.94
267.52	231.94
267.752	237.94
267.984	229.94
268.216	237.94
268.448	236.94
268.681	251.94
268.913	258.94
269.145	268.94
269.377	273.94
269.609	299.94
269.841	290.94
270.073	291.94
270.306	314.94
270.538	337.94
270.77	341.94
271.002	328.94
271.234	308.94
271.466	335.94
271.698	318.94
271.93	314.94
272.162	336.94
272.394	327.94
272.626	324.94
272.858	296.94
273.09	312.94
273.322	292.94
273.553	279.94
273.785	285.94
274.017	271.94
274.249	286.94
274.481	268.94
274.713	273.94
274.945	293.94
275.176	278.94
275.408	279.94
275.64	267.94
275.872	278.94
276.104	293.94
276.335	272.94
276.567	294.94
276.799	310.94
277.031	330.94
277.262	342.94
277.494	323.94
277.726	322.94
277.957	309.94
278.189	301.94
278.421	309.94
278.652	279.94
278.884	283.94
279.115	297.94
279.347	269.94
279.579	287.94
279.81	264.94
280.042	276.94
280.273	286.94
280.505	289.94
280.736	289.94
280.968	281.94
281.199	275.94
281.431	267.94
281.662	288.94
281.894	278.94
282.125	290.94
282.356	314.94
282.588	326.94
282.819	324.94
283.051	308.94
283.282	291.94
283.513	290.94
283.745	312.94
283.976	322.94
284.207	311.94
284.439	287.94
284.67	286.94
284.901	296.94
285.132	291.94
285.364	319.94
285.595	286.94
285.826	290.94
286.057	301.94
286.288	313.94
286.52	308.94
286.751	310.94
286.982	286.94
287.213	301.94
287.444	290.94
287.675	303.94
287.906	323.94
288.138	322.94
288.369	323.94
288.6	340.94
288.831	319.94
289.062	324.94
289.293	275.94
289.524	314.94
289.755	298.94
289.986	322.94
290.217	312.94
290.448	302.94
290.679	316.94
290.91	312.94
291.141	300.94
291.371	318.94
291.602	302.94
291.833	297.94
292.064	297.94
292.295	302.94
292.526	312.94
292.757	310.94
292.987	325.94
293.218	306.94
293.449	307.94
293.68	315.94
293.91	324.94
294.141	319.94
294.372	308.94
294.603	314.94
294.833	326.94
295.064	312.94
295.295	315.94
295.525	308.94
295.756	317.94
295.987	320.94
296.217	360.94
296.448	352.94
296.679	334.94
296.909	315.94
297.14	329.94
297.37	314.94
297.601	321.94
297.831	325.94
298.062	335.94
298.292	319.94
298.523	317.94
298.753	331.94
298.984	334.94
299.214	336.94
299.445	359.94
299.675	336.94
299.905	335.94
300.136	324.94
300.366	342.94
300.597	343.94
300.827	339.94
301.057	347.94
301.288	358.94
301.518	349.94
301.748	354.94
301.979	358.94
302.209	360.94
302.439	357.94
302.669	364.94
302.9	371.94
303.13	356.94
303.36	354.94
303.59	360.94
303.82	365.94
304.051	344.94
304.281	350.94
304.511	359.94
304.741	346.94
304.971	349.94
305.201	353.94
305.431	352.94
305.661	340.94
305.891	345.94
306.121	344.94
306.352	367.94
306.582	373.94
306.812	355.94
307.042	344.94
307.272	361.94
307.502	349.94
307.731	368.94
307.961	357.94
308.191	374.94
308.421	367.94
308.651	363.94
308.881	358.94
309.111	366.94
309.341	365.94
309.571	395.94
309.8	398.94
310.03	404.94
310.26	408.94
310.49	403.94
310.72	407.94
310.949	420.94
311.179	444.94
311.409	410.94
311.639	404.94
311.868	392.94
312.098	418.94
312.328	421.94
312.557	429.94
312.787	451.94
313.017	445.94
313.246	423.94
313.476	396.94
313.706	398.94
313.935	420.94
314.165	420.94
314.394	424.94
314.624	421.94
314.853	423.94
315.083	403.94
315.312	406.94
315.542	407.94
315.771	415.94
316.001	406.94
316.23	430.94
316.46	415.94
316.689	410.94
316.919	416.94
317.148	414.94
317.377	429.94
317.607	426.94
317.836	426.94
318.065	420.94
318.295	398.94
318.524	404.94
318.753	419.94
318.983	411.94
319.212	397.94
319.441	404.94
319.67	415.94
319.9	418.94
320.129	389.94
320.358	422.94
320.587	432.94
320.816	428.94
321.046	419.94
321.275	450.94
321.504	439.94
321.733	440.94
321.962	456.94
322.191	462.94
322.42	467.94
322.649	487.94
322.878	493.94
323.108	504.94
323.337	528.94
323.566	536.94
323.795	562.94
324.024	634.94
324.253	752.94
324.482	1063.94
324.71	1634.94
324.939	2414.94
325.168	2157.94
325.397	1080.94
325.626	750.94
325.855	640.94
326.084	579.94
326.313	553.94
326.542	564.94
326.77	603.94
326.999	731.94
327.228	972.94
327.457	1476.94
327.686	1798.94
327.914	1198.94
328.143	769.94
328.372	676.94
328.6	634.94
328.829	596.94
329.058	606.94
329.287	627.94
329.515	588.94
329.744	536.94
329.972	526.94
330.201	531.94
330.43	584.94
330.658	594.94
330.887	657.94
331.115	656.94
331.344	566.94
331.572	544.94
331.801	540.94
332.03	540.94
332.258	522.94
332.486	502.94
332.715	492.94
332.943	482.94
333.172	510.94
333.4	491.94
333.629	493.94
333.857	523.94
334.085	520.94
334.314	518.94
334.542	517.94
334.771	514.94
334.999	512.94
335.227	488.94
335.455	522.94
335.684	489.94
335.912	480.94
336.14	499.94
336.369	482.94
336.597	512.94
336.825	500.94
337.053	490.94
337.281	506.94
337.51	471.94
337.738	483.94
337.966	467.94
338.194	478.94
338.422	516.94
338.65	471.94
338.878	488.94
339.106	479.94
339.334	474.94
339.562	470.94
339.79	499.94
340.018	467.94
340.246	480.94
340.474	472.94
340.702	475.94
340.93	486.94
341.158	464.94
341.386	480.94
341.614	492.94
341.842	500.94
342.07	467.94
342.298	473.94
342.526	463.94
342.754	460.94
342.981	475.94
343.209	459.94
343.437	459.94
343.665	451.94
343.893	466.94
344.12	487.94
344.348	502.94
344.576	490.94
344.804	474.94
345.031	508.94
345.259	500.94
345.487	473.94
345.714	478.94
345.942	487.94
346.17	462.94
346.397	464.94
346.625	479.94
346.853	454.94
347.08	450.94
347.308	460.94
347.535	483.94
347.763	493.94
347.99	463.94
348.218	454.94
348.445	476.94
348.673	484.94
348.9	474.94
349.128	453.94
349.355	431.94
349.583	460.94
349.81	430.94
350.037	464.94
350.265	448.94
350.492	469.94
350.72	458.94
350.947	448.94
351.174	457.94
351.402	483.94
351.629	474.94
351.856	475.94
352.083	487.94
352.311	492.94
352.538	464.94
352.765	481.94
352.992	468.94
353.22	484.94
353.447	459.94
353.674	464.94
353.901	429.94
354.128	459.94
354.355	456.94
354.583	446.94
354.81	447.94
355.037	428.94
355.264	426.94
355.491	416.94
355.718	424.94
355.945	428.94
356.172	446.94
356.399	433.94
356.626	427.94
356.853	440.94
357.08	442.94
357.307	420.94
357.534	454.94
357.761	430.94
357.988	432.94
358.215	458.94
358.441	450.94
358.668	445.94
358.895	440.94
359.122	454.94
359.349	458.94
359.576	451.94
359.802	501.94
360.029	530.94
360.256	532.94
360.483	525.94
360.709	478.94
360.936	480.94
361.163	447.94
361.39	462.94
361.616	467.94
361.843	466.94
362.07	475.94
362.296	475.94
362.523	471.94
362.749	460.94
362.976	464.94
363.203	455.94
363.429	439.94
363.656	433.94
363.882	453.94
364.109	440.94
364.335	463.94
364.562	453.94
364.788	437.94
365.015	437.94
365.241	463.94
365.468	455.94
365.694	486.94
365.92	464.94
366.147	471.94
366.373	456.94
366.599	441.94
366.826	444.94
367.052	434.94
367.278	463.94
367.505	444.94
367.731	466.94
367.957	453.94
368.184	463.94
368.41	456.94
368.636	460.94
368.862	477.94
369.089	483.94
369.315	445.94
369.541	439.94
369.767	442.94
369.993	453.94
370.219	450.94
370.445	440.94
370.672	445.94
370.898	441.94
371.124	446.94
371.35	440.94
371.576	461.94
371.802	462.94
372.028	474.94
372.254	463.94
372.48	445.94
372.706	453.94
372.932	456.94
373.158	459.94
373.384	466.94
373.61	470.94
373.835	458.94
374.061	445.94
374.287	461.94
374.513	473.94
374.739	461.94
374.965	475.94
375.191	438.94
375.416	464.94
375.642	458.94
375.868	456.94
376.094	456.94
376.319	456.94
376.545	446.94
376.771	453.94
376.997	444.94
377.222	460.94
377.448	446.94
377.674	449.94
377.899	429.94
378.125	463.94
378.35	453.94
378.576	449.94
378.802	448.94
379.027	445.94
379.253	436.94
379.478	430.94
379.704	438.94
379.929	476.94
380.155	456.94
380.38	459.94
380.606	459.94
380.831	474.94
381.057	479.94
381.282	455.94
381.507	450.94
381.733	462.94
381.958	454.94
382.184	465.94
382.409	468.94
382.634	446.94
382.86	474.94
383.085	468.94
383.31	471.94
383.535	483.94
383.761	472.94
383.986	446.94
384.211	468.94
384.436	474.94
384.662	471.94
384.887	498.94
385.112	477.94
385.337	510.94
385.562	522.94
385.787	497.94
386.013	515.94
386.238	512.94
386.463	507.94
386.688	515.94
386.913	517.94
387.138	488.94
387.363	504.94
387.588	510.94
387.813	502.94
388.038	514.94
388.263	496.94
388.488	494.94
388.713	532.94
388.938	518.94
389.163	519.94
389.387	528.94
389.612	487.94
389.837	516.94
390.062	495.94
390.287	506.94
390.512	506.94
390.736	501.94
390.961	506.94
391.186	498.94
391.411	495.94
391.636	500.94
391.86	516.94
392.085	524.94
392.31	540.94
392.534	531.94
392.759	528.94
392.984	542.94
393.208	535.94
393.433	520.94
393.658	522.94
393.882	487.94
394.107	504.94
394.331	524.94
394.556	538.94
394.78	524.94
395.005	538.94
395.229	522.94
395.454	525.94
395.678	532.94
395.903	523.94
396.127	595.94
396.352	558.94
396.576	550.94
396.801	534.94
397.025	522.94
397.249	529.94
397.474	541.94
397.698	548.94
397.922	582.94
398.147	555.94
398.371	578.94
398.595	587.94
398.82	598.94
399.044	607.94
399.268	621.94
399.492	662.94
399.717	674.94
399.941	697.94
400.165	732.94
400.389	730.94
400.613	642.94
400.837	639.94
401.062	582.94
401.286	603.94
401.51	607.94
401.734	583.94
401.958	588.94
402.182	619.94
402.406	626.94
402.63	607.94
402.854	607.94
403.078	583.94
403.302	587.94
403.526	613.94
403.75	607.94
403.974	605.94
404.198	599.94
404.422	624.94
404.645	636.94
404.869	614.94
405.093	637.94
405.317	662.94
405.541	690.94
405.765	656.94
405.988	632.94
406.212	644.94
406.436	673.94
406.66	687.94
406.883	670.94
407.107	699.94
407.331	726.94
407.555	823.94
407.778	782.94
408.002	718.94
408.226	702.94
408.449	682.94
408.673	664.94
408.896	700.94
409.12	770.94
409.344	710.94
409.567	664.94
409.791	632.94
410.014	620.94
410.238	610.94
410.461	634.94
410.685	638.94
410.908	634.94
411.132	670.94
411.355	747.94
411.578	682.94
411.802	614.94
412.025	618.94
412.249	583.94
412.472	615.94
412.695	626.94
412.919	610.94
413.142	590.94
413.365	590.94
413.589	597.94
413.812	593.94
414.035	562.94
414.258	578.94
414.482	591.94
414.705	598.94
414.928	554.94
415.151	595.94
415.374	579.94
415.597	575.94
415.821	587.94
416.044	579.94
416.267	585.94
416.49	611.94
416.713	557.94
416.936	583.94
417.159	574.94
417.382	570.94
417.605	582.94
417.828	607.94
418.051	600.94
418.274	604.94
418.497	576.94
418.72	581.94
418.943	570.94
419.166	609.94
419.389	621.94
419.611	621.94
419.834	612.94
420.057	610.94
420.28	599.94
420.503	583.94
420.726	599.94
420.948	594.94
421.171	678.94
421.394	694.94
421.617	631.94
421.839	609.94
422.062	590.94
422.285	632.94
422.507	690.94
422.73	778.94
422.953	740.94
423.175	665.94
423.398	640.94
423.621	652.94
423.843	625.94
424.066	646.94
424.288	635.94
424.511	644.94
424.733	729.94
424.956	810.94
425.178	765.94
425.401	792.94
425.623	811.94
425.846	713.94
426.068	655.94
426.291	635.94
426.513	648.94
426.735	638.94
426.958	692.94
427.18	793.94
427.402	943.94
427.625	1047.94
427.847	885.94
428.069	768.94
428.292	694.94
428.514	632.94
428.736	640.94
428.958	618.94
429.181	613.94
429.403	585.94
429.625	607.94
429.847	641.94
430.069	734.94
430.292	732.94
430.514	628.94
430.736	610.94
430.958	598.94
431.18	585.94
431.402	574.94
431.624	541.94
431.846	580.94
432.068	575.94
432.29	555.94
432.512	574.94
432.734	586.94
432.956	571.94
433.178	590.94
433.4	596.94
433.622	570.94
433.844	562.94
434.066	564.94
434.287	542.94
434.509	574.94
434.731	598.94
434.953	611.94
435.175	623.94
435.397	613.94
435.618	629.94
435.84	688.94
436.062	788.94
436.284	863.94
436.505	742.94
436.727	684.94
436.949	607.94
437.17	629.94
437.392	610.94
437.614	608.94
437.835	665.94
438.057	750.94
438.278	882.94
438.5	871.94
438.721	946.94
438.943	911.94
439.165	735.94
439.386	673.94
439.608	664.94
439.829	634.94
440.05	684.94
440.272	722.94
440.493	687.94
440.715	634.94
440.936	604.94
441.158	600.94
441.379	615.94
441.6	644.94
441.822	661.94
442.043	698.94
442.264	803.94
442.486	822.94
442.707	704.94
442.928	670.94
443.149	676.94
443.371	681.94
443.592	738.94
443.813	853.94
444.034	916.94
444.255	774.94
444.476	692.94
444.698	666.94
444.919	657.94
445.14	772.94
445.361	738.94
445.582	719.94
445.803	765.94
446.024	897.94
446.245	916.94
446.466	813.94
446.687	692.94
446.908	646.94
447.129	643.94
447.35	603.94
447.571	603.94
447.792	588.94
448.013	583.94
448.234	621.94
448.455	670.94
448.675	808.94
448.896	943.94
449.117	786.94
449.338	750.94
449.559	863.94
449.779	1020.94
450	832.94
450.221	653.94
450.442	639.94
450.662	592.94
450.883	600.94
451.104	585.94
451.324	586.94
451.545	567.94
451.766	546.94
451.986	566.94
452.207	537.94
452.428	530.94
452.648	535.94
452.869	569.94
453.089	548.94
453.31	567.94
453.53	546.94
453.751	555.94
453.971	549.94
454.192	544.94
454.412	547.94
454.633	551.94
454.853	545.94
455.073	498.94
455.294	554.94
455.514	655.94
455.734	618.94
455.955	547.94
456.175	491.94
456.395	517.94
456.616	522.94
456.836	518.94
457.056	503.94
457.276	498.94
457.497	499.94
457.717	526.94
457.937	519.94
458.157	524.94
458.377	536.94
458.598	542.94
458.818	619.94
459.038	696.94
459.258	709.94
459.478	632.94
459.698	582.94
459.918	583.94
460.138	594.94
460.358	607.94
460.578	588.94
460.798	623.94
461.018	596.94
461.238	591.94
461.458	582.94
461.678	571.94
461.898	597.94
462.118	580.94
462.338	593.94
462.558	611.94
462.777	632.94
462.997	629.94
463.217	632.94
463.437	656.94
463.657	626.94
463.876	630.94
464.096	628.94
464.316	620.94
464.536	640.94
464.755	620.94
464.975	653.94
465.195	666.94
465.414	718.94
465.634	679.94
465.854	621.94
466.073	614.94
466.293	563.94
466.512	579.94
466.732	575.94
466.951	550.94
467.171	529.94
467.391	567.94
467.61	566.94
467.829	586.94
468.049	554.94
468.268	549.94
468.488	546.94
468.707	523.94
468.927	546.94
469.146	508.94
469.365	539.94
469.585	534.94
469.804	549.94
470.023	582.94
470.243	560.94
470.462	566.94
470.681	576.94
470.901	578.94
471.12	568.94
471.339	562.94
471.558	588.94
471.777	570.94
471.997	537.94
472.216	554.94
472.435	556.94
472.654	558.94
472.873	566.94
473.092	542.94
473.311	560.94
473.53	572.94
473.749	554.94
473.968	596.94
474.187	713.94
474.406	712.94
474.625	633.94
474.844	566.94
475.063	554.94
475.282	557.94
475.501	553.94
475.72	596.94
475.939	575.94
476.158	591.94
476.377	577.94
476.596	599.94
476.814	583.94
477.033	608.94
477.252	597.94
477.471	614.94
477.69	603.94
477.908	614.94
478.127	604.94
478.346	611.94
478.564	620.94
478.783	653.94
479.002	649.94
479.22	656.94
479.439	654.94
479.658	695.94
479.876	659.94
480.095	678.94
480.313	705.94
480.532	684.94
480.751	684.94
480.969	693.94
481.188	686.94
481.406	694.94
481.624	683.94
481.843	639.94
482.061	636.94
482.28	684.94
482.498	648.94
482.717	663.94
482.935	638.94
483.153	663.94
483.372	658.94
483.59	670.94
483.808	645.94
484.027	646.94
484.245	671.94
484.463	633.94
484.681	669.94
484.9	660.94
485.118	646.94
485.336	687.94
485.554	686.94
485.772	675.94
485.99	678.94
486.209	687.94
486.427	704.94
486.645	708.94
486.863	720.94
487.081	712.94
487.299	713.94
487.517	712.94
487.735	700.94
487.953	707.94
488.171	733.94
488.389	716.94
488.607	706.94
488.825	703.94
489.043	741.94
489.261	709.94
489.479	724.94
489.696	731.94
489.914	746.94
490.132	721.94
490.35	744.94
490.568	724.94
490.786	764.94
491.003	742.94
491.221	775.94
491.439	768.94
491.657	778.94
491.874	794.94
492.092	804.94
492.31	790.94
492.527	789.94
492.745	800.94
492.963	805.94
493.18	820.94
493.398	823.94
493.615	813.94
493.833	835.94
494.05	830.94
494.268	828.94
494.485	839.94
494.703	824.94
494.92	844.94
495.138	834.94
495.355	832.94
495.573	858.94
495.79	848.94
496.008	836.94
496.225	822.94
496.442	853.94
496.66	847.94
496.877	845.94
497.094	851.94
497.312	846.94
497.529	866.94
497.746	869.94
497.963	883.94
498.181	948.94
498.398	921.94
498.615	960.94
498.832	944.94
499.049	997.94
499.267	1039.94
499.484	1044.94
499.701	1038.94
499.918	1103.94
500.135	1142.94
500.352	1184.94
500.569	1188.94
500.786	1220.94
501.003	1219.94
501.22	1180.94
501.437	1138.94
501.654	1095.94
