Data from 1988.PennyLincolnUp.Lamp.En5.5.200Scan.071819.P2_HRD10591_17-19-15-971.txt Node
Date: Thu Jul 18 17:19:15 EDT 2019
User: cochatt
Spectrometer: HR+D1059
Trigger mode: 1
Integration Time (sec): 1.000000E-1
Scans to average: 1
Electric dark correction enabled: true
Nonlinearity correction enabled: false
Boxcar width: 0
XAxis mode: Wavelengths
Number of Pixels in Spectrum: 2048
>>>>>Begin Spectral Data<<<<<
223.165	-12.12
223.4	-12.12
223.635	-12.12
223.869	-11.12
224.104	-33.12
224.338	10.88
224.573	-24.12
224.808	-5.12
225.042	-9.12
225.277	-8.12
225.511	-10.12
225.746	2.88
225.98	-8.12
226.215	3.88
226.449	12.88
226.683	18.88
226.918	21.88
227.152	49.88
227.387	31.88
227.621	13.88
227.856	42.88
228.09	35.88
228.324	41.88
228.559	59.88
228.793	71.88
229.027	106.88
229.262	110.88
229.496	122.88
229.73	141.88
229.964	163.88
230.199	141.88
230.433	110.88
230.667	105.88
230.901	122.88
231.136	107.88
231.37	123.88
231.604	105.88
231.838	113.88
232.072	101.88
232.306	110.88
232.541	103.88
232.775	106.88
233.009	110.88
233.243	100.88
233.477	108.88
233.711	105.88
233.945	119.88
234.179	119.88
234.413	115.88
234.647	131.88
234.881	128.88
235.115	116.88
235.349	119.88
235.583	120.88
235.817	129.88
236.051	125.88
236.285	124.88
236.519	127.88
236.753	132.88
236.987	158.88
237.221	184.88
237.455	223.88
237.689	198.88
237.922	144.88
238.156	129.88
238.39	140.88
238.624	133.88
238.858	123.88
239.091	114.88
239.325	127.88
239.559	130.88
239.793	133.88
240.027	133.88
240.26	145.88
240.494	172.88
240.728	157.88
240.961	158.88
241.195	155.88
241.429	141.88
241.662	136.88
241.896	134.88
242.13	134.88
242.363	132.88
242.597	155.88
242.83	142.88
243.064	148.88
243.298	129.88
243.531	139.88
243.765	150.88
243.998	154.88
244.232	150.88
244.465	138.88
244.699	148.88
244.932	145.88
245.166	147.88
245.399	144.88
245.633	164.88
245.866	159.88
246.099	145.88
246.333	149.88
246.566	156.88
246.8	151.88
247.033	162.88
247.266	155.88
247.5	149.88
247.733	155.88
247.966	183.88
248.2	166.88
248.433	189.88
248.666	164.88
248.899	206.88
249.133	207.88
249.366	207.88
249.599	187.88
249.832	194.88
250.066	191.88
250.299	170.88
250.532	196.88
250.765	201.88
250.998	214.88
251.231	233.88
251.465	207.88
251.698	212.88
251.931	189.88
252.164	196.88
252.397	187.88
252.63	183.88
252.863	207.88
253.096	209.88
253.329	223.88
253.562	219.88
253.795	222.88
254.028	213.88
254.261	231.88
254.494	212.88
254.727	256.88
254.96	275.88
255.193	268.88
255.426	246.88
255.659	234.88
255.892	224.88
256.124	222.88
256.357	219.88
256.59	226.88
256.823	220.88
257.056	217.88
257.289	207.88
257.521	205.88
257.754	220.88
257.987	215.88
258.22	216.88
258.452	215.88
258.685	204.88
258.918	230.88
259.151	218.88
259.383	222.88
259.616	237.88
259.849	231.88
260.081	238.88
260.314	261.88
260.547	237.88
260.779	246.88
261.012	226.88
261.244	235.88
261.477	246.88
261.71	225.88
261.942	213.88
262.175	229.88
262.407	236.88
262.64	226.88
262.872	233.88
263.105	217.88
263.337	205.88
263.57	209.88
263.802	226.88
264.035	225.88
264.267	211.88
264.499	219.88
264.732	210.88
264.964	231.88
265.197	226.88
265.429	218.88
265.661	214.88
265.894	228.88
266.126	230.88
266.358	221.88
266.591	199.88
266.823	236.88
267.055	226.88
267.287	247.88
267.52	224.88
267.752	226.88
267.984	242.88
268.216	233.88
268.448	261.88
268.681	244.88
268.913	235.88
269.145	278.88
269.377	287.88
269.609	294.88
269.841	271.88
270.073	279.88
270.306	292.88
270.538	301.88
270.77	299.88
271.002	310.88
271.234	279.88
271.466	311.88
271.698	319.88
271.93	314.88
272.162	309.88
272.394	320.88
272.626	307.88
272.858	297.88
273.09	299.88
273.322	291.88
273.553	278.88
273.785	272.88
274.017	255.88
274.249	274.88
274.481	274.88
274.713	277.88
274.945	279.88
275.176	280.88
275.408	278.88
275.64	275.88
275.872	265.88
276.104	253.88
276.335	277.88
276.567	281.88
276.799	297.88
277.031	315.88
277.262	318.88
277.494	336.88
277.726	296.88
277.957	307.88
278.189	278.88
278.421	279.88
278.652	292.88
278.884	277.88
279.115	297.88
279.347	289.88
279.579	280.88
279.81	297.88
280.042	286.88
280.273	274.88
280.505	283.88
280.736	259.88
280.968	291.88
281.199	283.88
281.431	292.88
281.662	287.88
281.894	262.88
282.125	288.88
282.356	306.88
282.588	313.88
282.819	330.88
283.051	300.88
283.282	292.88
283.513	301.88
283.745	285.88
283.976	284.88
284.207	283.88
284.439	302.88
284.67	296.88
284.901	292.88
285.132	298.88
285.364	296.88
285.595	287.88
285.826	300.88
286.057	306.88
286.288	309.88
286.52	291.88
286.751	291.88
286.982	307.88
287.213	293.88
287.444	306.88
287.675	290.88
287.906	299.88
288.138	298.88
288.369	322.88
288.6	324.88
288.831	313.88
289.062	302.88
289.293	289.88
289.524	285.88
289.755	298.88
289.986	305.88
290.217	317.88
290.448	283.88
290.679	311.88
290.91	308.88
291.141	306.88
291.371	306.88
291.602	319.88
291.833	298.88
292.064	315.88
292.295	312.88
292.526	325.88
292.757	303.88
292.987	309.88
293.218	300.88
293.449	290.88
293.68	310.88
293.91	297.88
294.141	290.88
294.372	316.88
294.603	317.88
294.833	319.88
295.064	311.88
295.295	291.88
295.525	330.88
295.756	316.88
295.987	313.88
296.217	351.88
296.448	343.88
296.679	335.88
296.909	330.88
297.14	316.88
297.37	307.88
297.601	315.88
297.831	340.88
298.062	306.88
298.292	338.88
298.523	299.88
298.753	325.88
298.984	323.88
299.214	306.88
299.445	315.88
299.675	321.88
299.905	341.88
300.136	330.88
300.366	321.88
300.597	334.88
300.827	336.88
301.057	341.88
301.288	343.88
301.518	348.88
301.748	340.88
301.979	343.88
302.209	348.88
302.439	334.88
302.669	362.88
302.9	346.88
303.13	341.88
303.36	350.88
303.59	359.88
303.82	353.88
304.051	367.88
304.281	363.88
304.511	348.88
304.741	353.88
304.971	339.88
305.201	365.88
305.431	359.88
305.661	349.88
305.891	345.88
306.121	341.88
306.352	362.88
306.582	377.88
306.812	342.88
307.042	357.88
307.272	349.88
307.502	348.88
307.731	365.88
307.961	344.88
308.191	363.88
308.421	365.88
308.651	354.88
308.881	354.88
309.111	366.88
309.341	356.88
309.571	375.88
309.8	385.88
310.03	378.88
310.26	395.88
310.49	410.88
310.72	422.88
310.949	423.88
311.179	431.88
311.409	390.88
311.639	402.88
311.868	406.88
312.098	388.88
312.328	401.88
312.557	424.88
312.787	445.88
313.017	435.88
313.246	401.88
313.476	413.88
313.706	417.88
313.935	417.88
314.165	426.88
314.394	427.88
314.624	408.88
314.853	397.88
315.083	399.88
315.312	400.88
315.542	416.88
315.771	412.88
316.001	395.88
316.23	416.88
316.46	392.88
316.689	413.88
316.919	420.88
317.148	414.88
317.377	422.88
317.607	409.88
317.836	399.88
318.065	404.88
318.295	395.88
318.524	406.88
318.753	414.88
318.983	407.88
319.212	383.88
319.441	418.88
319.67	409.88
319.9	388.88
320.129	408.88
320.358	405.88
320.587	412.88
320.816	429.88
321.046	425.88
321.275	423.88
321.504	431.88
321.733	426.88
321.962	437.88
322.191	435.88
322.42	449.88
322.649	480.88
322.878	473.88
323.108	509.88
323.337	520.88
323.566	539.88
323.795	570.88
324.024	629.88
324.253	755.88
324.482	1069.88
324.71	1679.88
324.939	2391.88
325.168	2055.88
325.397	1037.88
325.626	709.88
325.855	607.88
326.084	552.88
326.313	565.88
326.542	562.88
326.77	583.88
326.999	717.88
327.228	948.88
327.457	1457.88
327.686	1791.88
327.914	1171.88
328.143	777.88
328.372	641.88
328.6	620.88
328.829	599.88
329.058	622.88
329.287	617.88
329.515	583.88
329.744	553.88
329.972	553.88
330.201	504.88
330.43	562.88
330.658	599.88
330.887	636.88
331.115	616.88
331.344	557.88
331.572	514.88
331.801	539.88
332.03	522.88
332.258	517.88
332.486	484.88
332.715	484.88
332.943	482.88
333.172	481.88
333.4	482.88
333.629	477.88
333.857	496.88
334.085	504.88
334.314	505.88
334.542	485.88
334.771	492.88
334.999	489.88
335.227	505.88
335.455	490.88
335.684	467.88
335.912	470.88
336.14	475.88
336.369	470.88
336.597	458.88
336.825	495.88
337.053	469.88
337.281	483.88
337.51	450.88
337.738	491.88
337.966	475.88
338.194	486.88
338.422	493.88
338.65	478.88
338.878	478.88
339.106	466.88
339.334	456.88
339.562	473.88
339.79	481.88
340.018	463.88
340.246	471.88
340.474	457.88
340.702	469.88
340.93	446.88
341.158	481.88
341.386	446.88
341.614	455.88
341.842	461.88
342.07	445.88
342.298	429.88
342.526	448.88
342.754	447.88
342.981	466.88
343.209	435.88
343.437	462.88
343.665	462.88
343.893	454.88
344.12	472.88
344.348	486.88
344.576	470.88
344.804	468.88
345.031	488.88
345.259	493.88
345.487	488.88
345.714	469.88
345.942	464.88
346.17	442.88
346.397	439.88
346.625	461.88
346.853	447.88
347.08	444.88
347.308	450.88
347.535	449.88
347.763	473.88
347.99	446.88
348.218	447.88
348.445	455.88
348.673	457.88
348.9	447.88
349.128	425.88
349.355	430.88
349.583	423.88
349.81	439.88
350.037	440.88
350.265	444.88
350.492	427.88
350.72	443.88
350.947	458.88
351.174	429.88
351.402	458.88
351.629	465.88
351.856	458.88
352.083	459.88
352.311	476.88
352.538	467.88
352.765	474.88
352.992	463.88
353.22	447.88
353.447	449.88
353.674	463.88
353.901	429.88
354.128	434.88
354.355	428.88
354.583	427.88
354.81	432.88
355.037	424.88
355.264	425.88
355.491	423.88
355.718	407.88
355.945	422.88
356.172	423.88
356.399	411.88
356.626	410.88
356.853	413.88
357.08	413.88
357.307	431.88
357.534	425.88
357.761	414.88
357.988	418.88
358.215	426.88
358.441	415.88
358.668	439.88
358.895	429.88
359.122	423.88
359.349	444.88
359.576	455.88
359.802	459.88
360.029	468.88
360.256	503.88
360.483	470.88
360.709	442.88
360.936	445.88
361.163	443.88
361.39	467.88
361.616	462.88
361.843	456.88
362.07	448.88
362.296	452.88
362.523	455.88
362.749	440.88
362.976	452.88
363.203	449.88
363.429	434.88
363.656	438.88
363.882	430.88
364.109	421.88
364.335	426.88
364.562	431.88
364.788	408.88
365.015	431.88
365.241	442.88
365.468	449.88
365.694	434.88
365.92	434.88
366.147	437.88
366.373	443.88
366.599	418.88
366.826	418.88
367.052	437.88
367.278	421.88
367.505	412.88
367.731	426.88
367.957	436.88
368.184	423.88
368.41	435.88
368.636	435.88
368.862	443.88
369.089	439.88
369.315	438.88
369.541	430.88
369.767	430.88
369.993	435.88
370.219	434.88
370.445	434.88
370.672	441.88
370.898	416.88
371.124	428.88
371.35	428.88
371.576	435.88
371.802	429.88
372.028	423.88
372.254	431.88
372.48	419.88
372.706	435.88
372.932	449.88
373.158	435.88
373.384	444.88
373.61	438.88
373.835	428.88
374.061	450.88
374.287	416.88
374.513	451.88
374.739	448.88
374.965	449.88
375.191	437.88
375.416	455.88
375.642	434.88
375.868	424.88
376.094	433.88
376.319	449.88
376.545	434.88
376.771	452.88
376.997	423.88
377.222	407.88
377.448	409.88
377.674	420.88
377.899	414.88
378.125	425.88
378.35	429.88
378.576	423.88
378.802	430.88
379.027	426.88
379.253	429.88
379.478	426.88
379.704	439.88
379.929	419.88
380.155	445.88
380.38	417.88
380.606	460.88
380.831	429.88
381.057	439.88
381.282	417.88
381.507	436.88
381.733	437.88
381.958	420.88
382.184	461.88
382.409	427.88
382.634	463.88
382.86	428.88
383.085	444.88
383.31	436.88
383.535	447.88
383.761	457.88
383.986	439.88
384.211	443.88
384.436	453.88
384.662	470.88
384.887	440.88
385.112	476.88
385.337	460.88
385.562	452.88
385.787	476.88
386.013	485.88
386.238	460.88
386.463	482.88
386.688	485.88
386.913	457.88
387.138	480.88
387.363	453.88
387.588	475.88
387.813	475.88
388.038	470.88
388.263	469.88
388.488	461.88
388.713	465.88
388.938	475.88
389.163	475.88
389.387	478.88
389.612	485.88
389.837	465.88
390.062	462.88
390.287	477.88
390.512	464.88
390.736	458.88
390.961	483.88
391.186	491.88
391.411	497.88
391.636	481.88
391.86	483.88
392.085	475.88
392.31	486.88
392.534	503.88
392.759	500.88
392.984	505.88
393.208	481.88
393.433	467.88
393.658	474.88
393.882	485.88
394.107	475.88
394.331	473.88
394.556	479.88
394.78	474.88
395.005	491.88
395.229	474.88
395.454	497.88
395.678	493.88
395.903	503.88
396.127	527.88
396.352	547.88
396.576	491.88
396.801	507.88
397.025	509.88
397.249	488.88
397.474	504.88
397.698	495.88
397.922	552.88
398.147	537.88
398.371	528.88
398.595	548.88
398.82	545.88
399.044	538.88
399.268	551.88
399.492	619.88
399.717	647.88
399.941	654.88
400.165	648.88
400.389	691.88
400.613	627.88
400.837	601.88
401.062	573.88
401.286	579.88
401.51	547.88
401.734	561.88
401.958	544.88
402.182	551.88
402.406	559.88
402.63	567.88
402.854	551.88
403.078	555.88
403.302	571.88
403.526	553.88
403.75	571.88
403.974	582.88
404.198	573.88
404.422	569.88
404.645	565.88
404.869	554.88
405.093	591.88
405.317	584.88
405.541	632.88
405.765	615.88
405.988	559.88
406.212	578.88
406.436	617.88
406.66	637.88
406.883	603.88
407.107	659.88
407.331	681.88
407.555	741.88
407.778	745.88
408.002	687.88
408.226	633.88
408.449	631.88
408.673	621.88
408.896	674.88
409.12	708.88
409.344	684.88
409.567	606.88
409.791	608.88
410.014	565.88
410.238	558.88
410.461	573.88
410.685	599.88
410.908	597.88
411.132	602.88
411.355	636.88
411.578	621.88
411.802	587.88
412.025	551.88
412.249	567.88
412.472	569.88
412.695	565.88
412.919	577.88
413.142	540.88
413.365	565.88
413.589	559.88
413.812	536.88
414.035	533.88
414.258	513.88
414.482	528.88
414.705	532.88
414.928	510.88
415.151	535.88
415.374	538.88
415.597	540.88
415.821	506.88
416.044	508.88
416.267	535.88
416.49	542.88
416.713	526.88
416.936	530.88
417.159	527.88
417.382	525.88
417.605	524.88
417.828	539.88
418.051	563.88
418.274	553.88
418.497	522.88
418.72	526.88
418.943	510.88
419.166	545.88
419.389	575.88
419.611	563.88
419.834	561.88
420.057	568.88
420.28	535.88
420.503	528.88
420.726	531.88
420.948	547.88
421.171	628.88
421.394	638.88
421.617	607.88
421.839	546.88
422.062	565.88
422.285	584.88
422.507	646.88
422.73	715.88
422.953	695.88
423.175	596.88
423.398	600.88
423.621	567.88
423.843	594.88
424.066	608.88
424.288	606.88
424.511	616.88
424.733	670.88
424.956	771.88
425.178	730.88
425.401	723.88
425.623	747.88
425.846	655.88
426.068	614.88
426.291	588.88
426.513	583.88
426.735	594.88
426.958	653.88
427.18	747.88
427.402	888.88
427.625	938.88
427.847	810.88
428.069	689.88
428.292	649.88
428.514	604.88
428.736	569.88
428.958	584.88
429.181	555.88
429.403	570.88
429.625	557.88
429.847	612.88
430.069	652.88
430.292	683.88
430.514	587.88
430.736	579.88
430.958	537.88
431.18	533.88
431.402	542.88
431.624	524.88
431.846	517.88
432.068	525.88
432.29	524.88
432.512	532.88
432.734	549.88
432.956	526.88
433.178	530.88
433.4	542.88
433.622	538.88
433.844	528.88
434.066	525.88
434.287	513.88
434.509	515.88
434.731	551.88
434.953	538.88
435.175	554.88
435.397	612.88
435.618	613.88
435.84	630.88
436.062	753.88
436.284	771.88
436.505	687.88
436.727	615.88
436.949	589.88
437.17	552.88
437.392	563.88
437.614	590.88
437.835	630.88
438.057	734.88
438.278	827.88
438.5	799.88
438.721	912.88
438.943	841.88
439.165	682.88
439.386	622.88
439.608	587.88
439.829	609.88
440.05	634.88
440.272	691.88
440.493	645.88
440.715	593.88
440.936	552.88
441.158	597.88
441.379	566.88
441.6	567.88
441.822	598.88
442.043	642.88
442.264	723.88
442.486	773.88
442.707	657.88
442.928	627.88
443.149	627.88
443.371	658.88
443.592	709.88
443.813	801.88
444.034	839.88
444.255	708.88
444.476	618.88
444.698	608.88
444.919	615.88
445.14	679.88
445.361	665.88
445.582	649.88
445.803	718.88
446.024	843.88
446.245	857.88
446.466	758.88
446.687	655.88
446.908	629.88
447.129	554.88
447.35	573.88
447.571	584.88
447.792	537.88
448.013	556.88
448.234	582.88
448.455	654.88
448.675	754.88
448.896	859.88
449.117	729.88
449.338	700.88
449.559	830.88
449.779	921.88
450	733.88
450.221	609.88
450.442	571.88
450.662	578.88
450.883	558.88
451.104	569.88
451.324	542.88
451.545	551.88
451.766	519.88
451.986	498.88
452.207	494.88
452.428	487.88
452.648	480.88
452.869	488.88
453.089	527.88
453.31	519.88
453.53	505.88
453.751	486.88
453.971	503.88
454.192	521.88
454.412	506.88
454.633	494.88
454.853	489.88
455.073	482.88
455.294	528.88
455.514	587.88
455.734	591.88
455.955	491.88
456.175	486.88
456.395	473.88
456.616	486.88
456.836	435.88
457.056	467.88
457.276	482.88
457.497	466.88
457.717	468.88
457.937	470.88
458.157	477.88
458.377	487.88
458.598	503.88
458.818	585.88
459.038	667.88
459.258	681.88
459.478	599.88
459.698	517.88
459.918	526.88
460.138	536.88
460.358	537.88
460.578	546.88
460.798	545.88
461.018	566.88
461.238	541.88
461.458	537.88
461.678	522.88
461.898	537.88
462.118	525.88
462.338	572.88
462.558	553.88
462.777	582.88
462.997	579.88
463.217	573.88
463.437	598.88
463.657	579.88
463.876	593.88
464.096	606.88
464.316	573.88
464.536	579.88
464.755	571.88
464.975	582.88
465.195	612.88
465.414	705.88
465.634	625.88
465.854	557.88
466.073	569.88
466.293	534.88
466.512	523.88
466.732	513.88
466.951	517.88
467.171	511.88
467.391	521.88
467.61	521.88
467.829	533.88
468.049	518.88
468.268	511.88
468.488	502.88
468.707	521.88
468.927	500.88
469.146	501.88
469.365	497.88
469.585	494.88
469.804	515.88
470.023	543.88
470.243	516.88
470.462	525.88
470.681	535.88
470.901	555.88
471.12	520.88
471.339	517.88
471.558	520.88
471.777	535.88
471.997	515.88
472.216	506.88
472.435	526.88
472.654	501.88
472.873	504.88
473.092	502.88
473.311	497.88
473.53	493.88
473.749	545.88
473.968	584.88
474.187	654.88
474.406	697.88
474.625	574.88
474.844	559.88
475.063	514.88
475.282	545.88
475.501	526.88
475.72	555.88
475.939	536.88
476.158	525.88
476.377	542.88
476.596	523.88
476.814	551.88
477.033	561.88
477.252	531.88
477.471	571.88
477.69	572.88
477.908	564.88
478.127	570.88
478.346	583.88
478.564	573.88
478.783	556.88
479.002	583.88
479.22	589.88
479.439	626.88
479.658	615.88
479.876	632.88
480.095	653.88
480.313	676.88
480.532	658.88
480.751	639.88
480.969	645.88
481.188	637.88
481.406	661.88
481.624	637.88
481.843	609.88
482.061	605.88
482.28	595.88
482.498	609.88
482.717	611.88
482.935	618.88
483.153	602.88
483.372	628.88
483.59	606.88
483.808	600.88
484.027	609.88
484.245	621.88
484.463	617.88
484.681	621.88
484.9	621.88
485.118	597.88
485.336	601.88
485.554	612.88
485.772	632.88
485.99	643.88
486.209	612.88
486.427	640.88
486.645	649.88
486.863	654.88
487.081	676.88
487.299	660.88
487.517	644.88
487.735	645.88
487.953	652.88
488.171	637.88
488.389	686.88
488.607	665.88
488.825	665.88
489.043	674.88
489.261	649.88
489.479	674.88
489.696	664.88
489.914	684.88
490.132	663.88
490.35	650.88
490.568	698.88
490.786	684.88
491.003	700.88
491.221	714.88
491.439	742.88
491.657	701.88
491.874	748.88
492.092	709.88
492.31	709.88
492.527	740.88
492.745	735.88
492.963	748.88
493.18	761.88
493.398	737.88
493.615	749.88
493.833	744.88
494.05	753.88
494.268	745.88
494.485	735.88
494.703	769.88
494.92	747.88
495.138	755.88
495.355	772.88
495.573	761.88
495.79	764.88
496.008	791.88
496.225	796.88
496.442	787.88
496.66	787.88
496.877	784.88
497.094	811.88
497.312	769.88
497.529	773.88
497.746	791.88
497.963	810.88
498.181	833.88
498.398	861.88
498.615	854.88
498.832	870.88
499.049	888.88
499.267	924.88
499.484	931.88
499.701	967.88
499.918	995.88
500.135	1068.88
500.352	1085.88
500.569	1136.88
500.786	1123.88
501.003	1081.88
501.22	1095.88
501.437	1038.88
501.654	1011.88
501.871	1017.88
