Data from 1988.PennyLincolnUp.Lamp.En5.5.200Scan.071819.P2_HRD10591_17-19-26-971.txt Node
Date: Thu Jul 18 17:19:26 EDT 2019
User: cochatt
Spectrometer: HR+D1059
Trigger mode: 1
Integration Time (sec): 1.000000E-1
Scans to average: 1
Electric dark correction enabled: true
Nonlinearity correction enabled: false
Boxcar width: 0
XAxis mode: Wavelengths
Number of Pixels in Spectrum: 2048
>>>>>Begin Spectral Data<<<<<
223.165	-13.12
223.4	-13.12
223.635	-13.12
223.869	-24.12
224.104	-19.12
224.338	-2.12
224.573	-25.12
224.808	-11.12
225.042	-9.12
225.277	-5.12
225.511	7.88
225.746	-7.12
225.98	-1.12
226.215	22.88
226.449	11.88
226.683	18.88
226.918	30.88
227.152	24.88
227.387	26.88
227.621	28.88
227.856	51.88
228.09	33.88
228.324	48.88
228.559	41.88
228.793	58.88
229.027	90.88
229.262	103.88
229.496	123.88
229.73	117.88
229.964	136.88
230.199	119.88
230.433	112.88
230.667	107.88
230.901	108.88
231.136	117.88
231.37	107.88
231.604	103.88
231.838	95.88
232.072	115.88
232.306	110.88
232.541	121.88
232.775	107.88
233.009	101.88
233.243	117.88
233.477	112.88
233.711	118.88
233.945	118.88
234.179	116.88
234.413	104.88
234.647	103.88
234.881	111.88
235.115	126.88
235.349	124.88
235.583	125.88
235.817	122.88
236.051	117.88
236.285	127.88
236.519	140.88
236.753	134.88
236.987	155.88
237.221	191.88
237.455	223.88
237.689	180.88
237.922	148.88
238.156	123.88
238.39	120.88
238.624	121.88
238.858	124.88
239.091	120.88
239.325	119.88
239.559	125.88
239.793	127.88
240.027	137.88
240.26	148.88
240.494	157.88
240.728	150.88
240.961	151.88
241.195	141.88
241.429	139.88
241.662	138.88
241.896	128.88
242.13	124.88
242.363	133.88
242.597	137.88
242.83	142.88
243.064	134.88
243.298	134.88
243.531	120.88
243.765	136.88
243.998	131.88
244.232	136.88
244.465	148.88
244.699	147.88
244.932	131.88
245.166	133.88
245.399	152.88
245.633	146.88
245.866	140.88
246.099	156.88
246.333	130.88
246.566	150.88
246.8	162.88
247.033	155.88
247.266	166.88
247.5	152.88
247.733	164.88
247.966	171.88
248.2	169.88
248.433	154.88
248.666	170.88
248.899	179.88
249.133	191.88
249.366	213.88
249.599	181.88
249.832	192.88
250.066	162.88
250.299	184.88
250.532	178.88
250.765	182.88
250.998	198.88
251.231	218.88
251.465	207.88
251.698	196.88
251.931	202.88
252.164	180.88
252.397	190.88
252.63	201.88
252.863	183.88
253.096	215.88
253.329	222.88
253.562	214.88
253.795	224.88
254.028	215.88
254.261	213.88
254.494	217.88
254.727	243.88
254.96	270.88
255.193	270.88
255.426	247.88
255.659	217.88
255.892	222.88
256.124	223.88
256.357	217.88
256.59	218.88
256.823	209.88
257.056	210.88
257.289	214.88
257.521	219.88
257.754	217.88
257.987	216.88
258.22	199.88
258.452	199.88
258.685	223.88
258.918	211.88
259.151	212.88
259.383	202.88
259.616	201.88
259.849	229.88
260.081	230.88
260.314	246.88
260.547	261.88
260.779	239.88
261.012	228.88
261.244	223.88
261.477	227.88
261.71	209.88
261.942	241.88
262.175	254.88
262.407	239.88
262.64	226.88
262.872	221.88
263.105	206.88
263.337	205.88
263.57	211.88
263.802	207.88
264.035	230.88
264.267	219.88
264.499	212.88
264.732	218.88
264.964	229.88
265.197	218.88
265.429	207.88
265.661	209.88
265.894	228.88
266.126	209.88
266.358	211.88
266.591	230.88
266.823	232.88
267.055	222.88
267.287	229.88
267.52	219.88
267.752	206.88
267.984	242.88
268.216	219.88
268.448	220.88
268.681	229.88
268.913	248.88
269.145	265.88
269.377	262.88
269.609	273.88
269.841	265.88
270.073	258.88
270.306	275.88
270.538	311.88
270.77	306.88
271.002	305.88
271.234	306.88
271.466	286.88
271.698	310.88
271.93	297.88
272.162	306.88
272.394	311.88
272.626	306.88
272.858	304.88
273.09	278.88
273.322	268.88
273.553	264.88
273.785	257.88
274.017	276.88
274.249	275.88
274.481	257.88
274.713	271.88
274.945	272.88
275.176	262.88
275.408	247.88
275.64	267.88
275.872	273.88
276.104	248.88
276.335	277.88
276.567	267.88
276.799	279.88
277.031	283.88
277.262	290.88
277.494	333.88
277.726	316.88
277.957	267.88
278.189	291.88
278.421	282.88
278.652	265.88
278.884	255.88
279.115	276.88
279.347	255.88
279.579	267.88
279.81	271.88
280.042	277.88
280.273	273.88
280.505	258.88
280.736	268.88
280.968	287.88
281.199	273.88
281.431	268.88
281.662	266.88
281.894	286.88
282.125	265.88
282.356	306.88
282.588	306.88
282.819	298.88
283.051	280.88
283.282	263.88
283.513	284.88
283.745	270.88
283.976	299.88
284.207	289.88
284.439	287.88
284.67	295.88
284.901	282.88
285.132	291.88
285.364	289.88
285.595	270.88
285.826	286.88
286.057	294.88
286.288	280.88
286.52	292.88
286.751	270.88
286.982	283.88
287.213	277.88
287.444	315.88
287.675	280.88
287.906	299.88
288.138	290.88
288.369	318.88
288.6	319.88
288.831	319.88
289.062	284.88
289.293	294.88
289.524	286.88
289.755	284.88
289.986	303.88
290.217	283.88
290.448	291.88
290.679	286.88
290.91	297.88
291.141	297.88
291.371	297.88
291.602	287.88
291.833	292.88
292.064	269.88
292.295	298.88
292.526	296.88
292.757	291.88
292.987	295.88
293.218	293.88
293.449	294.88
293.68	294.88
293.91	299.88
294.141	287.88
294.372	306.88
294.603	295.88
294.833	310.88
295.064	311.88
295.295	315.88
295.525	296.88
295.756	304.88
295.987	321.88
296.217	319.88
296.448	340.88
296.679	335.88
296.909	302.88
297.14	312.88
297.37	307.88
297.601	307.88
297.831	311.88
298.062	294.88
298.292	280.88
298.523	296.88
298.753	314.88
298.984	316.88
299.214	316.88
299.445	311.88
299.675	309.88
299.905	326.88
300.136	334.88
300.366	328.88
300.597	324.88
300.827	321.88
301.057	328.88
301.288	343.88
301.518	346.88
301.748	341.88
301.979	340.88
302.209	330.88
302.439	346.88
302.669	329.88
302.9	335.88
303.13	336.88
303.36	353.88
303.59	326.88
303.82	341.88
304.051	334.88
304.281	329.88
304.511	314.88
304.741	329.88
304.971	354.88
305.201	330.88
305.431	331.88
305.661	325.88
305.891	334.88
306.121	337.88
306.352	345.88
306.582	359.88
306.812	318.88
307.042	347.88
307.272	337.88
307.502	344.88
307.731	353.88
307.961	350.88
308.191	346.88
308.421	347.88
308.651	359.88
308.881	350.88
309.111	349.88
309.341	350.88
309.571	358.88
309.8	370.88
310.03	364.88
310.26	382.88
310.49	388.88
310.72	402.88
310.949	399.88
311.179	419.88
311.409	393.88
311.639	401.88
311.868	381.88
312.098	392.88
312.328	387.88
312.557	403.88
312.787	397.88
313.017	430.88
313.246	399.88
313.476	395.88
313.706	400.88
313.935	394.88
314.165	396.88
314.394	411.88
314.624	420.88
314.853	405.88
315.083	381.88
315.312	397.88
315.542	389.88
315.771	388.88
316.001	380.88
316.23	384.88
316.46	385.88
316.689	384.88
316.919	397.88
317.148	406.88
317.377	401.88
317.607	421.88
317.836	391.88
318.065	418.88
318.295	394.88
318.524	394.88
318.753	372.88
318.983	403.88
319.212	402.88
319.441	395.88
319.67	400.88
319.9	401.88
320.129	388.88
320.358	409.88
320.587	384.88
320.816	396.88
321.046	442.88
321.275	424.88
321.504	417.88
321.733	414.88
321.962	432.88
322.191	454.88
322.42	464.88
322.649	489.88
322.878	463.88
323.108	478.88
323.337	498.88
323.566	538.88
323.795	574.88
324.024	606.88
324.253	737.88
324.482	1021.88
324.71	1637.88
324.939	2349.88
325.168	1987.88
325.397	1036.88
325.626	706.88
325.855	585.88
326.084	545.88
326.313	551.88
326.542	511.88
326.77	585.88
326.999	674.88
327.228	933.88
327.457	1421.88
327.686	1704.88
327.914	1145.88
328.143	730.88
328.372	657.88
328.6	601.88
328.829	597.88
329.058	607.88
329.287	613.88
329.515	576.88
329.744	517.88
329.972	510.88
330.201	531.88
330.43	539.88
330.658	564.88
330.887	634.88
331.115	608.88
331.344	519.88
331.572	498.88
331.801	540.88
332.03	517.88
332.258	510.88
332.486	473.88
332.715	475.88
332.943	470.88
333.172	478.88
333.4	468.88
333.629	469.88
333.857	486.88
334.085	468.88
334.314	475.88
334.542	470.88
334.771	473.88
334.999	501.88
335.227	470.88
335.455	462.88
335.684	472.88
335.912	442.88
336.14	443.88
336.369	463.88
336.597	473.88
336.825	475.88
337.053	469.88
337.281	465.88
337.51	438.88
337.738	442.88
337.966	470.88
338.194	463.88
338.422	495.88
338.65	468.88
338.878	463.88
339.106	440.88
339.334	448.88
339.562	437.88
339.79	451.88
340.018	445.88
340.246	443.88
340.474	458.88
340.702	458.88
340.93	456.88
341.158	447.88
341.386	443.88
341.614	454.88
341.842	446.88
342.07	456.88
342.298	441.88
342.526	440.88
342.754	440.88
342.981	430.88
343.209	418.88
343.437	432.88
343.665	425.88
343.893	444.88
344.12	459.88
344.348	459.88
344.576	457.88
344.804	463.88
345.031	458.88
345.259	481.88
345.487	449.88
345.714	468.88
345.942	452.88
346.17	439.88
346.397	448.88
346.625	451.88
346.853	435.88
347.08	436.88
347.308	438.88
347.535	442.88
347.763	452.88
347.99	443.88
348.218	431.88
348.445	446.88
348.673	448.88
348.9	428.88
349.128	426.88
349.355	422.88
349.583	414.88
349.81	447.88
350.037	430.88
350.265	418.88
350.492	444.88
350.72	418.88
350.947	440.88
351.174	437.88
351.402	463.88
351.629	444.88
351.856	440.88
352.083	422.88
352.311	449.88
352.538	464.88
352.765	464.88
352.992	436.88
353.22	446.88
353.447	446.88
353.674	426.88
353.901	403.88
354.128	402.88
354.355	426.88
354.583	402.88
354.81	408.88
355.037	410.88
355.264	411.88
355.491	415.88
355.718	380.88
355.945	388.88
356.172	414.88
356.399	392.88
356.626	402.88
356.853	416.88
357.08	378.88
357.307	400.88
357.534	392.88
357.761	408.88
357.988	405.88
358.215	428.88
358.441	414.88
358.668	414.88
358.895	422.88
359.122	408.88
359.349	419.88
359.576	443.88
359.802	445.88
360.029	487.88
360.256	496.88
360.483	465.88
360.709	461.88
360.936	448.88
361.163	450.88
361.39	423.88
361.616	443.88
361.843	446.88
362.07	420.88
362.296	456.88
362.523	455.88
362.749	444.88
362.976	426.88
363.203	427.88
363.429	414.88
363.656	425.88
363.882	420.88
364.109	421.88
364.335	421.88
364.562	410.88
364.788	437.88
365.015	416.88
365.241	409.88
365.468	410.88
365.694	422.88
365.92	451.88
366.147	423.88
366.373	410.88
366.599	430.88
366.826	426.88
367.052	436.88
367.278	432.88
367.505	419.88
367.731	401.88
367.957	419.88
368.184	403.88
368.41	408.88
368.636	434.88
368.862	437.88
369.089	427.88
369.315	438.88
369.541	439.88
369.767	409.88
369.993	431.88
370.219	430.88
370.445	408.88
370.672	422.88
370.898	412.88
371.124	440.88
371.35	419.88
371.576	397.88
371.802	407.88
372.028	415.88
372.254	404.88
372.48	410.88
372.706	406.88
372.932	425.88
373.158	416.88
373.384	427.88
373.61	439.88
373.835	425.88
374.061	410.88
374.287	413.88
374.513	419.88
374.739	437.88
374.965	432.88
375.191	416.88
375.416	440.88
375.642	412.88
375.868	418.88
376.094	408.88
376.319	424.88
376.545	417.88
376.771	410.88
376.997	424.88
377.222	416.88
377.448	415.88
377.674	393.88
377.899	386.88
378.125	396.88
378.35	403.88
378.576	426.88
378.802	398.88
379.027	417.88
379.253	406.88
379.478	418.88
379.704	407.88
379.929	394.88
380.155	422.88
380.38	420.88
380.606	427.88
380.831	423.88
381.057	419.88
381.282	420.88
381.507	423.88
381.733	422.88
381.958	407.88
382.184	419.88
382.409	433.88
382.634	431.88
382.86	442.88
383.085	441.88
383.31	416.88
383.535	415.88
383.761	444.88
383.986	433.88
384.211	434.88
384.436	429.88
384.662	423.88
384.887	463.88
385.112	449.88
385.337	459.88
385.562	440.88
385.787	460.88
386.013	456.88
386.238	475.88
386.463	462.88
386.688	432.88
386.913	450.88
387.138	443.88
387.363	458.88
387.588	461.88
387.813	454.88
388.038	450.88
388.263	463.88
388.488	432.88
388.713	453.88
388.938	478.88
389.163	463.88
389.387	453.88
389.612	459.88
389.837	465.88
390.062	469.88
390.287	456.88
390.512	471.88
390.736	449.88
390.961	447.88
391.186	450.88
391.411	483.88
391.636	474.88
391.86	471.88
392.085	489.88
392.31	468.88
392.534	449.88
392.759	470.88
392.984	457.88
393.208	452.88
393.433	468.88
393.658	483.88
393.882	471.88
394.107	465.88
394.331	478.88
394.556	482.88
394.78	464.88
395.005	470.88
395.229	466.88
395.454	476.88
395.678	483.88
395.903	504.88
396.127	500.88
396.352	520.88
396.576	514.88
396.801	480.88
397.025	483.88
397.249	453.88
397.474	495.88
397.698	503.88
397.922	520.88
398.147	532.88
398.371	509.88
398.595	542.88
398.82	518.88
399.044	527.88
399.268	542.88
399.492	571.88
399.717	627.88
399.941	643.88
400.165	644.88
400.389	653.88
400.613	586.88
400.837	580.88
401.062	549.88
401.286	506.88
401.51	543.88
401.734	522.88
401.958	524.88
402.182	527.88
402.406	546.88
402.63	562.88
402.854	560.88
403.078	543.88
403.302	560.88
403.526	554.88
403.75	542.88
403.974	557.88
404.198	531.88
404.422	524.88
404.645	551.88
404.869	547.88
405.093	561.88
405.317	589.88
405.541	578.88
405.765	577.88
405.988	573.88
406.212	580.88
406.436	588.88
406.66	638.88
406.883	604.88
407.107	626.88
407.331	666.88
407.555	720.88
407.778	706.88
408.002	683.88
408.226	603.88
408.449	603.88
408.673	615.88
408.896	648.88
409.12	672.88
409.344	643.88
409.567	588.88
409.791	603.88
410.014	549.88
410.238	564.88
410.461	538.88
410.685	561.88
410.908	561.88
411.132	598.88
411.355	639.88
411.578	607.88
411.802	566.88
412.025	539.88
412.249	534.88
412.472	558.88
412.695	569.88
412.919	542.88
413.142	542.88
413.365	552.88
413.589	544.88
413.812	517.88
414.035	516.88
414.258	516.88
414.482	513.88
414.705	517.88
414.928	504.88
415.151	500.88
415.374	516.88
415.597	530.88
415.821	499.88
416.044	520.88
416.267	521.88
416.49	507.88
416.713	521.88
416.936	524.88
417.159	520.88
417.382	488.88
417.605	526.88
417.828	530.88
418.051	536.88
418.274	524.88
418.497	533.88
418.72	518.88
418.943	534.88
419.166	508.88
419.389	570.88
419.611	551.88
419.834	542.88
420.057	527.88
420.28	519.88
420.503	519.88
420.726	528.88
420.948	579.88
421.171	600.88
421.394	623.88
421.617	575.88
421.839	531.88
422.062	518.88
422.285	560.88
422.507	607.88
422.73	693.88
422.953	667.88
423.175	592.88
423.398	572.88
423.621	577.88
423.843	578.88
424.066	606.88
424.288	555.88
424.511	592.88
424.733	658.88
424.956	718.88
425.178	693.88
425.401	719.88
425.623	748.88
425.846	652.88
426.068	599.88
426.291	578.88
426.513	566.88
426.735	577.88
426.958	617.88
427.18	727.88
427.402	898.88
427.625	946.88
427.847	806.88
428.069	672.88
428.292	623.88
428.514	567.88
428.736	545.88
428.958	525.88
429.181	536.88
429.403	561.88
429.625	536.88
429.847	587.88
430.069	658.88
430.292	665.88
430.514	582.88
430.736	548.88
430.958	522.88
431.18	528.88
431.402	513.88
431.624	506.88
431.846	524.88
432.068	508.88
432.29	491.88
432.512	520.88
432.734	522.88
432.956	510.88
433.178	512.88
433.4	545.88
433.622	538.88
433.844	503.88
434.066	503.88
434.287	521.88
434.509	520.88
434.731	524.88
434.953	535.88
435.175	557.88
435.397	592.88
435.618	561.88
435.84	622.88
436.062	735.88
436.284	796.88
436.505	664.88
436.727	632.88
436.949	573.88
437.17	548.88
437.392	548.88
437.614	569.88
437.835	601.88
438.057	676.88
438.278	805.88
438.5	816.88
438.721	858.88
438.943	842.88
439.165	683.88
439.386	608.88
439.608	591.88
439.829	586.88
440.05	614.88
440.272	647.88
440.493	630.88
440.715	586.88
440.936	558.88
441.158	549.88
441.379	551.88
441.6	564.88
441.822	544.88
442.043	635.88
442.264	717.88
442.486	744.88
442.707	642.88
442.928	608.88
443.149	606.88
443.371	653.88
443.592	683.88
443.813	795.88
444.034	829.88
444.255	696.88
444.476	633.88
444.698	607.88
444.919	592.88
445.14	699.88
445.361	652.88
445.582	647.88
445.803	702.88
446.024	779.88
446.245	823.88
446.466	759.88
446.687	648.88
446.908	607.88
447.129	564.88
447.35	538.88
447.571	556.88
447.792	549.88
448.013	550.88
448.234	550.88
448.455	639.88
448.675	730.88
448.896	812.88
449.117	689.88
449.338	699.88
449.559	802.88
449.779	918.88
450	717.88
450.221	604.88
450.442	536.88
450.662	543.88
450.883	533.88
451.104	552.88
451.324	533.88
451.545	539.88
451.766	502.88
451.986	488.88
452.207	494.88
452.428	474.88
452.648	469.88
452.869	471.88
453.089	489.88
453.31	495.88
453.53	481.88
453.751	466.88
453.971	489.88
454.192	503.88
454.412	487.88
454.633	490.88
454.853	469.88
455.073	479.88
455.294	497.88
455.514	581.88
455.734	570.88
455.955	476.88
456.175	472.88
456.395	461.88
456.616	452.88
456.836	459.88
457.056	456.88
457.276	452.88
457.497	456.88
457.717	465.88
457.937	462.88
458.157	463.88
458.377	488.88
458.598	506.88
458.818	545.88
459.038	677.88
459.258	640.88
459.478	566.88
459.698	536.88
459.918	520.88
460.138	532.88
460.358	532.88
460.578	517.88
460.798	548.88
461.018	541.88
461.238	516.88
461.458	532.88
461.678	514.88
461.898	517.88
462.118	507.88
462.338	524.88
462.558	561.88
462.777	546.88
462.997	573.88
463.217	578.88
463.437	581.88
463.657	554.88
463.876	546.88
464.096	565.88
464.316	563.88
464.536	580.88
464.755	580.88
464.975	554.88
465.195	592.88
465.414	657.88
465.634	612.88
465.854	555.88
466.073	531.88
466.293	503.88
466.512	492.88
466.732	496.88
466.951	485.88
467.171	482.88
467.391	517.88
467.61	536.88
467.829	517.88
468.049	498.88
468.268	522.88
468.488	497.88
468.707	482.88
468.927	476.88
469.146	487.88
469.365	479.88
469.585	491.88
469.804	512.88
470.023	528.88
470.243	498.88
470.462	501.88
470.681	544.88
470.901	520.88
471.12	510.88
471.339	519.88
471.558	516.88
471.777	512.88
471.997	481.88
472.216	504.88
472.435	512.88
472.654	522.88
472.873	495.88
473.092	496.88
473.311	512.88
473.53	483.88
473.749	516.88
473.968	553.88
474.187	678.88
474.406	683.88
474.625	569.88
474.844	524.88
475.063	513.88
475.282	527.88
475.501	535.88
475.72	535.88
475.939	511.88
476.158	523.88
476.377	510.88
476.596	518.88
476.814	542.88
477.033	536.88
477.252	526.88
477.471	545.88
477.69	550.88
477.908	577.88
478.127	571.88
478.346	564.88
478.564	548.88
478.783	563.88
479.002	579.88
479.22	588.88
479.439	595.88
479.658	604.88
479.876	621.88
480.095	609.88
480.313	641.88
480.532	642.88
480.751	607.88
480.969	609.88
481.188	630.88
481.406	633.88
481.624	609.88
481.843	586.88
482.061	577.88
482.28	599.88
482.498	586.88
482.717	571.88
482.935	598.88
483.153	592.88
483.372	578.88
483.59	603.88
483.808	597.88
484.027	602.88
484.245	602.88
484.463	582.88
484.681	616.88
484.9	603.88
485.118	606.88
485.336	615.88
485.554	614.88
485.772	595.88
485.99	616.88
486.209	610.88
486.427	632.88
486.645	626.88
486.863	654.88
487.081	653.88
487.299	635.88
487.517	635.88
487.735	628.88
487.953	640.88
488.171	621.88
488.389	632.88
488.607	644.88
488.825	620.88
489.043	622.88
489.261	650.88
489.479	620.88
489.696	656.88
489.914	644.88
490.132	655.88
490.35	670.88
490.568	653.88
490.786	681.88
491.003	674.88
491.221	688.88
491.439	689.88
491.657	712.88
491.874	716.88
492.092	714.88
492.31	703.88
492.527	706.88
492.745	730.88
492.963	716.88
493.18	744.88
493.398	723.88
493.615	748.88
493.833	711.88
494.05	733.88
494.268	735.88
494.485	728.88
494.703	737.88
494.92	717.88
495.138	743.88
495.355	739.88
495.573	754.88
495.79	738.88
496.008	757.88
496.225	762.88
496.442	745.88
496.66	747.88
496.877	747.88
497.094	753.88
497.312	786.88
497.529	779.88
497.746	770.88
497.963	811.88
498.181	840.88
498.398	836.88
498.615	837.88
498.832	875.88
499.049	891.88
499.267	915.88
499.484	933.88
499.701	943.88
499.918	976.88
500.135	1018.88
500.352	1092.88
500.569	1065.88
500.786	1079.88
501.003	1063.88
501.22	1036.88
501.437	983.88
501.654	1008.88
501.871	981.88
