Data from 1988.PennyLincolnUp.Lamp.En5.5.200Scan.071819.P2_HRD10591_17-20-24-972.txt Node
Date: Thu Jul 18 17:20:24 EDT 2019
User: cochatt
Spectrometer: HR+D1059
Trigger mode: 1
Integration Time (sec): 1.000000E-1
Scans to average: 1
Electric dark correction enabled: true
Nonlinearity correction enabled: false
Boxcar width: 0
XAxis mode: Wavelengths
Number of Pixels in Spectrum: 2048
>>>>>Begin Spectral Data<<<<<
223.165	-14.38
223.4	-14.38
223.635	-14.38
223.869	-21.38
224.104	-12.38
224.338	-21.38
224.573	-15.38
224.808	-5.38
225.042	-1.38
225.277	-16.38
225.511	-8.38
225.746	0.62
225.98	6.62
226.215	8.62
226.449	8.62
226.683	17.62
226.918	31.62
227.152	42.62
227.387	36.62
227.621	40.62
227.856	36.62
228.09	36.62
228.324	60.62
228.559	64.62
228.793	76.62
229.027	107.62
229.262	112.62
229.496	108.62
229.73	133.62
229.964	147.62
230.199	128.62
230.433	127.62
230.667	125.62
230.901	128.62
231.136	118.62
231.37	124.62
231.604	98.62
231.838	124.62
232.072	96.62
232.306	108.62
232.541	116.62
232.775	115.62
233.009	123.62
233.243	113.62
233.477	109.62
233.711	107.62
233.945	122.62
234.179	117.62
234.413	118.62
234.647	123.62
234.881	113.62
235.115	119.62
235.349	114.62
235.583	120.62
235.817	131.62
236.051	132.62
236.285	123.62
236.519	123.62
236.753	127.62
236.987	138.62
237.221	201.62
237.455	252.62
237.689	186.62
237.922	145.62
238.156	127.62
238.39	115.62
238.624	132.62
238.858	132.62
239.091	133.62
239.325	137.62
239.559	133.62
239.793	151.62
240.027	157.62
240.26	143.62
240.494	170.62
240.728	155.62
240.961	150.62
241.195	157.62
241.429	140.62
241.662	124.62
241.896	142.62
242.13	118.62
242.363	136.62
242.597	136.62
242.83	146.62
243.064	138.62
243.298	156.62
243.531	138.62
243.765	152.62
243.998	147.62
244.232	148.62
244.465	142.62
244.699	160.62
244.932	160.62
245.166	141.62
245.399	142.62
245.633	142.62
245.866	156.62
246.099	160.62
246.333	161.62
246.566	161.62
246.8	149.62
247.033	150.62
247.266	145.62
247.5	166.62
247.733	164.62
247.966	181.62
248.2	168.62
248.433	172.62
248.666	173.62
248.899	182.62
249.133	192.62
249.366	225.62
249.599	221.62
249.832	192.62
250.066	194.62
250.299	204.62
250.532	202.62
250.765	191.62
250.998	215.62
251.231	226.62
251.465	224.62
251.698	215.62
251.931	209.62
252.164	197.62
252.397	226.62
252.63	204.62
252.863	218.62
253.096	236.62
253.329	250.62
253.562	243.62
253.795	232.62
254.028	224.62
254.261	232.62
254.494	239.62
254.727	265.62
254.96	288.62
255.193	269.62
255.426	243.62
255.659	214.62
255.892	243.62
256.124	243.62
256.357	206.62
256.59	241.62
256.823	211.62
257.056	204.62
257.289	221.62
257.521	233.62
257.754	222.62
257.987	218.62
258.22	223.62
258.452	218.62
258.685	224.62
258.918	219.62
259.151	206.62
259.383	240.62
259.616	231.62
259.849	222.62
260.081	237.62
260.314	261.62
260.547	269.62
260.779	275.62
261.012	245.62
261.244	224.62
261.477	226.62
261.71	241.62
261.942	257.62
262.175	243.62
262.407	236.62
262.64	232.62
262.872	224.62
263.105	230.62
263.337	242.62
263.57	228.62
263.802	217.62
264.035	205.62
264.267	236.62
264.499	226.62
264.732	227.62
264.964	229.62
265.197	236.62
265.429	222.62
265.661	237.62
265.894	216.62
266.126	224.62
266.358	214.62
266.591	237.62
266.823	227.62
267.055	223.62
267.287	237.62
267.52	225.62
267.752	238.62
267.984	252.62
268.216	256.62
268.448	243.62
268.681	253.62
268.913	265.62
269.145	250.62
269.377	270.62
269.609	277.62
269.841	287.62
270.073	284.62
270.306	310.62
270.538	340.62
270.77	338.62
271.002	315.62
271.234	306.62
271.466	299.62
271.698	299.62
271.93	329.62
272.162	334.62
272.394	327.62
272.626	311.62
272.858	307.62
273.09	298.62
273.322	290.62
273.553	270.62
273.785	290.62
274.017	301.62
274.249	300.62
274.481	280.62
274.713	273.62
274.945	281.62
275.176	282.62
275.408	281.62
275.64	286.62
275.872	267.62
276.104	279.62
276.335	262.62
276.567	253.62
276.799	281.62
277.031	328.62
277.262	325.62
277.494	331.62
277.726	297.62
277.957	280.62
278.189	306.62
278.421	278.62
278.652	281.62
278.884	273.62
279.115	288.62
279.347	297.62
279.579	269.62
279.81	308.62
280.042	270.62
280.273	285.62
280.505	265.62
280.736	287.62
280.968	275.62
281.199	278.62
281.431	271.62
281.662	284.62
281.894	285.62
282.125	282.62
282.356	284.62
282.588	323.62
282.819	341.62
283.051	315.62
283.282	283.62
283.513	290.62
283.745	285.62
283.976	294.62
284.207	298.62
284.439	292.62
284.67	292.62
284.901	293.62
285.132	294.62
285.364	293.62
285.595	291.62
285.826	301.62
286.057	298.62
286.288	293.62
286.52	305.62
286.751	301.62
286.982	298.62
287.213	306.62
287.444	293.62
287.675	325.62
287.906	318.62
288.138	309.62
288.369	312.62
288.6	330.62
288.831	321.62
289.062	325.62
289.293	315.62
289.524	304.62
289.755	321.62
289.986	317.62
290.217	301.62
290.448	304.62
290.679	323.62
290.91	312.62
291.141	330.62
291.371	308.62
291.602	308.62
291.833	295.62
292.064	314.62
292.295	316.62
292.526	307.62
292.757	303.62
292.987	334.62
293.218	296.62
293.449	317.62
293.68	320.62
293.91	316.62
294.141	310.62
294.372	307.62
294.603	321.62
294.833	323.62
295.064	323.62
295.295	290.62
295.525	301.62
295.756	309.62
295.987	329.62
296.217	351.62
296.448	383.62
296.679	322.62
296.909	293.62
297.14	306.62
297.37	344.62
297.601	309.62
297.831	338.62
298.062	319.62
298.292	332.62
298.523	342.62
298.753	334.62
298.984	332.62
299.214	325.62
299.445	334.62
299.675	341.62
299.905	344.62
300.136	335.62
300.366	336.62
300.597	342.62
300.827	360.62
301.057	340.62
301.288	344.62
301.518	344.62
301.748	363.62
301.979	347.62
302.209	342.62
302.439	354.62
302.669	334.62
302.9	359.62
303.13	362.62
303.36	356.62
303.59	350.62
303.82	382.62
304.051	381.62
304.281	354.62
304.511	346.62
304.741	345.62
304.971	348.62
305.201	355.62
305.431	352.62
305.661	360.62
305.891	358.62
306.121	334.62
306.352	356.62
306.582	362.62
306.812	334.62
307.042	341.62
307.272	363.62
307.502	369.62
307.731	366.62
307.961	365.62
308.191	353.62
308.421	356.62
308.651	364.62
308.881	356.62
309.111	363.62
309.341	357.62
309.571	370.62
309.8	378.62
310.03	391.62
310.26	402.62
310.49	396.62
310.72	420.62
310.949	403.62
311.179	441.62
311.409	402.62
311.639	395.62
311.868	405.62
312.098	408.62
312.328	408.62
312.557	448.62
312.787	448.62
313.017	441.62
313.246	404.62
313.476	419.62
313.706	414.62
313.935	433.62
314.165	432.62
314.394	432.62
314.624	423.62
314.853	442.62
315.083	427.62
315.312	420.62
315.542	415.62
315.771	405.62
316.001	383.62
316.23	406.62
316.46	412.62
316.689	418.62
316.919	416.62
317.148	408.62
317.377	431.62
317.607	412.62
317.836	420.62
318.065	418.62
318.295	386.62
318.524	425.62
318.753	430.62
318.983	418.62
319.212	418.62
319.441	441.62
319.67	454.62
319.9	402.62
320.129	410.62
320.358	425.62
320.587	418.62
320.816	422.62
321.046	441.62
321.275	445.62
321.504	441.62
321.733	459.62
321.962	429.62
322.191	475.62
322.42	466.62
322.649	499.62
322.878	485.62
323.108	487.62
323.337	533.62
323.566	562.62
323.795	577.62
324.024	620.62
324.253	766.62
324.482	1088.62
324.71	1694.62
324.939	2504.62
325.168	2138.62
325.397	1102.62
325.626	756.62
325.855	632.62
326.084	574.62
326.313	570.62
326.542	569.62
326.77	602.62
326.999	747.62
327.228	1004.62
327.457	1470.62
327.686	1896.62
327.914	1233.62
328.143	802.62
328.372	674.62
328.6	633.62
328.829	616.62
329.058	624.62
329.287	647.62
329.515	598.62
329.744	546.62
329.972	545.62
330.201	554.62
330.43	568.62
330.658	596.62
330.887	637.62
331.115	640.62
331.344	569.62
331.572	516.62
331.801	539.62
332.03	529.62
332.258	509.62
332.486	502.62
332.715	493.62
332.943	503.62
333.172	488.62
333.4	512.62
333.629	516.62
333.857	506.62
334.085	512.62
334.314	491.62
334.542	530.62
334.771	536.62
334.999	504.62
335.227	490.62
335.455	495.62
335.684	483.62
335.912	494.62
336.14	480.62
336.369	520.62
336.597	501.62
336.825	505.62
337.053	486.62
337.281	481.62
337.51	473.62
337.738	503.62
337.966	491.62
338.194	495.62
338.422	484.62
338.65	488.62
338.878	478.62
339.106	468.62
339.334	497.62
339.562	466.62
339.79	467.62
340.018	474.62
340.246	485.62
340.474	506.62
340.702	467.62
340.93	474.62
341.158	483.62
341.386	471.62
341.614	488.62
341.842	484.62
342.07	485.62
342.298	456.62
342.526	461.62
342.754	462.62
342.981	461.62
343.209	457.62
343.437	469.62
343.665	481.62
343.893	462.62
344.12	492.62
344.348	475.62
344.576	481.62
344.804	490.62
345.031	482.62
345.259	493.62
345.487	490.62
345.714	466.62
345.942	477.62
346.17	463.62
346.397	466.62
346.625	473.62
346.853	456.62
347.08	469.62
347.308	470.62
347.535	479.62
347.763	467.62
347.99	461.62
348.218	467.62
348.445	488.62
348.673	472.62
348.9	476.62
349.128	460.62
349.355	453.62
349.583	455.62
349.81	454.62
350.037	453.62
350.265	455.62
350.492	444.62
350.72	453.62
350.947	451.62
351.174	469.62
351.402	475.62
351.629	478.62
351.856	478.62
352.083	497.62
352.311	472.62
352.538	496.62
352.765	485.62
352.992	466.62
353.22	457.62
353.447	468.62
353.674	436.62
353.901	457.62
354.128	440.62
354.355	438.62
354.583	432.62
354.81	439.62
355.037	452.62
355.264	420.62
355.491	433.62
355.718	436.62
355.945	425.62
356.172	429.62
356.399	420.62
356.626	437.62
356.853	433.62
357.08	411.62
357.307	424.62
357.534	418.62
357.761	452.62
357.988	452.62
358.215	441.62
358.441	421.62
358.668	418.62
358.895	434.62
359.122	457.62
359.349	452.62
359.576	464.62
359.802	476.62
360.029	504.62
360.256	519.62
360.483	516.62
360.709	473.62
360.936	468.62
361.163	472.62
361.39	459.62
361.616	474.62
361.843	470.62
362.07	492.62
362.296	469.62
362.523	493.62
362.749	464.62
362.976	476.62
363.203	460.62
363.429	449.62
363.656	435.62
363.882	454.62
364.109	435.62
364.335	473.62
364.562	465.62
364.788	433.62
365.015	441.62
365.241	445.62
365.468	465.62
365.694	461.62
365.92	457.62
366.147	462.62
366.373	466.62
366.599	449.62
366.826	454.62
367.052	432.62
367.278	424.62
367.505	474.62
367.731	461.62
367.957	479.62
368.184	458.62
368.41	449.62
368.636	462.62
368.862	478.62
369.089	477.62
369.315	451.62
369.541	426.62
369.767	444.62
369.993	457.62
370.219	421.62
370.445	453.62
370.672	439.62
370.898	464.62
371.124	454.62
371.35	445.62
371.576	446.62
371.802	439.62
372.028	434.62
372.254	425.62
372.48	456.62
372.706	446.62
372.932	451.62
373.158	451.62
373.384	461.62
373.61	465.62
373.835	466.62
374.061	441.62
374.287	433.62
374.513	449.62
374.739	461.62
374.965	464.62
375.191	443.62
375.416	453.62
375.642	428.62
375.868	446.62
376.094	465.62
376.319	466.62
376.545	442.62
376.771	472.62
376.997	446.62
377.222	433.62
377.448	454.62
377.674	445.62
377.899	450.62
378.125	440.62
378.35	446.62
378.576	442.62
378.802	454.62
379.027	454.62
379.253	442.62
379.478	440.62
379.704	467.62
379.929	470.62
380.155	453.62
380.38	445.62
380.606	451.62
380.831	467.62
381.057	465.62
381.282	463.62
381.507	471.62
381.733	469.62
381.958	464.62
382.184	463.62
382.409	458.62
382.634	457.62
382.86	486.62
383.085	477.62
383.31	481.62
383.535	482.62
383.761	465.62
383.986	477.62
384.211	467.62
384.436	485.62
384.662	484.62
384.887	494.62
385.112	496.62
385.337	481.62
385.562	493.62
385.787	484.62
386.013	513.62
386.238	491.62
386.463	486.62
386.688	502.62
386.913	506.62
387.138	483.62
387.363	487.62
387.588	500.62
387.813	493.62
388.038	481.62
388.263	492.62
388.488	504.62
388.713	506.62
388.938	508.62
389.163	506.62
389.387	517.62
389.612	494.62
389.837	496.62
390.062	496.62
390.287	506.62
390.512	505.62
390.736	498.62
390.961	493.62
391.186	494.62
391.411	534.62
391.636	530.62
391.86	506.62
392.085	534.62
392.31	487.62
392.534	520.62
392.759	499.62
392.984	510.62
393.208	512.62
393.433	535.62
393.658	506.62
393.882	501.62
394.107	494.62
394.331	527.62
394.556	502.62
394.78	520.62
395.005	530.62
395.229	540.62
395.454	532.62
395.678	517.62
395.903	534.62
396.127	545.62
396.352	568.62
396.576	536.62
396.801	527.62
397.025	527.62
397.249	544.62
397.474	534.62
397.698	551.62
397.922	560.62
398.147	561.62
398.371	559.62
398.595	567.62
398.82	554.62
399.044	578.62
399.268	612.62
399.492	639.62
399.717	660.62
399.941	670.62
400.165	714.62
400.389	705.62
400.613	671.62
400.837	603.62
401.062	636.62
401.286	612.62
401.51	572.62
401.734	577.62
401.958	576.62
402.182	583.62
402.406	594.62
402.63	589.62
402.854	613.62
403.078	584.62
403.302	621.62
403.526	625.62
403.75	607.62
403.974	595.62
404.198	605.62
404.422	617.62
404.645	621.62
404.869	593.62
405.093	628.62
405.317	650.62
405.541	684.62
405.765	652.62
405.988	631.62
406.212	639.62
406.436	646.62
406.66	695.62
406.883	670.62
407.107	670.62
407.331	729.62
407.555	827.62
407.778	821.62
408.002	754.62
408.226	690.62
408.449	668.62
408.673	688.62
408.896	707.62
409.12	744.62
409.344	696.62
409.567	662.62
409.791	621.62
410.014	621.62
410.238	616.62
410.461	612.62
410.685	626.62
410.908	644.62
411.132	670.62
411.355	709.62
411.578	675.62
411.802	599.62
412.025	620.62
412.249	610.62
412.472	594.62
412.695	620.62
412.919	635.62
413.142	589.62
413.365	572.62
413.589	568.62
413.812	566.62
414.035	568.62
414.258	572.62
414.482	572.62
414.705	572.62
414.928	565.62
415.151	579.62
415.374	567.62
415.597	562.62
415.821	551.62
416.044	567.62
416.267	552.62
416.49	562.62
416.713	564.62
416.936	570.62
417.159	576.62
417.382	590.62
417.605	596.62
417.828	594.62
418.051	592.62
418.274	577.62
418.497	558.62
418.72	569.62
418.943	550.62
419.166	600.62
419.389	617.62
419.611	601.62
419.834	601.62
420.057	579.62
420.28	586.62
420.503	557.62
420.726	574.62
420.948	603.62
421.171	652.62
421.394	700.62
421.617	620.62
421.839	594.62
422.062	588.62
422.285	595.62
422.507	695.62
422.73	768.62
422.953	737.62
423.175	640.62
423.398	621.62
423.621	634.62
423.843	638.62
424.066	657.62
424.288	636.62
424.511	653.62
424.733	708.62
424.956	802.62
425.178	795.62
425.401	803.62
425.623	793.62
425.846	689.62
426.068	660.62
426.291	642.62
426.513	648.62
426.735	653.62
426.958	692.62
427.18	812.62
427.402	934.62
427.625	1031.62
427.847	892.62
428.069	754.62
428.292	694.62
428.514	637.62
428.736	626.62
428.958	606.62
429.181	598.62
429.403	587.62
429.625	613.62
429.847	620.62
430.069	749.62
430.292	708.62
430.514	617.62
430.736	591.62
430.958	613.62
431.18	582.62
431.402	569.62
431.624	570.62
431.846	552.62
432.068	570.62
432.29	598.62
432.512	571.62
432.734	582.62
432.956	576.62
433.178	565.62
433.4	578.62
433.622	597.62
433.844	552.62
434.066	562.62
434.287	576.62
434.509	574.62
434.731	589.62
434.953	593.62
435.175	613.62
435.397	638.62
435.618	644.62
435.84	681.62
436.062	810.62
436.284	875.62
436.505	742.62
436.727	660.62
436.949	621.62
437.17	610.62
437.392	610.62
437.614	624.62
437.835	645.62
438.057	735.62
438.278	869.62
438.5	892.62
438.721	981.62
438.943	936.62
439.165	744.62
439.386	682.62
439.608	654.62
439.829	664.62
440.05	680.62
440.272	738.62
440.493	702.62
440.715	663.62
440.936	619.62
441.158	622.62
441.379	634.62
441.6	634.62
441.822	628.62
442.043	677.62
442.264	783.62
442.486	820.62
442.707	727.62
442.928	658.62
443.149	679.62
443.371	676.62
443.592	720.62
443.813	878.62
444.034	929.62
444.255	764.62
444.476	697.62
444.698	655.62
444.919	648.62
445.14	778.62
445.361	721.62
445.582	697.62
445.803	768.62
446.024	901.62
446.245	898.62
446.466	842.62
446.687	710.62
446.908	687.62
447.129	642.62
447.35	634.62
447.571	616.62
447.792	611.62
448.013	586.62
448.234	650.62
448.455	673.62
448.675	825.62
448.896	944.62
449.117	792.62
449.338	763.62
449.559	894.62
449.779	1002.62
450	793.62
450.221	674.62
450.442	605.62
450.662	576.62
450.883	578.62
451.104	616.62
451.324	589.62
451.545	564.62
451.766	560.62
451.986	529.62
452.207	529.62
452.428	515.62
452.648	530.62
452.869	534.62
453.089	549.62
453.31	564.62
453.53	546.62
453.751	567.62
453.971	528.62
454.192	557.62
454.412	554.62
454.633	546.62
454.853	515.62
455.073	507.62
455.294	574.62
455.514	627.62
455.734	610.62
455.955	552.62
456.175	500.62
456.395	515.62
456.616	535.62
456.836	524.62
457.056	512.62
457.276	503.62
457.497	499.62
457.717	517.62
457.937	516.62
458.157	515.62
458.377	511.62
458.598	529.62
458.818	585.62
459.038	712.62
459.258	739.62
459.478	635.62
459.698	576.62
459.918	549.62
460.138	570.62
460.358	580.62
460.578	581.62
460.798	585.62
461.018	584.62
461.238	583.62
461.458	566.62
461.678	569.62
461.898	595.62
462.118	595.62
462.338	579.62
462.558	584.62
462.777	606.62
462.997	634.62
463.217	624.62
463.437	649.62
463.657	632.62
463.876	634.62
464.096	639.62
464.316	635.62
464.536	619.62
464.755	638.62
464.975	639.62
465.195	665.62
465.414	764.62
465.634	663.62
465.854	619.62
466.073	579.62
466.293	590.62
466.512	552.62
466.732	557.62
466.951	545.62
467.171	559.62
467.391	568.62
467.61	574.62
467.829	566.62
468.049	565.62
468.268	534.62
468.488	533.62
468.707	529.62
468.927	549.62
469.146	530.62
469.365	538.62
469.585	519.62
469.804	532.62
470.023	586.62
470.243	565.62
470.462	572.62
470.681	586.62
470.901	593.62
471.12	553.62
471.339	550.62
471.558	558.62
471.777	542.62
471.997	550.62
472.216	545.62
472.435	546.62
472.654	544.62
472.873	534.62
473.092	557.62
473.311	542.62
473.53	556.62
473.749	565.62
473.968	584.62
474.187	702.62
474.406	741.62
474.625	630.62
474.844	605.62
475.063	569.62
475.282	571.62
475.501	561.62
475.72	561.62
475.939	556.62
476.158	585.62
476.377	570.62
476.596	563.62
476.814	582.62
477.033	577.62
477.252	601.62
477.471	590.62
477.69	596.62
477.908	591.62
478.127	614.62
478.346	606.62
478.564	636.62
478.783	652.62
479.002	633.62
479.22	660.62
479.439	654.62
479.658	664.62
479.876	669.62
480.095	669.62
480.313	717.62
480.532	708.62
480.751	696.62
480.969	690.62
481.188	701.62
481.406	681.62
481.624	655.62
481.843	668.62
482.061	639.62
482.28	664.62
482.498	669.62
482.717	653.62
482.935	659.62
483.153	651.62
483.372	638.62
483.59	645.62
483.808	648.62
484.027	647.62
484.245	632.62
484.463	659.62
484.681	664.62
484.9	666.62
485.118	662.62
485.336	675.62
485.554	686.62
485.772	688.62
485.99	681.62
486.209	711.62
486.427	676.62
486.645	708.62
486.863	711.62
487.081	724.62
487.299	724.62
487.517	713.62
487.735	704.62
487.953	701.62
488.171	729.62
488.389	721.62
488.607	706.62
488.825	713.62
489.043	714.62
489.261	707.62
489.479	698.62
489.696	712.62
489.914	718.62
490.132	718.62
490.35	688.62
490.568	753.62
490.786	758.62
491.003	765.62
491.221	757.62
491.439	756.62
491.657	788.62
491.874	787.62
492.092	782.62
492.31	798.62
492.527	791.62
492.745	802.62
492.963	815.62
493.18	822.62
493.398	847.62
493.615	815.62
493.833	808.62
494.05	818.62
494.268	805.62
494.485	804.62
494.703	827.62
494.92	835.62
495.138	813.62
495.355	854.62
495.573	850.62
495.79	846.62
496.008	848.62
496.225	829.62
496.442	829.62
496.66	840.62
496.877	839.62
497.094	836.62
497.312	874.62
497.529	856.62
497.746	871.62
497.963	900.62
498.181	916.62
498.398	934.62
498.615	947.62
498.832	976.62
499.049	967.62
499.267	1027.62
499.484	1038.62
499.701	1076.62
499.918	1110.62
500.135	1139.62
500.352	1172.62
500.569	1207.62
500.786	1193.62
501.003	1196.62
501.22	1159.62
501.437	1139.62
501.654	1091.62
