Data from 1988.PennyLincolnUp.Lamp.En5.5.200Scan.071819.P2_HRD10591_17-20-46-972.txt Node
Date: Thu Jul 18 17:20:46 EDT 2019
User: cochatt
Spectrometer: HR+D1059
Trigger mode: 1
Integration Time (sec): 1.000000E-1
Scans to average: 1
Electric dark correction enabled: true
Nonlinearity correction enabled: false
Boxcar width: 0
XAxis mode: Wavelengths
Number of Pixels in Spectrum: 2048
>>>>>Begin Spectral Data<<<<<
223.165	-9.81
223.4	-9.81
223.635	-9.81
223.869	-16.81
224.104	-23.81
224.338	-15.81
224.573	-21.81
224.808	-5.81
225.042	-21.81
225.277	8.19
225.511	9.19
225.746	-5.81
225.98	19.19
226.215	0.19
226.449	17.19
226.683	19.19
226.918	16.19
227.152	32.19
227.387	31.19
227.621	31.19
227.856	42.19
228.09	44.19
228.324	43.19
228.559	47.19
228.793	75.19
229.027	104.19
229.262	114.19
229.496	99.19
229.73	134.19
229.964	173.19
230.199	134.19
230.433	112.19
230.667	108.19
230.901	109.19
231.136	124.19
231.37	104.19
231.604	110.19
231.838	124.19
232.072	115.19
232.306	115.19
232.541	107.19
232.775	131.19
233.009	125.19
233.243	127.19
233.477	107.19
233.711	133.19
233.945	112.19
234.179	120.19
234.413	134.19
234.647	123.19
234.881	115.19
235.115	118.19
235.349	115.19
235.583	123.19
235.817	143.19
236.051	134.19
236.285	121.19
236.519	135.19
236.753	125.19
236.987	153.19
237.221	204.19
237.455	252.19
237.689	205.19
237.922	163.19
238.156	140.19
238.39	121.19
238.624	125.19
238.858	123.19
239.091	133.19
239.325	148.19
239.559	141.19
239.793	121.19
240.027	143.19
240.26	148.19
240.494	167.19
240.728	167.19
240.961	149.19
241.195	145.19
241.429	138.19
241.662	152.19
241.896	155.19
242.13	145.19
242.363	142.19
242.597	140.19
242.83	134.19
243.064	137.19
243.298	146.19
243.531	131.19
243.765	152.19
243.998	151.19
244.232	152.19
244.465	163.19
244.699	161.19
244.932	158.19
245.166	135.19
245.399	150.19
245.633	162.19
245.866	142.19
246.099	147.19
246.333	140.19
246.566	161.19
246.8	173.19
247.033	168.19
247.266	165.19
247.5	177.19
247.733	163.19
247.966	185.19
248.2	159.19
248.433	172.19
248.666	174.19
248.899	197.19
249.133	232.19
249.366	213.19
249.599	201.19
249.832	199.19
250.066	194.19
250.299	194.19
250.532	194.19
250.765	205.19
250.998	232.19
251.231	240.19
251.465	249.19
251.698	212.19
251.931	210.19
252.164	214.19
252.397	209.19
252.63	194.19
252.863	220.19
253.096	210.19
253.329	239.19
253.562	239.19
253.795	212.19
254.028	229.19
254.261	230.19
254.494	245.19
254.727	281.19
254.96	280.19
255.193	277.19
255.426	262.19
255.659	251.19
255.892	248.19
256.124	237.19
256.357	229.19
256.59	223.19
256.823	219.19
257.056	208.19
257.289	234.19
257.521	220.19
257.754	230.19
257.987	236.19
258.22	217.19
258.452	224.19
258.685	232.19
258.918	221.19
259.151	218.19
259.383	233.19
259.616	240.19
259.849	236.19
260.081	244.19
260.314	265.19
260.547	269.19
260.779	262.19
261.012	234.19
261.244	233.19
261.477	220.19
261.71	223.19
261.942	217.19
262.175	260.19
262.407	241.19
262.64	228.19
262.872	227.19
263.105	224.19
263.337	226.19
263.57	235.19
263.802	242.19
264.035	222.19
264.267	225.19
264.499	233.19
264.732	215.19
264.964	218.19
265.197	212.19
265.429	243.19
265.661	223.19
265.894	239.19
266.126	247.19
266.358	236.19
266.591	236.19
266.823	227.19
267.055	229.19
267.287	237.19
267.52	232.19
267.752	254.19
267.984	232.19
268.216	243.19
268.448	241.19
268.681	241.19
268.913	264.19
269.145	297.19
269.377	307.19
269.609	307.19
269.841	280.19
270.073	298.19
270.306	311.19
270.538	343.19
270.77	331.19
271.002	308.19
271.234	326.19
271.466	324.19
271.698	328.19
271.93	330.19
272.162	329.19
272.394	330.19
272.626	309.19
272.858	311.19
273.09	300.19
273.322	297.19
273.553	300.19
273.785	298.19
274.017	289.19
274.249	293.19
274.481	290.19
274.713	277.19
274.945	260.19
275.176	310.19
275.408	283.19
275.64	282.19
275.872	284.19
276.104	275.19
276.335	295.19
276.567	287.19
276.799	306.19
277.031	330.19
277.262	324.19
277.494	341.19
277.726	320.19
277.957	301.19
278.189	291.19
278.421	292.19
278.652	304.19
278.884	283.19
279.115	288.19
279.347	293.19
279.579	282.19
279.81	269.19
280.042	280.19
280.273	279.19
280.505	282.19
280.736	295.19
280.968	278.19
281.199	282.19
281.431	303.19
281.662	281.19
281.894	299.19
282.125	295.19
282.356	313.19
282.588	327.19
282.819	337.19
283.051	303.19
283.282	289.19
283.513	294.19
283.745	320.19
283.976	320.19
284.207	319.19
284.439	293.19
284.67	293.19
284.901	292.19
285.132	293.19
285.364	307.19
285.595	310.19
285.826	317.19
286.057	290.19
286.288	296.19
286.52	313.19
286.751	311.19
286.982	295.19
287.213	309.19
287.444	320.19
287.675	306.19
287.906	303.19
288.138	315.19
288.369	326.19
288.6	327.19
288.831	328.19
289.062	306.19
289.293	295.19
289.524	329.19
289.755	319.19
289.986	331.19
290.217	321.19
290.448	316.19
290.679	315.19
290.91	322.19
291.141	308.19
291.371	304.19
291.602	316.19
291.833	310.19
292.064	325.19
292.295	326.19
292.526	331.19
292.757	303.19
292.987	294.19
293.218	324.19
293.449	307.19
293.68	317.19
293.91	313.19
294.141	312.19
294.372	328.19
294.603	306.19
294.833	309.19
295.064	328.19
295.295	324.19
295.525	311.19
295.756	348.19
295.987	336.19
296.217	352.19
296.448	374.19
296.679	331.19
296.909	330.19
297.14	344.19
297.37	337.19
297.601	330.19
297.831	327.19
298.062	337.19
298.292	332.19
298.523	322.19
298.753	349.19
298.984	350.19
299.214	331.19
299.445	343.19
299.675	350.19
299.905	344.19
300.136	344.19
300.366	332.19
300.597	355.19
300.827	347.19
301.057	356.19
301.288	355.19
301.518	370.19
301.748	357.19
301.979	363.19
302.209	359.19
302.439	359.19
302.669	379.19
302.9	344.19
303.13	359.19
303.36	353.19
303.59	373.19
303.82	376.19
304.051	371.19
304.281	359.19
304.511	336.19
304.741	348.19
304.971	343.19
305.201	373.19
305.431	361.19
305.661	370.19
305.891	363.19
306.121	360.19
306.352	352.19
306.582	380.19
306.812	360.19
307.042	369.19
307.272	351.19
307.502	353.19
307.731	372.19
307.961	385.19
308.191	353.19
308.421	385.19
308.651	369.19
308.881	373.19
309.111	380.19
309.341	358.19
309.571	385.19
309.8	386.19
310.03	413.19
310.26	411.19
310.49	405.19
310.72	418.19
310.949	419.19
311.179	417.19
311.409	426.19
311.639	402.19
311.868	422.19
312.098	422.19
312.328	414.19
312.557	429.19
312.787	452.19
313.017	433.19
313.246	441.19
313.476	423.19
313.706	399.19
313.935	418.19
314.165	415.19
314.394	453.19
314.624	439.19
314.853	445.19
315.083	432.19
315.312	435.19
315.542	417.19
315.771	407.19
316.001	410.19
316.23	411.19
316.46	394.19
316.689	404.19
316.919	415.19
317.148	450.19
317.377	415.19
317.607	425.19
317.836	439.19
318.065	437.19
318.295	431.19
318.524	407.19
318.753	408.19
318.983	406.19
319.212	424.19
319.441	409.19
319.67	423.19
319.9	434.19
320.129	422.19
320.358	422.19
320.587	434.19
320.816	432.19
321.046	440.19
321.275	464.19
321.504	441.19
321.733	423.19
321.962	469.19
322.191	487.19
322.42	474.19
322.649	486.19
322.878	507.19
323.108	535.19
323.337	516.19
323.566	548.19
323.795	611.19
324.024	652.19
324.253	779.19
324.482	1117.19
324.71	1730.19
324.939	2650.19
325.168	2241.19
325.397	1122.19
325.626	741.19
325.855	633.19
326.084	612.19
326.313	582.19
326.542	579.19
326.77	651.19
326.999	729.19
327.228	1012.19
327.457	1581.19
327.686	1933.19
327.914	1247.19
328.143	823.19
328.372	711.19
328.6	666.19
328.829	631.19
329.058	641.19
329.287	662.19
329.515	609.19
329.744	601.19
329.972	555.19
330.201	549.19
330.43	590.19
330.658	635.19
330.887	693.19
331.115	645.19
331.344	591.19
331.572	569.19
331.801	559.19
332.03	534.19
332.258	518.19
332.486	500.19
332.715	498.19
332.943	492.19
333.172	493.19
333.4	514.19
333.629	521.19
333.857	523.19
334.085	530.19
334.314	539.19
334.542	538.19
334.771	528.19
334.999	519.19
335.227	539.19
335.455	529.19
335.684	500.19
335.912	490.19
336.14	501.19
336.369	509.19
336.597	512.19
336.825	513.19
337.053	483.19
337.281	481.19
337.51	484.19
337.738	514.19
337.966	508.19
338.194	483.19
338.422	501.19
338.65	519.19
338.878	462.19
339.106	487.19
339.334	485.19
339.562	480.19
339.79	482.19
340.018	459.19
340.246	491.19
340.474	496.19
340.702	469.19
340.93	482.19
341.158	489.19
341.386	487.19
341.614	476.19
341.842	519.19
342.07	490.19
342.298	471.19
342.526	471.19
342.754	456.19
342.981	495.19
343.209	481.19
343.437	497.19
343.665	497.19
343.893	510.19
344.12	488.19
344.348	509.19
344.576	523.19
344.804	486.19
345.031	498.19
345.259	507.19
345.487	524.19
345.714	507.19
345.942	507.19
346.17	488.19
346.397	456.19
346.625	490.19
346.853	483.19
347.08	466.19
347.308	485.19
347.535	458.19
347.763	497.19
347.99	476.19
348.218	473.19
348.445	483.19
348.673	492.19
348.9	478.19
349.128	475.19
349.355	467.19
349.583	453.19
349.81	464.19
350.037	459.19
350.265	454.19
350.492	450.19
350.72	459.19
350.947	454.19
351.174	484.19
351.402	482.19
351.629	476.19
351.856	462.19
352.083	466.19
352.311	495.19
352.538	496.19
352.765	493.19
352.992	487.19
353.22	487.19
353.447	474.19
353.674	477.19
353.901	461.19
354.128	467.19
354.355	451.19
354.583	463.19
354.81	441.19
355.037	450.19
355.264	423.19
355.491	439.19
355.718	440.19
355.945	436.19
356.172	433.19
356.399	442.19
356.626	444.19
356.853	446.19
357.08	422.19
357.307	443.19
357.534	429.19
357.761	459.19
357.988	452.19
358.215	473.19
358.441	447.19
358.668	446.19
358.895	457.19
359.122	430.19
359.349	447.19
359.576	478.19
359.802	491.19
360.029	509.19
360.256	538.19
360.483	525.19
360.709	488.19
360.936	479.19
361.163	473.19
361.39	477.19
361.616	468.19
361.843	484.19
362.07	492.19
362.296	499.19
362.523	491.19
362.749	460.19
362.976	460.19
363.203	475.19
363.429	479.19
363.656	470.19
363.882	464.19
364.109	454.19
364.335	464.19
364.562	465.19
364.788	435.19
365.015	471.19
365.241	463.19
365.468	449.19
365.694	460.19
365.92	455.19
366.147	461.19
366.373	458.19
366.599	445.19
366.826	461.19
367.052	464.19
367.278	469.19
367.505	460.19
367.731	467.19
367.957	445.19
368.184	466.19
368.41	457.19
368.636	467.19
368.862	472.19
369.089	465.19
369.315	457.19
369.541	457.19
369.767	473.19
369.993	469.19
370.219	470.19
370.445	455.19
370.672	463.19
370.898	463.19
371.124	454.19
371.35	466.19
371.576	450.19
371.802	464.19
372.028	457.19
372.254	464.19
372.48	447.19
372.706	448.19
372.932	445.19
373.158	469.19
373.384	463.19
373.61	465.19
373.835	468.19
374.061	468.19
374.287	477.19
374.513	474.19
374.739	457.19
374.965	471.19
375.191	483.19
375.416	450.19
375.642	469.19
375.868	474.19
376.094	468.19
376.319	463.19
376.545	457.19
376.771	442.19
376.997	450.19
377.222	438.19
377.448	454.19
377.674	471.19
377.899	439.19
378.125	477.19
378.35	459.19
378.576	450.19
378.802	452.19
379.027	453.19
379.253	469.19
379.478	455.19
379.704	470.19
379.929	459.19
380.155	458.19
380.38	449.19
380.606	464.19
380.831	458.19
381.057	464.19
381.282	460.19
381.507	449.19
381.733	473.19
381.958	457.19
382.184	464.19
382.409	483.19
382.634	467.19
382.86	484.19
383.085	479.19
383.31	487.19
383.535	493.19
383.761	490.19
383.986	488.19
384.211	493.19
384.436	472.19
384.662	491.19
384.887	509.19
385.112	490.19
385.337	479.19
385.562	503.19
385.787	492.19
386.013	519.19
386.238	514.19
386.463	497.19
386.688	523.19
386.913	512.19
387.138	498.19
387.363	493.19
387.588	507.19
387.813	498.19
388.038	496.19
388.263	517.19
388.488	528.19
388.713	494.19
388.938	529.19
389.163	525.19
389.387	516.19
389.612	473.19
389.837	496.19
390.062	497.19
390.287	516.19
390.512	496.19
390.736	492.19
390.961	505.19
391.186	523.19
391.411	518.19
391.636	515.19
391.86	523.19
392.085	531.19
392.31	533.19
392.534	520.19
392.759	533.19
392.984	544.19
393.208	523.19
393.433	503.19
393.658	499.19
393.882	531.19
394.107	509.19
394.331	540.19
394.556	545.19
394.78	519.19
395.005	525.19
395.229	543.19
395.454	554.19
395.678	555.19
395.903	548.19
396.127	550.19
396.352	583.19
396.576	548.19
396.801	548.19
397.025	558.19
397.249	552.19
397.474	552.19
397.698	543.19
397.922	551.19
398.147	570.19
398.371	572.19
398.595	577.19
398.82	588.19
399.044	594.19
399.268	628.19
399.492	649.19
399.717	681.19
399.941	722.19
400.165	742.19
400.389	736.19
400.613	688.19
400.837	631.19
401.062	621.19
401.286	604.19
401.51	619.19
401.734	597.19
401.958	584.19
402.182	594.19
402.406	601.19
402.63	617.19
402.854	637.19
403.078	626.19
403.302	608.19
403.526	625.19
403.75	631.19
403.974	616.19
404.198	617.19
404.422	616.19
404.645	609.19
404.869	632.19
405.093	651.19
405.317	698.19
405.541	707.19
405.765	671.19
405.988	655.19
406.212	659.19
406.436	652.19
406.66	700.19
406.883	685.19
407.107	715.19
407.331	766.19
407.555	812.19
407.778	809.19
408.002	739.19
408.226	709.19
408.449	712.19
408.673	699.19
408.896	702.19
409.12	754.19
409.344	728.19
409.567	673.19
409.791	633.19
410.014	609.19
410.238	630.19
410.461	620.19
410.685	631.19
410.908	628.19
411.132	690.19
411.355	743.19
411.578	695.19
411.802	630.19
412.025	608.19
412.249	632.19
412.472	635.19
412.695	659.19
412.919	657.19
413.142	621.19
413.365	619.19
413.589	626.19
413.812	582.19
414.035	572.19
414.258	563.19
414.482	583.19
414.705	585.19
414.928	581.19
415.151	581.19
415.374	609.19
415.597	584.19
415.821	580.19
416.044	584.19
416.267	566.19
416.49	607.19
416.713	584.19
416.936	580.19
417.159	565.19
417.382	574.19
417.605	615.19
417.828	591.19
418.051	615.19
418.274	581.19
418.497	593.19
418.72	609.19
418.943	588.19
419.166	602.19
419.389	626.19
419.611	623.19
419.834	626.19
420.057	604.19
420.28	601.19
420.503	606.19
420.726	597.19
420.948	607.19
421.171	678.19
421.394	681.19
421.617	642.19
421.839	615.19
422.062	633.19
422.285	645.19
422.507	712.19
422.73	776.19
422.953	786.19
423.175	661.19
423.398	634.19
423.621	638.19
423.843	663.19
424.066	670.19
424.288	636.19
424.511	710.19
424.733	742.19
424.956	844.19
425.178	816.19
425.401	807.19
425.623	804.19
425.846	701.19
426.068	643.19
426.291	667.19
426.513	678.19
426.735	685.19
426.958	723.19
427.18	857.19
427.402	979.19
427.625	1083.19
427.847	902.19
428.069	783.19
428.292	714.19
428.514	666.19
428.736	645.19
428.958	631.19
429.181	615.19
429.403	609.19
429.625	613.19
429.847	651.19
430.069	728.19
430.292	740.19
430.514	632.19
430.736	603.19
430.958	586.19
431.18	573.19
431.402	610.19
431.624	556.19
431.846	584.19
432.068	555.19
432.29	596.19
432.512	585.19
432.734	567.19
432.956	578.19
433.178	575.19
433.4	597.19
433.622	610.19
433.844	576.19
434.066	559.19
434.287	575.19
434.509	596.19
434.731	581.19
434.953	596.19
435.175	620.19
435.397	643.19
435.618	635.19
435.84	734.19
436.062	818.19
436.284	907.19
436.505	739.19
436.727	660.19
436.949	641.19
437.17	629.19
437.392	604.19
437.614	642.19
437.835	661.19
438.057	743.19
438.278	915.19
438.5	909.19
438.721	976.19
438.943	943.19
439.165	777.19
439.386	697.19
439.608	651.19
439.829	667.19
440.05	697.19
440.272	749.19
440.493	720.19
440.715	676.19
440.936	625.19
441.158	605.19
441.379	611.19
441.6	647.19
441.822	639.19
442.043	713.19
442.264	829.19
442.486	885.19
442.707	755.19
442.928	676.19
443.149	703.19
443.371	725.19
443.592	763.19
443.813	855.19
444.034	975.19
444.255	779.19
444.476	687.19
444.698	679.19
444.919	677.19
445.14	799.19
445.361	726.19
445.582	715.19
445.803	787.19
446.024	935.19
446.245	945.19
446.466	839.19
446.687	713.19
446.908	683.19
447.129	652.19
447.35	624.19
447.571	615.19
447.792	593.19
448.013	613.19
448.234	644.19
448.455	690.19
448.675	807.19
448.896	973.19
449.117	815.19
449.338	765.19
449.559	902.19
449.779	1025.19
450	808.19
450.221	712.19
450.442	649.19
450.662	605.19
450.883	598.19
451.104	609.19
451.324	627.19
451.545	588.19
451.766	571.19
451.986	547.19
452.207	559.19
452.428	540.19
452.648	551.19
452.869	544.19
453.089	555.19
453.31	552.19
453.53	553.19
453.751	560.19
453.971	575.19
454.192	579.19
454.412	541.19
454.633	553.19
454.853	553.19
455.073	535.19
455.294	579.19
455.514	665.19
455.734	630.19
455.955	569.19
456.175	534.19
456.395	523.19
456.616	511.19
456.836	522.19
457.056	518.19
457.276	507.19
457.497	527.19
457.717	542.19
457.937	541.19
458.157	518.19
458.377	525.19
458.598	570.19
458.818	627.19
459.038	698.19
459.258	748.19
459.478	649.19
459.698	595.19
459.918	559.19
460.138	577.19
460.358	613.19
460.578	585.19
460.798	587.19
461.018	608.19
461.238	609.19
461.458	582.19
461.678	583.19
461.898	592.19
462.118	591.19
462.338	618.19
462.558	585.19
462.777	613.19
462.997	636.19
463.217	639.19
463.437	661.19
463.657	636.19
463.876	640.19
464.096	639.19
464.316	618.19
464.536	635.19
464.755	637.19
464.975	640.19
465.195	666.19
465.414	745.19
465.634	679.19
465.854	624.19
466.073	614.19
466.293	575.19
466.512	541.19
466.732	561.19
466.951	570.19
467.171	569.19
467.391	561.19
467.61	566.19
467.829	599.19
468.049	574.19
468.268	561.19
468.488	555.19
468.707	586.19
468.927	554.19
469.146	556.19
469.365	548.19
469.585	563.19
469.804	539.19
470.023	565.19
470.243	579.19
470.462	556.19
470.681	574.19
470.901	584.19
471.12	584.19
471.339	577.19
471.558	578.19
471.777	572.19
471.997	552.19
472.216	557.19
472.435	565.19
472.654	585.19
472.873	554.19
473.092	561.19
473.311	586.19
473.53	573.19
473.749	568.19
473.968	614.19
474.187	731.19
474.406	769.19
474.625	631.19
474.844	595.19
475.063	581.19
475.282	579.19
475.501	587.19
475.72	584.19
475.939	599.19
476.158	595.19
476.377	604.19
476.596	577.19
476.814	589.19
477.033	616.19
477.252	618.19
477.471	601.19
477.69	627.19
477.908	609.19
478.127	630.19
478.346	633.19
478.564	630.19
478.783	668.19
479.002	653.19
479.22	631.19
479.439	670.19
479.658	691.19
479.876	700.19
480.095	708.19
480.313	723.19
480.532	709.19
480.751	687.19
480.969	669.19
481.188	726.19
481.406	713.19
481.624	714.19
481.843	660.19
482.061	688.19
482.28	661.19
482.498	663.19
482.717	667.19
482.935	666.19
483.153	644.19
483.372	667.19
483.59	672.19
483.808	669.19
484.027	673.19
484.245	657.19
484.463	692.19
484.681	697.19
484.9	687.19
485.118	697.19
485.336	698.19
485.554	716.19
485.772	700.19
485.99	664.19
486.209	700.19
486.427	706.19
486.645	706.19
486.863	718.19
487.081	720.19
487.299	696.19
487.517	713.19
487.735	709.19
487.953	707.19
488.171	724.19
488.389	732.19
488.607	728.19
488.825	714.19
489.043	716.19
489.261	722.19
489.479	716.19
489.696	730.19
489.914	736.19
490.132	737.19
490.35	740.19
490.568	753.19
490.786	767.19
491.003	772.19
491.221	788.19
491.439	786.19
491.657	805.19
491.874	794.19
492.092	817.19
492.31	817.19
492.527	842.19
492.745	843.19
492.963	831.19
493.18	825.19
493.398	833.19
493.615	864.19
493.833	860.19
494.05	859.19
494.268	830.19
494.485	841.19
494.703	831.19
494.92	825.19
495.138	823.19
495.355	850.19
495.573	856.19
495.79	883.19
496.008	865.19
496.225	864.19
496.442	868.19
496.66	856.19
496.877	881.19
497.094	863.19
497.312	881.19
497.529	907.19
497.746	896.19
497.963	913.19
498.181	911.19
498.398	950.19
498.615	975.19
498.832	984.19
499.049	1004.19
499.267	1050.19
499.484	1025.19
499.701	1082.19
499.918	1121.19
500.135	1175.19
500.352	1209.19
500.569	1210.19
500.786	1261.19
501.003	1243.19
501.22	1181.19
501.437	1139.19
501.654	1137.19
