Data from 1988.PennyLincolnUp.Lamp.En5.5.200Scan.071819.P2_HRD10591_17-21-10-973.txt Node
Date: Thu Jul 18 17:21:10 EDT 2019
User: cochatt
Spectrometer: HR+D1059
Trigger mode: 1
Integration Time (sec): 1.000000E-1
Scans to average: 1
Electric dark correction enabled: true
Nonlinearity correction enabled: false
Boxcar width: 0
XAxis mode: Wavelengths
Number of Pixels in Spectrum: 2048
>>>>>Begin Spectral Data<<<<<
223.165	-21.06
223.4	-21.06
223.635	-21.06
223.869	-26.06
224.104	-28.06
224.338	-20.06
224.573	-13.06
224.808	-9.06
225.042	-7.06
225.277	-12.06
225.511	10.94
225.746	-1.06
225.98	12.94
226.215	-5.06
226.449	16.94
226.683	29.94
226.918	32.94
227.152	38.94
227.387	33.94
227.621	41.94
227.856	22.94
228.09	46.94
228.324	42.94
228.559	70.94
228.793	74.94
229.027	115.94
229.262	126.94
229.496	127.94
229.73	150.94
229.964	165.94
230.199	149.94
230.433	119.94
230.667	127.94
230.901	121.94
231.136	120.94
231.37	113.94
231.604	115.94
231.838	110.94
232.072	116.94
232.306	125.94
232.541	122.94
232.775	109.94
233.009	127.94
233.243	109.94
233.477	125.94
233.711	126.94
233.945	120.94
234.179	135.94
234.413	117.94
234.647	123.94
234.881	111.94
235.115	133.94
235.349	114.94
235.583	133.94
235.817	113.94
236.051	131.94
236.285	128.94
236.519	138.94
236.753	145.94
236.987	166.94
237.221	207.94
237.455	254.94
237.689	213.94
237.922	145.94
238.156	140.94
238.39	133.94
238.624	141.94
238.858	140.94
239.091	133.94
239.325	129.94
239.559	129.94
239.793	151.94
240.027	134.94
240.26	153.94
240.494	174.94
240.728	169.94
240.961	172.94
241.195	171.94
241.429	158.94
241.662	153.94
241.896	135.94
242.13	139.94
242.363	154.94
242.597	141.94
242.83	159.94
243.064	138.94
243.298	170.94
243.531	148.94
243.765	139.94
243.998	155.94
244.232	165.94
244.465	160.94
244.699	151.94
244.932	165.94
245.166	167.94
245.399	154.94
245.633	157.94
245.866	163.94
246.099	147.94
246.333	157.94
246.566	157.94
246.8	164.94
247.033	159.94
247.266	164.94
247.5	179.94
247.733	170.94
247.966	181.94
248.2	170.94
248.433	199.94
248.666	173.94
248.899	200.94
249.133	219.94
249.366	238.94
249.599	223.94
249.832	208.94
250.066	199.94
250.299	197.94
250.532	203.94
250.765	224.94
250.998	256.94
251.231	259.94
251.465	248.94
251.698	223.94
251.931	225.94
252.164	199.94
252.397	208.94
252.63	209.94
252.863	228.94
253.096	230.94
253.329	243.94
253.562	263.94
253.795	244.94
254.028	225.94
254.261	230.94
254.494	253.94
254.727	270.94
254.96	305.94
255.193	286.94
255.426	277.94
255.659	259.94
255.892	243.94
256.124	249.94
256.357	247.94
256.59	247.94
256.823	229.94
257.056	227.94
257.289	223.94
257.521	225.94
257.754	243.94
257.987	232.94
258.22	241.94
258.452	237.94
258.685	244.94
258.918	232.94
259.151	233.94
259.383	233.94
259.616	238.94
259.849	255.94
260.081	277.94
260.314	263.94
260.547	284.94
260.779	273.94
261.012	268.94
261.244	255.94
261.477	243.94
261.71	257.94
261.942	253.94
262.175	252.94
262.407	245.94
262.64	244.94
262.872	252.94
263.105	233.94
263.337	233.94
263.57	235.94
263.802	233.94
264.035	237.94
264.267	250.94
264.499	225.94
264.732	223.94
264.964	242.94
265.197	237.94
265.429	249.94
265.661	226.94
265.894	231.94
266.126	247.94
266.358	235.94
266.591	231.94
266.823	250.94
267.055	255.94
267.287	240.94
267.52	257.94
267.752	238.94
267.984	253.94
268.216	237.94
268.448	257.94
268.681	257.94
268.913	274.94
269.145	292.94
269.377	300.94
269.609	312.94
269.841	300.94
270.073	297.94
270.306	326.94
270.538	365.94
270.77	356.94
271.002	334.94
271.234	335.94
271.466	332.94
271.698	344.94
271.93	358.94
272.162	338.94
272.394	363.94
272.626	343.94
272.858	324.94
273.09	298.94
273.322	306.94
273.553	290.94
273.785	303.94
274.017	294.94
274.249	291.94
274.481	288.94
274.713	311.94
274.945	296.94
275.176	295.94
275.408	280.94
275.64	294.94
275.872	286.94
276.104	282.94
276.335	295.94
276.567	307.94
276.799	330.94
277.031	354.94
277.262	340.94
277.494	350.94
277.726	357.94
277.957	326.94
278.189	318.94
278.421	312.94
278.652	299.94
278.884	317.94
279.115	298.94
279.347	303.94
279.579	302.94
279.81	301.94
280.042	301.94
280.273	300.94
280.505	295.94
280.736	281.94
280.968	294.94
281.199	281.94
281.431	288.94
281.662	302.94
281.894	306.94
282.125	285.94
282.356	326.94
282.588	333.94
282.819	350.94
283.051	314.94
283.282	318.94
283.513	308.94
283.745	303.94
283.976	334.94
284.207	323.94
284.439	302.94
284.67	309.94
284.901	317.94
285.132	315.94
285.364	307.94
285.595	307.94
285.826	314.94
286.057	317.94
286.288	326.94
286.52	306.94
286.751	292.94
286.982	316.94
287.213	300.94
287.444	321.94
287.675	305.94
287.906	358.94
288.138	341.94
288.369	334.94
288.6	338.94
288.831	325.94
289.062	335.94
289.293	351.94
289.524	338.94
289.755	325.94
289.986	315.94
290.217	322.94
290.448	334.94
290.679	328.94
290.91	335.94
291.141	337.94
291.371	326.94
291.602	309.94
291.833	325.94
292.064	330.94
292.295	311.94
292.526	342.94
292.757	318.94
292.987	318.94
293.218	342.94
293.449	338.94
293.68	321.94
293.91	325.94
294.141	333.94
294.372	326.94
294.603	327.94
294.833	338.94
295.064	310.94
295.295	328.94
295.525	321.94
295.756	335.94
295.987	346.94
296.217	340.94
296.448	375.94
296.679	355.94
296.909	362.94
297.14	322.94
297.37	346.94
297.601	333.94
297.831	326.94
298.062	337.94
298.292	345.94
298.523	350.94
298.753	347.94
298.984	326.94
299.214	349.94
299.445	321.94
299.675	328.94
299.905	343.94
300.136	362.94
300.366	363.94
300.597	360.94
300.827	381.94
301.057	371.94
301.288	370.94
301.518	373.94
301.748	358.94
301.979	363.94
302.209	374.94
302.439	370.94
302.669	378.94
302.9	381.94
303.13	360.94
303.36	385.94
303.59	377.94
303.82	376.94
304.051	379.94
304.281	384.94
304.511	357.94
304.741	383.94
304.971	366.94
305.201	355.94
305.431	381.94
305.661	371.94
305.891	381.94
306.121	387.94
306.352	370.94
306.582	379.94
306.812	389.94
307.042	377.94
307.272	365.94
307.502	389.94
307.731	383.94
307.961	382.94
308.191	385.94
308.421	384.94
308.651	391.94
308.881	381.94
309.111	389.94
309.341	402.94
309.571	403.94
309.8	426.94
310.03	409.94
310.26	433.94
310.49	424.94
310.72	450.94
310.949	451.94
311.179	462.94
311.409	441.94
311.639	448.94
311.868	439.94
312.098	437.94
312.328	450.94
312.557	455.94
312.787	467.94
313.017	468.94
313.246	445.94
313.476	443.94
313.706	436.94
313.935	445.94
314.165	430.94
314.394	469.94
314.624	445.94
314.853	461.94
315.083	438.94
315.312	434.94
315.542	433.94
315.771	435.94
316.001	419.94
316.23	407.94
316.46	410.94
316.689	455.94
316.919	435.94
317.148	450.94
317.377	468.94
317.607	464.94
317.836	468.94
318.065	436.94
318.295	429.94
318.524	424.94
318.753	446.94
318.983	442.94
319.212	426.94
319.441	444.94
319.67	443.94
319.9	441.94
320.129	437.94
320.358	442.94
320.587	459.94
320.816	438.94
321.046	445.94
321.275	478.94
321.504	439.94
321.733	456.94
321.962	483.94
322.191	497.94
322.42	511.94
322.649	513.94
322.878	541.94
323.108	527.94
323.337	555.94
323.566	580.94
323.795	635.94
324.024	672.94
324.253	832.94
324.482	1181.94
324.71	1875.94
324.939	2821.94
325.168	2391.94
325.397	1176.94
325.626	759.94
325.855	662.94
326.084	614.94
326.313	601.94
326.542	596.94
326.77	640.94
326.999	759.94
327.228	1063.94
327.457	1659.94
327.686	2071.94
327.914	1375.94
328.143	875.94
328.372	741.94
328.6	693.94
328.829	644.94
329.058	683.94
329.287	693.94
329.515	621.94
329.744	579.94
329.972	579.94
330.201	586.94
330.43	628.94
330.658	653.94
330.887	698.94
331.115	683.94
331.344	619.94
331.572	577.94
331.801	573.94
332.03	570.94
332.258	558.94
332.486	538.94
332.715	516.94
332.943	529.94
333.172	527.94
333.4	525.94
333.629	536.94
333.857	568.94
334.085	534.94
334.314	550.94
334.542	554.94
334.771	549.94
334.999	538.94
335.227	549.94
335.455	547.94
335.684	522.94
335.912	543.94
336.14	515.94
336.369	497.94
336.597	537.94
336.825	532.94
337.053	517.94
337.281	501.94
337.51	508.94
337.738	517.94
337.966	519.94
338.194	531.94
338.422	517.94
338.65	514.94
338.878	517.94
339.106	487.94
339.334	498.94
339.562	482.94
339.79	526.94
340.018	524.94
340.246	515.94
340.474	515.94
340.702	509.94
340.93	505.94
341.158	520.94
341.386	498.94
341.614	512.94
341.842	523.94
342.07	497.94
342.298	497.94
342.526	498.94
342.754	471.94
342.981	492.94
343.209	498.94
343.437	509.94
343.665	505.94
343.893	508.94
344.12	521.94
344.348	513.94
344.576	517.94
344.804	511.94
345.031	508.94
345.259	543.94
345.487	515.94
345.714	530.94
345.942	500.94
346.17	499.94
346.397	492.94
346.625	485.94
346.853	496.94
347.08	463.94
347.308	501.94
347.535	515.94
347.763	516.94
347.99	518.94
348.218	487.94
348.445	516.94
348.673	495.94
348.9	491.94
349.128	485.94
349.355	484.94
349.583	469.94
349.81	458.94
350.037	493.94
350.265	481.94
350.492	474.94
350.72	482.94
350.947	480.94
351.174	471.94
351.402	517.94
351.629	515.94
351.856	498.94
352.083	509.94
352.311	497.94
352.538	515.94
352.765	515.94
352.992	505.94
353.22	459.94
353.447	517.94
353.674	477.94
353.901	464.94
354.128	463.94
354.355	483.94
354.583	461.94
354.81	449.94
355.037	476.94
355.264	429.94
355.491	440.94
355.718	443.94
355.945	461.94
356.172	458.94
356.399	455.94
356.626	444.94
356.853	462.94
357.08	462.94
357.307	456.94
357.534	453.94
357.761	463.94
357.988	492.94
358.215	479.94
358.441	455.94
358.668	457.94
358.895	451.94
359.122	460.94
359.349	478.94
359.576	504.94
359.802	513.94
360.029	546.94
360.256	573.94
360.483	521.94
360.709	519.94
360.936	502.94
361.163	483.94
361.39	486.94
361.616	506.94
361.843	484.94
362.07	476.94
362.296	502.94
362.523	479.94
362.749	495.94
362.976	484.94
363.203	477.94
363.429	484.94
363.656	486.94
363.882	481.94
364.109	479.94
364.335	463.94
364.562	468.94
364.788	480.94
365.015	473.94
365.241	453.94
365.468	487.94
365.694	488.94
365.92	489.94
366.147	487.94
366.373	485.94
366.599	470.94
366.826	464.94
367.052	456.94
367.278	470.94
367.505	458.94
367.731	480.94
367.957	477.94
368.184	495.94
368.41	485.94
368.636	463.94
368.862	476.94
369.089	467.94
369.315	485.94
369.541	470.94
369.767	486.94
369.993	492.94
370.219	483.94
370.445	467.94
370.672	481.94
370.898	465.94
371.124	464.94
371.35	493.94
371.576	481.94
371.802	453.94
372.028	469.94
372.254	489.94
372.48	491.94
372.706	491.94
372.932	475.94
373.158	476.94
373.384	490.94
373.61	478.94
373.835	492.94
374.061	468.94
374.287	497.94
374.513	497.94
374.739	478.94
374.965	483.94
375.191	471.94
375.416	496.94
375.642	494.94
375.868	499.94
376.094	490.94
376.319	492.94
376.545	478.94
376.771	457.94
376.997	471.94
377.222	478.94
377.448	472.94
377.674	491.94
377.899	447.94
378.125	469.94
378.35	481.94
378.576	478.94
378.802	443.94
379.027	464.94
379.253	478.94
379.478	482.94
379.704	467.94
379.929	461.94
380.155	459.94
380.38	491.94
380.606	486.94
380.831	495.94
381.057	490.94
381.282	485.94
381.507	494.94
381.733	473.94
381.958	481.94
382.184	470.94
382.409	494.94
382.634	506.94
382.86	489.94
383.085	496.94
383.31	474.94
383.535	490.94
383.761	494.94
383.986	510.94
384.211	499.94
384.436	501.94
384.662	497.94
384.887	504.94
385.112	514.94
385.337	526.94
385.562	508.94
385.787	515.94
386.013	533.94
386.238	520.94
386.463	518.94
386.688	519.94
386.913	535.94
387.138	529.94
387.363	513.94
387.588	504.94
387.813	521.94
388.038	525.94
388.263	515.94
388.488	515.94
388.713	533.94
388.938	538.94
389.163	523.94
389.387	552.94
389.612	512.94
389.837	518.94
390.062	518.94
390.287	532.94
390.512	544.94
390.736	530.94
390.961	547.94
391.186	511.94
391.411	533.94
391.636	549.94
391.86	533.94
392.085	532.94
392.31	532.94
392.534	530.94
392.759	554.94
392.984	545.94
393.208	538.94
393.433	525.94
393.658	540.94
393.882	533.94
394.107	537.94
394.331	529.94
394.556	527.94
394.78	520.94
395.005	546.94
395.229	571.94
395.454	543.94
395.678	556.94
395.903	579.94
396.127	602.94
396.352	598.94
396.576	586.94
396.801	542.94
397.025	584.94
397.249	562.94
397.474	555.94
397.698	558.94
397.922	586.94
398.147	598.94
398.371	620.94
398.595	609.94
398.82	583.94
399.044	620.94
399.268	627.94
399.492	677.94
399.717	705.94
399.941	743.94
400.165	732.94
400.389	753.94
400.613	703.94
400.837	632.94
401.062	637.94
401.286	620.94
401.51	635.94
401.734	642.94
401.958	616.94
402.182	606.94
402.406	632.94
402.63	636.94
402.854	628.94
403.078	635.94
403.302	645.94
403.526	629.94
403.75	630.94
403.974	630.94
404.198	630.94
404.422	642.94
404.645	660.94
404.869	655.94
405.093	661.94
405.317	710.94
405.541	755.94
405.765	699.94
405.988	666.94
406.212	683.94
406.436	691.94
406.66	727.94
406.883	691.94
407.107	718.94
407.331	780.94
407.555	868.94
407.778	852.94
408.002	779.94
408.226	729.94
408.449	732.94
408.673	704.94
408.896	728.94
409.12	790.94
409.344	729.94
409.567	665.94
409.791	661.94
410.014	652.94
410.238	627.94
410.461	634.94
410.685	651.94
410.908	656.94
411.132	697.94
411.355	762.94
411.578	734.94
411.802	657.94
412.025	626.94
412.249	645.94
412.472	659.94
412.695	665.94
412.919	679.94
413.142	645.94
413.365	618.94
413.589	606.94
413.812	619.94
414.035	633.94
414.258	614.94
414.482	603.94
414.705	609.94
414.928	605.94
415.151	604.94
415.374	608.94
415.597	595.94
415.821	599.94
416.044	589.94
416.267	605.94
416.49	590.94
416.713	579.94
416.936	610.94
417.159	586.94
417.382	595.94
417.605	635.94
417.828	612.94
418.051	646.94
418.274	621.94
418.497	608.94
418.72	598.94
418.943	589.94
419.166	617.94
419.389	663.94
419.611	651.94
419.834	646.94
420.057	639.94
420.28	617.94
420.503	618.94
420.726	622.94
420.948	633.94
421.171	698.94
421.394	737.94
421.617	663.94
421.839	633.94
422.062	641.94
422.285	657.94
422.507	729.94
422.73	793.94
422.953	780.94
423.175	693.94
423.398	675.94
423.621	664.94
423.843	694.94
424.066	696.94
424.288	671.94
424.511	687.94
424.733	756.94
424.956	863.94
425.178	815.94
425.401	836.94
425.623	860.94
425.846	739.94
426.068	693.94
426.291	674.94
426.513	691.94
426.735	719.94
426.958	772.94
427.18	837.94
427.402	980.94
427.625	1112.94
427.847	940.94
428.069	800.94
428.292	745.94
428.514	695.94
428.736	636.94
428.958	653.94
429.181	650.94
429.403	634.94
429.625	643.94
429.847	700.94
430.069	747.94
430.292	784.94
430.514	673.94
430.736	624.94
430.958	595.94
431.18	614.94
431.402	588.94
431.624	587.94
431.846	587.94
432.068	592.94
432.29	624.94
432.512	591.94
432.734	600.94
432.956	606.94
433.178	628.94
433.4	622.94
433.622	595.94
433.844	587.94
434.066	590.94
434.287	591.94
434.509	593.94
434.731	617.94
434.953	613.94
435.175	614.94
435.397	650.94
435.618	691.94
435.84	715.94
436.062	836.94
436.284	931.94
436.505	776.94
436.727	710.94
436.949	651.94
437.17	628.94
437.392	633.94
437.614	649.94
437.835	713.94
438.057	826.94
438.278	946.94
438.5	939.94
438.721	1023.94
438.943	988.94
439.165	796.94
439.386	723.94
439.608	692.94
439.829	695.94
440.05	735.94
440.272	818.94
440.493	742.94
440.715	681.94
440.936	651.94
441.158	641.94
441.379	641.94
441.6	658.94
441.822	668.94
442.043	733.94
442.264	833.94
442.486	874.94
442.707	753.94
442.928	693.94
443.149	711.94
443.371	743.94
443.592	795.94
443.813	894.94
444.034	1030.94
444.255	820.94
444.476	721.94
444.698	691.94
444.919	679.94
445.14	819.94
445.361	761.94
445.582	748.94
445.803	850.94
446.024	949.94
446.245	979.94
446.466	870.94
446.687	767.94
446.908	695.94
447.129	663.94
447.35	648.94
447.571	653.94
447.792	627.94
448.013	613.94
448.234	641.94
448.455	697.94
448.675	873.94
448.896	1015.94
449.117	847.94
449.338	803.94
449.559	926.94
449.779	1077.94
450	842.94
450.221	716.94
450.442	648.94
450.662	629.94
450.883	622.94
451.104	642.94
451.324	627.94
451.545	605.94
451.766	597.94
451.986	573.94
452.207	556.94
452.428	560.94
452.648	555.94
452.869	557.94
453.089	571.94
453.31	565.94
453.53	595.94
453.751	579.94
453.971	587.94
454.192	606.94
454.412	585.94
454.633	564.94
454.853	559.94
455.073	563.94
455.294	584.94
455.514	685.94
455.734	647.94
455.955	561.94
456.175	553.94
456.395	563.94
456.616	527.94
456.836	520.94
457.056	533.94
457.276	548.94
457.497	534.94
457.717	563.94
457.937	539.94
458.157	553.94
458.377	564.94
458.598	595.94
458.818	643.94
459.038	733.94
459.258	761.94
459.478	661.94
459.698	609.94
459.918	602.94
460.138	581.94
460.358	614.94
460.578	603.94
460.798	630.94
461.018	613.94
461.238	601.94
461.458	599.94
461.678	606.94
461.898	613.94
462.118	630.94
462.338	627.94
462.558	635.94
462.777	634.94
462.997	637.94
463.217	669.94
463.437	691.94
463.657	631.94
463.876	662.94
464.096	654.94
464.316	656.94
464.536	659.94
464.755	658.94
464.975	668.94
465.195	725.94
465.414	807.94
465.634	701.94
465.854	675.94
466.073	613.94
466.293	634.94
466.512	605.94
466.732	582.94
466.951	584.94
467.171	593.94
467.391	572.94
467.61	606.94
467.829	592.94
468.049	613.94
468.268	572.94
468.488	578.94
468.707	566.94
468.927	565.94
469.146	574.94
469.365	563.94
469.585	572.94
469.804	567.94
470.023	589.94
470.243	562.94
470.462	595.94
470.681	614.94
470.901	632.94
471.12	585.94
471.339	589.94
471.558	626.94
471.777	575.94
471.997	565.94
472.216	561.94
472.435	562.94
472.654	594.94
472.873	584.94
473.092	585.94
473.311	587.94
473.53	586.94
473.749	594.94
473.968	649.94
474.187	773.94
474.406	818.94
474.625	657.94
474.844	590.94
475.063	583.94
475.282	606.94
475.501	589.94
475.72	622.94
475.939	626.94
476.158	638.94
476.377	613.94
476.596	599.94
476.814	599.94
477.033	633.94
477.252	620.94
477.471	621.94
477.69	614.94
477.908	629.94
478.127	637.94
478.346	629.94
478.564	643.94
478.783	685.94
479.002	695.94
479.22	661.94
479.439	680.94
479.658	713.94
479.876	739.94
480.095	712.94
480.313	755.94
480.532	731.94
480.751	744.94
480.969	720.94
481.188	753.94
481.406	746.94
481.624	735.94
481.843	716.94
482.061	704.94
482.28	695.94
482.498	701.94
482.717	697.94
482.935	677.94
483.153	679.94
483.372	688.94
483.59	665.94
483.808	712.94
484.027	701.94
484.245	698.94
484.463	706.94
484.681	721.94
484.9	693.94
485.118	712.94
485.336	727.94
485.554	746.94
485.772	730.94
485.99	714.94
486.209	732.94
486.427	732.94
486.645	723.94
486.863	765.94
487.081	769.94
487.299	766.94
487.517	717.94
487.735	773.94
487.953	741.94
488.171	770.94
488.389	750.94
488.607	758.94
488.825	761.94
489.043	738.94
489.261	741.94
489.479	747.94
489.696	772.94
489.914	758.94
490.132	758.94
490.35	773.94
490.568	781.94
490.786	774.94
491.003	807.94
491.221	822.94
491.439	822.94
491.657	852.94
491.874	828.94
492.092	856.94
492.31	836.94
492.527	850.94
492.745	847.94
492.963	907.94
493.18	841.94
493.398	831.94
493.615	866.94
493.833	891.94
494.05	910.94
494.268	877.94
494.485	875.94
494.703	871.94
494.92	882.94
495.138	867.94
495.355	891.94
495.573	881.94
495.79	863.94
496.008	852.94
496.225	881.94
496.442	895.94
496.66	902.94
496.877	906.94
497.094	902.94
497.312	917.94
497.529	913.94
497.746	911.94
497.963	947.94
498.181	985.94
498.398	985.94
498.615	994.94
498.832	1020.94
499.049	1037.94
499.267	1066.94
499.484	1117.94
499.701	1118.94
499.918	1157.94
500.135	1205.94
500.352	1237.94
500.569	1299.94
500.786	1270.94
501.003	1261.94
501.22	1254.94
501.437	1226.94
501.654	1183.94
