Data from 1988.PennyLincolnUp.Lamp.En5.5.200Scan.071819.P2_HRD10591_17-21-11-971.txt Node
Date: Thu Jul 18 17:21:11 EDT 2019
User: cochatt
Spectrometer: HR+D1059
Trigger mode: 1
Integration Time (sec): 1.000000E-1
Scans to average: 1
Electric dark correction enabled: true
Nonlinearity correction enabled: false
Boxcar width: 0
XAxis mode: Wavelengths
Number of Pixels in Spectrum: 2048
>>>>>Begin Spectral Data<<<<<
223.165	-5.69
223.4	-5.69
223.635	-5.69
223.869	-13.69
224.104	-12.69
224.338	-21.69
224.573	-17.69
224.808	-23.69
225.042	-16.69
225.277	4.31
225.511	9.31
225.746	7.31
225.98	3.31
226.215	15.31
226.449	21.31
226.683	13.31
226.918	6.31
227.152	31.31
227.387	33.31
227.621	36.31
227.856	46.31
228.09	39.31
228.324	66.31
228.559	67.31
228.793	66.31
229.027	108.31
229.262	134.31
229.496	137.31
229.73	162.31
229.964	182.31
230.199	146.31
230.433	119.31
230.667	125.31
230.901	130.31
231.136	132.31
231.37	109.31
231.604	125.31
231.838	132.31
232.072	122.31
232.306	123.31
232.541	129.31
232.775	129.31
233.009	118.31
233.243	115.31
233.477	124.31
233.711	129.31
233.945	141.31
234.179	148.31
234.413	135.31
234.647	115.31
234.881	124.31
235.115	134.31
235.349	135.31
235.583	127.31
235.817	125.31
236.051	141.31
236.285	147.31
236.519	144.31
236.753	153.31
236.987	168.31
237.221	199.31
237.455	266.31
237.689	236.31
237.922	154.31
238.156	137.31
238.39	152.31
238.624	146.31
238.858	136.31
239.091	133.31
239.325	146.31
239.559	130.31
239.793	139.31
240.027	143.31
240.26	156.31
240.494	186.31
240.728	184.31
240.961	169.31
241.195	165.31
241.429	142.31
241.662	153.31
241.896	142.31
242.13	150.31
242.363	152.31
242.597	152.31
242.83	158.31
243.064	151.31
243.298	157.31
243.531	137.31
243.765	147.31
243.998	153.31
244.232	152.31
244.465	162.31
244.699	164.31
244.932	159.31
245.166	137.31
245.399	157.31
245.633	163.31
245.866	154.31
246.099	161.31
246.333	162.31
246.566	163.31
246.8	170.31
247.033	168.31
247.266	190.31
247.5	175.31
247.733	188.31
247.966	190.31
248.2	182.31
248.433	187.31
248.666	191.31
248.899	205.31
249.133	207.31
249.366	225.31
249.599	208.31
249.832	212.31
250.066	204.31
250.299	191.31
250.532	198.31
250.765	228.31
250.998	239.31
251.231	256.31
251.465	236.31
251.698	213.31
251.931	222.31
252.164	204.31
252.397	222.31
252.63	235.31
252.863	213.31
253.096	218.31
253.329	244.31
253.562	255.31
253.795	246.31
254.028	242.31
254.261	242.31
254.494	251.31
254.727	285.31
254.96	313.31
255.193	303.31
255.426	276.31
255.659	244.31
255.892	261.31
256.124	249.31
256.357	238.31
256.59	243.31
256.823	224.31
257.056	234.31
257.289	228.31
257.521	235.31
257.754	223.31
257.987	236.31
258.22	249.31
258.452	222.31
258.685	227.31
258.918	211.31
259.151	227.31
259.383	232.31
259.616	244.31
259.849	243.31
260.081	241.31
260.314	277.31
260.547	278.31
260.779	273.31
261.012	251.31
261.244	244.31
261.477	239.31
261.71	238.31
261.942	249.31
262.175	258.31
262.407	243.31
262.64	262.31
262.872	236.31
263.105	241.31
263.337	226.31
263.57	251.31
263.802	244.31
264.035	229.31
264.267	221.31
264.499	230.31
264.732	234.31
264.964	230.31
265.197	230.31
265.429	235.31
265.661	259.31
265.894	237.31
266.126	244.31
266.358	235.31
266.591	246.31
266.823	256.31
267.055	243.31
267.287	257.31
267.52	256.31
267.752	267.31
267.984	247.31
268.216	259.31
268.448	243.31
268.681	254.31
268.913	278.31
269.145	299.31
269.377	312.31
269.609	299.31
269.841	290.31
270.073	297.31
270.306	301.31
270.538	346.31
270.77	355.31
271.002	336.31
271.234	312.31
271.466	327.31
271.698	348.31
271.93	348.31
272.162	349.31
272.394	343.31
272.626	335.31
272.858	338.31
273.09	312.31
273.322	304.31
273.553	293.31
273.785	283.31
274.017	271.31
274.249	285.31
274.481	291.31
274.713	301.31
274.945	306.31
275.176	289.31
275.408	277.31
275.64	293.31
275.872	307.31
276.104	286.31
276.335	308.31
276.567	290.31
276.799	325.31
277.031	345.31
277.262	353.31
277.494	362.31
277.726	336.31
277.957	316.31
278.189	299.31
278.421	301.31
278.652	296.31
278.884	313.31
279.115	312.31
279.347	294.31
279.579	284.31
279.81	298.31
280.042	291.31
280.273	301.31
280.505	284.31
280.736	294.31
280.968	300.31
281.199	315.31
281.431	309.31
281.662	305.31
281.894	315.31
282.125	312.31
282.356	334.31
282.588	338.31
282.819	335.31
283.051	316.31
283.282	306.31
283.513	295.31
283.745	310.31
283.976	317.31
284.207	299.31
284.439	302.31
284.67	321.31
284.901	310.31
285.132	315.31
285.364	315.31
285.595	344.31
285.826	331.31
286.057	316.31
286.288	290.31
286.52	293.31
286.751	326.31
286.982	319.31
287.213	323.31
287.444	318.31
287.675	312.31
287.906	342.31
288.138	349.31
288.369	342.31
288.6	344.31
288.831	322.31
289.062	314.31
289.293	336.31
289.524	334.31
289.755	316.31
289.986	342.31
290.217	327.31
290.448	325.31
290.679	322.31
290.91	330.31
291.141	303.31
291.371	328.31
291.602	316.31
291.833	315.31
292.064	313.31
292.295	332.31
292.526	342.31
292.757	342.31
292.987	325.31
293.218	323.31
293.449	308.31
293.68	323.31
293.91	322.31
294.141	344.31
294.372	324.31
294.603	323.31
294.833	323.31
295.064	332.31
295.295	334.31
295.525	327.31
295.756	353.31
295.987	343.31
296.217	364.31
296.448	400.31
296.679	343.31
296.909	334.31
297.14	336.31
297.37	340.31
297.601	341.31
297.831	343.31
298.062	346.31
298.292	342.31
298.523	319.31
298.753	343.31
298.984	347.31
299.214	348.31
299.445	340.31
299.675	346.31
299.905	355.31
300.136	367.31
300.366	346.31
300.597	355.31
300.827	355.31
301.057	374.31
301.288	374.31
301.518	376.31
301.748	389.31
301.979	374.31
302.209	371.31
302.439	383.31
302.669	371.31
302.9	355.31
303.13	386.31
303.36	376.31
303.59	380.31
303.82	400.31
304.051	400.31
304.281	356.31
304.511	354.31
304.741	374.31
304.971	378.31
305.201	371.31
305.431	364.31
305.661	365.31
305.891	358.31
306.121	378.31
306.352	382.31
306.582	368.31
306.812	378.31
307.042	392.31
307.272	382.31
307.502	379.31
307.731	383.31
307.961	359.31
308.191	398.31
308.421	367.31
308.651	367.31
308.881	387.31
309.111	408.31
309.341	400.31
309.571	403.31
309.8	396.31
310.03	420.31
310.26	435.31
310.49	419.31
310.72	419.31
310.949	471.31
311.179	461.31
311.409	440.31
311.639	410.31
311.868	418.31
312.098	436.31
312.328	445.31
312.557	446.31
312.787	463.31
313.017	466.31
313.246	462.31
313.476	439.31
313.706	415.31
313.935	439.31
314.165	455.31
314.394	456.31
314.624	457.31
314.853	446.31
315.083	426.31
315.312	441.31
315.542	436.31
315.771	418.31
316.001	429.31
316.23	430.31
316.46	443.31
316.689	414.31
316.919	441.31
317.148	422.31
317.377	468.31
317.607	448.31
317.836	460.31
318.065	422.31
318.295	412.31
318.524	438.31
318.753	428.31
318.983	438.31
319.212	429.31
319.441	458.31
319.67	443.31
319.9	439.31
320.129	437.31
320.358	435.31
320.587	454.31
320.816	463.31
321.046	467.31
321.275	472.31
321.504	453.31
321.733	468.31
321.962	467.31
322.191	494.31
322.42	495.31
322.649	520.31
322.878	535.31
323.108	528.31
323.337	550.31
323.566	591.31
323.795	634.31
324.024	675.31
324.253	825.31
324.482	1164.31
324.71	1868.31
324.939	2805.31
325.168	2404.31
325.397	1189.31
325.626	804.31
325.855	646.31
326.084	590.31
326.313	597.31
326.542	619.31
326.77	658.31
326.999	764.31
327.228	1074.31
327.457	1654.31
327.686	2124.31
327.914	1343.31
328.143	861.31
328.372	731.31
328.6	683.31
328.829	681.31
329.058	662.31
329.287	682.31
329.515	640.31
329.744	583.31
329.972	588.31
330.201	606.31
330.43	619.31
330.658	652.31
330.887	713.31
331.115	685.31
331.344	589.31
331.572	579.31
331.801	586.31
332.03	584.31
332.258	556.31
332.486	527.31
332.715	514.31
332.943	518.31
333.172	507.31
333.4	536.31
333.629	538.31
333.857	555.31
334.085	560.31
334.314	548.31
334.542	554.31
334.771	571.31
334.999	545.31
335.227	542.31
335.455	524.31
335.684	525.31
335.912	538.31
336.14	527.31
336.369	521.31
336.597	546.31
336.825	547.31
337.053	526.31
337.281	492.31
337.51	503.31
337.738	514.31
337.966	516.31
338.194	514.31
338.422	517.31
338.65	522.31
338.878	514.31
339.106	478.31
339.334	492.31
339.562	487.31
339.79	489.31
340.018	492.31
340.246	513.31
340.474	522.31
340.702	503.31
340.93	492.31
341.158	490.31
341.386	486.31
341.614	500.31
341.842	494.31
342.07	509.31
342.298	495.31
342.526	498.31
342.754	493.31
342.981	495.31
343.209	472.31
343.437	495.31
343.665	512.31
343.893	510.31
344.12	511.31
344.348	529.31
344.576	498.31
344.804	512.31
345.031	523.31
345.259	550.31
345.487	523.31
345.714	507.31
345.942	490.31
346.17	496.31
346.397	497.31
346.625	490.31
346.853	475.31
347.08	483.31
347.308	478.31
347.535	500.31
347.763	512.31
347.99	514.31
348.218	491.31
348.445	502.31
348.673	495.31
348.9	483.31
349.128	490.31
349.355	464.31
349.583	475.31
349.81	456.31
350.037	491.31
350.265	463.31
350.492	491.31
350.72	477.31
350.947	489.31
351.174	480.31
351.402	509.31
351.629	512.31
351.856	491.31
352.083	485.31
352.311	518.31
352.538	513.31
352.765	506.31
352.992	505.31
353.22	510.31
353.447	499.31
353.674	506.31
353.901	506.31
354.128	483.31
354.355	496.31
354.583	469.31
354.81	484.31
355.037	443.31
355.264	451.31
355.491	467.31
355.718	464.31
355.945	462.31
356.172	452.31
356.399	482.31
356.626	451.31
356.853	446.31
357.08	452.31
357.307	455.31
357.534	447.31
357.761	464.31
357.988	468.31
358.215	478.31
358.441	450.31
358.668	477.31
358.895	460.31
359.122	457.31
359.349	467.31
359.576	516.31
359.802	529.31
360.029	556.31
360.256	579.31
360.483	541.31
360.709	495.31
360.936	494.31
361.163	491.31
361.39	490.31
361.616	488.31
361.843	484.31
362.07	480.31
362.296	484.31
362.523	500.31
362.749	503.31
362.976	476.31
363.203	478.31
363.429	493.31
363.656	478.31
363.882	471.31
364.109	459.31
364.335	474.31
364.562	472.31
364.788	465.31
365.015	468.31
365.241	475.31
365.468	487.31
365.694	498.31
365.92	489.31
366.147	471.31
366.373	445.31
366.599	464.31
366.826	472.31
367.052	477.31
367.278	479.31
367.505	447.31
367.731	470.31
367.957	454.31
368.184	494.31
368.41	484.31
368.636	480.31
368.862	486.31
369.089	472.31
369.315	472.31
369.541	493.31
369.767	489.31
369.993	501.31
370.219	480.31
370.445	467.31
370.672	457.31
370.898	476.31
371.124	464.31
371.35	489.31
371.576	459.31
371.802	477.31
372.028	483.31
372.254	472.31
372.48	480.31
372.706	477.31
372.932	472.31
373.158	492.31
373.384	485.31
373.61	464.31
373.835	455.31
374.061	486.31
374.287	476.31
374.513	458.31
374.739	495.31
374.965	492.31
375.191	481.31
375.416	487.31
375.642	484.31
375.868	463.31
376.094	473.31
376.319	453.31
376.545	481.31
376.771	466.31
376.997	457.31
377.222	480.31
377.448	458.31
377.674	490.31
377.899	461.31
378.125	470.31
378.35	468.31
378.576	468.31
378.802	469.31
379.027	473.31
379.253	451.31
379.478	464.31
379.704	478.31
379.929	483.31
380.155	491.31
380.38	468.31
380.606	488.31
380.831	482.31
381.057	502.31
381.282	499.31
381.507	464.31
381.733	480.31
381.958	468.31
382.184	461.31
382.409	479.31
382.634	490.31
382.86	466.31
383.085	488.31
383.31	462.31
383.535	488.31
383.761	503.31
383.986	502.31
384.211	506.31
384.436	481.31
384.662	509.31
384.887	506.31
385.112	499.31
385.337	517.31
385.562	536.31
385.787	500.31
386.013	531.31
386.238	547.31
386.463	540.31
386.688	509.31
386.913	524.31
387.138	518.31
387.363	552.31
387.588	501.31
387.813	508.31
388.038	553.31
388.263	509.31
388.488	502.31
388.713	518.31
388.938	527.31
389.163	534.31
389.387	523.31
389.612	526.31
389.837	520.31
390.062	531.31
390.287	548.31
390.512	531.31
390.736	499.31
390.961	516.31
391.186	541.31
391.411	549.31
391.636	528.31
391.86	528.31
392.085	532.31
392.31	542.31
392.534	543.31
392.759	527.31
392.984	532.31
393.208	540.31
393.433	518.31
393.658	537.31
393.882	532.31
394.107	515.31
394.331	520.31
394.556	526.31
394.78	558.31
395.005	551.31
395.229	548.31
395.454	583.31
395.678	556.31
395.903	566.31
396.127	573.31
396.352	574.31
396.576	576.31
396.801	563.31
397.025	569.31
397.249	543.31
397.474	552.31
397.698	582.31
397.922	582.31
398.147	600.31
398.371	590.31
398.595	607.31
398.82	602.31
399.044	635.31
399.268	639.31
399.492	673.31
399.717	671.31
399.941	718.31
400.165	768.31
400.389	751.31
400.613	708.31
400.837	676.31
401.062	638.31
401.286	622.31
401.51	616.31
401.734	612.31
401.958	622.31
402.182	626.31
402.406	638.31
402.63	628.31
402.854	635.31
403.078	631.31
403.302	611.31
403.526	645.31
403.75	638.31
403.974	657.31
404.198	654.31
404.422	637.31
404.645	633.31
404.869	643.31
405.093	666.31
405.317	708.31
405.541	756.31
405.765	681.31
405.988	653.31
406.212	661.31
406.436	681.31
406.66	699.31
406.883	665.31
407.107	720.31
407.331	782.31
407.555	861.31
407.778	857.31
408.002	786.31
408.226	728.31
408.449	733.31
408.673	710.31
408.896	735.31
409.12	776.31
409.344	765.31
409.567	682.31
409.791	637.31
410.014	656.31
410.238	641.31
410.461	644.31
410.685	639.31
410.908	652.31
411.132	698.31
411.355	746.31
411.578	707.31
411.802	663.31
412.025	630.31
412.249	614.31
412.472	653.31
412.695	691.31
412.919	671.31
413.142	635.31
413.365	599.31
413.589	634.31
413.812	608.31
414.035	614.31
414.258	606.31
414.482	590.31
414.705	603.31
414.928	600.31
415.151	611.31
415.374	585.31
415.597	615.31
415.821	601.31
416.044	618.31
416.267	602.31
416.49	621.31
416.713	609.31
416.936	588.31
417.159	567.31
417.382	610.31
417.605	626.31
417.828	598.31
418.051	648.31
418.274	589.31
418.497	606.31
418.72	608.31
418.943	614.31
419.166	614.31
419.389	633.31
419.611	662.31
419.834	640.31
420.057	649.31
420.28	647.31
420.503	644.31
420.726	618.31
420.948	660.31
421.171	706.31
421.394	751.31
421.617	648.31
421.839	642.31
422.062	646.31
422.285	648.31
422.507	708.31
422.73	831.31
422.953	784.31
423.175	680.31
423.398	664.31
423.621	679.31
423.843	673.31
424.066	684.31
424.288	669.31
424.511	700.31
424.733	763.31
424.956	873.31
425.178	833.31
425.401	841.31
425.623	878.31
425.846	730.31
426.068	685.31
426.291	693.31
426.513	699.31
426.735	679.31
426.958	739.31
427.18	836.31
427.402	1014.31
427.625	1103.31
427.847	984.31
428.069	807.31
428.292	728.31
428.514	692.31
428.736	646.31
428.958	638.31
429.181	629.31
429.403	636.31
429.625	645.31
429.847	684.31
430.069	784.31
430.292	743.31
430.514	655.31
430.736	628.31
430.958	607.31
431.18	604.31
431.402	624.31
431.624	598.31
431.846	612.31
432.068	596.31
432.29	609.31
432.512	584.31
432.734	603.31
432.956	606.31
433.178	629.31
433.4	633.31
433.622	592.31
433.844	609.31
434.066	578.31
434.287	602.31
434.509	595.31
434.731	617.31
434.953	654.31
435.175	632.31
435.397	692.31
435.618	677.31
435.84	717.31
436.062	861.31
436.284	948.31
436.505	794.31
436.727	698.31
436.949	637.31
437.17	610.31
437.392	652.31
437.614	637.31
437.835	697.31
438.057	833.31
438.278	952.31
438.5	933.31
438.721	1008.31
438.943	963.31
439.165	780.31
439.386	718.31
439.608	695.31
439.829	669.31
440.05	749.31
440.272	778.31
440.493	756.31
440.715	668.31
440.936	631.31
441.158	638.31
441.379	648.31
441.6	653.31
441.822	677.31
442.043	730.31
442.264	838.31
442.486	888.31
442.707	763.31
442.928	698.31
443.149	727.31
443.371	750.31
443.592	803.31
443.813	906.31
444.034	966.31
444.255	803.31
444.476	718.31
444.698	707.31
444.919	690.31
445.14	776.31
445.361	750.31
445.582	722.31
445.803	847.31
446.024	928.31
446.245	954.31
446.466	858.31
446.687	764.31
446.908	684.31
447.129	658.31
447.35	635.31
447.571	640.31
447.792	627.31
448.013	606.31
448.234	640.31
448.455	703.31
448.675	847.31
448.896	998.31
449.117	856.31
449.338	828.31
449.559	953.31
449.779	1038.31
450	849.31
450.221	704.31
450.442	638.31
450.662	602.31
450.883	619.31
451.104	621.31
451.324	639.31
451.545	617.31
451.766	602.31
451.986	581.31
452.207	543.31
452.428	557.31
452.648	565.31
452.869	569.31
453.089	563.31
453.31	599.31
453.53	566.31
453.751	557.31
453.971	560.31
454.192	606.31
454.412	593.31
454.633	558.31
454.853	563.31
455.073	554.31
455.294	575.31
455.514	686.31
455.734	653.31
455.955	583.31
456.175	540.31
456.395	549.31
456.616	532.31
456.836	534.31
457.056	518.31
457.276	532.31
457.497	540.31
457.717	525.31
457.937	530.31
458.157	548.31
458.377	544.31
458.598	562.31
458.818	646.31
459.038	766.31
459.258	771.31
459.478	680.31
459.698	608.31
459.918	589.31
460.138	599.31
460.358	582.31
460.578	614.31
460.798	611.31
461.018	613.31
461.238	614.31
461.458	631.31
461.678	591.31
461.898	630.31
462.118	618.31
462.338	625.31
462.558	642.31
462.777	615.31
462.997	652.31
463.217	661.31
463.437	664.31
463.657	674.31
463.876	655.31
464.096	661.31
464.316	639.31
464.536	664.31
464.755	666.31
464.975	667.31
465.195	709.31
465.414	798.31
465.634	702.31
465.854	638.31
466.073	648.31
466.293	619.31
466.512	602.31
466.732	578.31
466.951	585.31
467.171	575.31
467.391	594.31
467.61	598.31
467.829	600.31
468.049	588.31
468.268	589.31
468.488	555.31
468.707	543.31
468.927	571.31
469.146	565.31
469.365	548.31
469.585	562.31
469.804	549.31
470.023	570.31
470.243	585.31
470.462	606.31
470.681	628.31
470.901	596.31
471.12	589.31
471.339	611.31
471.558	568.31
471.777	599.31
471.997	573.31
472.216	594.31
472.435	594.31
472.654	595.31
472.873	580.31
473.092	571.31
473.311	590.31
473.53	587.31
473.749	574.31
473.968	642.31
474.187	758.31
474.406	778.31
474.625	653.31
474.844	616.31
475.063	612.31
475.282	587.31
475.501	592.31
475.72	594.31
475.939	601.31
476.158	606.31
476.377	610.31
476.596	602.31
476.814	629.31
477.033	600.31
477.252	634.31
477.471	633.31
477.69	625.31
477.908	631.31
478.127	639.31
478.346	629.31
478.564	677.31
478.783	638.31
479.002	692.31
479.22	690.31
479.439	685.31
479.658	696.31
479.876	692.31
480.095	720.31
480.313	752.31
480.532	740.31
480.751	694.31
480.969	717.31
481.188	729.31
481.406	762.31
481.624	718.31
481.843	708.31
482.061	690.31
482.28	700.31
482.498	698.31
482.717	684.31
482.935	712.31
483.153	687.31
483.372	690.31
483.59	698.31
483.808	654.31
484.027	698.31
484.245	688.31
484.463	673.31
484.681	705.31
484.9	670.31
485.118	723.31
485.336	695.31
485.554	700.31
485.772	693.31
485.99	706.31
486.209	739.31
486.427	720.31
486.645	760.31
486.863	760.31
487.081	743.31
487.299	745.31
487.517	727.31
487.735	723.31
487.953	739.31
488.171	732.31
488.389	739.31
488.607	750.31
488.825	756.31
489.043	750.31
489.261	739.31
489.479	732.31
489.696	770.31
489.914	767.31
490.132	762.31
490.35	798.31
490.568	794.31
490.786	771.31
491.003	791.31
491.221	822.31
491.439	835.31
491.657	845.31
491.874	841.31
492.092	838.31
492.31	847.31
492.527	876.31
492.745	863.31
492.963	863.31
493.18	848.31
493.398	875.31
493.615	870.31
493.833	858.31
494.05	875.31
494.268	871.31
494.485	877.31
494.703	864.31
494.92	895.31
495.138	894.31
495.355	902.31
495.573	902.31
495.79	878.31
496.008	884.31
496.225	875.31
496.442	877.31
496.66	911.31
496.877	890.31
497.094	895.31
497.312	900.31
497.529	918.31
497.746	936.31
497.963	930.31
498.181	946.31
498.398	950.31
498.615	1007.31
498.832	996.31
499.049	1043.31
499.267	1064.31
499.484	1079.31
499.701	1134.31
499.918	1154.31
500.135	1212.31
500.352	1250.31
500.569	1301.31
500.786	1302.31
501.003	1271.31
501.22	1256.31
501.437	1178.31
501.654	1148.31
