Data from 1988.PennyLincolnUp.Lamp.En5.5.200Scan.071819.P2_HRD10591_17-21-12-972.txt Node
Date: Thu Jul 18 17:21:12 EDT 2019
User: cochatt
Spectrometer: HR+D1059
Trigger mode: 1
Integration Time (sec): 1.000000E-1
Scans to average: 1
Electric dark correction enabled: true
Nonlinearity correction enabled: false
Boxcar width: 0
XAxis mode: Wavelengths
Number of Pixels in Spectrum: 2048
>>>>>Begin Spectral Data<<<<<
223.165	-13.88
223.4	-13.88
223.635	-13.88
223.869	-18.88
224.104	-1.88
224.338	-12.88
224.573	-21.88
224.808	-20.88
225.042	-11.88
225.277	2.12
225.511	-0.88
225.746	14.12
225.98	2.12
226.215	12.12
226.449	9.12
226.683	15.12
226.918	17.12
227.152	31.12
227.387	34.12
227.621	52.12
227.856	54.12
228.09	61.12
228.324	58.12
228.559	53.12
228.793	69.12
229.027	92.12
229.262	107.12
229.496	132.12
229.73	137.12
229.964	176.12
230.199	144.12
230.433	111.12
230.667	117.12
230.901	122.12
231.136	119.12
231.37	120.12
231.604	118.12
231.838	133.12
232.072	131.12
232.306	109.12
232.541	124.12
232.775	111.12
233.009	115.12
233.243	129.12
233.477	118.12
233.711	109.12
233.945	122.12
234.179	134.12
234.413	128.12
234.647	126.12
234.881	125.12
235.115	126.12
235.349	99.12
235.583	122.12
235.817	128.12
236.051	129.12
236.285	142.12
236.519	131.12
236.753	144.12
236.987	166.12
237.221	208.12
237.455	258.12
237.689	198.12
237.922	138.12
238.156	135.12
238.39	147.12
238.624	131.12
238.858	130.12
239.091	124.12
239.325	139.12
239.559	129.12
239.793	144.12
240.027	134.12
240.26	151.12
240.494	164.12
240.728	155.12
240.961	169.12
241.195	159.12
241.429	141.12
241.662	138.12
241.896	143.12
242.13	138.12
242.363	140.12
242.597	133.12
242.83	142.12
243.064	149.12
243.298	157.12
243.531	160.12
243.765	149.12
243.998	178.12
244.232	143.12
244.465	136.12
244.699	145.12
244.932	144.12
245.166	169.12
245.399	150.12
245.633	154.12
245.866	153.12
246.099	151.12
246.333	157.12
246.566	165.12
246.8	166.12
247.033	171.12
247.266	173.12
247.5	166.12
247.733	189.12
247.966	189.12
248.2	179.12
248.433	180.12
248.666	178.12
248.899	189.12
249.133	210.12
249.366	215.12
249.599	218.12
249.832	201.12
250.066	174.12
250.299	192.12
250.532	199.12
250.765	199.12
250.998	228.12
251.231	237.12
251.465	231.12
251.698	224.12
251.931	206.12
252.164	197.12
252.397	218.12
252.63	207.12
252.863	219.12
253.096	232.12
253.329	252.12
253.562	246.12
253.795	226.12
254.028	226.12
254.261	229.12
254.494	244.12
254.727	278.12
254.96	291.12
255.193	292.12
255.426	271.12
255.659	251.12
255.892	256.12
256.124	234.12
256.357	240.12
256.59	231.12
256.823	211.12
257.056	228.12
257.289	217.12
257.521	222.12
257.754	219.12
257.987	226.12
258.22	220.12
258.452	237.12
258.685	216.12
258.918	227.12
259.151	235.12
259.383	234.12
259.616	220.12
259.849	244.12
260.081	251.12
260.314	284.12
260.547	297.12
260.779	258.12
261.012	253.12
261.244	247.12
261.477	248.12
261.71	242.12
261.942	258.12
262.175	251.12
262.407	236.12
262.64	250.12
262.872	243.12
263.105	240.12
263.337	230.12
263.57	229.12
263.802	237.12
264.035	212.12
264.267	227.12
264.499	222.12
264.732	217.12
264.964	231.12
265.197	197.12
265.429	221.12
265.661	216.12
265.894	220.12
266.126	227.12
266.358	217.12
266.591	237.12
266.823	252.12
267.055	252.12
267.287	226.12
267.52	236.12
267.752	239.12
267.984	236.12
268.216	254.12
268.448	254.12
268.681	273.12
268.913	257.12
269.145	283.12
269.377	282.12
269.609	291.12
269.841	283.12
270.073	319.12
270.306	314.12
270.538	345.12
270.77	340.12
271.002	333.12
271.234	312.12
271.466	332.12
271.698	322.12
271.93	346.12
272.162	344.12
272.394	341.12
272.626	323.12
272.858	313.12
273.09	323.12
273.322	294.12
273.553	282.12
273.785	292.12
274.017	297.12
274.249	294.12
274.481	297.12
274.713	296.12
274.945	294.12
275.176	304.12
275.408	318.12
275.64	270.12
275.872	280.12
276.104	286.12
276.335	294.12
276.567	301.12
276.799	296.12
277.031	331.12
277.262	346.12
277.494	350.12
277.726	346.12
277.957	301.12
278.189	284.12
278.421	304.12
278.652	311.12
278.884	284.12
279.115	306.12
279.347	295.12
279.579	288.12
279.81	281.12
280.042	286.12
280.273	283.12
280.505	293.12
280.736	283.12
280.968	277.12
281.199	287.12
281.431	281.12
281.662	288.12
281.894	300.12
282.125	283.12
282.356	298.12
282.588	332.12
282.819	350.12
283.051	319.12
283.282	290.12
283.513	302.12
283.745	307.12
283.976	298.12
284.207	289.12
284.439	312.12
284.67	308.12
284.901	320.12
285.132	297.12
285.364	284.12
285.595	296.12
285.826	298.12
286.057	308.12
286.288	309.12
286.52	324.12
286.751	310.12
286.982	312.12
287.213	305.12
287.444	299.12
287.675	302.12
287.906	308.12
288.138	330.12
288.369	338.12
288.6	325.12
288.831	322.12
289.062	333.12
289.293	306.12
289.524	302.12
289.755	317.12
289.986	310.12
290.217	319.12
290.448	312.12
290.679	310.12
290.91	324.12
291.141	318.12
291.371	313.12
291.602	320.12
291.833	303.12
292.064	326.12
292.295	315.12
292.526	334.12
292.757	310.12
292.987	318.12
293.218	313.12
293.449	326.12
293.68	330.12
293.91	330.12
294.141	313.12
294.372	321.12
294.603	312.12
294.833	320.12
295.064	305.12
295.295	314.12
295.525	322.12
295.756	324.12
295.987	336.12
296.217	370.12
296.448	353.12
296.679	348.12
296.909	306.12
297.14	328.12
297.37	324.12
297.601	340.12
297.831	319.12
298.062	310.12
298.292	325.12
298.523	351.12
298.753	358.12
298.984	330.12
299.214	332.12
299.445	333.12
299.675	331.12
299.905	351.12
300.136	344.12
300.366	334.12
300.597	351.12
300.827	321.12
301.057	354.12
301.288	360.12
301.518	345.12
301.748	338.12
301.979	334.12
302.209	349.12
302.439	367.12
302.669	373.12
302.9	356.12
303.13	339.12
303.36	358.12
303.59	370.12
303.82	376.12
304.051	367.12
304.281	359.12
304.511	347.12
304.741	350.12
304.971	366.12
305.201	358.12
305.431	349.12
305.661	358.12
305.891	345.12
306.121	362.12
306.352	377.12
306.582	373.12
306.812	379.12
307.042	349.12
307.272	363.12
307.502	366.12
307.731	365.12
307.961	380.12
308.191	382.12
308.421	370.12
308.651	375.12
308.881	376.12
309.111	372.12
309.341	391.12
309.571	383.12
309.8	386.12
310.03	388.12
310.26	407.12
310.49	411.12
310.72	429.12
310.949	457.12
311.179	436.12
311.409	444.12
311.639	414.12
311.868	446.12
312.098	399.12
312.328	411.12
312.557	421.12
312.787	461.12
313.017	430.12
313.246	427.12
313.476	406.12
313.706	425.12
313.935	418.12
314.165	442.12
314.394	430.12
314.624	445.12
314.853	430.12
315.083	423.12
315.312	434.12
315.542	443.12
315.771	389.12
316.001	412.12
316.23	404.12
316.46	419.12
316.689	423.12
316.919	400.12
317.148	435.12
317.377	433.12
317.607	444.12
317.836	443.12
318.065	430.12
318.295	428.12
318.524	438.12
318.753	413.12
318.983	428.12
319.212	405.12
319.441	429.12
319.67	440.12
319.9	444.12
320.129	431.12
320.358	425.12
320.587	428.12
320.816	428.12
321.046	451.12
321.275	439.12
321.504	429.12
321.733	444.12
321.962	461.12
322.191	486.12
322.42	486.12
322.649	489.12
322.878	509.12
323.108	508.12
323.337	550.12
323.566	562.12
323.795	603.12
324.024	666.12
324.253	768.12
324.482	1123.12
324.71	1773.12
324.939	2626.12
325.168	2263.12
325.397	1140.12
325.626	752.12
325.855	645.12
326.084	598.12
326.313	590.12
326.542	573.12
326.77	649.12
326.999	706.12
327.228	1015.12
327.457	1544.12
327.686	1945.12
327.914	1302.12
328.143	830.12
328.372	725.12
328.6	662.12
328.829	616.12
329.058	647.12
329.287	658.12
329.515	609.12
329.744	580.12
329.972	553.12
330.201	567.12
330.43	588.12
330.658	633.12
330.887	686.12
331.115	652.12
331.344	588.12
331.572	552.12
331.801	543.12
332.03	569.12
332.258	537.12
332.486	532.12
332.715	499.12
332.943	516.12
333.172	503.12
333.4	522.12
333.629	519.12
333.857	534.12
334.085	550.12
334.314	521.12
334.542	546.12
334.771	538.12
334.999	521.12
335.227	534.12
335.455	525.12
335.684	490.12
335.912	504.12
336.14	500.12
336.369	494.12
336.597	496.12
336.825	501.12
337.053	527.12
337.281	494.12
337.51	492.12
337.738	507.12
337.966	470.12
338.194	499.12
338.422	502.12
338.65	503.12
338.878	497.12
339.106	488.12
339.334	504.12
339.562	473.12
339.79	481.12
340.018	487.12
340.246	470.12
340.474	491.12
340.702	462.12
340.93	484.12
341.158	459.12
341.386	472.12
341.614	502.12
341.842	469.12
342.07	503.12
342.298	475.12
342.526	465.12
342.754	488.12
342.981	462.12
343.209	468.12
343.437	484.12
343.665	460.12
343.893	492.12
344.12	492.12
344.348	503.12
344.576	512.12
344.804	516.12
345.031	522.12
345.259	509.12
345.487	494.12
345.714	492.12
345.942	478.12
346.17	472.12
346.397	467.12
346.625	459.12
346.853	462.12
347.08	466.12
347.308	493.12
347.535	488.12
347.763	486.12
347.99	473.12
348.218	483.12
348.445	489.12
348.673	484.12
348.9	469.12
349.128	484.12
349.355	462.12
349.583	479.12
349.81	456.12
350.037	474.12
350.265	469.12
350.492	474.12
350.72	473.12
350.947	489.12
351.174	483.12
351.402	481.12
351.629	489.12
351.856	476.12
352.083	487.12
352.311	491.12
352.538	488.12
352.765	479.12
352.992	476.12
353.22	489.12
353.447	499.12
353.674	477.12
353.901	460.12
354.128	436.12
354.355	444.12
354.583	455.12
354.81	446.12
355.037	452.12
355.264	434.12
355.491	452.12
355.718	415.12
355.945	448.12
356.172	442.12
356.399	423.12
356.626	426.12
356.853	447.12
357.08	428.12
357.307	463.12
357.534	427.12
357.761	433.12
357.988	442.12
358.215	436.12
358.441	447.12
358.668	457.12
358.895	443.12
359.122	436.12
359.349	479.12
359.576	476.12
359.802	474.12
360.029	526.12
360.256	538.12
360.483	526.12
360.709	512.12
360.936	473.12
361.163	456.12
361.39	459.12
361.616	477.12
361.843	470.12
362.07	465.12
362.296	487.12
362.523	469.12
362.749	476.12
362.976	466.12
363.203	462.12
363.429	449.12
363.656	460.12
363.882	466.12
364.109	457.12
364.335	461.12
364.562	468.12
364.788	458.12
365.015	451.12
365.241	452.12
365.468	470.12
365.694	455.12
365.92	445.12
366.147	464.12
366.373	457.12
366.599	442.12
366.826	442.12
367.052	440.12
367.278	470.12
367.505	446.12
367.731	465.12
367.957	450.12
368.184	454.12
368.41	465.12
368.636	464.12
368.862	472.12
369.089	469.12
369.315	468.12
369.541	455.12
369.767	462.12
369.993	455.12
370.219	452.12
370.445	474.12
370.672	472.12
370.898	458.12
371.124	462.12
371.35	455.12
371.576	454.12
371.802	442.12
372.028	461.12
372.254	460.12
372.48	454.12
372.706	462.12
372.932	463.12
373.158	450.12
373.384	456.12
373.61	471.12
373.835	475.12
374.061	455.12
374.287	467.12
374.513	454.12
374.739	477.12
374.965	485.12
375.191	475.12
375.416	474.12
375.642	474.12
375.868	460.12
376.094	463.12
376.319	465.12
376.545	452.12
376.771	450.12
376.997	469.12
377.222	457.12
377.448	454.12
377.674	466.12
377.899	463.12
378.125	464.12
378.35	452.12
378.576	437.12
378.802	455.12
379.027	469.12
379.253	460.12
379.478	454.12
379.704	456.12
379.929	443.12
380.155	461.12
380.38	453.12
380.606	470.12
380.831	464.12
381.057	478.12
381.282	451.12
381.507	444.12
381.733	462.12
381.958	439.12
382.184	462.12
382.409	482.12
382.634	474.12
382.86	460.12
383.085	486.12
383.31	463.12
383.535	472.12
383.761	474.12
383.986	464.12
384.211	492.12
384.436	489.12
384.662	484.12
384.887	483.12
385.112	522.12
385.337	495.12
385.562	488.12
385.787	505.12
386.013	521.12
386.238	539.12
386.463	521.12
386.688	508.12
386.913	496.12
387.138	496.12
387.363	524.12
387.588	494.12
387.813	513.12
388.038	535.12
388.263	510.12
388.488	522.12
388.713	516.12
388.938	516.12
389.163	537.12
389.387	524.12
389.612	492.12
389.837	509.12
390.062	500.12
390.287	525.12
390.512	516.12
390.736	512.12
390.961	497.12
391.186	522.12
391.411	510.12
391.636	531.12
391.86	521.12
392.085	532.12
392.31	530.12
392.534	532.12
392.759	535.12
392.984	523.12
393.208	500.12
393.433	523.12
393.658	510.12
393.882	516.12
394.107	513.12
394.331	502.12
394.556	518.12
394.78	515.12
395.005	526.12
395.229	531.12
395.454	552.12
395.678	533.12
395.903	546.12
396.127	579.12
396.352	556.12
396.576	534.12
396.801	536.12
397.025	532.12
397.249	544.12
397.474	533.12
397.698	541.12
397.922	578.12
398.147	592.12
398.371	601.12
398.595	575.12
398.82	565.12
399.044	609.12
399.268	607.12
399.492	662.12
399.717	672.12
399.941	715.12
400.165	735.12
400.389	725.12
400.613	701.12
400.837	649.12
401.062	616.12
401.286	605.12
401.51	613.12
401.734	578.12
401.958	610.12
402.182	614.12
402.406	606.12
402.63	619.12
402.854	602.12
403.078	620.12
403.302	622.12
403.526	618.12
403.75	627.12
403.974	604.12
404.198	598.12
404.422	607.12
404.645	631.12
404.869	638.12
405.093	634.12
405.317	664.12
405.541	697.12
405.765	662.12
405.988	657.12
406.212	649.12
406.436	685.12
406.66	671.12
406.883	699.12
407.107	700.12
407.331	736.12
407.555	794.12
407.778	805.12
408.002	757.12
408.226	699.12
408.449	696.12
408.673	676.12
408.896	732.12
409.12	765.12
409.344	733.12
409.567	655.12
409.791	635.12
410.014	619.12
410.238	633.12
410.461	606.12
410.685	623.12
410.908	642.12
411.132	694.12
411.355	708.12
411.578	684.12
411.802	638.12
412.025	609.12
412.249	626.12
412.472	628.12
412.695	677.12
412.919	635.12
413.142	586.12
413.365	584.12
413.589	592.12
413.812	574.12
414.035	581.12
414.258	583.12
414.482	579.12
414.705	590.12
414.928	579.12
415.151	574.12
415.374	591.12
415.597	597.12
415.821	570.12
416.044	597.12
416.267	557.12
416.49	592.12
416.713	557.12
416.936	574.12
417.159	574.12
417.382	584.12
417.605	591.12
417.828	573.12
418.051	633.12
418.274	614.12
418.497	577.12
418.72	604.12
418.943	597.12
419.166	594.12
419.389	629.12
419.611	621.12
419.834	612.12
420.057	632.12
420.28	614.12
420.503	588.12
420.726	630.12
420.948	618.12
421.171	671.12
421.394	684.12
421.617	646.12
421.839	602.12
422.062	604.12
422.285	629.12
422.507	694.12
422.73	751.12
422.953	748.12
423.175	672.12
423.398	639.12
423.621	646.12
423.843	646.12
424.066	656.12
424.288	650.12
424.511	680.12
424.733	738.12
424.956	858.12
425.178	807.12
425.401	795.12
425.623	837.12
425.846	699.12
426.068	656.12
426.291	650.12
426.513	666.12
426.735	682.12
426.958	710.12
427.18	786.12
427.402	952.12
427.625	1060.12
427.847	888.12
428.069	774.12
428.292	722.12
428.514	673.12
428.736	640.12
428.958	638.12
429.181	627.12
429.403	604.12
429.625	626.12
429.847	650.12
430.069	740.12
430.292	735.12
430.514	620.12
430.736	602.12
430.958	591.12
431.18	593.12
431.402	572.12
431.624	546.12
431.846	563.12
432.068	563.12
432.29	579.12
432.512	567.12
432.734	589.12
432.956	567.12
433.178	592.12
433.4	605.12
433.622	570.12
433.844	567.12
434.066	589.12
434.287	566.12
434.509	610.12
434.731	599.12
434.953	623.12
435.175	630.12
435.397	666.12
435.618	656.12
435.84	692.12
436.062	815.12
436.284	893.12
436.505	766.12
436.727	667.12
436.949	639.12
437.17	612.12
437.392	610.12
437.614	635.12
437.835	670.12
438.057	773.12
438.278	902.12
438.5	878.12
438.721	972.12
438.943	953.12
439.165	727.12
439.386	661.12
439.608	672.12
439.829	670.12
440.05	694.12
440.272	765.12
440.493	728.12
440.715	648.12
440.936	615.12
441.158	618.12
441.379	617.12
441.6	637.12
441.822	662.12
442.043	692.12
442.264	778.12
442.486	836.12
442.707	750.12
442.928	659.12
443.149	696.12
443.371	701.12
443.592	779.12
443.813	888.12
444.034	935.12
444.255	781.12
444.476	690.12
444.698	657.12
444.919	667.12
445.14	761.12
445.361	695.12
445.582	735.12
445.803	797.12
446.024	918.12
446.245	946.12
446.466	848.12
446.687	728.12
446.908	656.12
447.129	628.12
447.35	623.12
447.571	620.12
447.792	605.12
448.013	594.12
448.234	633.12
448.455	702.12
448.675	839.12
448.896	975.12
449.117	821.12
449.338	786.12
449.559	911.12
449.779	1038.12
450	809.12
450.221	670.12
450.442	610.12
450.662	598.12
450.883	613.12
451.104	632.12
451.324	619.12
451.545	578.12
451.766	548.12
451.986	556.12
452.207	557.12
452.428	527.12
452.648	545.12
452.869	547.12
453.089	551.12
453.31	560.12
453.53	568.12
453.751	533.12
453.971	537.12
454.192	551.12
454.412	554.12
454.633	526.12
454.853	543.12
455.073	539.12
455.294	568.12
455.514	624.12
455.734	639.12
455.955	557.12
456.175	523.12
456.395	532.12
456.616	514.12
456.836	512.12
457.056	504.12
457.276	499.12
457.497	523.12
457.717	522.12
457.937	518.12
458.157	525.12
458.377	541.12
458.598	574.12
458.818	640.12
459.038	717.12
459.258	764.12
459.478	663.12
459.698	622.12
459.918	580.12
460.138	582.12
460.358	591.12
460.578	613.12
460.798	580.12
461.018	593.12
461.238	602.12
461.458	589.12
461.678	590.12
461.898	582.12
462.118	613.12
462.338	581.12
462.558	606.12
462.777	616.12
462.997	647.12
463.217	664.12
463.437	663.12
463.657	627.12
463.876	646.12
464.096	629.12
464.316	625.12
464.536	636.12
464.755	629.12
464.975	650.12
465.195	682.12
465.414	758.12
465.634	667.12
465.854	618.12
466.073	605.12
466.293	607.12
466.512	588.12
466.732	557.12
466.951	572.12
467.171	555.12
467.391	566.12
467.61	584.12
467.829	593.12
468.049	572.12
468.268	565.12
468.488	559.12
468.707	538.12
468.927	508.12
469.146	538.12
469.365	551.12
469.585	533.12
469.804	555.12
470.023	567.12
470.243	566.12
470.462	585.12
470.681	603.12
470.901	590.12
471.12	588.12
471.339	586.12
471.558	576.12
471.777	554.12
471.997	557.12
472.216	580.12
472.435	562.12
472.654	582.12
472.873	563.12
473.092	566.12
473.311	549.12
473.53	566.12
473.749	591.12
473.968	633.12
474.187	739.12
474.406	763.12
474.625	639.12
474.844	584.12
475.063	586.12
475.282	575.12
475.501	556.12
475.72	582.12
475.939	595.12
476.158	563.12
476.377	599.12
476.596	576.12
476.814	602.12
477.033	590.12
477.252	598.12
477.471	602.12
477.69	598.12
477.908	628.12
478.127	619.12
478.346	606.12
478.564	619.12
478.783	644.12
479.002	666.12
479.22	668.12
479.439	662.12
479.658	681.12
479.876	680.12
480.095	695.12
480.313	731.12
480.532	721.12
480.751	703.12
480.969	715.12
481.188	712.12
481.406	733.12
481.624	698.12
481.843	687.12
482.061	681.12
482.28	690.12
482.498	670.12
482.717	662.12
482.935	674.12
483.153	658.12
483.372	671.12
483.59	690.12
483.808	682.12
484.027	684.12
484.245	653.12
484.463	662.12
484.681	674.12
484.9	687.12
485.118	696.12
485.336	685.12
485.554	681.12
485.772	709.12
485.99	700.12
486.209	688.12
486.427	678.12
486.645	706.12
486.863	724.12
487.081	704.12
487.299	711.12
487.517	736.12
487.735	721.12
487.953	727.12
488.171	734.12
488.389	702.12
488.607	714.12
488.825	702.12
489.043	732.12
489.261	731.12
489.479	724.12
489.696	726.12
489.914	725.12
490.132	749.12
490.35	730.12
490.568	756.12
490.786	763.12
491.003	767.12
491.221	814.12
491.439	814.12
491.657	812.12
491.874	837.12
492.092	804.12
492.31	838.12
492.527	836.12
492.745	827.12
492.963	828.12
493.18	813.12
493.398	842.12
493.615	841.12
493.833	862.12
494.05	872.12
494.268	863.12
494.485	841.12
494.703	827.12
494.92	842.12
495.138	832.12
495.355	843.12
495.573	855.12
495.79	874.12
496.008	878.12
496.225	856.12
496.442	866.12
496.66	863.12
496.877	861.12
497.094	882.12
497.312	870.12
497.529	898.12
497.746	899.12
497.963	938.12
498.181	950.12
498.398	949.12
498.615	946.12
498.832	996.12
499.049	1003.12
499.267	1052.12
499.484	1087.12
499.701	1061.12
499.918	1121.12
500.135	1183.12
500.352	1219.12
500.569	1202.12
500.786	1220.12
501.003	1207.12
501.22	1199.12
501.437	1139.12
501.654	1134.12
