Data from 1988.PennyLincolnUp.Lamp.En5.5.200Scan.071819.P2_HRD10591_17-19-49-973.txt Node
Date: Thu Jul 18 17:19:49 EDT 2019
User: cochatt
Spectrometer: HR+D1059
Trigger mode: 1
Integration Time (sec): 1.000000E-1
Scans to average: 1
Electric dark correction enabled: true
Nonlinearity correction enabled: false
Boxcar width: 0
XAxis mode: Wavelengths
Number of Pixels in Spectrum: 2048
>>>>>Begin Spectral Data<<<<<
223.165	-29
223.4	-29
223.635	-29
223.869	-22
224.104	-22
224.338	-9
224.573	-17
224.808	-13
225.042	-12
225.277	-8
225.511	4
225.746	6
225.98	8
226.215	16
226.449	14
226.683	25
226.918	22
227.152	37
227.387	36
227.621	54
227.856	35
228.09	55
228.324	65
228.559	55
228.793	71
229.027	96
229.262	108
229.496	131
229.73	156
229.964	170
230.199	144
230.433	125
230.667	114
230.901	123
231.136	134
231.37	114
231.604	126
231.838	129
232.072	134
232.306	119
232.541	114
232.775	119
233.009	116
233.243	117
233.477	107
233.711	120
233.945	118
234.179	118
234.413	126
234.647	119
234.881	122
235.115	130
235.349	125
235.583	129
235.817	144
236.051	139
236.285	135
236.519	136
236.753	140
236.987	164
237.221	185
237.455	261
237.689	199
237.922	147
238.156	132
238.39	146
238.624	130
238.858	134
239.091	153
239.325	142
239.559	147
239.793	138
240.027	135
240.26	151
240.494	164
240.728	152
240.961	161
241.195	156
241.429	134
241.662	143
241.896	148
242.13	150
242.363	127
242.597	150
242.83	147
243.064	139
243.298	146
243.531	152
243.765	145
243.998	146
244.232	150
244.465	154
244.699	152
244.932	153
245.166	148
245.399	158
245.633	166
245.866	140
246.099	163
246.333	167
246.566	155
246.8	184
247.033	168
247.266	168
247.5	180
247.733	191
247.966	175
248.2	168
248.433	187
248.666	183
248.899	202
249.133	197
249.366	213
249.599	226
249.832	213
250.066	195
250.299	200
250.532	196
250.765	189
250.998	232
251.231	225
251.465	226
251.698	211
251.931	222
252.164	206
252.397	200
252.63	217
252.863	231
253.096	221
253.329	254
253.562	240
253.795	224
254.028	213
254.261	244
254.494	248
254.727	271
254.96	306
255.193	275
255.426	247
255.659	243
255.892	242
256.124	220
256.357	250
256.59	235
256.823	222
257.056	226
257.289	211
257.521	218
257.754	227
257.987	211
258.22	217
258.452	222
258.685	218
258.918	219
259.151	229
259.383	228
259.616	221
259.849	250
260.081	239
260.314	258
260.547	270
260.779	263
261.012	281
261.244	233
261.477	231
261.71	231
261.942	251
262.175	262
262.407	250
262.64	230
262.872	228
263.105	238
263.337	239
263.57	238
263.802	236
264.035	239
264.267	238
264.499	232
264.732	248
264.964	240
265.197	219
265.429	242
265.661	239
265.894	234
266.126	227
266.358	231
266.591	238
266.823	233
267.055	248
267.287	247
267.52	257
267.752	254
267.984	227
268.216	256
268.448	261
268.681	276
268.913	261
269.145	284
269.377	292
269.609	296
269.841	291
270.073	311
270.306	322
270.538	324
270.77	328
271.002	307
271.234	327
271.466	318
271.698	331
271.93	337
272.162	337
272.394	358
272.626	324
272.858	306
273.09	308
273.322	302
273.553	292
273.785	295
274.017	283
274.249	290
274.481	280
274.713	287
274.945	298
275.176	296
275.408	293
275.64	282
275.872	274
276.104	279
276.335	308
276.567	289
276.799	305
277.031	333
277.262	317
277.494	339
277.726	314
277.957	313
278.189	314
278.421	273
278.652	310
278.884	295
279.115	295
279.347	300
279.579	294
279.81	301
280.042	294
280.273	301
280.505	292
280.736	285
280.968	299
281.199	300
281.431	318
281.662	315
281.894	303
282.125	292
282.356	314
282.588	329
282.819	327
283.051	308
283.282	314
283.513	304
283.745	310
283.976	303
284.207	306
284.439	308
284.67	318
284.901	275
285.132	324
285.364	299
285.595	316
285.826	292
286.057	307
286.288	314
286.52	315
286.751	296
286.982	316
287.213	301
287.444	317
287.675	309
287.906	333
288.138	323
288.369	323
288.6	341
288.831	317
289.062	327
289.293	309
289.524	320
289.755	322
289.986	322
290.217	310
290.448	328
290.679	311
290.91	299
291.141	295
291.371	325
291.602	322
291.833	322
292.064	320
292.295	327
292.526	315
292.757	320
292.987	346
293.218	307
293.449	327
293.68	315
293.91	333
294.141	300
294.372	330
294.603	323
294.833	348
295.064	330
295.295	326
295.525	308
295.756	351
295.987	343
296.217	371
296.448	365
296.679	349
296.909	330
297.14	344
297.37	331
297.601	330
297.831	341
298.062	354
298.292	333
298.523	346
298.753	349
298.984	330
299.214	358
299.445	339
299.675	329
299.905	345
300.136	335
300.366	332
300.597	347
300.827	357
301.057	374
301.288	351
301.518	380
301.748	366
301.979	366
302.209	371
302.439	362
302.669	356
302.9	356
303.13	359
303.36	376
303.59	368
303.82	394
304.051	378
304.281	364
304.511	378
304.741	391
304.971	363
305.201	367
305.431	359
305.661	385
305.891	359
306.121	364
306.352	383
306.582	378
306.812	360
307.042	358
307.272	366
307.502	356
307.731	387
307.961	370
308.191	362
308.421	365
308.651	380
308.881	370
309.111	377
309.341	372
309.571	376
309.8	409
310.03	390
310.26	414
310.49	403
310.72	442
310.949	452
311.179	452
311.409	421
311.639	402
311.868	414
312.098	402
312.328	427
312.557	460
312.787	474
313.017	463
313.246	419
313.476	432
313.706	420
313.935	440
314.165	445
314.394	444
314.624	440
314.853	447
315.083	451
315.312	434
315.542	420
315.771	413
316.001	414
316.23	402
316.46	412
316.689	421
316.919	419
317.148	455
317.377	436
317.607	454
317.836	414
318.065	438
318.295	441
318.524	421
318.753	412
318.983	438
319.212	420
319.441	424
319.67	419
319.9	424
320.129	438
320.358	438
320.587	456
320.816	464
321.046	446
321.275	452
321.504	450
321.733	451
321.962	452
322.191	448
322.42	490
322.649	492
322.878	503
323.108	532
323.337	549
323.566	566
323.795	576
324.024	631
324.253	760
324.482	1062
324.71	1655
324.939	2453
325.168	2149
325.397	1119
325.626	742
325.855	659
326.084	578
326.313	582
326.542	573
326.77	628
326.999	738
327.228	984
327.457	1502
327.686	1882
327.914	1239
328.143	838
328.372	706
328.6	682
328.829	640
329.058	640
329.287	654
329.515	624
329.744	571
329.972	556
330.201	544
330.43	590
330.658	622
330.887	668
331.115	685
331.344	589
331.572	541
331.801	538
332.03	545
332.258	542
332.486	515
332.715	512
332.943	514
333.172	524
333.4	521
333.629	521
333.857	527
334.085	525
334.314	515
334.542	548
334.771	532
334.999	530
335.227	542
335.455	516
335.684	494
335.912	524
336.14	512
336.369	515
336.597	527
336.825	517
337.053	527
337.281	510
337.51	503
337.738	482
337.966	495
338.194	514
338.422	505
338.65	524
338.878	487
339.106	499
339.334	506
339.562	472
339.79	492
340.018	485
340.246	506
340.474	486
340.702	481
340.93	502
341.158	494
341.386	484
341.614	487
341.842	518
342.07	483
342.298	498
342.526	474
342.754	471
342.981	472
343.209	477
343.437	509
343.665	500
343.893	485
344.12	528
344.348	494
344.576	509
344.804	519
345.031	485
345.259	523
345.487	528
345.714	512
345.942	482
346.17	483
346.397	455
346.625	472
346.853	484
347.08	465
347.308	491
347.535	475
347.763	509
347.99	504
348.218	503
348.445	489
348.673	471
348.9	468
349.128	464
349.355	469
349.583	466
349.81	456
350.037	461
350.265	450
350.492	461
350.72	472
350.947	463
351.174	471
351.402	484
351.629	495
351.856	464
352.083	491
352.311	503
352.538	484
352.765	524
352.992	455
353.22	487
353.447	464
353.674	483
353.901	482
354.128	471
354.355	475
354.583	481
354.81	470
355.037	448
355.264	448
355.491	453
355.718	431
355.945	441
356.172	459
356.399	444
356.626	446
356.853	455
357.08	445
357.307	441
357.534	421
357.761	448
357.988	465
358.215	460
358.441	453
358.668	458
358.895	456
359.122	443
359.349	468
359.576	469
359.802	478
360.029	521
360.256	533
360.483	536
360.709	507
360.936	475
361.163	455
361.39	500
361.616	498
361.843	486
362.07	493
362.296	480
362.523	485
362.749	489
362.976	488
363.203	481
363.429	479
363.656	480
363.882	493
364.109	477
364.335	458
364.562	472
364.788	472
365.015	451
365.241	441
365.468	470
365.694	456
365.92	485
366.147	465
366.373	469
366.599	464
366.826	442
367.052	454
367.278	454
367.505	453
367.731	483
367.957	451
368.184	456
368.41	479
368.636	475
368.862	494
369.089	488
369.315	466
369.541	464
369.767	477
369.993	474
370.219	462
370.445	461
370.672	464
370.898	465
371.124	443
371.35	457
371.576	469
371.802	487
372.028	465
372.254	454
372.48	476
372.706	488
372.932	475
373.158	462
373.384	459
373.61	467
373.835	467
374.061	483
374.287	478
374.513	472
374.739	462
374.965	476
375.191	479
375.416	500
375.642	471
375.868	487
376.094	468
376.319	492
376.545	450
376.771	461
376.997	466
377.222	448
377.448	470
377.674	455
377.899	472
378.125	471
378.35	458
378.576	472
378.802	443
379.027	476
379.253	452
379.478	457
379.704	489
379.929	469
380.155	463
380.38	468
380.606	462
380.831	470
381.057	460
381.282	456
381.507	460
381.733	462
381.958	463
382.184	478
382.409	470
382.634	489
382.86	478
383.085	472
383.31	480
383.535	507
383.761	485
383.986	487
384.211	471
384.436	482
384.662	502
384.887	519
385.112	498
385.337	510
385.562	491
385.787	521
386.013	511
386.238	518
386.463	524
386.688	526
386.913	522
387.138	507
387.363	529
387.588	488
387.813	516
388.038	512
388.263	520
388.488	532
388.713	521
388.938	501
389.163	530
389.387	532
389.612	519
389.837	511
390.062	508
390.287	497
390.512	519
390.736	531
390.961	496
391.186	509
391.411	529
391.636	546
391.86	534
392.085	541
392.31	533
392.534	556
392.759	564
392.984	543
393.208	524
393.433	526
393.658	547
393.882	501
394.107	528
394.331	550
394.556	541
394.78	555
395.005	552
395.229	528
395.454	533
395.678	562
395.903	552
396.127	588
396.352	597
396.576	542
396.801	556
397.025	567
397.249	562
397.474	548
397.698	581
397.922	573
398.147	603
398.371	578
398.595	618
398.82	581
399.044	613
399.268	635
399.492	678
399.717	712
399.941	725
400.165	731
400.389	784
400.613	694
400.837	661
401.062	641
401.286	614
401.51	593
401.734	610
401.958	613
402.182	618
402.406	616
402.63	634
402.854	621
403.078	596
403.302	621
403.526	624
403.75	614
403.974	616
404.198	631
404.422	623
404.645	656
404.869	621
405.093	652
405.317	678
405.541	688
405.765	666
405.988	663
406.212	653
406.436	668
406.66	710
406.883	699
407.107	719
407.331	751
407.555	832
407.778	845
408.002	759
408.226	724
408.449	691
408.673	695
408.896	744
409.12	794
409.344	723
409.567	680
409.791	647
410.014	629
410.238	611
410.461	630
410.685	629
410.908	685
411.132	685
411.355	701
411.578	698
411.802	662
412.025	631
412.249	621
412.472	628
412.695	640
412.919	631
413.142	608
413.365	592
413.589	618
413.812	582
414.035	592
414.258	597
414.482	603
414.705	594
414.928	617
415.151	605
415.374	604
415.597	597
415.821	589
416.044	594
416.267	582
416.49	585
416.713	587
416.936	596
417.159	573
417.382	588
417.605	602
417.828	605
418.051	642
418.274	605
418.497	584
418.72	604
418.943	582
419.166	607
419.389	650
419.611	644
419.834	644
420.057	638
420.28	648
420.503	592
420.726	600
420.948	606
421.171	666
421.394	727
421.617	630
421.839	627
422.062	611
422.285	642
422.507	742
422.73	798
422.953	774
423.175	672
423.398	659
423.621	664
423.843	693
424.066	666
424.288	637
424.511	677
424.733	745
424.956	839
425.178	838
425.401	804
425.623	819
425.846	740
426.068	678
426.291	670
426.513	655
426.735	690
426.958	712
427.18	820
427.402	951
427.625	1081
427.847	913
428.069	799
428.292	720
428.514	642
428.736	638
428.958	649
429.181	606
429.403	632
429.625	623
429.847	664
430.069	754
430.292	719
430.514	638
430.736	630
430.958	602
431.18	572
431.402	600
431.624	591
431.846	592
432.068	573
432.29	614
432.512	589
432.734	607
432.956	582
433.178	595
433.4	614
433.622	603
433.844	606
434.066	616
434.287	584
434.509	595
434.731	605
434.953	616
435.175	637
435.397	653
435.618	681
435.84	713
436.062	830
436.284	935
436.505	762
436.727	684
436.949	654
437.17	614
437.392	618
437.614	629
437.835	678
438.057	783
438.278	922
438.5	906
438.721	979
438.943	952
439.165	760
439.386	679
439.608	648
439.829	688
440.05	677
440.272	757
440.493	699
440.715	665
440.936	658
441.158	630
441.379	644
441.6	651
441.822	662
442.043	694
442.264	834
442.486	880
442.707	760
442.928	697
443.149	706
443.371	708
443.592	762
443.813	922
444.034	968
444.255	804
444.476	706
444.698	669
444.919	673
445.14	768
445.361	740
445.582	731
445.803	789
446.024	938
446.245	932
446.466	846
446.687	728
446.908	689
447.129	652
447.35	636
447.571	623
447.792	599
448.013	617
448.234	664
448.455	698
448.675	803
448.896	980
449.117	820
449.338	782
449.559	909
449.779	1039
450	824
450.221	656
450.442	619
450.662	626
450.883	591
451.104	637
451.324	622
451.545	611
451.766	583
451.986	548
452.207	556
452.428	556
452.648	555
452.869	548
453.089	580
453.31	580
453.53	571
453.751	572
453.971	547
454.192	564
454.412	580
454.633	568
454.853	530
455.073	548
455.294	567
455.514	649
455.734	668
455.955	551
456.175	522
456.395	535
456.616	532
456.836	526
457.056	521
457.276	520
457.497	536
457.717	505
457.937	514
458.157	542
458.377	533
458.598	583
458.818	622
459.038	725
459.258	764
459.478	643
459.698	614
459.918	605
460.138	618
460.358	597
460.578	619
460.798	607
461.018	608
461.238	613
461.458	600
461.678	587
461.898	629
462.118	615
462.338	615
462.558	633
462.777	654
462.997	668
463.217	644
463.437	675
463.657	646
463.876	648
464.096	643
464.316	619
464.536	674
464.755	674
464.975	652
465.195	683
465.414	781
465.634	710
465.854	663
466.073	608
466.293	566
466.512	596
466.732	587
466.951	566
467.171	576
467.391	572
467.61	591
467.829	628
468.049	582
468.268	575
468.488	568
468.707	576
468.927	559
469.146	550
469.365	585
469.585	587
469.804	552
470.023	587
470.243	584
470.462	588
470.681	603
470.901	582
471.12	584
471.339	576
471.558	595
471.777	568
471.997	577
472.216	566
472.435	574
472.654	556
472.873	573
473.092	553
473.311	562
473.53	609
473.749	589
473.968	645
474.187	733
474.406	751
474.625	642
474.844	615
475.063	590
475.282	576
475.501	571
475.72	592
475.939	604
476.158	600
476.377	621
476.596	606
476.814	590
477.033	607
477.252	634
477.471	612
477.69	607
477.908	623
478.127	640
478.346	649
478.564	633
478.783	657
479.002	655
479.22	663
479.439	686
479.658	703
479.876	684
480.095	708
480.313	731
480.532	727
480.751	706
480.969	711
481.188	703
481.406	712
481.624	699
481.843	703
482.061	665
482.28	661
482.498	671
482.717	669
482.935	696
483.153	667
483.372	674
483.59	679
483.808	686
484.027	681
484.245	685
484.463	702
484.681	681
484.9	699
485.118	707
485.336	716
485.554	696
485.772	710
485.99	723
486.209	703
486.427	699
486.645	731
486.863	723
487.081	747
487.299	745
487.517	727
487.735	732
487.953	734
488.171	724
488.389	732
488.607	723
488.825	707
489.043	741
489.261	727
489.479	761
489.696	727
489.914	738
490.132	741
490.35	770
490.568	766
490.786	781
491.003	772
491.221	798
491.439	792
491.657	819
491.874	815
492.092	824
492.31	797
492.527	823
492.745	822
492.963	802
493.18	820
493.398	868
493.615	842
493.833	863
494.05	862
494.268	831
494.485	860
494.703	857
494.92	852
495.138	852
495.355	866
495.573	838
495.79	868
496.008	854
496.225	872
496.442	887
496.66	871
496.877	859
497.094	870
497.312	892
497.529	910
497.746	906
497.963	937
498.181	952
498.398	973
498.615	974
498.832	1019
499.049	1018
499.267	1034
499.484	1059
499.701	1103
499.918	1158
500.135	1203
500.352	1239
500.569	1291
500.786	1262
501.003	1250
501.22	1238
501.437	1183
501.654	1146
501.871	1151
502.088	1104
502.305	1038
502.522	994
502.739	990
502.956	948
503.172	939
503.389	943
503.606	953
503.823	903
504.04	895
504.256	899
504.473	904
504.69	882
504.907	886
505.123	851
505.34	855
505.557	845
505.773	841
505.99	837
506.207	830
506.423	832
506.64	838
506.856	836
507.073	830
507.289	818
507.506	811
507.722	819
507.939	843
508.155	809
508.372	796
508.588	778
508.805	767
509.021	770
509.238	794
509.454	788
509.67	803
509.887	776
510.103	774
510.319	803
510.536	909
510.752	1416
510.968	1206
511.184	818
511.401	805
511.617	768
511.833	736
512.049	735
512.265	719
512.481	738
512.698	742
512.914	728
513.13	733
513.346	738
513.562	747
513.778	741
513.994	764
514.21	754
514.426	781
514.642	816
514.858	856
515.074	887
515.29	1042
515.506	1458
515.721	1276
515.937	906
516.153	849
516.369	822
516.585	806
516.801	785
517.016	792
517.232	770
517.448	788
517.664	793
517.879	784
518.095	822
518.311	786
518.527	807
518.742	760
518.958	781
519.173	746
519.389	748
519.605	763
519.82	758
520.036	782
520.251	779
520.467	836
520.682	822
520.898	850
521.113	861
521.329	858
521.544	975
521.76	1173
521.975	1862
522.19	1906
522.406	1059
522.621	854
522.836	758
523.052	772
523.267	749
523.482	723
523.698	694
523.913	702
524.128	703
524.343	677
524.559	662
524.774	665
524.989	647
525.204	647
525.419	654
525.634	638
525.849	628
526.064	629
526.28	646
526.495	629
526.71	621
526.925	630
527.14	602
527.355	627
527.57	634
527.785	634
527.999	633
528.214	627
528.429	617
528.644	638
528.859	650
529.074	618
529.289	654
529.503	719
529.718	724
529.933	694
530.148	623
530.363	617
530.577	607
530.792	612
531.007	603
531.221	604
531.436	596
531.651	588
531.865	615
532.08	606
532.295	615
532.509	610
532.724	601
532.938	598
533.153	581
533.367	566
533.582	590
533.796	580
534.011	583
534.225	586
534.44	621
534.654	581
534.868	577
535.083	583
535.297	594
535.511	604
535.726	614
535.94	577
536.154	588
536.369	574
536.583	571
536.797	564
537.011	564
537.225	567
537.44	588
537.654	571
537.868	571
538.082	583
538.296	579
538.51	573
538.724	581
538.938	564
539.153	584
539.367	595
539.581	573
539.795	571
540.009	570
540.222	555
540.436	583
540.65	567
540.864	560
541.078	565
541.292	581
541.506	587
541.72	559
541.934	546
542.147	572
542.361	568
542.575	548
542.789	562
543.002	584
543.216	585
543.43	565
543.644	547
543.857	578
544.071	558
544.285	569
544.498	533
544.712	547
544.925	579
545.139	556
545.352	563
545.566	552
545.779	557
545.993	557
546.206	548
546.42	550
546.633	553
546.847	562
547.06	549
547.274	544
547.487	527
547.7	553
547.914	541
548.127	554
548.34	548
548.554	532
548.767	542
548.98	536
549.193	529
549.407	533
549.62	533
549.833	538
550.046	536
550.259	515
550.473	540
550.686	523
550.899	523
551.112	523
551.325	525
551.538	531
551.751	526
551.964	511
552.177	534
552.39	549
552.603	533
552.816	541
553.029	542
553.242	552
553.455	546
553.667	564
553.88	569
554.093	566
554.306	541
554.519	553
554.732	536
554.944	538
555.157	514
555.37	506
555.583	494
555.795	524
556.008	514
556.221	527
556.433	501
556.646	494
556.859	480
557.071	503
557.284	496
557.496	495
557.709	492
557.921	472
558.134	494
558.346	470
558.559	471
558.771	478
558.984	490
559.196	491
559.409	484
559.621	489
559.833	470
560.046	479
560.258	488
560.47	499
560.683	478
560.895	474
561.107	490
561.32	470
561.532	473
561.744	496
561.956	482
562.168	458
562.381	478
562.593	463
562.805	486
563.017	468
563.229	490
