Data from 1988.PennyLincolnUp.Lamp.En5.5.200Scan.071819.P2_HRD10591_17-20-08-972.txt Node
Date: Thu Jul 18 17:20:08 EDT 2019
User: cochatt
Spectrometer: HR+D1059
Trigger mode: 1
Integration Time (sec): 1.000000E-1
Scans to average: 1
Electric dark correction enabled: true
Nonlinearity correction enabled: false
Boxcar width: 0
XAxis mode: Wavelengths
Number of Pixels in Spectrum: 2048
>>>>>Begin Spectral Data<<<<<
223.165	-12.88
223.4	-12.88
223.635	-12.88
223.869	-13.88
224.104	-26.88
224.338	-24.88
224.573	-6.88
224.808	-8.88
225.042	-3.88
225.277	-0.88
225.511	-8.88
225.746	-9.88
225.98	12.12
226.215	15.12
226.449	16.12
226.683	16.12
226.918	26.12
227.152	32.12
227.387	36.12
227.621	42.12
227.856	43.12
228.09	50.12
228.324	46.12
228.559	62.12
228.793	77.12
229.027	103.12
229.262	98.12
229.496	127.12
229.73	153.12
229.964	172.12
230.199	138.12
230.433	114.12
230.667	97.12
230.901	100.12
231.136	118.12
231.37	126.12
231.604	123.12
231.838	127.12
232.072	110.12
232.306	133.12
232.541	114.12
232.775	120.12
233.009	106.12
233.243	134.12
233.477	113.12
233.711	123.12
233.945	130.12
234.179	132.12
234.413	129.12
234.647	126.12
234.881	114.12
235.115	141.12
235.349	128.12
235.583	139.12
235.817	124.12
236.051	118.12
236.285	130.12
236.519	142.12
236.753	143.12
236.987	157.12
237.221	188.12
237.455	231.12
237.689	197.12
237.922	165.12
238.156	162.12
238.39	144.12
238.624	138.12
238.858	125.12
239.091	127.12
239.325	137.12
239.559	138.12
239.793	135.12
240.027	141.12
240.26	165.12
240.494	172.12
240.728	164.12
240.961	163.12
241.195	144.12
241.429	155.12
241.662	138.12
241.896	143.12
242.13	150.12
242.363	150.12
242.597	128.12
242.83	134.12
243.064	151.12
243.298	149.12
243.531	138.12
243.765	158.12
243.998	152.12
244.232	149.12
244.465	154.12
244.699	160.12
244.932	152.12
245.166	139.12
245.399	163.12
245.633	163.12
245.866	160.12
246.099	150.12
246.333	159.12
246.566	157.12
246.8	151.12
247.033	170.12
247.266	167.12
247.5	167.12
247.733	182.12
247.966	178.12
248.2	180.12
248.433	182.12
248.666	196.12
248.899	200.12
249.133	207.12
249.366	226.12
249.599	217.12
249.832	185.12
250.066	188.12
250.299	195.12
250.532	199.12
250.765	219.12
250.998	223.12
251.231	266.12
251.465	221.12
251.698	212.12
251.931	215.12
252.164	199.12
252.397	208.12
252.63	211.12
252.863	223.12
253.096	227.12
253.329	239.12
253.562	230.12
253.795	235.12
254.028	255.12
254.261	237.12
254.494	236.12
254.727	263.12
254.96	296.12
255.193	271.12
255.426	251.12
255.659	253.12
255.892	231.12
256.124	231.12
256.357	239.12
256.59	219.12
256.823	224.12
257.056	231.12
257.289	220.12
257.521	218.12
257.754	230.12
257.987	229.12
258.22	223.12
258.452	218.12
258.685	217.12
258.918	228.12
259.151	227.12
259.383	256.12
259.616	241.12
259.849	252.12
260.081	262.12
260.314	264.12
260.547	274.12
260.779	268.12
261.012	258.12
261.244	262.12
261.477	243.12
261.71	246.12
261.942	258.12
262.175	261.12
262.407	242.12
262.64	237.12
262.872	229.12
263.105	231.12
263.337	235.12
263.57	221.12
263.802	245.12
264.035	238.12
264.267	216.12
264.499	234.12
264.732	233.12
264.964	229.12
265.197	249.12
265.429	231.12
265.661	253.12
265.894	226.12
266.126	238.12
266.358	232.12
266.591	239.12
266.823	243.12
267.055	241.12
267.287	244.12
267.52	239.12
267.752	239.12
267.984	263.12
268.216	268.12
268.448	256.12
268.681	248.12
268.913	266.12
269.145	267.12
269.377	287.12
269.609	288.12
269.841	285.12
270.073	287.12
270.306	294.12
270.538	340.12
270.77	338.12
271.002	307.12
271.234	312.12
271.466	326.12
271.698	325.12
271.93	343.12
272.162	332.12
272.394	339.12
272.626	335.12
272.858	313.12
273.09	315.12
273.322	293.12
273.553	268.12
273.785	284.12
274.017	282.12
274.249	279.12
274.481	270.12
274.713	275.12
274.945	309.12
275.176	286.12
275.408	282.12
275.64	274.12
275.872	293.12
276.104	270.12
276.335	298.12
276.567	304.12
276.799	313.12
277.031	317.12
277.262	336.12
277.494	339.12
277.726	325.12
277.957	317.12
278.189	313.12
278.421	313.12
278.652	294.12
278.884	280.12
279.115	292.12
279.347	300.12
279.579	280.12
279.81	284.12
280.042	288.12
280.273	277.12
280.505	284.12
280.736	296.12
280.968	290.12
281.199	290.12
281.431	288.12
281.662	292.12
281.894	283.12
282.125	293.12
282.356	313.12
282.588	345.12
282.819	330.12
283.051	310.12
283.282	296.12
283.513	290.12
283.745	314.12
283.976	303.12
284.207	297.12
284.439	308.12
284.67	314.12
284.901	314.12
285.132	295.12
285.364	298.12
285.595	316.12
285.826	286.12
286.057	304.12
286.288	306.12
286.52	311.12
286.751	291.12
286.982	319.12
287.213	313.12
287.444	293.12
287.675	314.12
287.906	319.12
288.138	334.12
288.369	323.12
288.6	346.12
288.831	327.12
289.062	314.12
289.293	304.12
289.524	308.12
289.755	307.12
289.986	327.12
290.217	326.12
290.448	320.12
290.679	346.12
290.91	302.12
291.141	330.12
291.371	320.12
291.602	321.12
291.833	313.12
292.064	317.12
292.295	325.12
292.526	331.12
292.757	313.12
292.987	322.12
293.218	336.12
293.449	322.12
293.68	304.12
293.91	328.12
294.141	310.12
294.372	316.12
294.603	324.12
294.833	322.12
295.064	341.12
295.295	318.12
295.525	329.12
295.756	339.12
295.987	336.12
296.217	366.12
296.448	356.12
296.679	361.12
296.909	325.12
297.14	321.12
297.37	323.12
297.601	342.12
297.831	332.12
298.062	324.12
298.292	318.12
298.523	323.12
298.753	351.12
298.984	331.12
299.214	334.12
299.445	350.12
299.675	337.12
299.905	349.12
300.136	336.12
300.366	370.12
300.597	342.12
300.827	359.12
301.057	350.12
301.288	374.12
301.518	378.12
301.748	375.12
301.979	376.12
302.209	358.12
302.439	374.12
302.669	376.12
302.9	365.12
303.13	363.12
303.36	359.12
303.59	359.12
303.82	380.12
304.051	334.12
304.281	351.12
304.511	347.12
304.741	368.12
304.971	370.12
305.201	331.12
305.431	363.12
305.661	364.12
305.891	363.12
306.121	372.12
306.352	362.12
306.582	386.12
306.812	370.12
307.042	363.12
307.272	360.12
307.502	364.12
307.731	377.12
307.961	386.12
308.191	366.12
308.421	359.12
308.651	367.12
308.881	391.12
309.111	386.12
309.341	394.12
309.571	379.12
309.8	367.12
310.03	399.12
310.26	411.12
310.49	412.12
310.72	396.12
310.949	424.12
311.179	458.12
311.409	416.12
311.639	418.12
311.868	412.12
312.098	416.12
312.328	425.12
312.557	428.12
312.787	456.12
313.017	427.12
313.246	432.12
313.476	403.12
313.706	415.12
313.935	422.12
314.165	442.12
314.394	443.12
314.624	439.12
314.853	430.12
315.083	422.12
315.312	439.12
315.542	414.12
315.771	412.12
316.001	426.12
316.23	413.12
316.46	401.12
316.689	416.12
316.919	438.12
317.148	434.12
317.377	431.12
317.607	436.12
317.836	431.12
318.065	416.12
318.295	401.12
318.524	423.12
318.753	400.12
318.983	427.12
319.212	431.12
319.441	418.12
319.67	420.12
319.9	435.12
320.129	438.12
320.358	434.12
320.587	418.12
320.816	442.12
321.046	445.12
321.275	438.12
321.504	437.12
321.733	447.12
321.962	440.12
322.191	459.12
322.42	478.12
322.649	480.12
322.878	513.12
323.108	517.12
323.337	546.12
323.566	553.12
323.795	583.12
324.024	642.12
324.253	753.12
324.482	1054.12
324.71	1630.12
324.939	2458.12
325.168	2126.12
325.397	1097.12
325.626	734.12
325.855	603.12
326.084	570.12
326.313	559.12
326.542	563.12
326.77	621.12
326.999	719.12
327.228	964.12
327.457	1481.12
327.686	1847.12
327.914	1208.12
328.143	793.12
328.372	695.12
328.6	638.12
328.829	600.12
329.058	634.12
329.287	616.12
329.515	610.12
329.744	556.12
329.972	559.12
330.201	524.12
330.43	570.12
330.658	626.12
330.887	666.12
331.115	640.12
331.344	584.12
331.572	562.12
331.801	562.12
332.03	584.12
332.258	527.12
332.486	507.12
332.715	506.12
332.943	495.12
333.172	518.12
333.4	528.12
333.629	512.12
333.857	531.12
334.085	526.12
334.314	511.12
334.542	540.12
334.771	525.12
334.999	546.12
335.227	517.12
335.455	517.12
335.684	512.12
335.912	487.12
336.14	495.12
336.369	511.12
336.597	504.12
336.825	522.12
337.053	494.12
337.281	502.12
337.51	489.12
337.738	489.12
337.966	525.12
338.194	503.12
338.422	491.12
338.65	500.12
338.878	501.12
339.106	486.12
339.334	464.12
339.562	471.12
339.79	481.12
340.018	489.12
340.246	489.12
340.474	493.12
340.702	498.12
340.93	491.12
341.158	464.12
341.386	474.12
341.614	487.12
341.842	490.12
342.07	487.12
342.298	476.12
342.526	469.12
342.754	480.12
342.981	463.12
343.209	468.12
343.437	485.12
343.665	486.12
343.893	500.12
344.12	518.12
344.348	482.12
344.576	495.12
344.804	509.12
345.031	496.12
345.259	499.12
345.487	485.12
345.714	482.12
345.942	469.12
346.17	469.12
346.397	504.12
346.625	468.12
346.853	470.12
347.08	478.12
347.308	463.12
347.535	460.12
347.763	503.12
347.99	472.12
348.218	483.12
348.445	492.12
348.673	494.12
348.9	487.12
349.128	467.12
349.355	444.12
349.583	471.12
349.81	461.12
350.037	458.12
350.265	462.12
350.492	458.12
350.72	454.12
350.947	477.12
351.174	484.12
351.402	514.12
351.629	489.12
351.856	493.12
352.083	491.12
352.311	489.12
352.538	500.12
352.765	498.12
352.992	483.12
353.22	477.12
353.447	484.12
353.674	478.12
353.901	454.12
354.128	451.12
354.355	445.12
354.583	444.12
354.81	446.12
355.037	453.12
355.264	441.12
355.491	419.12
355.718	425.12
355.945	447.12
356.172	466.12
356.399	439.12
356.626	457.12
356.853	444.12
357.08	427.12
357.307	447.12
357.534	434.12
357.761	474.12
357.988	451.12
358.215	455.12
358.441	450.12
358.668	456.12
358.895	442.12
359.122	444.12
359.349	463.12
359.576	454.12
359.802	487.12
360.029	522.12
360.256	536.12
360.483	504.12
360.709	476.12
360.936	463.12
361.163	483.12
361.39	471.12
361.616	484.12
361.843	469.12
362.07	474.12
362.296	481.12
362.523	472.12
362.749	485.12
362.976	462.12
363.203	470.12
363.429	473.12
363.656	464.12
363.882	454.12
364.109	469.12
364.335	442.12
364.562	460.12
364.788	465.12
365.015	456.12
365.241	450.12
365.468	461.12
365.694	496.12
365.92	463.12
366.147	456.12
366.373	462.12
366.599	470.12
366.826	451.12
367.052	452.12
367.278	454.12
367.505	479.12
367.731	487.12
367.957	482.12
368.184	456.12
368.41	460.12
368.636	490.12
368.862	476.12
369.089	460.12
369.315	460.12
369.541	464.12
369.767	458.12
369.993	461.12
370.219	469.12
370.445	476.12
370.672	457.12
370.898	466.12
371.124	445.12
371.35	452.12
371.576	465.12
371.802	464.12
372.028	461.12
372.254	470.12
372.48	464.12
372.706	476.12
372.932	463.12
373.158	460.12
373.384	473.12
373.61	462.12
373.835	465.12
374.061	484.12
374.287	462.12
374.513	483.12
374.739	490.12
374.965	472.12
375.191	470.12
375.416	471.12
375.642	487.12
375.868	470.12
376.094	469.12
376.319	473.12
376.545	458.12
376.771	468.12
376.997	472.12
377.222	435.12
377.448	459.12
377.674	451.12
377.899	450.12
378.125	478.12
378.35	443.12
378.576	456.12
378.802	468.12
379.027	450.12
379.253	468.12
379.478	462.12
379.704	457.12
379.929	473.12
380.155	482.12
380.38	485.12
380.606	474.12
380.831	460.12
381.057	463.12
381.282	464.12
381.507	455.12
381.733	455.12
381.958	480.12
382.184	481.12
382.409	469.12
382.634	464.12
382.86	468.12
383.085	485.12
383.31	498.12
383.535	479.12
383.761	457.12
383.986	471.12
384.211	501.12
384.436	502.12
384.662	493.12
384.887	504.12
385.112	496.12
385.337	504.12
385.562	514.12
385.787	518.12
386.013	542.12
386.238	526.12
386.463	520.12
386.688	510.12
386.913	524.12
387.138	520.12
387.363	523.12
387.588	506.12
387.813	502.12
388.038	515.12
388.263	525.12
388.488	527.12
388.713	546.12
388.938	528.12
389.163	523.12
389.387	508.12
389.612	501.12
389.837	522.12
390.062	527.12
390.287	521.12
390.512	497.12
390.736	513.12
390.961	533.12
391.186	520.12
391.411	520.12
391.636	528.12
391.86	532.12
392.085	545.12
392.31	520.12
392.534	538.12
392.759	532.12
392.984	518.12
393.208	516.12
393.433	527.12
393.658	520.12
393.882	523.12
394.107	525.12
394.331	536.12
394.556	516.12
394.78	514.12
395.005	547.12
395.229	515.12
395.454	535.12
395.678	552.12
395.903	552.12
396.127	572.12
396.352	591.12
396.576	540.12
396.801	523.12
397.025	559.12
397.249	565.12
397.474	562.12
397.698	560.12
397.922	574.12
398.147	607.12
398.371	603.12
398.595	600.12
398.82	586.12
399.044	619.12
399.268	642.12
399.492	656.12
399.717	679.12
399.941	715.12
400.165	750.12
400.389	752.12
400.613	685.12
400.837	644.12
401.062	624.12
401.286	626.12
401.51	606.12
401.734	600.12
401.958	621.12
402.182	594.12
402.406	628.12
402.63	619.12
402.854	606.12
403.078	619.12
403.302	599.12
403.526	640.12
403.75	624.12
403.974	616.12
404.198	643.12
404.422	609.12
404.645	602.12
404.869	614.12
405.093	643.12
405.317	680.12
405.541	707.12
405.765	682.12
405.988	656.12
406.212	660.12
406.436	660.12
406.66	698.12
406.883	653.12
407.107	699.12
407.331	731.12
407.555	831.12
407.778	831.12
408.002	728.12
408.226	709.12
408.449	685.12
408.673	686.12
408.896	715.12
409.12	773.12
409.344	734.12
409.567	650.12
409.791	640.12
410.014	604.12
410.238	636.12
410.461	628.12
410.685	639.12
410.908	640.12
411.132	694.12
411.355	718.12
411.578	684.12
411.802	648.12
412.025	611.12
412.249	608.12
412.472	631.12
412.695	622.12
412.919	617.12
413.142	613.12
413.365	606.12
413.589	620.12
413.812	597.12
414.035	579.12
414.258	614.12
414.482	590.12
414.705	574.12
414.928	571.12
415.151	602.12
415.374	595.12
415.597	590.12
415.821	585.12
416.044	597.12
416.267	609.12
416.49	602.12
416.713	597.12
416.936	577.12
417.159	578.12
417.382	601.12
417.605	605.12
417.828	612.12
418.051	631.12
418.274	614.12
418.497	590.12
418.72	603.12
418.943	606.12
419.166	631.12
419.389	644.12
419.611	654.12
419.834	621.12
420.057	626.12
420.28	624.12
420.503	609.12
420.726	600.12
420.948	644.12
421.171	657.12
421.394	690.12
421.617	630.12
421.839	590.12
422.062	642.12
422.285	619.12
422.507	719.12
422.73	812.12
422.953	751.12
423.175	672.12
423.398	636.12
423.621	636.12
423.843	658.12
424.066	650.12
424.288	646.12
424.511	660.12
424.733	739.12
424.956	864.12
425.178	809.12
425.401	812.12
425.623	839.12
425.846	724.12
426.068	699.12
426.291	671.12
426.513	675.12
426.735	657.12
426.958	733.12
427.18	831.12
427.402	964.12
427.625	1031.12
427.847	896.12
428.069	762.12
428.292	705.12
428.514	659.12
428.736	629.12
428.958	617.12
429.181	623.12
429.403	628.12
429.625	631.12
429.847	659.12
430.069	710.12
430.292	732.12
430.514	635.12
430.736	616.12
430.958	590.12
431.18	585.12
431.402	580.12
431.624	591.12
431.846	578.12
432.068	555.12
432.29	582.12
432.512	587.12
432.734	600.12
432.956	602.12
433.178	609.12
433.4	623.12
433.622	578.12
433.844	581.12
434.066	582.12
434.287	588.12
434.509	591.12
434.731	599.12
434.953	617.12
435.175	650.12
435.397	657.12
435.618	654.12
435.84	701.12
436.062	810.12
436.284	908.12
436.505	748.12
436.727	687.12
436.949	659.12
437.17	614.12
437.392	623.12
437.614	631.12
437.835	670.12
438.057	758.12
438.278	884.12
438.5	876.12
438.721	994.12
438.943	935.12
439.165	764.12
439.386	689.12
439.608	666.12
439.829	685.12
440.05	708.12
440.272	758.12
440.493	702.12
440.715	654.12
440.936	637.12
441.158	632.12
441.379	624.12
441.6	636.12
441.822	634.12
442.043	705.12
442.264	787.12
442.486	871.12
442.707	730.12
442.928	667.12
443.149	708.12
443.371	716.12
443.592	792.12
443.813	871.12
444.034	941.12
444.255	776.12
444.476	716.12
444.698	674.12
444.919	689.12
445.14	806.12
445.361	729.12
445.582	741.12
445.803	779.12
446.024	930.12
446.245	912.12
446.466	852.12
446.687	686.12
446.908	657.12
447.129	630.12
447.35	602.12
447.571	614.12
447.792	605.12
448.013	624.12
448.234	631.12
448.455	712.12
448.675	826.12
448.896	950.12
449.117	807.12
449.338	786.12
449.559	902.12
449.779	1028.12
450	779.12
450.221	677.12
450.442	630.12
450.662	596.12
450.883	582.12
451.104	623.12
451.324	625.12
451.545	602.12
451.766	583.12
451.986	568.12
452.207	528.12
452.428	536.12
452.648	525.12
452.869	570.12
453.089	571.12
453.31	579.12
453.53	567.12
453.751	526.12
453.971	584.12
454.192	544.12
454.412	552.12
454.633	547.12
454.853	556.12
455.073	558.12
455.294	599.12
455.514	666.12
455.734	626.12
455.955	550.12
456.175	539.12
456.395	520.12
456.616	521.12
456.836	516.12
457.056	518.12
457.276	503.12
457.497	540.12
457.717	528.12
457.937	547.12
458.157	548.12
458.377	539.12
458.598	574.12
458.818	621.12
459.038	703.12
459.258	726.12
459.478	652.12
459.698	591.12
459.918	562.12
460.138	585.12
460.358	596.12
460.578	609.12
460.798	611.12
461.018	612.12
461.238	587.12
461.458	594.12
461.678	592.12
461.898	608.12
462.118	594.12
462.338	594.12
462.558	601.12
462.777	626.12
462.997	646.12
463.217	654.12
463.437	674.12
463.657	655.12
463.876	636.12
464.096	645.12
464.316	652.12
464.536	651.12
464.755	654.12
464.975	640.12
465.195	662.12
465.414	762.12
465.634	694.12
465.854	638.12
466.073	596.12
466.293	596.12
466.512	592.12
466.732	570.12
466.951	576.12
467.171	536.12
467.391	567.12
467.61	591.12
467.829	587.12
468.049	585.12
468.268	556.12
468.488	562.12
468.707	532.12
468.927	578.12
469.146	548.12
469.365	548.12
469.585	563.12
469.804	579.12
470.023	592.12
470.243	572.12
470.462	600.12
470.681	599.12
470.901	592.12
471.12	571.12
471.339	578.12
471.558	597.12
471.777	589.12
471.997	563.12
472.216	546.12
472.435	562.12
472.654	570.12
472.873	554.12
473.092	547.12
473.311	579.12
473.53	576.12
473.749	559.12
473.968	633.12
474.187	746.12
474.406	739.12
474.625	632.12
474.844	603.12
475.063	564.12
475.282	587.12
475.501	579.12
475.72	592.12
475.939	584.12
476.158	597.12
476.377	623.12
476.596	589.12
476.814	620.12
477.033	599.12
477.252	642.12
477.471	622.12
477.69	627.12
477.908	634.12
478.127	646.12
478.346	652.12
478.564	644.12
478.783	651.12
479.002	664.12
479.22	664.12
479.439	657.12
479.658	688.12
479.876	695.12
480.095	730.12
480.313	747.12
480.532	702.12
480.751	703.12
480.969	698.12
481.188	693.12
481.406	727.12
481.624	695.12
481.843	687.12
482.061	675.12
482.28	702.12
482.498	668.12
482.717	672.12
482.935	666.12
483.153	640.12
483.372	695.12
483.59	683.12
483.808	674.12
484.027	684.12
484.245	696.12
484.463	678.12
484.681	705.12
484.9	679.12
485.118	702.12
485.336	693.12
485.554	714.12
485.772	696.12
485.99	690.12
486.209	691.12
486.427	707.12
486.645	715.12
486.863	726.12
487.081	724.12
487.299	726.12
487.517	738.12
487.735	702.12
487.953	717.12
488.171	732.12
488.389	718.12
488.607	716.12
488.825	716.12
489.043	716.12
489.261	719.12
489.479	731.12
489.696	749.12
489.914	731.12
490.132	742.12
490.35	755.12
490.568	748.12
490.786	750.12
491.003	794.12
491.221	811.12
491.439	791.12
491.657	839.12
491.874	809.12
492.092	797.12
492.31	825.12
492.527	805.12
492.745	805.12
492.963	839.12
493.18	811.12
493.398	805.12
493.615	830.12
493.833	842.12
494.05	807.12
494.268	834.12
494.485	860.12
494.703	819.12
494.92	839.12
495.138	867.12
495.355	861.12
495.573	852.12
495.79	853.12
496.008	879.12
496.225	871.12
496.442	884.12
496.66	845.12
496.877	876.12
497.094	863.12
497.312	891.12
497.529	890.12
497.746	888.12
497.963	927.12
498.181	947.12
498.398	965.12
498.615	952.12
498.832	996.12
499.049	993.12
499.267	1021.12
499.484	1068.12
499.701	1094.12
499.918	1140.12
500.135	1171.12
500.352	1235.12
500.569	1242.12
500.786	1270.12
501.003	1263.12
501.22	1210.12
501.437	1154.12
501.654	1133.12
