Data from 1988.PennyLincolnUp.Lamp.En5.5.200Scan.071819.P2_HRD10591_17-19-27-971.txt Node
Date: Thu Jul 18 17:19:27 EDT 2019
User: cochatt
Spectrometer: HR+D1059
Trigger mode: 1
Integration Time (sec): 1.000000E-1
Scans to average: 1
Electric dark correction enabled: true
Nonlinearity correction enabled: false
Boxcar width: 0
XAxis mode: Wavelengths
Number of Pixels in Spectrum: 2048
>>>>>Begin Spectral Data<<<<<
223.165	-2.94
223.4	-2.94
223.635	-2.94
223.869	-6.94
224.104	-11.94
224.338	-0.94
224.573	-18.94
224.808	-13.94
225.042	-26.94
225.277	-5.94
225.511	-15.94
225.746	-13.94
225.98	9.06
226.215	14.06
226.449	27.06
226.683	11.06
226.918	23.06
227.152	34.06
227.387	39.06
227.621	48.06
227.856	46.06
228.09	40.06
228.324	54.06
228.559	50.06
228.793	60.06
229.027	92.06
229.262	103.06
229.496	114.06
229.73	118.06
229.964	162.06
230.199	148.06
230.433	104.06
230.667	104.06
230.901	114.06
231.136	94.06
231.37	101.06
231.604	121.06
231.838	115.06
232.072	106.06
232.306	114.06
232.541	122.06
232.775	112.06
233.009	106.06
233.243	101.06
233.477	102.06
233.711	116.06
233.945	124.06
234.179	118.06
234.413	122.06
234.647	117.06
234.881	120.06
235.115	115.06
235.349	116.06
235.583	120.06
235.817	118.06
236.051	126.06
236.285	126.06
236.519	126.06
236.753	129.06
236.987	134.06
237.221	161.06
237.455	217.06
237.689	189.06
237.922	161.06
238.156	134.06
238.39	121.06
238.624	138.06
238.858	134.06
239.091	111.06
239.325	105.06
239.559	118.06
239.793	136.06
240.027	128.06
240.26	151.06
240.494	172.06
240.728	138.06
240.961	141.06
241.195	132.06
241.429	134.06
241.662	139.06
241.896	130.06
242.13	130.06
242.363	134.06
242.597	134.06
242.83	144.06
243.064	132.06
243.298	138.06
243.531	137.06
243.765	132.06
243.998	144.06
244.232	157.06
244.465	146.06
244.699	137.06
244.932	133.06
245.166	129.06
245.399	154.06
245.633	155.06
245.866	157.06
246.099	145.06
246.333	150.06
246.566	142.06
246.8	135.06
247.033	153.06
247.266	148.06
247.5	157.06
247.733	158.06
247.966	165.06
248.2	154.06
248.433	170.06
248.666	162.06
248.899	190.06
249.133	196.06
249.366	203.06
249.599	185.06
249.832	194.06
250.066	182.06
250.299	187.06
250.532	173.06
250.765	194.06
250.998	199.06
251.231	216.06
251.465	213.06
251.698	189.06
251.931	197.06
252.164	187.06
252.397	201.06
252.63	202.06
252.863	205.06
253.096	192.06
253.329	230.06
253.562	192.06
253.795	217.06
254.028	214.06
254.261	208.06
254.494	218.06
254.727	251.06
254.96	263.06
255.193	259.06
255.426	221.06
255.659	217.06
255.892	223.06
256.124	205.06
256.357	204.06
256.59	214.06
256.823	208.06
257.056	200.06
257.289	217.06
257.521	205.06
257.754	213.06
257.987	211.06
258.22	200.06
258.452	186.06
258.685	212.06
258.918	206.06
259.151	198.06
259.383	220.06
259.616	228.06
259.849	224.06
260.081	229.06
260.314	252.06
260.547	253.06
260.779	228.06
261.012	224.06
261.244	224.06
261.477	235.06
261.71	224.06
261.942	233.06
262.175	224.06
262.407	238.06
262.64	228.06
262.872	204.06
263.105	196.06
263.337	211.06
263.57	220.06
263.802	214.06
264.035	204.06
264.267	214.06
264.499	199.06
264.732	226.06
264.964	208.06
265.197	214.06
265.429	211.06
265.661	208.06
265.894	218.06
266.126	196.06
266.358	229.06
266.591	232.06
266.823	241.06
267.055	229.06
267.287	226.06
267.52	215.06
267.752	239.06
267.984	224.06
268.216	226.06
268.448	229.06
268.681	228.06
268.913	244.06
269.145	255.06
269.377	270.06
269.609	254.06
269.841	292.06
270.073	269.06
270.306	287.06
270.538	320.06
270.77	302.06
271.002	304.06
271.234	293.06
271.466	286.06
271.698	302.06
271.93	327.06
272.162	296.06
272.394	309.06
272.626	306.06
272.858	281.06
273.09	263.06
273.322	250.06
273.553	268.06
273.785	250.06
274.017	261.06
274.249	238.06
274.481	249.06
274.713	255.06
274.945	260.06
275.176	247.06
275.408	263.06
275.64	256.06
275.872	266.06
276.104	254.06
276.335	267.06
276.567	276.06
276.799	310.06
277.031	304.06
277.262	322.06
277.494	312.06
277.726	301.06
277.957	302.06
278.189	288.06
278.421	269.06
278.652	273.06
278.884	276.06
279.115	272.06
279.347	282.06
279.579	268.06
279.81	273.06
280.042	267.06
280.273	271.06
280.505	254.06
280.736	288.06
280.968	251.06
281.199	277.06
281.431	267.06
281.662	268.06
281.894	267.06
282.125	285.06
282.356	314.06
282.588	293.06
282.819	306.06
283.051	294.06
283.282	269.06
283.513	300.06
283.745	267.06
283.976	276.06
284.207	274.06
284.439	278.06
284.67	283.06
284.901	285.06
285.132	268.06
285.364	273.06
285.595	252.06
285.826	277.06
286.057	284.06
286.288	304.06
286.52	286.06
286.751	298.06
286.982	286.06
287.213	273.06
287.444	283.06
287.675	299.06
287.906	284.06
288.138	285.06
288.369	295.06
288.6	307.06
288.831	297.06
289.062	289.06
289.293	293.06
289.524	299.06
289.755	288.06
289.986	276.06
290.217	298.06
290.448	297.06
290.679	307.06
290.91	289.06
291.141	275.06
291.371	295.06
291.602	308.06
291.833	306.06
292.064	285.06
292.295	293.06
292.526	295.06
292.757	281.06
292.987	322.06
293.218	285.06
293.449	302.06
293.68	308.06
293.91	302.06
294.141	305.06
294.372	304.06
294.603	310.06
294.833	291.06
295.064	297.06
295.295	295.06
295.525	299.06
295.756	310.06
295.987	308.06
296.217	340.06
296.448	355.06
296.679	317.06
296.909	307.06
297.14	302.06
297.37	305.06
297.601	324.06
297.831	311.06
298.062	293.06
298.292	308.06
298.523	314.06
298.753	302.06
298.984	319.06
299.214	302.06
299.445	310.06
299.675	323.06
299.905	332.06
300.136	325.06
300.366	318.06
300.597	323.06
300.827	338.06
301.057	331.06
301.288	328.06
301.518	346.06
301.748	323.06
301.979	355.06
302.209	340.06
302.439	340.06
302.669	321.06
302.9	330.06
303.13	339.06
303.36	348.06
303.59	324.06
303.82	358.06
304.051	339.06
304.281	336.06
304.511	336.06
304.741	339.06
304.971	344.06
305.201	324.06
305.431	340.06
305.661	354.06
305.891	350.06
306.121	338.06
306.352	347.06
306.582	349.06
306.812	326.06
307.042	354.06
307.272	349.06
307.502	333.06
307.731	341.06
307.961	342.06
308.191	362.06
308.421	352.06
308.651	346.06
308.881	359.06
309.111	350.06
309.341	355.06
309.571	368.06
309.8	363.06
310.03	368.06
310.26	393.06
310.49	382.06
310.72	394.06
310.949	420.06
311.179	398.06
311.409	390.06
311.639	381.06
311.868	367.06
312.098	370.06
312.328	390.06
312.557	422.06
312.787	429.06
313.017	429.06
313.246	391.06
313.476	391.06
313.706	377.06
313.935	394.06
314.165	408.06
314.394	388.06
314.624	423.06
314.853	404.06
315.083	394.06
315.312	389.06
315.542	377.06
315.771	396.06
316.001	390.06
316.23	373.06
316.46	392.06
316.689	381.06
316.919	408.06
317.148	389.06
317.377	399.06
317.607	395.06
317.836	390.06
318.065	400.06
318.295	382.06
318.524	399.06
318.753	376.06
318.983	396.06
319.212	390.06
319.441	404.06
319.67	396.06
319.9	397.06
320.129	398.06
320.358	408.06
320.587	419.06
320.816	415.06
321.046	408.06
321.275	438.06
321.504	416.06
321.733	413.06
321.962	424.06
322.191	430.06
322.42	443.06
322.649	459.06
322.878	477.06
323.108	469.06
323.337	491.06
323.566	517.06
323.795	550.06
324.024	612.06
324.253	710.06
324.482	993.06
324.71	1534.06
324.939	2245.06
325.168	1922.06
325.397	1003.06
325.626	691.06
325.855	570.06
326.084	553.06
326.313	547.06
326.542	530.06
326.77	554.06
326.999	683.06
327.228	930.06
327.457	1391.06
327.686	1638.06
327.914	1098.06
328.143	742.06
328.372	648.06
328.6	600.06
328.829	580.06
329.058	579.06
329.287	573.06
329.515	541.06
329.744	518.06
329.972	530.06
330.201	526.06
330.43	531.06
330.658	554.06
330.887	606.06
331.115	599.06
331.344	532.06
331.572	498.06
331.801	516.06
332.03	512.06
332.258	480.06
332.486	486.06
332.715	455.06
332.943	457.06
333.172	456.06
333.4	464.06
333.629	477.06
333.857	475.06
334.085	483.06
334.314	487.06
334.542	478.06
334.771	487.06
334.999	483.06
335.227	472.06
335.455	491.06
335.684	438.06
335.912	440.06
336.14	472.06
336.369	459.06
336.597	451.06
336.825	463.06
337.053	476.06
337.281	468.06
337.51	448.06
337.738	458.06
337.966	462.06
338.194	456.06
338.422	451.06
338.65	452.06
338.878	467.06
339.106	461.06
339.334	438.06
339.562	446.06
339.79	452.06
340.018	455.06
340.246	434.06
340.474	433.06
340.702	439.06
340.93	423.06
341.158	447.06
341.386	456.06
341.614	423.06
341.842	438.06
342.07	440.06
342.298	426.06
342.526	439.06
342.754	440.06
342.981	437.06
343.209	432.06
343.437	431.06
343.665	446.06
343.893	442.06
344.12	448.06
344.348	466.06
344.576	465.06
344.804	466.06
345.031	461.06
345.259	484.06
345.487	470.06
345.714	446.06
345.942	427.06
346.17	449.06
346.397	413.06
346.625	428.06
346.853	417.06
347.08	440.06
347.308	429.06
347.535	445.06
347.763	452.06
347.99	442.06
348.218	450.06
348.445	440.06
348.673	429.06
348.9	437.06
349.128	428.06
349.355	419.06
349.583	422.06
349.81	434.06
350.037	414.06
350.265	436.06
350.492	433.06
350.72	413.06
350.947	423.06
351.174	419.06
351.402	453.06
351.629	427.06
351.856	438.06
352.083	446.06
352.311	446.06
352.538	436.06
352.765	437.06
352.992	456.06
353.22	427.06
353.447	426.06
353.674	419.06
353.901	400.06
354.128	388.06
354.355	400.06
354.583	398.06
354.81	405.06
355.037	424.06
355.264	406.06
355.491	401.06
355.718	408.06
355.945	388.06
356.172	385.06
356.399	406.06
356.626	388.06
356.853	381.06
357.08	406.06
357.307	419.06
357.534	414.06
357.761	400.06
357.988	404.06
358.215	398.06
358.441	435.06
358.668	428.06
358.895	418.06
359.122	435.06
359.349	426.06
359.576	428.06
359.802	464.06
360.029	479.06
360.256	486.06
360.483	460.06
360.709	427.06
360.936	446.06
361.163	436.06
361.39	443.06
361.616	448.06
361.843	417.06
362.07	456.06
362.296	447.06
362.523	454.06
362.749	440.06
362.976	406.06
363.203	420.06
363.429	427.06
363.656	427.06
363.882	423.06
364.109	435.06
364.335	418.06
364.562	426.06
364.788	410.06
365.015	432.06
365.241	431.06
365.468	417.06
365.694	414.06
365.92	439.06
366.147	394.06
366.373	405.06
366.599	445.06
366.826	414.06
367.052	410.06
367.278	403.06
367.505	423.06
367.731	397.06
367.957	429.06
368.184	402.06
368.41	420.06
368.636	437.06
368.862	427.06
369.089	409.06
369.315	416.06
369.541	421.06
369.767	412.06
369.993	410.06
370.219	417.06
370.445	415.06
370.672	408.06
370.898	388.06
371.124	406.06
371.35	423.06
371.576	410.06
371.802	412.06
372.028	410.06
372.254	425.06
372.48	401.06
372.706	416.06
372.932	398.06
373.158	419.06
373.384	423.06
373.61	443.06
373.835	401.06
374.061	410.06
374.287	416.06
374.513	427.06
374.739	434.06
374.965	430.06
375.191	442.06
375.416	422.06
375.642	424.06
375.868	431.06
376.094	431.06
376.319	415.06
376.545	400.06
376.771	406.06
376.997	406.06
377.222	426.06
377.448	416.06
377.674	429.06
377.899	408.06
378.125	418.06
378.35	408.06
378.576	393.06
378.802	412.06
379.027	418.06
379.253	424.06
379.478	394.06
379.704	402.06
379.929	431.06
380.155	411.06
380.38	412.06
380.606	433.06
380.831	401.06
381.057	403.06
381.282	405.06
381.507	415.06
381.733	437.06
381.958	416.06
382.184	427.06
382.409	431.06
382.634	440.06
382.86	425.06
383.085	418.06
383.31	429.06
383.535	429.06
383.761	427.06
383.986	422.06
384.211	420.06
384.436	425.06
384.662	452.06
384.887	428.06
385.112	434.06
385.337	453.06
385.562	439.06
385.787	442.06
386.013	471.06
386.238	449.06
386.463	473.06
386.688	479.06
386.913	447.06
387.138	464.06
387.363	449.06
387.588	471.06
387.813	466.06
388.038	451.06
388.263	457.06
388.488	455.06
388.713	469.06
388.938	463.06
389.163	455.06
389.387	468.06
389.612	448.06
389.837	438.06
390.062	453.06
390.287	443.06
390.512	462.06
390.736	438.06
390.961	460.06
391.186	458.06
391.411	462.06
391.636	435.06
391.86	468.06
392.085	476.06
392.31	500.06
392.534	471.06
392.759	458.06
392.984	482.06
393.208	463.06
393.433	446.06
393.658	465.06
393.882	475.06
394.107	445.06
394.331	459.06
394.556	468.06
394.78	464.06
395.005	467.06
395.229	466.06
395.454	494.06
395.678	480.06
395.903	484.06
396.127	500.06
396.352	491.06
396.576	490.06
396.801	491.06
397.025	502.06
397.249	491.06
397.474	498.06
397.698	482.06
397.922	519.06
398.147	510.06
398.371	536.06
398.595	523.06
398.82	492.06
399.044	520.06
399.268	545.06
399.492	582.06
399.717	576.06
399.941	626.06
400.165	660.06
400.389	658.06
400.613	591.06
400.837	566.06
401.062	555.06
401.286	557.06
401.51	533.06
401.734	519.06
401.958	524.06
402.182	532.06
402.406	556.06
402.63	521.06
402.854	545.06
403.078	541.06
403.302	559.06
403.526	549.06
403.75	549.06
403.974	545.06
404.198	545.06
404.422	549.06
404.645	528.06
404.869	534.06
405.093	576.06
405.317	572.06
405.541	613.06
405.765	595.06
405.988	568.06
406.212	595.06
406.436	606.06
406.66	592.06
406.883	567.06
407.107	626.06
407.331	656.06
407.555	718.06
407.778	709.06
408.002	677.06
408.226	615.06
408.449	593.06
408.673	600.06
408.896	632.06
409.12	673.06
409.344	642.06
409.567	583.06
409.791	572.06
410.014	550.06
410.238	557.06
410.461	559.06
410.685	546.06
410.908	567.06
411.132	589.06
411.355	627.06
411.578	607.06
411.802	555.06
412.025	544.06
412.249	547.06
412.472	549.06
412.695	546.06
412.919	527.06
413.142	541.06
413.365	518.06
413.589	502.06
413.812	523.06
414.035	511.06
414.258	538.06
414.482	509.06
414.705	507.06
414.928	512.06
415.151	519.06
415.374	509.06
415.597	515.06
415.821	533.06
416.044	520.06
416.267	522.06
416.49	522.06
416.713	490.06
416.936	527.06
417.159	516.06
417.382	544.06
417.605	526.06
417.828	539.06
418.051	510.06
418.274	539.06
418.497	508.06
418.72	518.06
418.943	502.06
419.166	530.06
419.389	544.06
419.611	549.06
419.834	524.06
420.057	536.06
420.28	544.06
420.503	520.06
420.726	524.06
420.948	553.06
421.171	585.06
421.394	627.06
421.617	580.06
421.839	537.06
422.062	539.06
422.285	529.06
422.507	596.06
422.73	675.06
422.953	692.06
423.175	586.06
423.398	555.06
423.621	559.06
423.843	548.06
424.066	570.06
424.288	589.06
424.511	589.06
424.733	645.06
424.956	728.06
425.178	684.06
425.401	696.06
425.623	716.06
425.846	644.06
426.068	591.06
426.291	546.06
426.513	578.06
426.735	590.06
426.958	617.06
427.18	688.06
427.402	839.06
427.625	943.06
427.847	790.06
428.069	672.06
428.292	600.06
428.514	577.06
428.736	542.06
428.958	554.06
429.181	529.06
429.403	502.06
429.625	526.06
429.847	602.06
430.069	637.06
430.292	651.06
430.514	554.06
430.736	534.06
430.958	544.06
431.18	509.06
431.402	510.06
431.624	499.06
431.846	506.06
432.068	520.06
432.29	518.06
432.512	494.06
432.734	520.06
432.956	519.06
433.178	544.06
433.4	519.06
433.622	507.06
433.844	494.06
434.066	514.06
434.287	512.06
434.509	526.06
434.731	511.06
434.953	534.06
435.175	556.06
435.397	559.06
435.618	560.06
435.84	626.06
436.062	698.06
436.284	776.06
436.505	666.06
436.727	607.06
436.949	536.06
437.17	545.06
437.392	538.06
437.614	539.06
437.835	568.06
438.057	699.06
438.278	788.06
438.5	778.06
438.721	860.06
438.943	825.06
439.165	652.06
439.386	610.06
439.608	576.06
439.829	573.06
440.05	626.06
440.272	660.06
440.493	615.06
440.715	589.06
440.936	565.06
441.158	555.06
441.379	550.06
441.6	554.06
441.822	559.06
442.043	607.06
442.264	700.06
442.486	738.06
442.707	626.06
442.928	604.06
443.149	595.06
443.371	603.06
443.592	681.06
443.813	765.06
444.034	814.06
444.255	660.06
444.476	596.06
444.698	601.06
444.919	595.06
445.14	675.06
445.361	658.06
445.582	639.06
445.803	694.06
446.024	794.06
446.245	783.06
446.466	740.06
446.687	642.06
446.908	581.06
447.129	551.06
447.35	535.06
447.571	545.06
447.792	530.06
448.013	532.06
448.234	573.06
448.455	615.06
448.675	733.06
448.896	855.06
449.117	711.06
449.338	677.06
449.559	791.06
449.779	886.06
450	702.06
450.221	600.06
450.442	551.06
450.662	539.06
450.883	538.06
451.104	549.06
451.324	532.06
451.545	495.06
451.766	490.06
451.986	471.06
452.207	469.06
452.428	464.06
452.648	485.06
452.869	473.06
453.089	478.06
453.31	500.06
453.53	482.06
453.751	482.06
453.971	492.06
454.192	491.06
454.412	489.06
454.633	463.06
454.853	493.06
455.073	486.06
455.294	503.06
455.514	556.06
455.734	558.06
455.955	484.06
456.175	457.06
456.395	455.06
456.616	448.06
456.836	454.06
457.056	447.06
457.276	442.06
457.497	432.06
457.717	466.06
457.937	445.06
458.157	463.06
458.377	470.06
458.598	500.06
458.818	539.06
459.038	625.06
459.258	660.06
459.478	594.06
459.698	519.06
459.918	507.06
460.138	513.06
460.358	520.06
460.578	524.06
460.798	540.06
461.018	528.06
461.238	519.06
461.458	529.06
461.678	545.06
461.898	532.06
462.118	515.06
462.338	538.06
462.558	555.06
462.777	544.06
462.997	557.06
463.217	569.06
463.437	556.06
463.657	581.06
463.876	545.06
464.096	519.06
464.316	539.06
464.536	573.06
464.755	566.06
464.975	551.06
465.195	571.06
465.414	667.06
465.634	582.06
465.854	580.06
466.073	543.06
466.293	502.06
466.512	508.06
466.732	490.06
466.951	495.06
467.171	477.06
467.391	514.06
467.61	504.06
467.829	530.06
468.049	500.06
468.268	482.06
468.488	491.06
468.707	488.06
468.927	482.06
469.146	467.06
469.365	473.06
469.585	500.06
469.804	494.06
470.023	489.06
470.243	501.06
470.462	490.06
470.681	538.06
470.901	526.06
471.12	499.06
471.339	503.06
471.558	481.06
471.777	505.06
471.997	495.06
472.216	504.06
472.435	498.06
472.654	486.06
472.873	479.06
473.092	482.06
473.311	491.06
473.53	482.06
473.749	485.06
473.968	534.06
474.187	642.06
474.406	664.06
474.625	562.06
474.844	534.06
475.063	502.06
475.282	519.06
475.501	503.06
475.72	517.06
475.939	527.06
476.158	518.06
476.377	522.06
476.596	523.06
476.814	549.06
477.033	530.06
477.252	510.06
477.471	524.06
477.69	554.06
477.908	525.06
478.127	542.06
478.346	549.06
478.564	578.06
478.783	564.06
479.002	573.06
479.22	571.06
479.439	565.06
479.658	592.06
479.876	593.06
480.095	608.06
480.313	634.06
480.532	632.06
480.751	620.06
480.969	616.06
481.188	627.06
481.406	614.06
481.624	599.06
481.843	599.06
482.061	597.06
482.28	596.06
482.498	593.06
482.717	605.06
482.935	572.06
483.153	592.06
483.372	592.06
483.59	597.06
483.808	594.06
484.027	592.06
484.245	604.06
484.463	576.06
484.681	587.06
484.9	591.06
485.118	615.06
485.336	623.06
485.554	622.06
485.772	598.06
485.99	611.06
486.209	619.06
486.427	630.06
486.645	632.06
486.863	632.06
487.081	654.06
487.299	642.06
487.517	653.06
487.735	631.06
487.953	627.06
488.171	624.06
488.389	629.06
488.607	639.06
488.825	649.06
489.043	634.06
489.261	617.06
489.479	633.06
489.696	642.06
489.914	638.06
490.132	641.06
490.35	656.06
490.568	669.06
490.786	671.06
491.003	675.06
491.221	646.06
491.439	701.06
491.657	692.06
491.874	710.06
492.092	702.06
492.31	715.06
492.527	718.06
492.745	720.06
492.963	698.06
493.18	703.06
493.398	726.06
493.615	732.06
493.833	710.06
494.05	728.06
494.268	730.06
494.485	724.06
494.703	723.06
494.92	726.06
495.138	727.06
495.355	747.06
495.573	730.06
495.79	764.06
496.008	754.06
496.225	749.06
496.442	729.06
496.66	733.06
496.877	744.06
497.094	740.06
497.312	769.06
497.529	762.06
497.746	756.06
497.963	802.06
498.181	807.06
498.398	813.06
498.615	826.06
498.832	869.06
499.049	885.06
499.267	910.06
499.484	928.06
499.701	933.06
499.918	967.06
500.135	1018.06
500.352	1031.06
500.569	1070.06
500.786	1046.06
501.003	1052.06
501.22	1009.06
501.437	1006.06
501.654	990.06
501.871	947.06
