Data from 1988.PennyLincolnUp.Lamp.En5.5.200Scan.071819.P2_HRD10591_17-19-05-971.txt Node
Date: Thu Jul 18 17:19:05 EDT 2019
User: cochatt
Spectrometer: HR+D1059
Trigger mode: 1
Integration Time (sec): 1.000000E-1
Scans to average: 1
Electric dark correction enabled: true
Nonlinearity correction enabled: false
Boxcar width: 0
XAxis mode: Wavelengths
Number of Pixels in Spectrum: 2048
>>>>>Begin Spectral Data<<<<<
223.165	-13.75
223.4	-13.75
223.635	-13.75
223.869	-9.75
224.104	-20.75
224.338	-21.75
224.573	-14.75
224.808	-13.75
225.042	-19.75
225.277	-6.75
225.511	6.25
225.746	1.25
225.98	6.25
226.215	6.25
226.449	18.25
226.683	23.25
226.918	28.25
227.152	31.25
227.387	41.25
227.621	31.25
227.856	39.25
228.09	50.25
228.324	53.25
228.559	54.25
228.793	71.25
229.027	94.25
229.262	109.25
229.496	117.25
229.73	130.25
229.964	163.25
230.199	139.25
230.433	120.25
230.667	121.25
230.901	113.25
231.136	113.25
231.37	129.25
231.604	127.25
231.838	107.25
232.072	105.25
232.306	113.25
232.541	101.25
232.775	107.25
233.009	115.25
233.243	111.25
233.477	113.25
233.711	111.25
233.945	122.25
234.179	111.25
234.413	109.25
234.647	113.25
234.881	116.25
235.115	119.25
235.349	126.25
235.583	126.25
235.817	108.25
236.051	123.25
236.285	131.25
236.519	127.25
236.753	130.25
236.987	152.25
237.221	189.25
237.455	231.25
237.689	182.25
237.922	149.25
238.156	138.25
238.39	122.25
238.624	118.25
238.858	133.25
239.091	116.25
239.325	126.25
239.559	127.25
239.793	138.25
240.027	139.25
240.26	138.25
240.494	150.25
240.728	144.25
240.961	147.25
241.195	153.25
241.429	126.25
241.662	123.25
241.896	125.25
242.13	119.25
242.363	126.25
242.597	133.25
242.83	137.25
243.064	140.25
243.298	134.25
243.531	144.25
243.765	141.25
243.998	133.25
244.232	133.25
244.465	143.25
244.699	141.25
244.932	142.25
245.166	153.25
245.399	138.25
245.633	146.25
245.866	137.25
246.099	142.25
246.333	170.25
246.566	137.25
246.8	147.25
247.033	166.25
247.266	150.25
247.5	158.25
247.733	173.25
247.966	174.25
248.2	155.25
248.433	164.25
248.666	163.25
248.899	181.25
249.133	190.25
249.366	201.25
249.599	189.25
249.832	201.25
250.066	168.25
250.299	181.25
250.532	186.25
250.765	180.25
250.998	207.25
251.231	218.25
251.465	204.25
251.698	203.25
251.931	189.25
252.164	189.25
252.397	196.25
252.63	199.25
252.863	202.25
253.096	219.25
253.329	232.25
253.562	220.25
253.795	219.25
254.028	211.25
254.261	220.25
254.494	221.25
254.727	229.25
254.96	272.25
255.193	269.25
255.426	244.25
255.659	226.25
255.892	222.25
256.124	206.25
256.357	219.25
256.59	216.25
256.823	187.25
257.056	204.25
257.289	201.25
257.521	205.25
257.754	206.25
257.987	207.25
258.22	206.25
258.452	201.25
258.685	198.25
258.918	212.25
259.151	198.25
259.383	220.25
259.616	222.25
259.849	207.25
260.081	216.25
260.314	234.25
260.547	243.25
260.779	232.25
261.012	233.25
261.244	225.25
261.477	217.25
261.71	214.25
261.942	219.25
262.175	227.25
262.407	215.25
262.64	212.25
262.872	223.25
263.105	224.25
263.337	212.25
263.57	232.25
263.802	221.25
264.035	205.25
264.267	219.25
264.499	195.25
264.732	206.25
264.964	213.25
265.197	209.25
265.429	213.25
265.661	205.25
265.894	230.25
266.126	221.25
266.358	210.25
266.591	227.25
266.823	206.25
267.055	215.25
267.287	233.25
267.52	218.25
267.752	222.25
267.984	218.25
268.216	228.25
268.448	225.25
268.681	234.25
268.913	242.25
269.145	259.25
269.377	268.25
269.609	272.25
269.841	241.25
270.073	266.25
270.306	301.25
270.538	313.25
270.77	318.25
271.002	287.25
271.234	280.25
271.466	294.25
271.698	305.25
271.93	301.25
272.162	318.25
272.394	294.25
272.626	280.25
272.858	277.25
273.09	291.25
273.322	265.25
273.553	255.25
273.785	286.25
274.017	257.25
274.249	270.25
274.481	247.25
274.713	273.25
274.945	289.25
275.176	272.25
275.408	271.25
275.64	259.25
275.872	261.25
276.104	257.25
276.335	264.25
276.567	260.25
276.799	275.25
277.031	306.25
277.262	309.25
277.494	316.25
277.726	300.25
277.957	287.25
278.189	270.25
278.421	277.25
278.652	278.25
278.884	283.25
279.115	274.25
279.347	262.25
279.579	269.25
279.81	267.25
280.042	259.25
280.273	254.25
280.505	278.25
280.736	262.25
280.968	277.25
281.199	259.25
281.431	251.25
281.662	268.25
281.894	270.25
282.125	264.25
282.356	290.25
282.588	302.25
282.819	298.25
283.051	292.25
283.282	254.25
283.513	283.25
283.745	296.25
283.976	281.25
284.207	277.25
284.439	291.25
284.67	287.25
284.901	275.25
285.132	283.25
285.364	258.25
285.595	276.25
285.826	269.25
286.057	264.25
286.288	284.25
286.52	277.25
286.751	263.25
286.982	286.25
287.213	283.25
287.444	279.25
287.675	283.25
287.906	289.25
288.138	317.25
288.369	300.25
288.6	285.25
288.831	290.25
289.062	292.25
289.293	300.25
289.524	294.25
289.755	275.25
289.986	280.25
290.217	292.25
290.448	292.25
290.679	282.25
290.91	285.25
291.141	284.25
291.371	291.25
291.602	276.25
291.833	309.25
292.064	305.25
292.295	293.25
292.526	290.25
292.757	294.25
292.987	298.25
293.218	279.25
293.449	290.25
293.68	302.25
293.91	285.25
294.141	281.25
294.372	289.25
294.603	287.25
294.833	283.25
295.064	310.25
295.295	309.25
295.525	283.25
295.756	301.25
295.987	311.25
296.217	317.25
296.448	334.25
296.679	301.25
296.909	283.25
297.14	298.25
297.37	284.25
297.601	302.25
297.831	298.25
298.062	301.25
298.292	301.25
298.523	319.25
298.753	320.25
298.984	299.25
299.214	322.25
299.445	309.25
299.675	314.25
299.905	313.25
300.136	320.25
300.366	301.25
300.597	317.25
300.827	317.25
301.057	329.25
301.288	324.25
301.518	321.25
301.748	356.25
301.979	322.25
302.209	322.25
302.439	353.25
302.669	338.25
302.9	352.25
303.13	323.25
303.36	321.25
303.59	337.25
303.82	334.25
304.051	340.25
304.281	329.25
304.511	331.25
304.741	330.25
304.971	326.25
305.201	324.25
305.431	338.25
305.661	334.25
305.891	319.25
306.121	338.25
306.352	361.25
306.582	364.25
306.812	354.25
307.042	322.25
307.272	335.25
307.502	341.25
307.731	344.25
307.961	325.25
308.191	336.25
308.421	337.25
308.651	349.25
308.881	350.25
309.111	351.25
309.341	354.25
309.571	335.25
309.8	376.25
310.03	365.25
310.26	383.25
310.49	395.25
310.72	361.25
310.949	385.25
311.179	396.25
311.409	382.25
311.639	379.25
311.868	389.25
312.098	400.25
312.328	389.25
312.557	388.25
312.787	426.25
313.017	425.25
313.246	393.25
313.476	393.25
313.706	390.25
313.935	380.25
314.165	387.25
314.394	395.25
314.624	397.25
314.853	412.25
315.083	402.25
315.312	384.25
315.542	392.25
315.771	371.25
316.001	389.25
316.23	384.25
316.46	373.25
316.689	391.25
316.919	383.25
317.148	390.25
317.377	407.25
317.607	401.25
317.836	396.25
318.065	393.25
318.295	395.25
318.524	382.25
318.753	381.25
318.983	391.25
319.212	370.25
319.441	386.25
319.67	387.25
319.9	400.25
320.129	397.25
320.358	394.25
320.587	395.25
320.816	402.25
321.046	391.25
321.275	423.25
321.504	411.25
321.733	418.25
321.962	407.25
322.191	422.25
322.42	438.25
322.649	461.25
322.878	463.25
323.108	468.25
323.337	490.25
323.566	510.25
323.795	525.25
324.024	568.25
324.253	692.25
324.482	1005.25
324.71	1516.25
324.939	2293.25
325.168	1939.25
325.397	1027.25
325.626	687.25
325.855	564.25
326.084	537.25
326.313	500.25
326.542	518.25
326.77	566.25
326.999	675.25
327.228	907.25
327.457	1360.25
327.686	1691.25
327.914	1133.25
328.143	724.25
328.372	614.25
328.6	586.25
328.829	571.25
329.058	573.25
329.287	582.25
329.515	561.25
329.744	526.25
329.972	491.25
330.201	509.25
330.43	522.25
330.658	580.25
330.887	597.25
331.115	602.25
331.344	532.25
331.572	517.25
331.801	493.25
332.03	490.25
332.258	476.25
332.486	468.25
332.715	460.25
332.943	471.25
333.172	445.25
333.4	469.25
333.629	470.25
333.857	464.25
334.085	477.25
334.314	436.25
334.542	476.25
334.771	475.25
334.999	472.25
335.227	478.25
335.455	478.25
335.684	475.25
335.912	464.25
336.14	452.25
336.369	439.25
336.597	458.25
336.825	465.25
337.053	459.25
337.281	454.25
337.51	435.25
337.738	441.25
337.966	446.25
338.194	459.25
338.422	453.25
338.65	455.25
338.878	446.25
339.106	449.25
339.334	451.25
339.562	434.25
339.79	419.25
340.018	438.25
340.246	431.25
340.474	464.25
340.702	459.25
340.93	445.25
341.158	430.25
341.386	448.25
341.614	437.25
341.842	453.25
342.07	411.25
342.298	442.25
342.526	419.25
342.754	447.25
342.981	422.25
343.209	426.25
343.437	440.25
343.665	453.25
343.893	426.25
344.12	448.25
344.348	448.25
344.576	465.25
344.804	450.25
345.031	460.25
345.259	456.25
345.487	464.25
345.714	438.25
345.942	422.25
346.17	413.25
346.397	422.25
346.625	433.25
346.853	430.25
347.08	440.25
347.308	435.25
347.535	444.25
347.763	446.25
347.99	435.25
348.218	435.25
348.445	446.25
348.673	450.25
348.9	437.25
349.128	441.25
349.355	428.25
349.583	419.25
349.81	419.25
350.037	412.25
350.265	413.25
350.492	411.25
350.72	418.25
350.947	438.25
351.174	425.25
351.402	454.25
351.629	451.25
351.856	433.25
352.083	456.25
352.311	476.25
352.538	452.25
352.765	452.25
352.992	436.25
353.22	423.25
353.447	432.25
353.674	413.25
353.901	417.25
354.128	392.25
354.355	395.25
354.583	413.25
354.81	394.25
355.037	415.25
355.264	404.25
355.491	384.25
355.718	387.25
355.945	408.25
356.172	404.25
356.399	405.25
356.626	364.25
356.853	395.25
357.08	403.25
357.307	395.25
357.534	400.25
357.761	397.25
357.988	411.25
358.215	399.25
358.441	404.25
358.668	405.25
358.895	407.25
359.122	404.25
359.349	427.25
359.576	453.25
359.802	439.25
360.029	475.25
360.256	472.25
360.483	451.25
360.709	441.25
360.936	433.25
361.163	405.25
361.39	421.25
361.616	440.25
361.843	409.25
362.07	444.25
362.296	427.25
362.523	437.25
362.749	424.25
362.976	428.25
363.203	422.25
363.429	403.25
363.656	402.25
363.882	387.25
364.109	397.25
364.335	414.25
364.562	406.25
364.788	399.25
365.015	402.25
365.241	415.25
365.468	411.25
365.694	405.25
365.92	416.25
366.147	385.25
366.373	414.25
366.599	413.25
366.826	386.25
367.052	403.25
367.278	411.25
367.505	421.25
367.731	429.25
367.957	413.25
368.184	403.25
368.41	402.25
368.636	437.25
368.862	432.25
369.089	405.25
369.315	417.25
369.541	391.25
369.767	408.25
369.993	422.25
370.219	418.25
370.445	404.25
370.672	426.25
370.898	405.25
371.124	421.25
371.35	416.25
371.576	410.25
371.802	393.25
372.028	391.25
372.254	402.25
372.48	407.25
372.706	418.25
372.932	399.25
373.158	405.25
373.384	413.25
373.61	410.25
373.835	403.25
374.061	420.25
374.287	420.25
374.513	414.25
374.739	412.25
374.965	431.25
375.191	430.25
375.416	400.25
375.642	406.25
375.868	389.25
376.094	395.25
376.319	414.25
376.545	409.25
376.771	417.25
376.997	412.25
377.222	411.25
377.448	409.25
377.674	398.25
377.899	387.25
378.125	398.25
378.35	412.25
378.576	411.25
378.802	414.25
379.027	406.25
379.253	399.25
379.478	414.25
379.704	388.25
379.929	388.25
380.155	390.25
380.38	415.25
380.606	397.25
380.831	414.25
381.057	421.25
381.282	405.25
381.507	408.25
381.733	440.25
381.958	421.25
382.184	420.25
382.409	414.25
382.634	432.25
382.86	439.25
383.085	424.25
383.31	425.25
383.535	425.25
383.761	418.25
383.986	430.25
384.211	409.25
384.436	423.25
384.662	439.25
384.887	418.25
385.112	433.25
385.337	428.25
385.562	452.25
385.787	453.25
386.013	452.25
386.238	463.25
386.463	454.25
386.688	452.25
386.913	457.25
387.138	451.25
387.363	450.25
387.588	462.25
387.813	453.25
388.038	442.25
388.263	459.25
388.488	453.25
388.713	460.25
388.938	474.25
389.163	465.25
389.387	450.25
389.612	451.25
389.837	458.25
390.062	448.25
390.287	451.25
390.512	467.25
390.736	435.25
390.961	446.25
391.186	431.25
391.411	453.25
391.636	471.25
391.86	479.25
392.085	468.25
392.31	492.25
392.534	463.25
392.759	466.25
392.984	474.25
393.208	466.25
393.433	470.25
393.658	478.25
393.882	452.25
394.107	441.25
394.331	431.25
394.556	451.25
394.78	493.25
395.005	464.25
395.229	461.25
395.454	463.25
395.678	476.25
395.903	497.25
396.127	521.25
396.352	484.25
396.576	475.25
396.801	460.25
397.025	463.25
397.249	489.25
397.474	499.25
397.698	489.25
397.922	492.25
398.147	520.25
398.371	508.25
398.595	497.25
398.82	515.25
399.044	514.25
399.268	531.25
399.492	568.25
399.717	577.25
399.941	623.25
400.165	643.25
400.389	662.25
400.613	606.25
400.837	551.25
401.062	530.25
401.286	521.25
401.51	503.25
401.734	524.25
401.958	535.25
402.182	518.25
402.406	525.25
402.63	534.25
402.854	550.25
403.078	534.25
403.302	551.25
403.526	532.25
403.75	549.25
403.974	524.25
404.198	541.25
404.422	519.25
404.645	548.25
404.869	545.25
405.093	574.25
405.317	583.25
405.541	602.25
405.765	571.25
405.988	567.25
406.212	565.25
406.436	571.25
406.66	610.25
406.883	577.25
407.107	614.25
407.331	631.25
407.555	718.25
407.778	702.25
408.002	654.25
408.226	585.25
408.449	579.25
408.673	587.25
408.896	608.25
409.12	668.25
409.344	622.25
409.567	554.25
409.791	548.25
410.014	565.25
410.238	545.25
410.461	535.25
410.685	531.25
410.908	566.25
411.132	592.25
411.355	615.25
411.578	582.25
411.802	549.25
412.025	525.25
412.249	534.25
412.472	543.25
412.695	563.25
412.919	537.25
413.142	521.25
413.365	550.25
413.589	525.25
413.812	490.25
414.035	509.25
414.258	518.25
414.482	513.25
414.705	505.25
414.928	517.25
415.151	501.25
415.374	495.25
415.597	505.25
415.821	521.25
416.044	492.25
416.267	514.25
416.49	509.25
416.713	487.25
416.936	504.25
417.159	517.25
417.382	500.25
417.605	504.25
417.828	514.25
418.051	516.25
418.274	516.25
418.497	490.25
418.72	512.25
418.943	506.25
419.166	513.25
419.389	541.25
419.611	537.25
419.834	524.25
420.057	506.25
420.28	523.25
420.503	517.25
420.726	508.25
420.948	543.25
421.171	592.25
421.394	609.25
421.617	563.25
421.839	534.25
422.062	533.25
422.285	563.25
422.507	602.25
422.73	682.25
422.953	663.25
423.175	573.25
423.398	565.25
423.621	547.25
423.843	551.25
424.066	572.25
424.288	569.25
424.511	609.25
424.733	645.25
424.956	713.25
425.178	686.25
425.401	672.25
425.623	682.25
425.846	602.25
426.068	597.25
426.291	584.25
426.513	566.25
426.735	570.25
426.958	631.25
427.18	722.25
427.402	837.25
427.625	919.25
427.847	803.25
428.069	669.25
428.292	581.25
428.514	551.25
428.736	559.25
428.958	537.25
429.181	530.25
429.403	529.25
429.625	523.25
429.847	570.25
430.069	611.25
430.292	629.25
430.514	548.25
430.736	516.25
430.958	521.25
431.18	521.25
431.402	497.25
431.624	470.25
431.846	511.25
432.068	515.25
432.29	490.25
432.512	501.25
432.734	525.25
432.956	490.25
433.178	505.25
433.4	527.25
433.622	489.25
433.844	510.25
434.066	508.25
434.287	488.25
434.509	515.25
434.731	550.25
434.953	522.25
435.175	518.25
435.397	562.25
435.618	567.25
435.84	631.25
436.062	715.25
436.284	796.25
436.505	655.25
436.727	576.25
436.949	537.25
437.17	534.25
437.392	523.25
437.614	531.25
437.835	554.25
438.057	689.25
438.278	762.25
438.5	791.25
438.721	870.25
438.943	815.25
439.165	667.25
439.386	584.25
439.608	598.25
439.829	583.25
440.05	619.25
440.272	643.25
440.493	602.25
440.715	556.25
440.936	555.25
441.158	543.25
441.379	550.25
441.6	537.25
441.822	588.25
442.043	627.25
442.264	706.25
442.486	730.25
442.707	639.25
442.928	592.25
443.149	604.25
443.371	605.25
443.592	662.25
443.813	757.25
444.034	825.25
444.255	685.25
444.476	583.25
444.698	559.25
444.919	594.25
445.14	683.25
445.361	643.25
445.582	631.25
445.803	697.25
446.024	797.25
446.245	834.25
446.466	721.25
446.687	625.25
446.908	575.25
447.129	551.25
447.35	536.25
447.571	503.25
447.792	524.25
448.013	540.25
448.234	531.25
448.455	598.25
448.675	720.25
448.896	854.25
449.117	723.25
449.338	676.25
449.559	773.25
449.779	893.25
450	707.25
450.221	591.25
450.442	537.25
450.662	523.25
450.883	533.25
451.104	548.25
451.324	526.25
451.545	517.25
451.766	513.25
451.986	497.25
452.207	489.25
452.428	475.25
452.648	494.25
452.869	487.25
453.089	466.25
453.31	478.25
453.53	490.25
453.751	461.25
453.971	477.25
454.192	515.25
454.412	503.25
454.633	489.25
454.853	490.25
455.073	459.25
455.294	522.25
455.514	583.25
455.734	571.25
455.955	461.25
456.175	450.25
456.395	446.25
456.616	449.25
456.836	457.25
457.056	471.25
457.276	444.25
457.497	459.25
457.717	449.25
457.937	448.25
458.157	460.25
458.377	462.25
458.598	489.25
458.818	543.25
459.038	631.25
459.258	635.25
459.478	561.25
459.698	533.25
459.918	499.25
460.138	524.25
460.358	523.25
460.578	511.25
460.798	502.25
461.018	522.25
461.238	501.25
461.458	516.25
461.678	510.25
461.898	504.25
462.118	534.25
462.338	526.25
462.558	534.25
462.777	553.25
462.997	563.25
463.217	571.25
463.437	566.25
463.657	537.25
463.876	555.25
464.096	559.25
464.316	554.25
464.536	563.25
464.755	546.25
464.975	575.25
465.195	568.25
465.414	673.25
465.634	589.25
465.854	561.25
466.073	538.25
466.293	526.25
466.512	492.25
466.732	493.25
466.951	506.25
467.171	481.25
467.391	494.25
467.61	515.25
467.829	505.25
468.049	492.25
468.268	490.25
468.488	494.25
468.707	478.25
468.927	493.25
469.146	467.25
469.365	468.25
469.585	471.25
469.804	492.25
470.023	479.25
470.243	472.25
470.462	523.25
470.681	504.25
470.901	544.25
471.12	511.25
471.339	492.25
471.558	510.25
471.777	480.25
471.997	469.25
472.216	462.25
472.435	491.25
472.654	488.25
472.873	487.25
473.092	515.25
473.311	484.25
473.53	480.25
473.749	486.25
473.968	536.25
474.187	643.25
474.406	651.25
474.625	556.25
474.844	507.25
475.063	502.25
475.282	512.25
475.501	506.25
475.72	506.25
475.939	500.25
476.158	517.25
476.377	506.25
476.596	523.25
476.814	531.25
477.033	514.25
477.252	529.25
477.471	539.25
477.69	546.25
477.908	556.25
478.127	548.25
478.346	531.25
478.564	547.25
478.783	558.25
479.002	553.25
479.22	563.25
479.439	582.25
479.658	618.25
479.876	590.25
480.095	600.25
480.313	631.25
480.532	619.25
480.751	620.25
480.969	593.25
481.188	604.25
481.406	634.25
481.624	618.25
481.843	593.25
482.061	590.25
482.28	566.25
482.498	565.25
482.717	576.25
482.935	565.25
483.153	576.25
483.372	585.25
483.59	582.25
483.808	586.25
484.027	577.25
484.245	595.25
484.463	588.25
484.681	585.25
484.9	568.25
485.118	575.25
485.336	601.25
485.554	627.25
485.772	605.25
485.99	600.25
486.209	597.25
486.427	619.25
486.645	619.25
486.863	644.25
487.081	659.25
487.299	629.25
487.517	625.25
487.735	639.25
487.953	624.25
488.171	613.25
488.389	610.25
488.607	652.25
488.825	657.25
489.043	630.25
489.261	632.25
489.479	611.25
489.696	629.25
489.914	629.25
490.132	639.25
490.35	639.25
490.568	640.25
490.786	651.25
491.003	674.25
491.221	672.25
491.439	682.25
491.657	668.25
491.874	691.25
492.092	700.25
492.31	688.25
492.527	691.25
492.745	698.25
492.963	716.25
493.18	719.25
493.398	703.25
493.615	710.25
493.833	718.25
494.05	716.25
494.268	732.25
494.485	693.25
494.703	732.25
494.92	731.25
495.138	731.25
495.355	723.25
495.573	703.25
495.79	722.25
496.008	716.25
496.225	717.25
496.442	769.25
496.66	754.25
496.877	733.25
497.094	739.25
497.312	760.25
497.529	754.25
497.746	772.25
497.963	777.25
498.181	796.25
498.398	798.25
498.615	845.25
498.832	823.25
499.049	849.25
499.267	885.25
499.484	918.25
499.701	942.25
499.918	958.25
500.135	990.25
500.352	1033.25
500.569	1038.25
500.786	1046.25
501.003	1058.25
501.22	1013.25
501.437	1010.25
501.654	974.25
501.871	921.25
