Data from 1988.PennyLincolnUp.Lamp.En5.5.200Scan.071819.P2_HRD10591_17-19-21-971.txt Node
Date: Thu Jul 18 17:19:21 EDT 2019
User: cochatt
Spectrometer: HR+D1059
Trigger mode: 1
Integration Time (sec): 1.000000E-1
Scans to average: 1
Electric dark correction enabled: true
Nonlinearity correction enabled: false
Boxcar width: 0
XAxis mode: Wavelengths
Number of Pixels in Spectrum: 2048
>>>>>Begin Spectral Data<<<<<
223.165	-16.69
223.4	-16.69
223.635	-16.69
223.869	-20.69
224.104	-14.69
224.338	-16.69
224.573	-17.69
224.808	-8.69
225.042	-0.69
225.277	-2.69
225.511	-5.69
225.746	-2.69
225.98	20.31
226.215	11.31
226.449	16.31
226.683	11.31
226.918	24.31
227.152	23.31
227.387	38.31
227.621	44.31
227.856	54.31
228.09	55.31
228.324	57.31
228.559	41.31
228.793	61.31
229.027	105.31
229.262	128.31
229.496	133.31
229.73	139.31
229.964	140.31
230.199	128.31
230.433	124.31
230.667	111.31
230.901	127.31
231.136	115.31
231.37	113.31
231.604	109.31
231.838	121.31
232.072	113.31
232.306	113.31
232.541	108.31
232.775	111.31
233.009	116.31
233.243	122.31
233.477	132.31
233.711	124.31
233.945	112.31
234.179	116.31
234.413	122.31
234.647	130.31
234.881	111.31
235.115	131.31
235.349	116.31
235.583	123.31
235.817	122.31
236.051	120.31
236.285	126.31
236.519	129.31
236.753	119.31
236.987	144.31
237.221	192.31
237.455	234.31
237.689	206.31
237.922	143.31
238.156	147.31
238.39	132.31
238.624	137.31
238.858	128.31
239.091	136.31
239.325	128.31
239.559	148.31
239.793	130.31
240.027	128.31
240.26	143.31
240.494	145.31
240.728	155.31
240.961	146.31
241.195	144.31
241.429	137.31
241.662	134.31
241.896	146.31
242.13	141.31
242.363	136.31
242.597	142.31
242.83	144.31
243.064	163.31
243.298	143.31
243.531	153.31
243.765	140.31
243.998	143.31
244.232	145.31
244.465	149.31
244.699	154.31
244.932	141.31
245.166	143.31
245.399	153.31
245.633	154.31
245.866	157.31
246.099	136.31
246.333	140.31
246.566	165.31
246.8	169.31
247.033	155.31
247.266	161.31
247.5	154.31
247.733	177.31
247.966	169.31
248.2	179.31
248.433	184.31
248.666	174.31
248.899	200.31
249.133	195.31
249.366	194.31
249.599	201.31
249.832	197.31
250.066	157.31
250.299	181.31
250.532	197.31
250.765	207.31
250.998	215.31
251.231	221.31
251.465	218.31
251.698	229.31
251.931	186.31
252.164	193.31
252.397	195.31
252.63	198.31
252.863	214.31
253.096	224.31
253.329	245.31
253.562	237.31
253.795	249.31
254.028	213.31
254.261	224.31
254.494	232.31
254.727	264.31
254.96	243.31
255.193	271.31
255.426	238.31
255.659	229.31
255.892	223.31
256.124	221.31
256.357	204.31
256.59	224.31
256.823	208.31
257.056	215.31
257.289	192.31
257.521	205.31
257.754	214.31
257.987	203.31
258.22	210.31
258.452	227.31
258.685	220.31
258.918	217.31
259.151	221.31
259.383	222.31
259.616	212.31
259.849	216.31
260.081	229.31
260.314	239.31
260.547	242.31
260.779	237.31
261.012	235.31
261.244	227.31
261.477	231.31
261.71	229.31
261.942	235.31
262.175	236.31
262.407	248.31
262.64	230.31
262.872	217.31
263.105	215.31
263.337	219.31
263.57	221.31
263.802	218.31
264.035	212.31
264.267	208.31
264.499	221.31
264.732	223.31
264.964	213.31
265.197	213.31
265.429	222.31
265.661	229.31
265.894	202.31
266.126	205.31
266.358	219.31
266.591	210.31
266.823	242.31
267.055	245.31
267.287	219.31
267.52	223.31
267.752	237.31
267.984	244.31
268.216	241.31
268.448	227.31
268.681	246.31
268.913	258.31
269.145	265.31
269.377	310.31
269.609	297.31
269.841	282.31
270.073	274.31
270.306	294.31
270.538	310.31
270.77	326.31
271.002	294.31
271.234	300.31
271.466	288.31
271.698	314.31
271.93	320.31
272.162	328.31
272.394	326.31
272.626	302.31
272.858	293.31
273.09	296.31
273.322	288.31
273.553	271.31
273.785	289.31
274.017	266.31
274.249	284.31
274.481	280.31
274.713	271.31
274.945	270.31
275.176	265.31
275.408	276.31
275.64	266.31
275.872	277.31
276.104	275.31
276.335	271.31
276.567	280.31
276.799	299.31
277.031	312.31
277.262	323.31
277.494	339.31
277.726	314.31
277.957	292.31
278.189	296.31
278.421	284.31
278.652	277.31
278.884	275.31
279.115	277.31
279.347	282.31
279.579	282.31
279.81	297.31
280.042	278.31
280.273	272.31
280.505	288.31
280.736	271.31
280.968	280.31
281.199	264.31
281.431	272.31
281.662	295.31
281.894	286.31
282.125	278.31
282.356	298.31
282.588	312.31
282.819	324.31
283.051	302.31
283.282	289.31
283.513	298.31
283.745	289.31
283.976	274.31
284.207	287.31
284.439	282.31
284.67	287.31
284.901	268.31
285.132	281.31
285.364	286.31
285.595	308.31
285.826	305.31
286.057	284.31
286.288	298.31
286.52	311.31
286.751	301.31
286.982	304.31
287.213	301.31
287.444	263.31
287.675	296.31
287.906	312.31
288.138	322.31
288.369	317.31
288.6	321.31
288.831	314.31
289.062	309.31
289.293	301.31
289.524	297.31
289.755	302.31
289.986	291.31
290.217	304.31
290.448	310.31
290.679	317.31
290.91	306.31
291.141	305.31
291.371	320.31
291.602	300.31
291.833	314.31
292.064	296.31
292.295	294.31
292.526	300.31
292.757	312.31
292.987	306.31
293.218	304.31
293.449	300.31
293.68	321.31
293.91	310.31
294.141	292.31
294.372	295.31
294.603	300.31
294.833	315.31
295.064	319.31
295.295	311.31
295.525	321.31
295.756	311.31
295.987	331.31
296.217	348.31
296.448	346.31
296.679	353.31
296.909	316.31
297.14	328.31
297.37	319.31
297.601	315.31
297.831	320.31
298.062	322.31
298.292	321.31
298.523	328.31
298.753	321.31
298.984	337.31
299.214	317.31
299.445	326.31
299.675	328.31
299.905	333.31
300.136	327.31
300.366	320.31
300.597	322.31
300.827	328.31
301.057	336.31
301.288	352.31
301.518	334.31
301.748	361.31
301.979	350.31
302.209	344.31
302.439	340.31
302.669	350.31
302.9	357.31
303.13	345.31
303.36	349.31
303.59	338.31
303.82	358.31
304.051	368.31
304.281	338.31
304.511	343.31
304.741	350.31
304.971	348.31
305.201	339.31
305.431	353.31
305.661	364.31
305.891	342.31
306.121	377.31
306.352	361.31
306.582	368.31
306.812	362.31
307.042	358.31
307.272	352.31
307.502	349.31
307.731	344.31
307.961	373.31
308.191	360.31
308.421	374.31
308.651	367.31
308.881	368.31
309.111	364.31
309.341	327.31
309.571	348.31
309.8	390.31
310.03	396.31
310.26	413.31
310.49	393.31
310.72	389.31
310.949	398.31
311.179	408.31
311.409	389.31
311.639	399.31
311.868	411.31
312.098	405.31
312.328	420.31
312.557	408.31
312.787	425.31
313.017	439.31
313.246	420.31
313.476	398.31
313.706	380.31
313.935	413.31
314.165	427.31
314.394	423.31
314.624	439.31
314.853	423.31
315.083	403.31
315.312	393.31
315.542	394.31
315.771	407.31
316.001	396.31
316.23	398.31
316.46	409.31
316.689	395.31
316.919	403.31
317.148	398.31
317.377	425.31
317.607	416.31
317.836	417.31
318.065	417.31
318.295	382.31
318.524	419.31
318.753	402.31
318.983	407.31
319.212	404.31
319.441	422.31
319.67	451.31
319.9	422.31
320.129	403.31
320.358	409.31
320.587	434.31
320.816	444.31
321.046	417.31
321.275	442.31
321.504	417.31
321.733	430.31
321.962	433.31
322.191	431.31
322.42	469.31
322.649	470.31
322.878	480.31
323.108	480.31
323.337	526.31
323.566	534.31
323.795	570.31
324.024	610.31
324.253	743.31
324.482	1068.31
324.71	1613.31
324.939	2364.31
325.168	2011.31
325.397	1036.31
325.626	684.31
325.855	567.31
326.084	588.31
326.313	532.31
326.542	525.31
326.77	613.31
326.999	716.31
327.228	927.31
327.457	1445.31
327.686	1736.31
327.914	1156.31
328.143	759.31
328.372	634.31
328.6	615.31
328.829	611.31
329.058	611.31
329.287	601.31
329.515	576.31
329.744	532.31
329.972	538.31
330.201	528.31
330.43	545.31
330.658	588.31
330.887	627.31
331.115	638.31
331.344	582.31
331.572	511.31
331.801	543.31
332.03	538.31
332.258	496.31
332.486	500.31
332.715	486.31
332.943	477.31
333.172	489.31
333.4	506.31
333.629	521.31
333.857	501.31
334.085	511.31
334.314	495.31
334.542	492.31
334.771	493.31
334.999	487.31
335.227	497.31
335.455	479.31
335.684	491.31
335.912	484.31
336.14	479.31
336.369	468.31
336.597	487.31
336.825	476.31
337.053	471.31
337.281	472.31
337.51	451.31
337.738	453.31
337.966	463.31
338.194	479.31
338.422	505.31
338.65	458.31
338.878	463.31
339.106	446.31
339.334	463.31
339.562	472.31
339.79	475.31
340.018	458.31
340.246	468.31
340.474	461.31
340.702	467.31
340.93	462.31
341.158	431.31
341.386	443.31
341.614	464.31
341.842	466.31
342.07	466.31
342.298	455.31
342.526	451.31
342.754	440.31
342.981	449.31
343.209	456.31
343.437	466.31
343.665	456.31
343.893	465.31
344.12	454.31
344.348	472.31
344.576	468.31
344.804	488.31
345.031	466.31
345.259	491.31
345.487	481.31
345.714	471.31
345.942	454.31
346.17	454.31
346.397	448.31
346.625	425.31
346.853	444.31
347.08	414.31
347.308	454.31
347.535	463.31
347.763	462.31
347.99	479.31
348.218	473.31
348.445	464.31
348.673	448.31
348.9	471.31
349.128	447.31
349.355	429.31
349.583	432.31
349.81	440.31
350.037	440.31
350.265	429.31
350.492	432.31
350.72	431.31
350.947	448.31
351.174	444.31
351.402	461.31
351.629	433.31
351.856	437.31
352.083	449.31
352.311	466.31
352.538	454.31
352.765	447.31
352.992	462.31
353.22	421.31
353.447	469.31
353.674	432.31
353.901	408.31
354.128	444.31
354.355	429.31
354.583	422.31
354.81	428.31
355.037	431.31
355.264	413.31
355.491	422.31
355.718	409.31
355.945	406.31
356.172	413.31
356.399	420.31
356.626	410.31
356.853	416.31
357.08	415.31
357.307	413.31
357.534	430.31
357.761	434.31
357.988	420.31
358.215	415.31
358.441	424.31
358.668	411.31
358.895	430.31
359.122	408.31
359.349	436.31
359.576	440.31
359.802	473.31
360.029	489.31
360.256	487.31
360.483	468.31
360.709	462.31
360.936	446.31
361.163	454.31
361.39	462.31
361.616	456.31
361.843	453.31
362.07	459.31
362.296	446.31
362.523	439.31
362.749	451.31
362.976	431.31
363.203	430.31
363.429	410.31
363.656	449.31
363.882	436.31
364.109	442.31
364.335	426.31
364.562	440.31
364.788	431.31
365.015	418.31
365.241	423.31
365.468	443.31
365.694	456.31
365.92	446.31
366.147	430.31
366.373	438.31
366.599	432.31
366.826	424.31
367.052	414.31
367.278	456.31
367.505	436.31
367.731	436.31
367.957	437.31
368.184	418.31
368.41	426.31
368.636	432.31
368.862	418.31
369.089	444.31
369.315	425.31
369.541	440.31
369.767	431.31
369.993	431.31
370.219	439.31
370.445	434.31
370.672	417.31
370.898	429.31
371.124	430.31
371.35	421.31
371.576	411.31
371.802	429.31
372.028	435.31
372.254	435.31
372.48	440.31
372.706	420.31
372.932	425.31
373.158	439.31
373.384	439.31
373.61	430.31
373.835	455.31
374.061	429.31
374.287	445.31
374.513	433.31
374.739	420.31
374.965	440.31
375.191	444.31
375.416	424.31
375.642	436.31
375.868	435.31
376.094	439.31
376.319	424.31
376.545	423.31
376.771	421.31
376.997	427.31
377.222	440.31
377.448	417.31
377.674	417.31
377.899	425.31
378.125	429.31
378.35	428.31
378.576	407.31
378.802	426.31
379.027	449.31
379.253	430.31
379.478	410.31
379.704	437.31
379.929	422.31
380.155	425.31
380.38	430.31
380.606	435.31
380.831	438.31
381.057	449.31
381.282	439.31
381.507	460.31
381.733	430.31
381.958	425.31
382.184	455.31
382.409	448.31
382.634	436.31
382.86	451.31
383.085	432.31
383.31	449.31
383.535	454.31
383.761	438.31
383.986	430.31
384.211	450.31
384.436	425.31
384.662	457.31
384.887	464.31
385.112	477.31
385.337	450.31
385.562	449.31
385.787	467.31
386.013	479.31
386.238	482.31
386.463	460.31
386.688	476.31
386.913	466.31
387.138	456.31
387.363	486.31
387.588	457.31
387.813	492.31
388.038	478.31
388.263	469.31
388.488	484.31
388.713	478.31
388.938	452.31
389.163	452.31
389.387	457.31
389.612	454.31
389.837	480.31
390.062	454.31
390.287	463.31
390.512	458.31
390.736	468.31
390.961	454.31
391.186	463.31
391.411	481.31
391.636	488.31
391.86	481.31
392.085	497.31
392.31	498.31
392.534	489.31
392.759	477.31
392.984	486.31
393.208	484.31
393.433	490.31
393.658	480.31
393.882	496.31
394.107	493.31
394.331	469.31
394.556	497.31
394.78	503.31
395.005	495.31
395.229	475.31
395.454	487.31
395.678	491.31
395.903	496.31
396.127	550.31
396.352	537.31
396.576	502.31
396.801	489.31
397.025	502.31
397.249	493.31
397.474	516.31
397.698	510.31
397.922	529.31
398.147	550.31
398.371	572.31
398.595	560.31
398.82	538.31
399.044	564.31
399.268	590.31
399.492	609.31
399.717	635.31
399.941	649.31
400.165	687.31
400.389	692.31
400.613	621.31
400.837	598.31
401.062	575.31
401.286	552.31
401.51	569.31
401.734	557.31
401.958	550.31
402.182	530.31
402.406	552.31
402.63	588.31
402.854	564.31
403.078	561.31
403.302	554.31
403.526	564.31
403.75	559.31
403.974	564.31
404.198	559.31
404.422	573.31
404.645	586.31
404.869	588.31
405.093	596.31
405.317	593.31
405.541	650.31
405.765	598.31
405.988	602.31
406.212	605.31
406.436	633.31
406.66	632.31
406.883	599.31
407.107	662.31
407.331	684.31
407.555	765.31
407.778	726.31
408.002	708.31
408.226	624.31
408.449	646.31
408.673	638.31
408.896	653.31
409.12	695.31
409.344	673.31
409.567	599.31
409.791	574.31
410.014	553.31
410.238	575.31
410.461	585.31
410.685	569.31
410.908	600.31
411.132	621.31
411.355	634.31
411.578	619.31
411.802	596.31
412.025	558.31
412.249	551.31
412.472	566.31
412.695	572.31
412.919	552.31
413.142	546.31
413.365	541.31
413.589	552.31
413.812	542.31
414.035	525.31
414.258	537.31
414.482	529.31
414.705	538.31
414.928	550.31
415.151	529.31
415.374	547.31
415.597	544.31
415.821	520.31
416.044	511.31
416.267	534.31
416.49	534.31
416.713	544.31
416.936	537.31
417.159	517.31
417.382	520.31
417.605	522.31
417.828	559.31
418.051	580.31
418.274	556.31
418.497	530.31
418.72	545.31
418.943	538.31
419.166	549.31
419.389	553.31
419.611	541.31
419.834	560.31
420.057	570.31
420.28	544.31
420.503	537.31
420.726	533.31
420.948	565.31
421.171	601.31
421.394	640.31
421.617	592.31
421.839	574.31
422.062	560.31
422.285	587.31
422.507	649.31
422.73	721.31
422.953	680.31
423.175	615.31
423.398	590.31
423.621	583.31
423.843	594.31
424.066	605.31
424.288	590.31
424.511	612.31
424.733	688.31
424.956	764.31
425.178	722.31
425.401	734.31
425.623	740.31
425.846	646.31
426.068	603.31
426.291	598.31
426.513	599.31
426.735	599.31
426.958	650.31
427.18	712.31
427.402	894.31
427.625	968.31
427.847	824.31
428.069	711.31
428.292	638.31
428.514	587.31
428.736	574.31
428.958	579.31
429.181	544.31
429.403	538.31
429.625	580.31
429.847	585.31
430.069	642.31
430.292	652.31
430.514	574.31
430.736	541.31
430.958	552.31
431.18	516.31
431.402	547.31
431.624	524.31
431.846	516.31
432.068	535.31
432.29	536.31
432.512	513.31
432.734	528.31
432.956	532.31
433.178	546.31
433.4	534.31
433.622	557.31
433.844	533.31
434.066	526.31
434.287	527.31
434.509	527.31
434.731	529.31
434.953	524.31
435.175	560.31
435.397	619.31
435.618	584.31
435.84	650.31
436.062	727.31
436.284	835.31
436.505	689.31
436.727	625.31
436.949	600.31
437.17	539.31
437.392	552.31
437.614	560.31
437.835	586.31
438.057	692.31
438.278	803.31
438.5	807.31
438.721	901.31
438.943	866.31
439.165	672.31
439.386	613.31
439.608	594.31
439.829	602.31
440.05	624.31
440.272	680.31
440.493	644.31
440.715	611.31
440.936	582.31
441.158	568.31
441.379	556.31
441.6	582.31
441.822	596.31
442.043	623.31
442.264	728.31
442.486	764.31
442.707	685.31
442.928	631.31
443.149	606.31
443.371	634.31
443.592	679.31
443.813	785.31
444.034	873.31
444.255	721.31
444.476	622.31
444.698	591.31
444.919	609.31
445.14	701.31
445.361	657.31
445.582	665.31
445.803	719.31
446.024	829.31
446.245	807.31
446.466	774.31
446.687	652.31
446.908	582.31
447.129	580.31
447.35	565.31
447.571	563.31
447.792	543.31
448.013	561.31
448.234	565.31
448.455	638.31
448.675	754.31
448.896	874.31
449.117	736.31
449.338	708.31
449.559	814.31
449.779	927.31
450	743.31
450.221	603.31
450.442	553.31
450.662	544.31
450.883	544.31
451.104	571.31
451.324	547.31
451.545	536.31
451.766	514.31
451.986	488.31
452.207	508.31
452.428	486.31
452.648	513.31
452.869	494.31
453.089	494.31
453.31	536.31
453.53	502.31
453.751	502.31
453.971	492.31
454.192	541.31
454.412	520.31
454.633	486.31
454.853	476.31
455.073	461.31
455.294	529.31
455.514	609.31
455.734	573.31
455.955	497.31
456.175	506.31
456.395	471.31
456.616	470.31
456.836	465.31
457.056	442.31
457.276	449.31
457.497	466.31
457.717	462.31
457.937	489.31
458.157	474.31
458.377	504.31
458.598	526.31
458.818	568.31
459.038	664.31
459.258	681.31
459.478	591.31
459.698	568.31
459.918	530.31
460.138	530.31
460.358	549.31
460.578	546.31
460.798	542.31
461.018	543.31
461.238	564.31
461.458	552.31
461.678	547.31
461.898	538.31
462.118	563.31
462.338	546.31
462.558	564.31
462.777	559.31
462.997	582.31
463.217	592.31
463.437	603.31
463.657	585.31
463.876	581.31
464.096	605.31
464.316	580.31
464.536	593.31
464.755	577.31
464.975	594.31
465.195	629.31
465.414	700.31
465.634	612.31
465.854	577.31
466.073	570.31
466.293	552.31
466.512	536.31
466.732	514.31
466.951	538.31
467.171	517.31
467.391	508.31
467.61	528.31
467.829	514.31
468.049	520.31
468.268	516.31
468.488	515.31
468.707	498.31
468.927	510.31
469.146	496.31
469.365	502.31
469.585	506.31
469.804	502.31
470.023	515.31
470.243	494.31
470.462	518.31
470.681	565.31
470.901	535.31
471.12	514.31
471.339	531.31
471.558	520.31
471.777	539.31
471.997	504.31
472.216	513.31
472.435	519.31
472.654	511.31
472.873	520.31
473.092	507.31
473.311	500.31
473.53	524.31
473.749	550.31
473.968	572.31
474.187	662.31
474.406	684.31
474.625	578.31
474.844	515.31
475.063	542.31
475.282	529.31
475.501	524.31
475.72	552.31
475.939	529.31
476.158	543.31
476.377	534.31
476.596	545.31
476.814	531.31
477.033	559.31
477.252	569.31
477.471	538.31
477.69	549.31
477.908	580.31
478.127	578.31
478.346	560.31
478.564	572.31
478.783	570.31
479.002	592.31
479.22	572.31
479.439	618.31
479.658	612.31
479.876	629.31
480.095	635.31
480.313	645.31
480.532	641.31
480.751	610.31
480.969	625.31
481.188	643.31
481.406	632.31
481.624	643.31
481.843	624.31
482.061	604.31
482.28	604.31
482.498	609.31
482.717	610.31
482.935	598.31
483.153	595.31
483.372	611.31
483.59	571.31
483.808	604.31
484.027	605.31
484.245	616.31
484.463	646.31
484.681	625.31
484.9	627.31
485.118	602.31
485.336	623.31
485.554	629.31
485.772	638.31
485.99	617.31
486.209	644.31
486.427	646.31
486.645	647.31
486.863	654.31
487.081	674.31
487.299	655.31
487.517	665.31
487.735	650.31
487.953	668.31
488.171	665.31
488.389	646.31
488.607	660.31
488.825	655.31
489.043	652.31
489.261	679.31
489.479	656.31
489.696	660.31
489.914	669.31
490.132	673.31
490.35	673.31
490.568	698.31
490.786	702.31
491.003	714.31
491.221	694.31
491.439	714.31
491.657	731.31
491.874	718.31
492.092	714.31
492.31	722.31
492.527	719.31
492.745	728.31
492.963	745.31
493.18	722.31
493.398	714.31
493.615	730.31
493.833	747.31
494.05	753.31
494.268	748.31
494.485	737.31
494.703	770.31
494.92	756.31
495.138	779.31
495.355	765.31
495.573	759.31
495.79	791.31
496.008	790.31
496.225	754.31
496.442	768.31
496.66	750.31
496.877	783.31
497.094	777.31
497.312	806.31
497.529	807.31
497.746	785.31
497.963	832.31
498.181	844.31
498.398	854.31
498.615	881.31
498.832	893.31
499.049	879.31
499.267	902.31
499.484	965.31
499.701	985.31
499.918	998.31
500.135	1084.31
500.352	1096.31
500.569	1096.31
500.786	1099.31
501.003	1096.31
501.22	1080.31
501.437	1040.31
501.654	987.31
501.871	986.31
