Data from 1988.PennyLincolnUp.Lamp.En5.5.200Scan.071819.P2_HRD10591_17-18-41-972.txt Node
Date: Thu Jul 18 17:18:41 EDT 2019
User: cochatt
Spectrometer: HR+D1059
Trigger mode: 1
Integration Time (sec): 1.000000E-1
Scans to average: 1
Electric dark correction enabled: true
Nonlinearity correction enabled: false
Boxcar width: 0
XAxis mode: Wavelengths
Number of Pixels in Spectrum: 2048
>>>>>Begin Spectral Data<<<<<
223.165	-6.75
223.4	-6.75
223.635	-6.75
223.869	-19.75
224.104	-14.75
224.338	-22.75
224.573	6.25
224.808	-25.75
225.042	-14.75
225.277	-15.75
225.511	-5.75
225.746	10.25
225.98	2.25
226.215	31.25
226.449	14.25
226.683	2.25
226.918	33.25
227.152	26.25
227.387	34.25
227.621	29.25
227.856	49.25
228.09	46.25
228.324	53.25
228.559	49.25
228.793	61.25
229.027	95.25
229.262	87.25
229.496	110.25
229.73	133.25
229.964	148.25
230.199	121.25
230.433	110.25
230.667	121.25
230.901	114.25
231.136	123.25
231.37	107.25
231.604	112.25
231.838	103.25
232.072	117.25
232.306	105.25
232.541	121.25
232.775	101.25
233.009	99.25
233.243	110.25
233.477	104.25
233.711	101.25
233.945	122.25
234.179	101.25
234.413	104.25
234.647	122.25
234.881	122.25
235.115	122.25
235.349	121.25
235.583	121.25
235.817	102.25
236.051	137.25
236.285	122.25
236.519	104.25
236.753	147.25
236.987	139.25
237.221	163.25
237.455	224.25
237.689	170.25
237.922	137.25
238.156	137.25
238.39	136.25
238.624	125.25
238.858	130.25
239.091	120.25
239.325	117.25
239.559	133.25
239.793	117.25
240.027	149.25
240.26	148.25
240.494	140.25
240.728	146.25
240.961	155.25
241.195	145.25
241.429	143.25
241.662	134.25
241.896	131.25
242.13	145.25
242.363	133.25
242.597	140.25
242.83	141.25
243.064	133.25
243.298	142.25
243.531	139.25
243.765	136.25
243.998	137.25
244.232	144.25
244.465	127.25
244.699	148.25
244.932	150.25
245.166	145.25
245.399	154.25
245.633	148.25
245.866	139.25
246.099	155.25
246.333	129.25
246.566	149.25
246.8	141.25
247.033	151.25
247.266	143.25
247.5	158.25
247.733	158.25
247.966	152.25
248.2	166.25
248.433	184.25
248.666	157.25
248.899	177.25
249.133	188.25
249.366	208.25
249.599	181.25
249.832	174.25
250.066	172.25
250.299	159.25
250.532	184.25
250.765	194.25
250.998	195.25
251.231	215.25
251.465	196.25
251.698	185.25
251.931	205.25
252.164	181.25
252.397	179.25
252.63	185.25
252.863	200.25
253.096	202.25
253.329	212.25
253.562	198.25
253.795	207.25
254.028	214.25
254.261	215.25
254.494	207.25
254.727	245.25
254.96	248.25
255.193	273.25
255.426	245.25
255.659	206.25
255.892	225.25
256.124	206.25
256.357	221.25
256.59	195.25
256.823	207.25
257.056	203.25
257.289	196.25
257.521	211.25
257.754	215.25
257.987	214.25
258.22	217.25
258.452	193.25
258.685	214.25
258.918	200.25
259.151	205.25
259.383	211.25
259.616	206.25
259.849	215.25
260.081	228.25
260.314	228.25
260.547	253.25
260.779	229.25
261.012	206.25
261.244	227.25
261.477	196.25
261.71	221.25
261.942	221.25
262.175	210.25
262.407	215.25
262.64	213.25
262.872	214.25
263.105	209.25
263.337	209.25
263.57	198.25
263.802	199.25
264.035	215.25
264.267	193.25
264.499	202.25
264.732	221.25
264.964	207.25
265.197	201.25
265.429	212.25
265.661	200.25
265.894	197.25
266.126	221.25
266.358	216.25
266.591	210.25
266.823	225.25
267.055	216.25
267.287	220.25
267.52	210.25
267.752	207.25
267.984	217.25
268.216	217.25
268.448	223.25
268.681	225.25
268.913	231.25
269.145	235.25
269.377	273.25
269.609	260.25
269.841	264.25
270.073	254.25
270.306	269.25
270.538	294.25
270.77	302.25
271.002	294.25
271.234	285.25
271.466	269.25
271.698	277.25
271.93	306.25
272.162	289.25
272.394	316.25
272.626	286.25
272.858	276.25
273.09	268.25
273.322	275.25
273.553	267.25
273.785	262.25
274.017	251.25
274.249	269.25
274.481	262.25
274.713	247.25
274.945	244.25
275.176	258.25
275.408	244.25
275.64	267.25
275.872	249.25
276.104	264.25
276.335	262.25
276.567	262.25
276.799	268.25
277.031	276.25
277.262	298.25
277.494	278.25
277.726	275.25
277.957	257.25
278.189	251.25
278.421	250.25
278.652	259.25
278.884	265.25
279.115	267.25
279.347	255.25
279.579	263.25
279.81	266.25
280.042	263.25
280.273	254.25
280.505	266.25
280.736	261.25
280.968	259.25
281.199	255.25
281.431	267.25
281.662	263.25
281.894	263.25
282.125	260.25
282.356	269.25
282.588	305.25
282.819	296.25
283.051	268.25
283.282	270.25
283.513	284.25
283.745	274.25
283.976	262.25
284.207	287.25
284.439	264.25
284.67	264.25
284.901	264.25
285.132	275.25
285.364	259.25
285.595	285.25
285.826	262.25
286.057	281.25
286.288	273.25
286.52	282.25
286.751	285.25
286.982	285.25
287.213	281.25
287.444	280.25
287.675	289.25
287.906	294.25
288.138	291.25
288.369	278.25
288.6	297.25
288.831	294.25
289.062	281.25
289.293	301.25
289.524	292.25
289.755	282.25
289.986	291.25
290.217	277.25
290.448	295.25
290.679	296.25
290.91	289.25
291.141	279.25
291.371	289.25
291.602	310.25
291.833	270.25
292.064	281.25
292.295	296.25
292.526	295.25
292.757	275.25
292.987	314.25
293.218	285.25
293.449	302.25
293.68	301.25
293.91	287.25
294.141	283.25
294.372	285.25
294.603	309.25
294.833	287.25
295.064	290.25
295.295	296.25
295.525	292.25
295.756	305.25
295.987	299.25
296.217	327.25
296.448	328.25
296.679	292.25
296.909	292.25
297.14	288.25
297.37	302.25
297.601	313.25
297.831	295.25
298.062	288.25
298.292	298.25
298.523	312.25
298.753	317.25
298.984	312.25
299.214	324.25
299.445	309.25
299.675	308.25
299.905	314.25
300.136	305.25
300.366	314.25
300.597	318.25
300.827	315.25
301.057	307.25
301.288	341.25
301.518	329.25
301.748	326.25
301.979	325.25
302.209	324.25
302.439	314.25
302.669	325.25
302.9	351.25
303.13	335.25
303.36	326.25
303.59	320.25
303.82	339.25
304.051	345.25
304.281	329.25
304.511	322.25
304.741	338.25
304.971	340.25
305.201	314.25
305.431	351.25
305.661	342.25
305.891	333.25
306.121	327.25
306.352	334.25
306.582	354.25
306.812	339.25
307.042	333.25
307.272	337.25
307.502	328.25
307.731	342.25
307.961	333.25
308.191	325.25
308.421	344.25
308.651	341.25
308.881	343.25
309.111	356.25
309.341	342.25
309.571	328.25
309.8	372.25
310.03	365.25
310.26	373.25
310.49	375.25
310.72	365.25
310.949	394.25
311.179	397.25
311.409	371.25
311.639	378.25
311.868	373.25
312.098	375.25
312.328	378.25
312.557	395.25
312.787	403.25
313.017	369.25
313.246	370.25
313.476	370.25
313.706	375.25
313.935	386.25
314.165	392.25
314.394	391.25
314.624	374.25
314.853	377.25
315.083	377.25
315.312	373.25
315.542	377.25
315.771	395.25
316.001	370.25
316.23	361.25
316.46	397.25
316.689	374.25
316.919	399.25
317.148	383.25
317.377	382.25
317.607	388.25
317.836	375.25
318.065	390.25
318.295	382.25
318.524	374.25
318.753	391.25
318.983	366.25
319.212	362.25
319.441	372.25
319.67	404.25
319.9	396.25
320.129	375.25
320.358	377.25
320.587	392.25
320.816	389.25
321.046	394.25
321.275	406.25
321.504	395.25
321.733	411.25
321.962	410.25
322.191	406.25
322.42	420.25
322.649	444.25
322.878	439.25
323.108	444.25
323.337	492.25
323.566	486.25
323.795	497.25
324.024	548.25
324.253	649.25
324.482	893.25
324.71	1389.25
324.939	1993.25
325.168	1740.25
325.397	912.25
325.626	613.25
325.855	529.25
326.084	523.25
326.313	485.25
326.542	508.25
326.77	542.25
326.999	597.25
327.228	862.25
327.457	1255.25
327.686	1497.25
327.914	1005.25
328.143	666.25
328.372	589.25
328.6	549.25
328.829	523.25
329.058	558.25
329.287	541.25
329.515	540.25
329.744	478.25
329.972	477.25
330.201	486.25
330.43	523.25
330.658	533.25
330.887	545.25
331.115	546.25
331.344	489.25
331.572	486.25
331.801	468.25
332.03	474.25
332.258	466.25
332.486	433.25
332.715	457.25
332.943	450.25
333.172	455.25
333.4	457.25
333.629	476.25
333.857	476.25
334.085	485.25
334.314	475.25
334.542	463.25
334.771	476.25
334.999	455.25
335.227	453.25
335.455	446.25
335.684	468.25
335.912	450.25
336.14	453.25
336.369	444.25
336.597	463.25
336.825	451.25
337.053	441.25
337.281	456.25
337.51	469.25
337.738	459.25
337.966	445.25
338.194	445.25
338.422	428.25
338.65	448.25
338.878	436.25
339.106	427.25
339.334	435.25
339.562	452.25
339.79	434.25
340.018	435.25
340.246	430.25
340.474	431.25
340.702	431.25
340.93	451.25
341.158	416.25
341.386	453.25
341.614	445.25
341.842	430.25
342.07	429.25
342.298	447.25
342.526	432.25
342.754	425.25
342.981	435.25
343.209	435.25
343.437	449.25
343.665	424.25
343.893	435.25
344.12	443.25
344.348	454.25
344.576	442.25
344.804	459.25
345.031	479.25
345.259	447.25
345.487	459.25
345.714	457.25
345.942	437.25
346.17	433.25
346.397	433.25
346.625	411.25
346.853	406.25
347.08	417.25
347.308	419.25
347.535	426.25
347.763	445.25
347.99	428.25
348.218	427.25
348.445	413.25
348.673	414.25
348.9	436.25
349.128	411.25
349.355	407.25
349.583	429.25
349.81	401.25
350.037	421.25
350.265	409.25
350.492	398.25
350.72	393.25
350.947	414.25
351.174	444.25
351.402	442.25
351.629	425.25
351.856	425.25
352.083	423.25
352.311	432.25
352.538	444.25
352.765	429.25
352.992	439.25
353.22	419.25
353.447	404.25
353.674	407.25
353.901	415.25
354.128	417.25
354.355	389.25
354.583	398.25
354.81	408.25
355.037	384.25
355.264	386.25
355.491	400.25
355.718	390.25
355.945	401.25
356.172	403.25
356.399	407.25
356.626	384.25
356.853	409.25
357.08	413.25
357.307	408.25
357.534	391.25
357.761	404.25
357.988	413.25
358.215	396.25
358.441	392.25
358.668	417.25
358.895	418.25
359.122	414.25
359.349	411.25
359.576	425.25
359.802	423.25
360.029	439.25
360.256	465.25
360.483	437.25
360.709	400.25
360.936	441.25
361.163	433.25
361.39	436.25
361.616	424.25
361.843	426.25
362.07	413.25
362.296	420.25
362.523	422.25
362.749	391.25
362.976	398.25
363.203	412.25
363.429	401.25
363.656	417.25
363.882	411.25
364.109	423.25
364.335	418.25
364.562	410.25
364.788	407.25
365.015	420.25
365.241	400.25
365.468	423.25
365.694	425.25
365.92	418.25
366.147	405.25
366.373	414.25
366.599	415.25
366.826	411.25
367.052	392.25
367.278	429.25
367.505	421.25
367.731	416.25
367.957	402.25
368.184	397.25
368.41	421.25
368.636	408.25
368.862	434.25
369.089	409.25
369.315	403.25
369.541	393.25
369.767	411.25
369.993	423.25
370.219	410.25
370.445	411.25
370.672	413.25
370.898	426.25
371.124	380.25
371.35	401.25
371.576	398.25
371.802	396.25
372.028	415.25
372.254	404.25
372.48	411.25
372.706	422.25
372.932	425.25
373.158	426.25
373.384	433.25
373.61	425.25
373.835	418.25
374.061	422.25
374.287	412.25
374.513	431.25
374.739	431.25
374.965	420.25
375.191	450.25
375.416	441.25
375.642	403.25
375.868	401.25
376.094	414.25
376.319	399.25
376.545	396.25
376.771	409.25
376.997	423.25
377.222	432.25
377.448	431.25
377.674	415.25
377.899	415.25
378.125	394.25
378.35	415.25
378.576	417.25
378.802	410.25
379.027	409.25
379.253	406.25
379.478	399.25
379.704	421.25
379.929	413.25
380.155	416.25
380.38	390.25
380.606	425.25
380.831	406.25
381.057	412.25
381.282	421.25
381.507	400.25
381.733	420.25
381.958	427.25
382.184	418.25
382.409	405.25
382.634	426.25
382.86	408.25
383.085	446.25
383.31	439.25
383.535	450.25
383.761	444.25
383.986	441.25
384.211	430.25
384.436	412.25
384.662	421.25
384.887	432.25
385.112	455.25
385.337	467.25
385.562	440.25
385.787	440.25
386.013	445.25
386.238	470.25
386.463	455.25
386.688	440.25
386.913	461.25
387.138	466.25
387.363	462.25
387.588	441.25
387.813	458.25
388.038	453.25
388.263	442.25
388.488	449.25
388.713	465.25
388.938	470.25
389.163	465.25
389.387	472.25
389.612	441.25
389.837	456.25
390.062	475.25
390.287	468.25
390.512	435.25
390.736	462.25
390.961	457.25
391.186	442.25
391.411	457.25
391.636	455.25
391.86	461.25
392.085	470.25
392.31	456.25
392.534	468.25
392.759	459.25
392.984	435.25
393.208	484.25
393.433	480.25
393.658	488.25
393.882	471.25
394.107	443.25
394.331	451.25
394.556	450.25
394.78	445.25
395.005	461.25
395.229	458.25
395.454	492.25
395.678	478.25
395.903	475.25
396.127	498.25
396.352	495.25
396.576	465.25
396.801	475.25
397.025	485.25
397.249	489.25
397.474	511.25
397.698	489.25
397.922	503.25
398.147	519.25
398.371	555.25
398.595	512.25
398.82	521.25
399.044	541.25
399.268	551.25
399.492	570.25
399.717	588.25
399.941	647.25
400.165	639.25
400.389	636.25
400.613	603.25
400.837	567.25
401.062	531.25
401.286	537.25
401.51	537.25
401.734	514.25
401.958	534.25
402.182	541.25
402.406	549.25
402.63	537.25
402.854	542.25
403.078	569.25
403.302	525.25
403.526	553.25
403.75	540.25
403.974	525.25
404.198	528.25
404.422	547.25
404.645	555.25
404.869	539.25
405.093	570.25
405.317	595.25
405.541	626.25
405.765	581.25
405.988	543.25
406.212	556.25
406.436	567.25
406.66	606.25
406.883	585.25
407.107	607.25
407.331	635.25
407.555	702.25
407.778	703.25
408.002	641.25
408.226	599.25
408.449	586.25
408.673	579.25
408.896	619.25
409.12	676.25
409.344	630.25
409.567	559.25
409.791	573.25
410.014	551.25
410.238	538.25
410.461	561.25
410.685	535.25
410.908	559.25
411.132	610.25
411.355	601.25
411.578	603.25
411.802	582.25
412.025	528.25
412.249	532.25
412.472	534.25
412.695	561.25
412.919	545.25
413.142	529.25
413.365	523.25
413.589	521.25
413.812	532.25
414.035	513.25
414.258	532.25
414.482	523.25
414.705	513.25
414.928	517.25
415.151	495.25
415.374	500.25
415.597	509.25
415.821	518.25
416.044	497.25
416.267	497.25
416.49	491.25
416.713	501.25
416.936	526.25
417.159	519.25
417.382	515.25
417.605	513.25
417.828	503.25
418.051	542.25
418.274	532.25
418.497	481.25
418.72	508.25
418.943	503.25
419.166	548.25
419.389	558.25
419.611	531.25
419.834	552.25
420.057	535.25
420.28	524.25
420.503	528.25
420.726	498.25
420.948	529.25
421.171	578.25
421.394	601.25
421.617	536.25
421.839	550.25
422.062	538.25
422.285	550.25
422.507	597.25
422.73	665.25
422.953	637.25
423.175	586.25
423.398	562.25
423.621	524.25
423.843	550.25
424.066	553.25
424.288	578.25
424.511	599.25
424.733	632.25
424.956	711.25
425.178	689.25
425.401	665.25
425.623	705.25
425.846	610.25
426.068	566.25
426.291	566.25
426.513	589.25
426.735	579.25
426.958	614.25
427.18	694.25
427.402	827.25
427.625	897.25
427.847	747.25
428.069	629.25
428.292	596.25
428.514	553.25
428.736	549.25
428.958	545.25
429.181	543.25
429.403	528.25
429.625	547.25
429.847	556.25
430.069	629.25
430.292	617.25
430.514	544.25
430.736	520.25
430.958	496.25
431.18	508.25
431.402	508.25
431.624	487.25
431.846	497.25
432.068	489.25
432.29	497.25
432.512	501.25
432.734	522.25
432.956	511.25
433.178	524.25
433.4	517.25
433.622	533.25
433.844	507.25
434.066	509.25
434.287	490.25
434.509	513.25
434.731	543.25
434.953	511.25
435.175	541.25
435.397	545.25
435.618	571.25
435.84	625.25
436.062	722.25
436.284	772.25
436.505	640.25
436.727	592.25
436.949	558.25
437.17	534.25
437.392	533.25
437.614	541.25
437.835	573.25
438.057	656.25
438.278	757.25
438.5	738.25
438.721	849.25
438.943	793.25
439.165	647.25
439.386	571.25
439.608	593.25
439.829	584.25
440.05	617.25
440.272	638.25
440.493	606.25
440.715	562.25
440.936	540.25
441.158	513.25
441.379	521.25
441.6	563.25
441.822	547.25
442.043	605.25
442.264	668.25
442.486	724.25
442.707	603.25
442.928	581.25
443.149	589.25
443.371	602.25
443.592	648.25
443.813	741.25
444.034	815.25
444.255	654.25
444.476	590.25
444.698	572.25
444.919	586.25
445.14	662.25
445.361	609.25
445.582	593.25
445.803	652.25
446.024	740.25
446.245	795.25
446.466	693.25
446.687	603.25
446.908	561.25
447.129	528.25
447.35	523.25
447.571	541.25
447.792	523.25
448.013	521.25
448.234	533.25
448.455	601.25
448.675	731.25
448.896	805.25
449.117	691.25
449.338	661.25
449.559	759.25
449.779	847.25
450	686.25
450.221	589.25
450.442	533.25
450.662	527.25
450.883	500.25
451.104	522.25
451.324	520.25
451.545	495.25
451.766	477.25
451.986	476.25
452.207	474.25
452.428	461.25
452.648	469.25
452.869	454.25
453.089	461.25
453.31	499.25
453.53	478.25
453.751	472.25
453.971	456.25
454.192	479.25
454.412	477.25
454.633	479.25
454.853	457.25
455.073	465.25
455.294	493.25
455.514	574.25
455.734	557.25
455.955	462.25
456.175	447.25
456.395	454.25
456.616	445.25
456.836	465.25
457.056	457.25
457.276	431.25
457.497	458.25
457.717	455.25
457.937	445.25
458.157	459.25
458.377	471.25
458.598	474.25
458.818	526.25
459.038	614.25
459.258	621.25
459.478	561.25
459.698	485.25
459.918	502.25
460.138	502.25
460.358	518.25
460.578	494.25
460.798	553.25
461.018	540.25
461.238	513.25
461.458	526.25
461.678	522.25
461.898	531.25
462.118	527.25
462.338	525.25
462.558	532.25
462.777	526.25
462.997	537.25
463.217	585.25
463.437	567.25
463.657	575.25
463.876	544.25
464.096	559.25
464.316	549.25
464.536	562.25
464.755	553.25
464.975	547.25
465.195	565.25
465.414	622.25
465.634	587.25
465.854	557.25
466.073	529.25
466.293	511.25
466.512	511.25
466.732	497.25
466.951	499.25
467.171	485.25
467.391	475.25
467.61	478.25
467.829	483.25
468.049	473.25
468.268	487.25
468.488	462.25
468.707	474.25
468.927	470.25
469.146	478.25
469.365	468.25
469.585	449.25
469.804	494.25
470.023	478.25
470.243	505.25
470.462	492.25
470.681	512.25
470.901	523.25
471.12	475.25
471.339	479.25
471.558	486.25
471.777	480.25
471.997	492.25
472.216	484.25
472.435	489.25
472.654	493.25
472.873	498.25
473.092	491.25
473.311	485.25
473.53	470.25
473.749	527.25
473.968	531.25
474.187	611.25
474.406	641.25
474.625	527.25
474.844	537.25
475.063	482.25
475.282	483.25
475.501	504.25
475.72	535.25
475.939	515.25
476.158	508.25
476.377	509.25
476.596	533.25
476.814	513.25
477.033	522.25
477.252	528.25
477.471	535.25
477.69	568.25
477.908	529.25
478.127	543.25
478.346	545.25
478.564	564.25
478.783	532.25
479.002	541.25
479.22	539.25
479.439	590.25
479.658	605.25
479.876	611.25
480.095	584.25
480.313	620.25
480.532	621.25
480.751	616.25
480.969	592.25
481.188	616.25
481.406	605.25
481.624	622.25
481.843	577.25
482.061	580.25
482.28	580.25
482.498	562.25
482.717	605.25
482.935	589.25
483.153	564.25
483.372	569.25
483.59	594.25
483.808	573.25
484.027	554.25
484.245	579.25
484.463	586.25
484.681	590.25
484.9	587.25
485.118	599.25
485.336	604.25
485.554	600.25
485.772	607.25
485.99	596.25
486.209	617.25
486.427	599.25
486.645	596.25
486.863	617.25
487.081	617.25
487.299	631.25
487.517	598.25
487.735	629.25
487.953	612.25
488.171	604.25
488.389	598.25
488.607	637.25
488.825	634.25
489.043	631.25
489.261	647.25
489.479	632.25
489.696	620.25
489.914	627.25
490.132	625.25
490.35	640.25
490.568	663.25
490.786	649.25
491.003	675.25
491.221	669.25
491.439	665.25
491.657	650.25
491.874	698.25
492.092	702.25
492.31	683.25
492.527	699.25
492.745	692.25
492.963	711.25
493.18	702.25
493.398	709.25
493.615	685.25
493.833	702.25
494.05	717.25
494.268	732.25
494.485	708.25
494.703	715.25
494.92	705.25
495.138	732.25
495.355	722.25
495.573	745.25
495.79	738.25
496.008	713.25
496.225	732.25
496.442	722.25
496.66	738.25
496.877	735.25
497.094	746.25
497.312	730.25
497.529	773.25
497.746	783.25
497.963	787.25
498.181	811.25
498.398	796.25
498.615	813.25
498.832	856.25
499.049	838.25
499.267	884.25
499.484	896.25
499.701	961.25
499.918	962.25
500.135	999.25
500.352	1083.25
500.569	1051.25
500.786	1066.25
501.003	1053.25
501.22	1049.25
501.437	996.25
501.654	953.25
501.871	951.25
