Data from 1988.PennyLincolnUp.Lamp.En5.5.200Scan.071819.P2_HRD10591_17-20-29-972.txt Node
Date: Thu Jul 18 17:20:29 EDT 2019
User: cochatt
Spectrometer: HR+D1059
Trigger mode: 1
Integration Time (sec): 1.000000E-1
Scans to average: 1
Electric dark correction enabled: true
Nonlinearity correction enabled: false
Boxcar width: 0
XAxis mode: Wavelengths
Number of Pixels in Spectrum: 2048
>>>>>Begin Spectral Data<<<<<
223.165	-14.56
223.4	-14.56
223.635	-14.56
223.869	-20.56
224.104	-23.56
224.338	-26.56
224.573	-17.56
224.808	-6.56
225.042	-0.56
225.277	-5.56
225.511	-3.56
225.746	4.44
225.98	5.44
226.215	19.44
226.449	11.44
226.683	20.44
226.918	31.44
227.152	26.44
227.387	31.44
227.621	32.44
227.856	36.44
228.09	55.44
228.324	49.44
228.559	49.44
228.793	69.44
229.027	112.44
229.262	117.44
229.496	126.44
229.73	135.44
229.964	173.44
230.199	144.44
230.433	117.44
230.667	135.44
230.901	122.44
231.136	114.44
231.37	118.44
231.604	121.44
231.838	111.44
232.072	106.44
232.306	122.44
232.541	101.44
232.775	115.44
233.009	108.44
233.243	116.44
233.477	119.44
233.711	116.44
233.945	111.44
234.179	124.44
234.413	119.44
234.647	127.44
234.881	138.44
235.115	118.44
235.349	135.44
235.583	125.44
235.817	122.44
236.051	137.44
236.285	144.44
236.519	111.44
236.753	145.44
236.987	139.44
237.221	185.44
237.455	260.44
237.689	216.44
237.922	151.44
238.156	141.44
238.39	124.44
238.624	128.44
238.858	147.44
239.091	129.44
239.325	142.44
239.559	147.44
239.793	141.44
240.027	139.44
240.26	159.44
240.494	163.44
240.728	155.44
240.961	163.44
241.195	145.44
241.429	145.44
241.662	144.44
241.896	128.44
242.13	145.44
242.363	145.44
242.597	139.44
242.83	166.44
243.064	146.44
243.298	150.44
243.531	137.44
243.765	139.44
243.998	148.44
244.232	142.44
244.465	152.44
244.699	159.44
244.932	153.44
245.166	150.44
245.399	144.44
245.633	169.44
245.866	148.44
246.099	137.44
246.333	151.44
246.566	159.44
246.8	166.44
247.033	169.44
247.266	159.44
247.5	162.44
247.733	169.44
247.966	159.44
248.2	178.44
248.433	156.44
248.666	187.44
248.899	198.44
249.133	199.44
249.366	215.44
249.599	215.44
249.832	198.44
250.066	204.44
250.299	197.44
250.532	195.44
250.765	192.44
250.998	216.44
251.231	230.44
251.465	220.44
251.698	208.44
251.931	208.44
252.164	195.44
252.397	195.44
252.63	197.44
252.863	221.44
253.096	227.44
253.329	242.44
253.562	231.44
253.795	229.44
254.028	221.44
254.261	212.44
254.494	245.44
254.727	270.44
254.96	313.44
255.193	269.44
255.426	260.44
255.659	248.44
255.892	253.44
256.124	229.44
256.357	224.44
256.59	225.44
256.823	227.44
257.056	230.44
257.289	211.44
257.521	226.44
257.754	209.44
257.987	199.44
258.22	215.44
258.452	234.44
258.685	216.44
258.918	207.44
259.151	228.44
259.383	238.44
259.616	227.44
259.849	233.44
260.081	261.44
260.314	247.44
260.547	264.44
260.779	257.44
261.012	236.44
261.244	236.44
261.477	235.44
261.71	226.44
261.942	228.44
262.175	244.44
262.407	232.44
262.64	240.44
262.872	216.44
263.105	217.44
263.337	219.44
263.57	215.44
263.802	226.44
264.035	228.44
264.267	228.44
264.499	234.44
264.732	225.44
264.964	232.44
265.197	214.44
265.429	221.44
265.661	213.44
265.894	219.44
266.126	217.44
266.358	221.44
266.591	228.44
266.823	219.44
267.055	228.44
267.287	239.44
267.52	263.44
267.752	242.44
267.984	233.44
268.216	242.44
268.448	248.44
268.681	249.44
268.913	250.44
269.145	279.44
269.377	284.44
269.609	277.44
269.841	289.44
270.073	284.44
270.306	306.44
270.538	345.44
270.77	347.44
271.002	322.44
271.234	314.44
271.466	295.44
271.698	322.44
271.93	329.44
272.162	338.44
272.394	346.44
272.626	328.44
272.858	308.44
273.09	287.44
273.322	295.44
273.553	278.44
273.785	295.44
274.017	268.44
274.249	262.44
274.481	289.44
274.713	288.44
274.945	282.44
275.176	300.44
275.408	298.44
275.64	277.44
275.872	261.44
276.104	269.44
276.335	269.44
276.567	286.44
276.799	289.44
277.031	325.44
277.262	349.44
277.494	319.44
277.726	321.44
277.957	303.44
278.189	307.44
278.421	281.44
278.652	281.44
278.884	296.44
279.115	296.44
279.347	279.44
279.579	277.44
279.81	289.44
280.042	291.44
280.273	292.44
280.505	297.44
280.736	280.44
280.968	296.44
281.199	274.44
281.431	289.44
281.662	295.44
281.894	270.44
282.125	283.44
282.356	308.44
282.588	317.44
282.819	316.44
283.051	300.44
283.282	298.44
283.513	296.44
283.745	296.44
283.976	276.44
284.207	300.44
284.439	310.44
284.67	291.44
284.901	303.44
285.132	284.44
285.364	301.44
285.595	287.44
285.826	299.44
286.057	306.44
286.288	286.44
286.52	304.44
286.751	289.44
286.982	293.44
287.213	308.44
287.444	298.44
287.675	309.44
287.906	305.44
288.138	348.44
288.369	303.44
288.6	327.44
288.831	327.44
289.062	312.44
289.293	321.44
289.524	309.44
289.755	313.44
289.986	305.44
290.217	306.44
290.448	287.44
290.679	296.44
290.91	335.44
291.141	314.44
291.371	328.44
291.602	317.44
291.833	297.44
292.064	308.44
292.295	304.44
292.526	320.44
292.757	310.44
292.987	316.44
293.218	288.44
293.449	319.44
293.68	316.44
293.91	300.44
294.141	313.44
294.372	312.44
294.603	317.44
294.833	311.44
295.064	322.44
295.295	310.44
295.525	314.44
295.756	321.44
295.987	321.44
296.217	365.44
296.448	344.44
296.679	321.44
296.909	305.44
297.14	312.44
297.37	319.44
297.601	335.44
297.831	321.44
298.062	319.44
298.292	326.44
298.523	312.44
298.753	319.44
298.984	321.44
299.214	327.44
299.445	323.44
299.675	327.44
299.905	335.44
300.136	357.44
300.366	338.44
300.597	342.44
300.827	323.44
301.057	363.44
301.288	348.44
301.518	369.44
301.748	335.44
301.979	362.44
302.209	340.44
302.439	358.44
302.669	360.44
302.9	347.44
303.13	347.44
303.36	371.44
303.59	367.44
303.82	367.44
304.051	353.44
304.281	355.44
304.511	349.44
304.741	358.44
304.971	338.44
305.201	345.44
305.431	339.44
305.661	339.44
305.891	349.44
306.121	362.44
306.352	362.44
306.582	375.44
306.812	362.44
307.042	359.44
307.272	348.44
307.502	341.44
307.731	346.44
307.961	355.44
308.191	349.44
308.421	371.44
308.651	364.44
308.881	373.44
309.111	369.44
309.341	376.44
309.571	394.44
309.8	391.44
310.03	404.44
310.26	398.44
310.49	397.44
310.72	403.44
310.949	427.44
311.179	423.44
311.409	437.44
311.639	388.44
311.868	412.44
312.098	414.44
312.328	390.44
312.557	411.44
312.787	437.44
313.017	448.44
313.246	416.44
313.476	434.44
313.706	397.44
313.935	423.44
314.165	436.44
314.394	441.44
314.624	448.44
314.853	431.44
315.083	416.44
315.312	425.44
315.542	389.44
315.771	401.44
316.001	420.44
316.23	411.44
316.46	417.44
316.689	397.44
316.919	418.44
317.148	410.44
317.377	421.44
317.607	425.44
317.836	438.44
318.065	395.44
318.295	417.44
318.524	428.44
318.753	403.44
318.983	398.44
319.212	413.44
319.441	414.44
319.67	443.44
319.9	424.44
320.129	427.44
320.358	421.44
320.587	427.44
320.816	417.44
321.046	419.44
321.275	448.44
321.504	435.44
321.733	458.44
321.962	450.44
322.191	465.44
322.42	497.44
322.649	488.44
322.878	491.44
323.108	517.44
323.337	544.44
323.566	553.44
323.795	588.44
324.024	639.44
324.253	785.44
324.482	1116.44
324.71	1765.44
324.939	2533.44
325.168	2191.44
325.397	1130.44
325.626	756.44
325.855	621.44
326.084	571.44
326.313	541.44
326.542	555.44
326.77	632.44
326.999	693.44
327.228	976.44
327.457	1545.44
327.686	1967.44
327.914	1271.44
328.143	811.44
328.372	697.44
328.6	648.44
328.829	627.44
329.058	633.44
329.287	654.44
329.515	608.44
329.744	569.44
329.972	525.44
330.201	548.44
330.43	571.44
330.658	624.44
330.887	649.44
331.115	651.44
331.344	583.44
331.572	537.44
331.801	539.44
332.03	541.44
332.258	516.44
332.486	488.44
332.715	492.44
332.943	497.44
333.172	485.44
333.4	487.44
333.629	490.44
333.857	499.44
334.085	531.44
334.314	522.44
334.542	519.44
334.771	536.44
334.999	524.44
335.227	502.44
335.455	502.44
335.684	504.44
335.912	483.44
336.14	495.44
336.369	474.44
336.597	495.44
336.825	510.44
337.053	489.44
337.281	482.44
337.51	478.44
337.738	480.44
337.966	488.44
338.194	503.44
338.422	507.44
338.65	520.44
338.878	469.44
339.106	479.44
339.334	480.44
339.562	468.44
339.79	479.44
340.018	491.44
340.246	482.44
340.474	472.44
340.702	465.44
340.93	464.44
341.158	480.44
341.386	455.44
341.614	466.44
341.842	451.44
342.07	466.44
342.298	468.44
342.526	458.44
342.754	464.44
342.981	447.44
343.209	463.44
343.437	475.44
343.665	464.44
343.893	473.44
344.12	475.44
344.348	473.44
344.576	475.44
344.804	475.44
345.031	497.44
345.259	525.44
345.487	491.44
345.714	497.44
345.942	469.44
346.17	476.44
346.397	456.44
346.625	489.44
346.853	465.44
347.08	459.44
347.308	460.44
347.535	493.44
347.763	454.44
347.99	473.44
348.218	476.44
348.445	469.44
348.673	499.44
348.9	457.44
349.128	459.44
349.355	448.44
349.583	457.44
349.81	441.44
350.037	457.44
350.265	460.44
350.492	456.44
350.72	467.44
350.947	481.44
351.174	445.44
351.402	482.44
351.629	470.44
351.856	469.44
352.083	474.44
352.311	487.44
352.538	481.44
352.765	479.44
352.992	469.44
353.22	462.44
353.447	497.44
353.674	472.44
353.901	444.44
354.128	452.44
354.355	439.44
354.583	425.44
354.81	431.44
355.037	442.44
355.264	407.44
355.491	422.44
355.718	434.44
355.945	426.44
356.172	427.44
356.399	424.44
356.626	453.44
356.853	433.44
357.08	415.44
357.307	427.44
357.534	450.44
357.761	451.44
357.988	457.44
358.215	436.44
358.441	429.44
358.668	435.44
358.895	455.44
359.122	456.44
359.349	446.44
359.576	460.44
359.802	500.44
360.029	505.44
360.256	533.44
360.483	500.44
360.709	469.44
360.936	459.44
361.163	467.44
361.39	465.44
361.616	468.44
361.843	476.44
362.07	455.44
362.296	476.44
362.523	465.44
362.749	467.44
362.976	491.44
363.203	445.44
363.429	433.44
363.656	473.44
363.882	448.44
364.109	442.44
364.335	455.44
364.562	421.44
364.788	445.44
365.015	437.44
365.241	436.44
365.468	429.44
365.694	439.44
365.92	454.44
366.147	460.44
366.373	459.44
366.599	426.44
366.826	419.44
367.052	452.44
367.278	464.44
367.505	436.44
367.731	449.44
367.957	466.44
368.184	459.44
368.41	447.44
368.636	467.44
368.862	480.44
369.089	450.44
369.315	457.44
369.541	443.44
369.767	455.44
369.993	446.44
370.219	466.44
370.445	441.44
370.672	469.44
370.898	451.44
371.124	462.44
371.35	460.44
371.576	457.44
371.802	462.44
372.028	446.44
372.254	443.44
372.48	446.44
372.706	451.44
372.932	456.44
373.158	443.44
373.384	432.44
373.61	439.44
373.835	461.44
374.061	447.44
374.287	453.44
374.513	469.44
374.739	459.44
374.965	456.44
375.191	455.44
375.416	460.44
375.642	462.44
375.868	472.44
376.094	461.44
376.319	453.44
376.545	441.44
376.771	459.44
376.997	444.44
377.222	460.44
377.448	461.44
377.674	445.44
377.899	449.44
378.125	459.44
378.35	444.44
378.576	431.44
378.802	443.44
379.027	458.44
379.253	449.44
379.478	461.44
379.704	456.44
379.929	454.44
380.155	441.44
380.38	451.44
380.606	451.44
380.831	458.44
381.057	448.44
381.282	440.44
381.507	443.44
381.733	461.44
381.958	459.44
382.184	479.44
382.409	473.44
382.634	476.44
382.86	469.44
383.085	463.44
383.31	468.44
383.535	480.44
383.761	464.44
383.986	481.44
384.211	471.44
384.436	482.44
384.662	480.44
384.887	466.44
385.112	487.44
385.337	496.44
385.562	481.44
385.787	515.44
386.013	526.44
386.238	514.44
386.463	515.44
386.688	483.44
386.913	513.44
387.138	512.44
387.363	489.44
387.588	473.44
387.813	513.44
388.038	495.44
388.263	480.44
388.488	522.44
388.713	483.44
388.938	513.44
389.163	523.44
389.387	509.44
389.612	519.44
389.837	497.44
390.062	476.44
390.287	507.44
390.512	488.44
390.736	508.44
390.961	489.44
391.186	477.44
391.411	511.44
391.636	500.44
391.86	507.44
392.085	534.44
392.31	521.44
392.534	507.44
392.759	526.44
392.984	525.44
393.208	496.44
393.433	520.44
393.658	516.44
393.882	495.44
394.107	496.44
394.331	501.44
394.556	497.44
394.78	528.44
395.005	501.44
395.229	523.44
395.454	530.44
395.678	535.44
395.903	535.44
396.127	526.44
396.352	586.44
396.576	552.44
396.801	523.44
397.025	526.44
397.249	513.44
397.474	551.44
397.698	546.44
397.922	549.44
398.147	576.44
398.371	588.44
398.595	570.44
398.82	574.44
399.044	587.44
399.268	608.44
399.492	629.44
399.717	666.44
399.941	708.44
400.165	712.44
400.389	727.44
400.613	666.44
400.837	613.44
401.062	623.44
401.286	575.44
401.51	610.44
401.734	594.44
401.958	585.44
402.182	600.44
402.406	573.44
402.63	571.44
402.854	625.44
403.078	595.44
403.302	601.44
403.526	596.44
403.75	632.44
403.974	601.44
404.198	595.44
404.422	601.44
404.645	593.44
404.869	612.44
405.093	624.44
405.317	651.44
405.541	687.44
405.765	645.44
405.988	640.44
406.212	638.44
406.436	658.44
406.66	663.44
406.883	680.44
407.107	687.44
407.331	723.44
407.555	815.44
407.778	802.44
408.002	736.44
408.226	689.44
408.449	663.44
408.673	675.44
408.896	715.44
409.12	752.44
409.344	739.44
409.567	653.44
409.791	631.44
410.014	621.44
410.238	595.44
410.461	614.44
410.685	623.44
410.908	628.44
411.132	689.44
411.355	699.44
411.578	692.44
411.802	609.44
412.025	578.44
412.249	611.44
412.472	625.44
412.695	631.44
412.919	616.44
413.142	627.44
413.365	584.44
413.589	581.44
413.812	588.44
414.035	605.44
414.258	580.44
414.482	565.44
414.705	595.44
414.928	568.44
415.151	554.44
415.374	583.44
415.597	586.44
415.821	567.44
416.044	571.44
416.267	594.44
416.49	575.44
416.713	581.44
416.936	576.44
417.159	585.44
417.382	581.44
417.605	582.44
417.828	598.44
418.051	615.44
418.274	612.44
418.497	578.44
418.72	589.44
418.943	576.44
419.166	602.44
419.389	633.44
419.611	603.44
419.834	611.44
420.057	608.44
420.28	584.44
420.503	571.44
420.726	585.44
420.948	609.44
421.171	661.44
421.394	687.44
421.617	661.44
421.839	610.44
422.062	601.44
422.285	609.44
422.507	663.44
422.73	771.44
422.953	775.44
423.175	651.44
423.398	627.44
423.621	636.44
423.843	672.44
424.066	646.44
424.288	645.44
424.511	653.44
424.733	743.44
424.956	829.44
425.178	786.44
425.401	793.44
425.623	836.44
425.846	707.44
426.068	633.44
426.291	661.44
426.513	637.44
426.735	643.44
426.958	717.44
427.18	792.44
427.402	967.44
427.625	1071.44
427.847	943.44
428.069	776.44
428.292	689.44
428.514	615.44
428.736	637.44
428.958	621.44
429.181	627.44
429.403	594.44
429.625	633.44
429.847	637.44
430.069	725.44
430.292	724.44
430.514	625.44
430.736	595.44
430.958	580.44
431.18	593.44
431.402	576.44
431.624	553.44
431.846	584.44
432.068	557.44
432.29	563.44
432.512	584.44
432.734	566.44
432.956	586.44
433.178	583.44
433.4	571.44
433.622	608.44
433.844	576.44
434.066	561.44
434.287	604.44
434.509	562.44
434.731	579.44
434.953	559.44
435.175	608.44
435.397	650.44
435.618	679.44
435.84	712.44
436.062	799.44
436.284	892.44
436.505	765.44
436.727	667.44
436.949	626.44
437.17	603.44
437.392	612.44
437.614	624.44
437.835	643.44
438.057	773.44
438.278	872.44
438.5	891.44
438.721	954.44
438.943	934.44
439.165	736.44
439.386	683.44
439.608	664.44
439.829	647.44
440.05	709.44
440.272	760.44
440.493	737.44
440.715	643.44
440.936	617.44
441.158	601.44
441.379	593.44
441.6	642.44
441.822	661.44
442.043	720.44
442.264	806.44
442.486	838.44
442.707	724.44
442.928	688.44
443.149	696.44
443.371	715.44
443.592	757.44
443.813	831.44
444.034	939.44
444.255	786.44
444.476	693.44
444.698	662.44
444.919	671.44
445.14	781.44
445.361	735.44
445.582	720.44
445.803	777.44
446.024	918.44
446.245	912.44
446.466	820.44
446.687	720.44
446.908	651.44
447.129	632.44
447.35	611.44
447.571	585.44
447.792	592.44
448.013	607.44
448.234	619.44
448.455	696.44
448.675	834.44
448.896	971.44
449.117	800.44
449.338	765.44
449.559	893.44
449.779	1002.44
450	788.44
450.221	662.44
450.442	618.44
450.662	616.44
450.883	602.44
451.104	637.44
451.324	621.44
451.545	564.44
451.766	551.44
451.986	556.44
452.207	520.44
452.428	541.44
452.648	547.44
452.869	542.44
453.089	535.44
453.31	570.44
453.53	556.44
453.751	539.44
453.971	525.44
454.192	570.44
454.412	553.44
454.633	554.44
454.853	522.44
455.073	530.44
455.294	552.44
455.514	623.44
455.734	624.44
455.955	521.44
456.175	531.44
456.395	494.44
456.616	486.44
456.836	515.44
457.056	480.44
457.276	500.44
457.497	503.44
457.717	499.44
457.937	514.44
458.157	530.44
458.377	541.44
458.598	560.44
458.818	618.44
459.038	713.44
459.258	718.44
459.478	631.44
459.698	593.44
459.918	591.44
460.138	568.44
460.358	567.44
460.578	586.44
460.798	606.44
461.018	607.44
461.238	567.44
461.458	566.44
461.678	569.44
461.898	574.44
462.118	581.44
462.338	589.44
462.558	587.44
462.777	618.44
462.997	616.44
463.217	643.44
463.437	673.44
463.657	647.44
463.876	624.44
464.096	608.44
464.316	608.44
464.536	626.44
464.755	622.44
464.975	640.44
465.195	667.44
465.414	745.44
465.634	697.44
465.854	620.44
466.073	584.44
466.293	591.44
466.512	564.44
466.732	575.44
466.951	577.44
467.171	562.44
467.391	596.44
467.61	593.44
467.829	577.44
468.049	559.44
468.268	550.44
468.488	541.44
468.707	550.44
468.927	533.44
469.146	532.44
469.365	527.44
469.585	533.44
469.804	565.44
470.023	581.44
470.243	579.44
470.462	567.44
470.681	596.44
470.901	594.44
471.12	566.44
471.339	563.44
471.558	572.44
471.777	555.44
471.997	562.44
472.216	549.44
472.435	576.44
472.654	552.44
472.873	556.44
473.092	566.44
473.311	537.44
473.53	541.44
473.749	567.44
473.968	598.44
474.187	731.44
474.406	754.44
474.625	620.44
474.844	586.44
475.063	574.44
475.282	552.44
475.501	570.44
475.72	595.44
475.939	582.44
476.158	575.44
476.377	581.44
476.596	577.44
476.814	581.44
477.033	593.44
477.252	584.44
477.471	612.44
477.69	631.44
477.908	610.44
478.127	607.44
478.346	615.44
478.564	617.44
478.783	627.44
479.002	663.44
479.22	647.44
479.439	660.44
479.658	671.44
479.876	675.44
480.095	705.44
480.313	693.44
480.532	720.44
480.751	697.44
480.969	673.44
481.188	716.44
481.406	720.44
481.624	695.44
481.843	674.44
482.061	675.44
482.28	659.44
482.498	654.44
482.717	657.44
482.935	649.44
483.153	651.44
483.372	667.44
483.59	649.44
483.808	645.44
484.027	655.44
484.245	682.44
484.463	656.44
484.681	684.44
484.9	675.44
485.118	672.44
485.336	641.44
485.554	676.44
485.772	698.44
485.99	679.44
486.209	677.44
486.427	681.44
486.645	688.44
486.863	730.44
487.081	713.44
487.299	710.44
487.517	702.44
487.735	675.44
487.953	718.44
488.171	715.44
488.389	710.44
488.607	705.44
488.825	712.44
489.043	695.44
489.261	702.44
489.479	708.44
489.696	691.44
489.914	694.44
490.132	731.44
490.35	755.44
490.568	739.44
490.786	743.44
491.003	782.44
491.221	803.44
491.439	789.44
491.657	792.44
491.874	794.44
492.092	796.44
492.31	787.44
492.527	803.44
492.745	815.44
492.963	807.44
493.18	796.44
493.398	843.44
493.615	827.44
493.833	821.44
494.05	836.44
494.268	825.44
494.485	838.44
494.703	839.44
494.92	851.44
495.138	838.44
495.355	844.44
495.573	838.44
495.79	832.44
496.008	839.44
496.225	837.44
496.442	826.44
496.66	863.44
496.877	869.44
497.094	842.44
497.312	879.44
497.529	884.44
497.746	891.44
497.963	908.44
498.181	921.44
498.398	930.44
498.615	967.44
498.832	945.44
499.049	963.44
499.267	979.44
499.484	1044.44
499.701	1077.44
499.918	1120.44
500.135	1146.44
500.352	1194.44
500.569	1205.44
500.786	1209.44
501.003	1222.44
501.22	1157.44
501.437	1143.44
501.654	1114.44
