Data from 1988.PennyLincolnUp.Lamp.En5.5.200Scan.071819.P2_HRD10591_17-19-32-971.txt Node
Date: Thu Jul 18 17:19:32 EDT 2019
User: cochatt
Spectrometer: HR+D1059
Trigger mode: 1
Integration Time (sec): 1.000000E-1
Scans to average: 1
Electric dark correction enabled: true
Nonlinearity correction enabled: false
Boxcar width: 0
XAxis mode: Wavelengths
Number of Pixels in Spectrum: 2048
>>>>>Begin Spectral Data<<<<<
223.165	-17.69
223.4	-17.69
223.635	-17.69
223.869	-17.69
224.104	-20.69
224.338	-9.69
224.573	-8.69
224.808	-13.69
225.042	-7.69
225.277	5.31
225.511	12.31
225.746	12.31
225.98	3.31
226.215	-7.69
226.449	10.31
226.683	15.31
226.918	20.31
227.152	24.31
227.387	35.31
227.621	30.31
227.856	44.31
228.09	59.31
228.324	50.31
228.559	53.31
228.793	65.31
229.027	97.31
229.262	133.31
229.496	128.31
229.73	150.31
229.964	151.31
230.199	148.31
230.433	122.31
230.667	112.31
230.901	123.31
231.136	116.31
231.37	126.31
231.604	116.31
231.838	111.31
232.072	126.31
232.306	102.31
232.541	113.31
232.775	117.31
233.009	125.31
233.243	104.31
233.477	114.31
233.711	108.31
233.945	111.31
234.179	127.31
234.413	124.31
234.647	128.31
234.881	133.31
235.115	124.31
235.349	120.31
235.583	112.31
235.817	119.31
236.051	128.31
236.285	125.31
236.519	131.31
236.753	134.31
236.987	136.31
237.221	204.31
237.455	248.31
237.689	211.31
237.922	156.31
238.156	132.31
238.39	139.31
238.624	148.31
238.858	132.31
239.091	130.31
239.325	143.31
239.559	130.31
239.793	136.31
240.027	140.31
240.26	170.31
240.494	160.31
240.728	141.31
240.961	153.31
241.195	147.31
241.429	147.31
241.662	152.31
241.896	152.31
242.13	149.31
242.363	164.31
242.597	142.31
242.83	126.31
243.064	143.31
243.298	139.31
243.531	141.31
243.765	159.31
243.998	140.31
244.232	134.31
244.465	143.31
244.699	141.31
244.932	148.31
245.166	143.31
245.399	159.31
245.633	149.31
245.866	162.31
246.099	155.31
246.333	167.31
246.566	149.31
246.8	151.31
247.033	166.31
247.266	173.31
247.5	176.31
247.733	172.31
247.966	184.31
248.2	173.31
248.433	184.31
248.666	175.31
248.899	191.31
249.133	210.31
249.366	218.31
249.599	220.31
249.832	182.31
250.066	190.31
250.299	188.31
250.532	180.31
250.765	197.31
250.998	230.31
251.231	219.31
251.465	207.31
251.698	218.31
251.931	222.31
252.164	205.31
252.397	193.31
252.63	220.31
252.863	219.31
253.096	212.31
253.329	223.31
253.562	219.31
253.795	218.31
254.028	226.31
254.261	217.31
254.494	239.31
254.727	266.31
254.96	290.31
255.193	301.31
255.426	254.31
255.659	246.31
255.892	233.31
256.124	222.31
256.357	229.31
256.59	218.31
256.823	221.31
257.056	213.31
257.289	217.31
257.521	231.31
257.754	233.31
257.987	221.31
258.22	223.31
258.452	226.31
258.685	220.31
258.918	215.31
259.151	205.31
259.383	225.31
259.616	238.31
259.849	219.31
260.081	262.31
260.314	254.31
260.547	250.31
260.779	264.31
261.012	245.31
261.244	242.31
261.477	229.31
261.71	241.31
261.942	226.31
262.175	245.31
262.407	235.31
262.64	240.31
262.872	216.31
263.105	231.31
263.337	223.31
263.57	230.31
263.802	226.31
264.035	231.31
264.267	234.31
264.499	224.31
264.732	227.31
264.964	230.31
265.197	211.31
265.429	210.31
265.661	227.31
265.894	216.31
266.126	242.31
266.358	217.31
266.591	224.31
266.823	222.31
267.055	258.31
267.287	246.31
267.52	229.31
267.752	253.31
267.984	230.31
268.216	257.31
268.448	244.31
268.681	250.31
268.913	252.31
269.145	276.31
269.377	284.31
269.609	283.31
269.841	281.31
270.073	269.31
270.306	294.31
270.538	326.31
270.77	338.31
271.002	318.31
271.234	298.31
271.466	306.31
271.698	322.31
271.93	339.31
272.162	335.31
272.394	328.31
272.626	323.31
272.858	312.31
273.09	302.31
273.322	293.31
273.553	270.31
273.785	244.31
274.017	288.31
274.249	287.31
274.481	285.31
274.713	289.31
274.945	282.31
275.176	282.31
275.408	277.31
275.64	290.31
275.872	277.31
276.104	276.31
276.335	271.31
276.567	268.31
276.799	285.31
277.031	327.31
277.262	328.31
277.494	347.31
277.726	326.31
277.957	314.31
278.189	296.31
278.421	287.31
278.652	280.31
278.884	315.31
279.115	293.31
279.347	288.31
279.579	290.31
279.81	307.31
280.042	276.31
280.273	282.31
280.505	287.31
280.736	275.31
280.968	284.31
281.199	279.31
281.431	276.31
281.662	290.31
281.894	287.31
282.125	292.31
282.356	332.31
282.588	322.31
282.819	324.31
283.051	299.31
283.282	277.31
283.513	274.31
283.745	280.31
283.976	303.31
284.207	306.31
284.439	302.31
284.67	307.31
284.901	272.31
285.132	284.31
285.364	295.31
285.595	308.31
285.826	289.31
286.057	310.31
286.288	296.31
286.52	306.31
286.751	312.31
286.982	305.31
287.213	300.31
287.444	306.31
287.675	318.31
287.906	303.31
288.138	334.31
288.369	318.31
288.6	313.31
288.831	307.31
289.062	314.31
289.293	305.31
289.524	310.31
289.755	310.31
289.986	319.31
290.217	296.31
290.448	309.31
290.679	317.31
290.91	317.31
291.141	311.31
291.371	317.31
291.602	302.31
291.833	315.31
292.064	309.31
292.295	294.31
292.526	319.31
292.757	317.31
292.987	310.31
293.218	308.31
293.449	325.31
293.68	304.31
293.91	318.31
294.141	304.31
294.372	299.31
294.603	304.31
294.833	322.31
295.064	310.31
295.295	308.31
295.525	332.31
295.756	318.31
295.987	316.31
296.217	337.31
296.448	354.31
296.679	348.31
296.909	324.31
297.14	317.31
297.37	315.31
297.601	299.31
297.831	327.31
298.062	314.31
298.292	332.31
298.523	343.31
298.753	330.31
298.984	332.31
299.214	319.31
299.445	348.31
299.675	323.31
299.905	338.31
300.136	333.31
300.366	322.31
300.597	327.31
300.827	350.31
301.057	361.31
301.288	350.31
301.518	368.31
301.748	340.31
301.979	348.31
302.209	348.31
302.439	360.31
302.669	363.31
302.9	354.31
303.13	342.31
303.36	366.31
303.59	362.31
303.82	363.31
304.051	351.31
304.281	354.31
304.511	381.31
304.741	344.31
304.971	357.31
305.201	356.31
305.431	352.31
305.661	369.31
305.891	344.31
306.121	342.31
306.352	392.31
306.582	385.31
306.812	362.31
307.042	362.31
307.272	366.31
307.502	359.31
307.731	381.31
307.961	359.31
308.191	344.31
308.421	373.31
308.651	372.31
308.881	389.31
309.111	354.31
309.341	384.31
309.571	376.31
309.8	388.31
310.03	397.31
310.26	401.31
310.49	384.31
310.72	408.31
310.949	416.31
311.179	427.31
311.409	407.31
311.639	386.31
311.868	412.31
312.098	384.31
312.328	427.31
312.557	412.31
312.787	438.31
313.017	447.31
313.246	442.31
313.476	377.31
313.706	412.31
313.935	404.31
314.165	419.31
314.394	442.31
314.624	423.31
314.853	410.31
315.083	418.31
315.312	431.31
315.542	412.31
315.771	411.31
316.001	407.31
316.23	422.31
316.46	394.31
316.689	430.31
316.919	424.31
317.148	429.31
317.377	426.31
317.607	400.31
317.836	410.31
318.065	407.31
318.295	415.31
318.524	396.31
318.753	405.31
318.983	416.31
319.212	419.31
319.441	425.31
319.67	401.31
319.9	420.31
320.129	402.31
320.358	417.31
320.587	412.31
320.816	416.31
321.046	421.31
321.275	436.31
321.504	447.31
321.733	448.31
321.962	458.31
322.191	460.31
322.42	478.31
322.649	476.31
322.878	475.31
323.108	496.31
323.337	519.31
323.566	520.31
323.795	584.31
324.024	635.31
324.253	753.31
324.482	1052.31
324.71	1662.31
324.939	2404.31
325.168	2118.31
325.397	1082.31
325.626	758.31
325.855	620.31
326.084	573.31
326.313	560.31
326.542	555.31
326.77	626.31
326.999	696.31
327.228	963.31
327.457	1462.31
327.686	1796.31
327.914	1212.31
328.143	786.31
328.372	696.31
328.6	655.31
328.829	592.31
329.058	614.31
329.287	637.31
329.515	559.31
329.744	578.31
329.972	534.31
330.201	553.31
330.43	555.31
330.658	609.31
330.887	658.31
331.115	640.31
331.344	560.31
331.572	532.31
331.801	532.31
332.03	501.31
332.258	504.31
332.486	500.31
332.715	499.31
332.943	485.31
333.172	483.31
333.4	492.31
333.629	514.31
333.857	523.31
334.085	484.31
334.314	492.31
334.542	511.31
334.771	515.31
334.999	521.31
335.227	516.31
335.455	487.31
335.684	486.31
335.912	482.31
336.14	476.31
336.369	470.31
336.597	512.31
336.825	495.31
337.053	505.31
337.281	490.31
337.51	491.31
337.738	479.31
337.966	496.31
338.194	502.31
338.422	522.31
338.65	492.31
338.878	472.31
339.106	474.31
339.334	477.31
339.562	496.31
339.79	470.31
340.018	473.31
340.246	461.31
340.474	470.31
340.702	476.31
340.93	487.31
341.158	480.31
341.386	474.31
341.614	472.31
341.842	479.31
342.07	461.31
342.298	484.31
342.526	467.31
342.754	458.31
342.981	451.31
343.209	478.31
343.437	446.31
343.665	469.31
343.893	485.31
344.12	473.31
344.348	454.31
344.576	482.31
344.804	491.31
345.031	493.31
345.259	517.31
345.487	491.31
345.714	469.31
345.942	448.31
346.17	463.31
346.397	446.31
346.625	470.31
346.853	460.31
347.08	450.31
347.308	450.31
347.535	469.31
347.763	482.31
347.99	491.31
348.218	459.31
348.445	474.31
348.673	480.31
348.9	469.31
349.128	449.31
349.355	450.31
349.583	437.31
349.81	443.31
350.037	462.31
350.265	436.31
350.492	446.31
350.72	458.31
350.947	455.31
351.174	459.31
351.402	462.31
351.629	467.31
351.856	469.31
352.083	467.31
352.311	476.31
352.538	469.31
352.765	482.31
352.992	477.31
353.22	455.31
353.447	467.31
353.674	467.31
353.901	442.31
354.128	451.31
354.355	441.31
354.583	459.31
354.81	422.31
355.037	441.31
355.264	439.31
355.491	439.31
355.718	425.31
355.945	424.31
356.172	432.31
356.399	439.31
356.626	432.31
356.853	411.31
357.08	452.31
357.307	455.31
357.534	427.31
357.761	444.31
357.988	435.31
358.215	428.31
358.441	428.31
358.668	443.31
358.895	450.31
359.122	457.31
359.349	455.31
359.576	449.31
359.802	475.31
360.029	532.31
360.256	523.31
360.483	518.31
360.709	478.31
360.936	469.31
361.163	467.31
361.39	471.31
361.616	448.31
361.843	472.31
362.07	469.31
362.296	488.31
362.523	467.31
362.749	478.31
362.976	473.31
363.203	460.31
363.429	453.31
363.656	452.31
363.882	456.31
364.109	447.31
364.335	451.31
364.562	442.31
364.788	429.31
365.015	448.31
365.241	446.31
365.468	457.31
365.694	470.31
365.92	468.31
366.147	451.31
366.373	450.31
366.599	465.31
366.826	430.31
367.052	427.31
367.278	469.31
367.505	440.31
367.731	451.31
367.957	446.31
368.184	465.31
368.41	450.31
368.636	473.31
368.862	481.31
369.089	456.31
369.315	452.31
369.541	470.31
369.767	455.31
369.993	468.31
370.219	442.31
370.445	460.31
370.672	437.31
370.898	444.31
371.124	434.31
371.35	449.31
371.576	426.31
371.802	429.31
372.028	445.31
372.254	460.31
372.48	448.31
372.706	454.31
372.932	445.31
373.158	458.31
373.384	446.31
373.61	447.31
373.835	471.31
374.061	455.31
374.287	483.31
374.513	450.31
374.739	488.31
374.965	485.31
375.191	443.31
375.416	467.31
375.642	451.31
375.868	470.31
376.094	458.31
376.319	450.31
376.545	444.31
376.771	429.31
376.997	432.31
377.222	453.31
377.448	453.31
377.674	476.31
377.899	455.31
378.125	439.31
378.35	449.31
378.576	458.31
378.802	461.31
379.027	458.31
379.253	464.31
379.478	439.31
379.704	448.31
379.929	472.31
380.155	443.31
380.38	450.31
380.606	449.31
380.831	457.31
381.057	450.31
381.282	463.31
381.507	448.31
381.733	453.31
381.958	474.31
382.184	460.31
382.409	487.31
382.634	464.31
382.86	462.31
383.085	468.31
383.31	453.31
383.535	444.31
383.761	463.31
383.986	490.31
384.211	478.31
384.436	494.31
384.662	471.31
384.887	475.31
385.112	465.31
385.337	484.31
385.562	517.31
385.787	522.31
386.013	511.31
386.238	509.31
386.463	517.31
386.688	526.31
386.913	497.31
387.138	522.31
387.363	508.31
387.588	500.31
387.813	498.31
388.038	503.31
388.263	517.31
388.488	519.31
388.713	498.31
388.938	488.31
389.163	492.31
389.387	519.31
389.612	518.31
389.837	487.31
390.062	488.31
390.287	485.31
390.512	512.31
390.736	497.31
390.961	517.31
391.186	510.31
391.411	523.31
391.636	507.31
391.86	529.31
392.085	521.31
392.31	527.31
392.534	520.31
392.759	525.31
392.984	510.31
393.208	509.31
393.433	519.31
393.658	514.31
393.882	477.31
394.107	507.31
394.331	501.31
394.556	520.31
394.78	523.31
395.005	505.31
395.229	533.31
395.454	510.31
395.678	525.31
395.903	516.31
396.127	565.31
396.352	550.31
396.576	556.31
396.801	539.31
397.025	559.31
397.249	553.31
397.474	540.31
397.698	546.31
397.922	585.31
398.147	586.31
398.371	599.31
398.595	566.31
398.82	560.31
399.044	562.31
399.268	593.31
399.492	628.31
399.717	674.31
399.941	684.31
400.165	723.31
400.389	734.31
400.613	679.31
400.837	645.31
401.062	597.31
401.286	604.31
401.51	596.31
401.734	598.31
401.958	599.31
402.182	586.31
402.406	582.31
402.63	607.31
402.854	595.31
403.078	597.31
403.302	613.31
403.526	602.31
403.75	601.31
403.974	609.31
404.198	604.31
404.422	591.31
404.645	625.31
404.869	612.31
405.093	619.31
405.317	663.31
405.541	668.31
405.765	655.31
405.988	617.31
406.212	614.31
406.436	640.31
406.66	662.31
406.883	653.31
407.107	685.31
407.331	744.31
407.555	806.31
407.778	832.31
408.002	733.31
408.226	690.31
408.449	655.31
408.673	656.31
408.896	707.31
409.12	748.31
409.344	728.31
409.567	646.31
409.791	612.31
410.014	607.31
410.238	611.31
410.461	614.31
410.685	629.31
410.908	655.31
411.132	692.31
411.355	712.31
411.578	669.31
411.802	617.31
412.025	619.31
412.249	616.31
412.472	603.31
412.695	630.31
412.919	636.31
413.142	602.31
413.365	585.31
413.589	599.31
413.812	577.31
414.035	567.31
414.258	568.31
414.482	582.31
414.705	584.31
414.928	557.31
415.151	568.31
415.374	569.31
415.597	569.31
415.821	579.31
416.044	571.31
416.267	586.31
416.49	606.31
416.713	570.31
416.936	573.31
417.159	580.31
417.382	583.31
417.605	557.31
417.828	578.31
418.051	588.31
418.274	598.31
418.497	586.31
418.72	579.31
418.943	571.31
419.166	595.31
419.389	627.31
419.611	612.31
419.834	611.31
420.057	591.31
420.28	562.31
420.503	574.31
420.726	597.31
420.948	594.31
421.171	669.31
421.394	683.31
421.617	624.31
421.839	605.31
422.062	632.31
422.285	623.31
422.507	669.31
422.73	766.31
422.953	741.31
423.175	660.31
423.398	645.31
423.621	628.31
423.843	654.31
424.066	636.31
424.288	630.31
424.511	680.31
424.733	718.31
424.956	827.31
425.178	776.31
425.401	764.31
425.623	818.31
425.846	726.31
426.068	663.31
426.291	640.31
426.513	626.31
426.735	643.31
426.958	726.31
427.18	782.31
427.402	940.31
427.625	1046.31
427.847	894.31
428.069	752.31
428.292	686.31
428.514	644.31
428.736	613.31
428.958	614.31
429.181	608.31
429.403	604.31
429.625	602.31
429.847	645.31
430.069	713.31
430.292	727.31
430.514	621.31
430.736	604.31
430.958	602.31
431.18	550.31
431.402	559.31
431.624	593.31
431.846	566.31
432.068	567.31
432.29	567.31
432.512	585.31
432.734	570.31
432.956	578.31
433.178	575.31
433.4	580.31
433.622	583.31
433.844	582.31
434.066	575.31
434.287	558.31
434.509	580.31
434.731	583.31
434.953	603.31
435.175	611.31
435.397	647.31
435.618	642.31
435.84	692.31
436.062	791.31
436.284	885.31
436.505	731.31
436.727	648.31
436.949	638.31
437.17	602.31
437.392	598.31
437.614	616.31
437.835	651.31
438.057	755.31
438.278	877.31
438.5	860.31
438.721	963.31
438.943	923.31
439.165	744.31
439.386	659.31
439.608	635.31
439.829	671.31
440.05	665.31
440.272	729.31
440.493	662.31
440.715	642.31
440.936	608.31
441.158	584.31
441.379	618.31
441.6	638.31
441.822	648.31
442.043	713.31
442.264	780.31
442.486	857.31
442.707	721.31
442.928	656.31
443.149	669.31
443.371	701.31
443.592	715.31
443.813	841.31
444.034	910.31
444.255	747.31
444.476	670.31
444.698	674.31
444.919	663.31
445.14	764.31
445.361	724.31
445.582	699.31
445.803	741.31
446.024	864.31
446.245	859.31
446.466	796.31
446.687	682.31
446.908	647.31
447.129	608.31
447.35	598.31
447.571	612.31
447.792	597.31
448.013	599.31
448.234	615.31
448.455	678.31
448.675	798.31
448.896	945.31
449.117	794.31
449.338	756.31
449.559	867.31
449.779	978.31
450	781.31
450.221	679.31
450.442	597.31
450.662	598.31
450.883	588.31
451.104	602.31
451.324	568.31
451.545	583.31
451.766	553.31
451.986	538.31
452.207	548.31
452.428	537.31
452.648	555.31
452.869	531.31
453.089	533.31
453.31	565.31
453.53	551.31
453.751	535.31
453.971	554.31
454.192	562.31
454.412	576.31
454.633	523.31
454.853	530.31
455.073	543.31
455.294	564.31
455.514	618.31
455.734	612.31
455.955	561.31
456.175	545.31
456.395	513.31
456.616	489.31
456.836	508.31
457.056	498.31
457.276	494.31
457.497	527.31
457.717	486.31
457.937	499.31
458.157	514.31
458.377	542.31
458.598	600.31
458.818	616.31
459.038	701.31
459.258	738.31
459.478	621.31
459.698	592.31
459.918	575.31
460.138	563.31
460.358	559.31
460.578	604.31
460.798	600.31
461.018	599.31
461.238	588.31
461.458	590.31
461.678	609.31
461.898	599.31
462.118	583.31
462.338	590.31
462.558	608.31
462.777	620.31
462.997	601.31
463.217	626.31
463.437	657.31
463.657	642.31
463.876	606.31
464.096	650.31
464.316	616.31
464.536	628.31
464.755	632.31
464.975	612.31
465.195	650.31
465.414	764.31
465.634	669.31
465.854	606.31
466.073	575.31
466.293	590.31
466.512	573.31
466.732	576.31
466.951	555.31
467.171	542.31
467.391	548.31
467.61	566.31
467.829	586.31
468.049	566.31
468.268	554.31
468.488	533.31
468.707	548.31
468.927	550.31
469.146	580.31
469.365	530.31
469.585	551.31
469.804	564.31
470.023	566.31
470.243	571.31
470.462	556.31
470.681	583.31
470.901	580.31
471.12	566.31
471.339	566.31
471.558	575.31
471.777	571.31
471.997	545.31
472.216	531.31
472.435	533.31
472.654	531.31
472.873	527.31
473.092	529.31
473.311	543.31
473.53	569.31
473.749	550.31
473.968	623.31
474.187	701.31
474.406	749.31
474.625	619.31
474.844	570.31
475.063	574.31
475.282	568.31
475.501	555.31
475.72	556.31
475.939	579.31
476.158	600.31
476.377	557.31
476.596	588.31
476.814	575.31
477.033	580.31
477.252	603.31
477.471	594.31
477.69	587.31
477.908	592.31
478.127	628.31
478.346	622.31
478.564	606.31
478.783	624.31
479.002	621.31
479.22	631.31
479.439	650.31
479.658	692.31
479.876	665.31
480.095	677.31
480.313	720.31
480.532	682.31
480.751	662.31
480.969	667.31
481.188	711.31
481.406	700.31
481.624	682.31
481.843	700.31
482.061	662.31
482.28	668.31
482.498	665.31
482.717	657.31
482.935	633.31
483.153	660.31
483.372	668.31
483.59	636.31
483.808	650.31
484.027	673.31
484.245	647.31
484.463	668.31
484.681	678.31
484.9	680.31
485.118	668.31
485.336	665.31
485.554	655.31
485.772	686.31
485.99	660.31
486.209	657.31
486.427	670.31
486.645	671.31
486.863	702.31
487.081	702.31
487.299	712.31
487.517	697.31
487.735	709.31
487.953	709.31
488.171	707.31
488.389	681.31
488.607	698.31
488.825	713.31
489.043	697.31
489.261	718.31
489.479	717.31
489.696	728.31
489.914	720.31
490.132	742.31
490.35	730.31
490.568	708.31
490.786	730.31
491.003	745.31
491.221	756.31
491.439	785.31
491.657	791.31
491.874	780.31
492.092	788.31
492.31	801.31
492.527	810.31
492.745	797.31
492.963	787.31
493.18	783.31
493.398	816.31
493.615	865.31
493.833	831.31
494.05	836.31
494.268	832.31
494.485	811.31
494.703	816.31
494.92	836.31
495.138	818.31
495.355	840.31
495.573	825.31
495.79	815.31
496.008	822.31
496.225	828.31
496.442	847.31
496.66	857.31
496.877	837.31
497.094	867.31
497.312	860.31
497.529	891.31
497.746	866.31
497.963	898.31
498.181	927.31
498.398	954.31
498.615	932.31
498.832	985.31
499.049	959.31
499.267	988.31
499.484	1057.31
499.701	1065.31
499.918	1118.31
500.135	1154.31
500.352	1210.31
500.569	1191.31
500.786	1204.31
501.003	1202.31
501.22	1178.31
501.437	1121.31
501.654	1140.31
