Data from 1988.PennyLincolnUp.Lamp.En5.5.200Scan.071819.P2_HRD10591_17-18-35-972.txt Node
Date: Thu Jul 18 17:18:35 EDT 2019
User: cochatt
Spectrometer: HR+D1059
Trigger mode: 1
Integration Time (sec): 1.000000E-1
Scans to average: 1
Electric dark correction enabled: true
Nonlinearity correction enabled: false
Boxcar width: 0
XAxis mode: Wavelengths
Number of Pixels in Spectrum: 2048
>>>>>Begin Spectral Data<<<<<
223.165	-4.06
223.4	-4.06
223.635	-4.06
223.869	-17.06
224.104	-16.06
224.338	-17.06
224.573	-16.06
224.808	-9.06
225.042	-10.06
225.277	-9.06
225.511	-5.06
225.746	-4.06
225.98	9.94
226.215	3.94
226.449	8.94
226.683	31.94
226.918	28.94
227.152	23.94
227.387	39.94
227.621	40.94
227.856	39.94
228.09	45.94
228.324	42.94
228.559	67.94
228.793	68.94
229.027	88.94
229.262	106.94
229.496	114.94
229.73	125.94
229.964	136.94
230.199	121.94
230.433	120.94
230.667	114.94
230.901	115.94
231.136	115.94
231.37	107.94
231.604	112.94
231.838	105.94
232.072	114.94
232.306	109.94
232.541	114.94
232.775	97.94
233.009	126.94
233.243	125.94
233.477	101.94
233.711	114.94
233.945	108.94
234.179	114.94
234.413	110.94
234.647	123.94
234.881	122.94
235.115	100.94
235.349	123.94
235.583	116.94
235.817	135.94
236.051	109.94
236.285	135.94
236.519	124.94
236.753	142.94
236.987	141.94
237.221	182.94
237.455	205.94
237.689	182.94
237.922	139.94
238.156	125.94
238.39	132.94
238.624	126.94
238.858	126.94
239.091	109.94
239.325	124.94
239.559	133.94
239.793	124.94
240.027	136.94
240.26	137.94
240.494	142.94
240.728	132.94
240.961	137.94
241.195	145.94
241.429	125.94
241.662	136.94
241.896	118.94
242.13	130.94
242.363	129.94
242.597	126.94
242.83	136.94
243.064	132.94
243.298	124.94
243.531	140.94
243.765	146.94
243.998	134.94
244.232	139.94
244.465	132.94
244.699	141.94
244.932	138.94
245.166	142.94
245.399	144.94
245.633	141.94
245.866	148.94
246.099	138.94
246.333	154.94
246.566	138.94
246.8	134.94
247.033	142.94
247.266	148.94
247.5	142.94
247.733	161.94
247.966	157.94
248.2	140.94
248.433	166.94
248.666	156.94
248.899	173.94
249.133	178.94
249.366	198.94
249.599	181.94
249.832	153.94
250.066	164.94
250.299	167.94
250.532	184.94
250.765	176.94
250.998	198.94
251.231	208.94
251.465	189.94
251.698	201.94
251.931	187.94
252.164	186.94
252.397	166.94
252.63	196.94
252.863	201.94
253.096	191.94
253.329	208.94
253.562	197.94
253.795	196.94
254.028	184.94
254.261	193.94
254.494	211.94
254.727	214.94
254.96	230.94
255.193	221.94
255.426	221.94
255.659	206.94
255.892	216.94
256.124	208.94
256.357	201.94
256.59	188.94
256.823	180.94
257.056	195.94
257.289	192.94
257.521	190.94
257.754	195.94
257.987	211.94
258.22	190.94
258.452	195.94
258.685	197.94
258.918	187.94
259.151	196.94
259.383	189.94
259.616	215.94
259.849	203.94
260.081	223.94
260.314	216.94
260.547	233.94
260.779	217.94
261.012	226.94
261.244	214.94
261.477	211.94
261.71	201.94
261.942	208.94
262.175	222.94
262.407	214.94
262.64	216.94
262.872	220.94
263.105	208.94
263.337	209.94
263.57	205.94
263.802	203.94
264.035	195.94
264.267	206.94
264.499	217.94
264.732	213.94
264.964	204.94
265.197	208.94
265.429	207.94
265.661	195.94
265.894	200.94
266.126	199.94
266.358	209.94
266.591	206.94
266.823	220.94
267.055	220.94
267.287	208.94
267.52	212.94
267.752	233.94
267.984	218.94
268.216	217.94
268.448	226.94
268.681	207.94
268.913	234.94
269.145	254.94
269.377	262.94
269.609	266.94
269.841	242.94
270.073	245.94
270.306	273.94
270.538	282.94
270.77	276.94
271.002	271.94
271.234	268.94
271.466	277.94
271.698	306.94
271.93	276.94
272.162	276.94
272.394	294.94
272.626	283.94
272.858	267.94
273.09	243.94
273.322	238.94
273.553	270.94
273.785	260.94
274.017	237.94
274.249	238.94
274.481	262.94
274.713	246.94
274.945	235.94
275.176	254.94
275.408	263.94
275.64	248.94
275.872	243.94
276.104	235.94
276.335	248.94
276.567	246.94
276.799	279.94
277.031	292.94
277.262	294.94
277.494	286.94
277.726	278.94
277.957	275.94
278.189	280.94
278.421	250.94
278.652	266.94
278.884	240.94
279.115	258.94
279.347	244.94
279.579	275.94
279.81	262.94
280.042	268.94
280.273	251.94
280.505	272.94
280.736	286.94
280.968	268.94
281.199	265.94
281.431	244.94
281.662	264.94
281.894	254.94
282.125	263.94
282.356	270.94
282.588	295.94
282.819	285.94
283.051	265.94
283.282	249.94
283.513	266.94
283.745	277.94
283.976	260.94
284.207	264.94
284.439	278.94
284.67	284.94
284.901	259.94
285.132	269.94
285.364	255.94
285.595	270.94
285.826	285.94
286.057	270.94
286.288	263.94
286.52	269.94
286.751	270.94
286.982	256.94
287.213	264.94
287.444	268.94
287.675	285.94
287.906	271.94
288.138	292.94
288.369	280.94
288.6	293.94
288.831	272.94
289.062	292.94
289.293	294.94
289.524	266.94
289.755	270.94
289.986	265.94
290.217	274.94
290.448	275.94
290.679	286.94
290.91	290.94
291.141	282.94
291.371	280.94
291.602	263.94
291.833	279.94
292.064	279.94
292.295	292.94
292.526	287.94
292.757	281.94
292.987	291.94
293.218	288.94
293.449	296.94
293.68	288.94
293.91	290.94
294.141	283.94
294.372	290.94
294.603	269.94
294.833	293.94
295.064	293.94
295.295	276.94
295.525	280.94
295.756	287.94
295.987	283.94
296.217	300.94
296.448	316.94
296.679	296.94
296.909	282.94
297.14	284.94
297.37	294.94
297.601	289.94
297.831	291.94
298.062	286.94
298.292	301.94
298.523	294.94
298.753	294.94
298.984	304.94
299.214	318.94
299.445	296.94
299.675	296.94
299.905	318.94
300.136	306.94
300.366	301.94
300.597	302.94
300.827	315.94
301.057	326.94
301.288	314.94
301.518	319.94
301.748	303.94
301.979	297.94
302.209	332.94
302.439	339.94
302.669	337.94
302.9	304.94
303.13	316.94
303.36	324.94
303.59	313.94
303.82	331.94
304.051	331.94
304.281	345.94
304.511	308.94
304.741	322.94
304.971	315.94
305.201	311.94
305.431	325.94
305.661	320.94
305.891	314.94
306.121	312.94
306.352	322.94
306.582	334.94
306.812	326.94
307.042	325.94
307.272	325.94
307.502	334.94
307.731	317.94
307.961	311.94
308.191	308.94
308.421	315.94
308.651	326.94
308.881	327.94
309.111	341.94
309.341	342.94
309.571	355.94
309.8	322.94
310.03	348.94
310.26	375.94
310.49	351.94
310.72	365.94
310.949	351.94
311.179	374.94
311.409	365.94
311.639	376.94
311.868	374.94
312.098	377.94
312.328	382.94
312.557	378.94
312.787	367.94
313.017	376.94
313.246	350.94
313.476	360.94
313.706	366.94
313.935	362.94
314.165	376.94
314.394	366.94
314.624	380.94
314.853	375.94
315.083	366.94
315.312	362.94
315.542	350.94
315.771	360.94
316.001	360.94
316.23	359.94
316.46	361.94
316.689	388.94
316.919	384.94
317.148	385.94
317.377	385.94
317.607	370.94
317.836	380.94
318.065	380.94
318.295	361.94
318.524	347.94
318.753	360.94
318.983	374.94
319.212	364.94
319.441	381.94
319.67	370.94
319.9	378.94
320.129	371.94
320.358	354.94
320.587	384.94
320.816	394.94
321.046	396.94
321.275	357.94
321.504	352.94
321.733	387.94
321.962	398.94
322.191	401.94
322.42	414.94
322.649	398.94
322.878	443.94
323.108	436.94
323.337	447.94
323.566	453.94
323.795	456.94
324.024	537.94
324.253	609.94
324.482	845.94
324.71	1274.94
324.939	1821.94
325.168	1584.94
325.397	828.94
325.626	580.94
325.855	512.94
326.084	451.94
326.313	470.94
326.542	483.94
326.77	510.94
326.999	578.94
327.228	755.94
327.457	1155.94
327.686	1372.94
327.914	898.94
328.143	633.94
328.372	546.94
328.6	532.94
328.829	507.94
329.058	514.94
329.287	511.94
329.515	488.94
329.744	453.94
329.972	469.94
330.201	458.94
330.43	449.94
330.658	502.94
330.887	504.94
331.115	547.94
331.344	484.94
331.572	455.94
331.801	463.94
332.03	449.94
332.258	442.94
332.486	440.94
332.715	419.94
332.943	434.94
333.172	425.94
333.4	440.94
333.629	440.94
333.857	450.94
334.085	450.94
334.314	450.94
334.542	477.94
334.771	412.94
334.999	440.94
335.227	443.94
335.455	458.94
335.684	445.94
335.912	428.94
336.14	431.94
336.369	436.94
336.597	432.94
336.825	446.94
337.053	431.94
337.281	421.94
337.51	434.94
337.738	447.94
337.966	437.94
338.194	459.94
338.422	448.94
338.65	434.94
338.878	431.94
339.106	413.94
339.334	431.94
339.562	398.94
339.79	404.94
340.018	430.94
340.246	415.94
340.474	415.94
340.702	414.94
340.93	427.94
341.158	416.94
341.386	401.94
341.614	414.94
341.842	406.94
342.07	424.94
342.298	408.94
342.526	392.94
342.754	405.94
342.981	395.94
343.209	390.94
343.437	392.94
343.665	443.94
343.893	435.94
344.12	435.94
344.348	440.94
344.576	427.94
344.804	414.94
345.031	414.94
345.259	458.94
345.487	432.94
345.714	427.94
345.942	416.94
346.17	414.94
346.397	414.94
346.625	425.94
346.853	418.94
347.08	389.94
347.308	417.94
347.535	413.94
347.763	428.94
347.99	405.94
348.218	399.94
348.445	426.94
348.673	426.94
348.9	414.94
349.128	409.94
349.355	395.94
349.583	379.94
349.81	409.94
350.037	404.94
350.265	393.94
350.492	376.94
350.72	404.94
350.947	392.94
351.174	400.94
351.402	421.94
351.629	415.94
351.856	412.94
352.083	414.94
352.311	400.94
352.538	424.94
352.765	421.94
352.992	411.94
353.22	414.94
353.447	389.94
353.674	400.94
353.901	417.94
354.128	393.94
354.355	384.94
354.583	390.94
354.81	376.94
355.037	367.94
355.264	386.94
355.491	376.94
355.718	380.94
355.945	382.94
356.172	376.94
356.399	374.94
356.626	378.94
356.853	374.94
357.08	373.94
357.307	376.94
357.534	365.94
357.761	374.94
357.988	395.94
358.215	386.94
358.441	373.94
358.668	374.94
358.895	383.94
359.122	384.94
359.349	390.94
359.576	380.94
359.802	412.94
360.029	465.94
360.256	436.94
360.483	420.94
360.709	420.94
360.936	398.94
361.163	406.94
361.39	398.94
361.616	393.94
361.843	386.94
362.07	386.94
362.296	410.94
362.523	422.94
362.749	409.94
362.976	401.94
363.203	396.94
363.429	398.94
363.656	386.94
363.882	381.94
364.109	382.94
364.335	410.94
364.562	387.94
364.788	376.94
365.015	388.94
365.241	397.94
365.468	395.94
365.694	391.94
365.92	395.94
366.147	394.94
366.373	410.94
366.599	384.94
366.826	389.94
367.052	390.94
367.278	423.94
367.505	386.94
367.731	380.94
367.957	395.94
368.184	398.94
368.41	411.94
368.636	405.94
368.862	413.94
369.089	407.94
369.315	396.94
369.541	393.94
369.767	374.94
369.993	401.94
370.219	396.94
370.445	406.94
370.672	404.94
370.898	383.94
371.124	409.94
371.35	386.94
371.576	410.94
371.802	405.94
372.028	401.94
372.254	391.94
372.48	395.94
372.706	428.94
372.932	409.94
373.158	419.94
373.384	405.94
373.61	402.94
373.835	392.94
374.061	410.94
374.287	413.94
374.513	410.94
374.739	417.94
374.965	404.94
375.191	399.94
375.416	394.94
375.642	416.94
375.868	427.94
376.094	401.94
376.319	408.94
376.545	393.94
376.771	411.94
376.997	391.94
377.222	382.94
377.448	398.94
377.674	395.94
377.899	373.94
378.125	371.94
378.35	386.94
378.576	401.94
378.802	396.94
379.027	381.94
379.253	408.94
379.478	404.94
379.704	391.94
379.929	388.94
380.155	399.94
380.38	386.94
380.606	393.94
380.831	392.94
381.057	392.94
381.282	399.94
381.507	411.94
381.733	394.94
381.958	403.94
382.184	403.94
382.409	411.94
382.634	420.94
382.86	409.94
383.085	419.94
383.31	440.94
383.535	392.94
383.761	438.94
383.986	408.94
384.211	404.94
384.436	424.94
384.662	427.94
384.887	410.94
385.112	427.94
385.337	427.94
385.562	413.94
385.787	430.94
386.013	464.94
386.238	458.94
386.463	461.94
386.688	449.94
386.913	423.94
387.138	440.94
387.363	451.94
387.588	426.94
387.813	431.94
388.038	446.94
388.263	453.94
388.488	424.94
388.713	424.94
388.938	430.94
389.163	452.94
389.387	445.94
389.612	455.94
389.837	429.94
390.062	427.94
390.287	441.94
390.512	436.94
390.736	428.94
390.961	458.94
391.186	444.94
391.411	465.94
391.636	452.94
391.86	443.94
392.085	456.94
392.31	457.94
392.534	457.94
392.759	463.94
392.984	459.94
393.208	451.94
393.433	458.94
393.658	464.94
393.882	444.94
394.107	451.94
394.331	450.94
394.556	454.94
394.78	452.94
395.005	453.94
395.229	445.94
395.454	448.94
395.678	462.94
395.903	462.94
396.127	472.94
396.352	505.94
396.576	472.94
396.801	458.94
397.025	472.94
397.249	476.94
397.474	485.94
397.698	480.94
397.922	472.94
398.147	484.94
398.371	506.94
398.595	478.94
398.82	493.94
399.044	492.94
399.268	542.94
399.492	549.94
399.717	557.94
399.941	613.94
400.165	614.94
400.389	604.94
400.613	559.94
400.837	546.94
401.062	537.94
401.286	525.94
401.51	489.94
401.734	495.94
401.958	506.94
402.182	527.94
402.406	511.94
402.63	526.94
402.854	500.94
403.078	508.94
403.302	519.94
403.526	512.94
403.75	512.94
403.974	520.94
404.198	524.94
404.422	529.94
404.645	517.94
404.869	512.94
405.093	535.94
405.317	546.94
405.541	562.94
405.765	551.94
405.988	525.94
406.212	535.94
406.436	553.94
406.66	571.94
406.883	570.94
407.107	592.94
407.331	660.94
407.555	698.94
407.778	694.94
408.002	616.94
408.226	604.94
408.449	581.94
408.673	564.94
408.896	601.94
409.12	626.94
409.344	600.94
409.567	558.94
409.791	556.94
410.014	542.94
410.238	533.94
410.461	522.94
410.685	520.94
410.908	514.94
411.132	558.94
411.355	591.94
411.578	574.94
411.802	536.94
412.025	536.94
412.249	520.94
412.472	518.94
412.695	528.94
412.919	535.94
413.142	521.94
413.365	526.94
413.589	515.94
413.812	495.94
414.035	496.94
414.258	494.94
414.482	478.94
414.705	492.94
414.928	487.94
415.151	500.94
415.374	489.94
415.597	488.94
415.821	499.94
416.044	471.94
416.267	481.94
416.49	502.94
416.713	493.94
416.936	504.94
417.159	475.94
417.382	503.94
417.605	500.94
417.828	496.94
418.051	512.94
418.274	520.94
418.497	494.94
418.72	495.94
418.943	505.94
419.166	487.94
419.389	526.94
419.611	532.94
419.834	514.94
420.057	514.94
420.28	513.94
420.503	486.94
420.726	509.94
420.948	527.94
421.171	549.94
421.394	601.94
421.617	528.94
421.839	521.94
422.062	524.94
422.285	532.94
422.507	604.94
422.73	646.94
422.953	612.94
423.175	541.94
423.398	550.94
423.621	542.94
423.843	510.94
424.066	545.94
424.288	545.94
424.511	582.94
424.733	601.94
424.956	679.94
425.178	652.94
425.401	647.94
425.623	667.94
425.846	597.94
426.068	545.94
426.291	536.94
426.513	521.94
426.735	573.94
426.958	577.94
427.18	661.94
427.402	770.94
427.625	872.94
427.847	736.94
428.069	612.94
428.292	551.94
428.514	538.94
428.736	524.94
428.958	542.94
429.181	518.94
429.403	507.94
429.625	506.94
429.847	537.94
430.069	619.94
430.292	592.94
430.514	499.94
430.736	523.94
430.958	514.94
431.18	479.94
431.402	484.94
431.624	481.94
431.846	471.94
432.068	467.94
432.29	470.94
432.512	472.94
432.734	491.94
432.956	475.94
433.178	478.94
433.4	486.94
433.622	495.94
433.844	514.94
434.066	484.94
434.287	470.94
434.509	500.94
434.731	500.94
434.953	492.94
435.175	536.94
435.397	539.94
435.618	533.94
435.84	590.94
436.062	678.94
436.284	712.94
436.505	619.94
436.727	534.94
436.949	518.94
437.17	502.94
437.392	525.94
437.614	534.94
437.835	546.94
438.057	644.94
438.278	712.94
438.5	719.94
438.721	786.94
438.943	746.94
439.165	612.94
439.386	554.94
439.608	548.94
439.829	529.94
440.05	564.94
440.272	601.94
440.493	569.94
440.715	535.94
440.936	537.94
441.158	525.94
441.379	521.94
441.6	533.94
441.822	543.94
442.043	592.94
442.264	662.94
442.486	686.94
442.707	606.94
442.928	573.94
443.149	568.94
443.371	578.94
443.592	636.94
443.813	694.94
444.034	760.94
444.255	643.94
444.476	574.94
444.698	565.94
444.919	553.94
445.14	647.94
445.361	614.94
445.582	587.94
445.803	634.94
446.024	730.94
446.245	746.94
446.466	655.94
446.687	566.94
446.908	530.94
447.129	536.94
447.35	511.94
447.571	515.94
447.792	508.94
448.013	503.94
448.234	522.94
448.455	558.94
448.675	682.94
448.896	784.94
449.117	667.94
449.338	642.94
449.559	731.94
449.779	834.94
450	655.94
450.221	537.94
450.442	516.94
450.662	510.94
450.883	499.94
451.104	483.94
451.324	506.94
451.545	472.94
451.766	453.94
451.986	468.94
452.207	453.94
452.428	441.94
452.648	462.94
452.869	447.94
453.089	478.94
453.31	458.94
453.53	454.94
453.751	452.94
453.971	455.94
454.192	469.94
454.412	476.94
454.633	440.94
454.853	447.94
455.073	447.94
455.294	477.94
455.514	517.94
455.734	512.94
455.955	462.94
456.175	438.94
456.395	444.94
456.616	426.94
456.836	468.94
457.056	435.94
457.276	418.94
457.497	424.94
457.717	426.94
457.937	437.94
458.157	428.94
458.377	456.94
458.598	474.94
458.818	525.94
459.038	576.94
459.258	613.94
459.478	517.94
459.698	487.94
459.918	498.94
460.138	502.94
460.358	531.94
460.578	494.94
460.798	484.94
461.018	518.94
461.238	494.94
461.458	524.94
461.678	474.94
461.898	484.94
462.118	516.94
462.338	528.94
462.558	514.94
462.777	537.94
462.997	544.94
463.217	559.94
463.437	574.94
463.657	566.94
463.876	525.94
464.096	551.94
464.316	528.94
464.536	538.94
464.755	525.94
464.975	520.94
465.195	574.94
465.414	599.94
465.634	562.94
465.854	532.94
466.073	497.94
466.293	480.94
466.512	460.94
466.732	473.94
466.951	472.94
467.171	464.94
467.391	457.94
467.61	492.94
467.829	491.94
468.049	482.94
468.268	467.94
468.488	462.94
468.707	463.94
468.927	468.94
469.146	450.94
469.365	469.94
469.585	444.94
469.804	478.94
470.023	469.94
470.243	471.94
470.462	468.94
470.681	487.94
470.901	491.94
471.12	474.94
471.339	489.94
471.558	496.94
471.777	496.94
471.997	450.94
472.216	454.94
472.435	447.94
472.654	453.94
472.873	472.94
473.092	463.94
473.311	478.94
473.53	476.94
473.749	493.94
473.968	520.94
474.187	610.94
474.406	632.94
474.625	552.94
474.844	506.94
475.063	487.94
475.282	480.94
475.501	460.94
475.72	487.94
475.939	492.94
476.158	465.94
476.377	498.94
476.596	493.94
476.814	492.94
477.033	488.94
477.252	512.94
477.471	478.94
477.69	529.94
477.908	515.94
478.127	532.94
478.346	524.94
478.564	502.94
478.783	534.94
479.002	540.94
479.22	547.94
479.439	558.94
479.658	566.94
479.876	563.94
480.095	575.94
480.313	586.94
480.532	588.94
480.751	554.94
480.969	585.94
481.188	573.94
481.406	573.94
481.624	568.94
481.843	575.94
482.061	549.94
482.28	568.94
482.498	568.94
482.717	557.94
482.935	570.94
483.153	566.94
483.372	547.94
483.59	565.94
483.808	570.94
484.027	542.94
484.245	579.94
484.463	567.94
484.681	588.94
484.9	565.94
485.118	580.94
485.336	567.94
485.554	600.94
485.772	574.94
485.99	582.94
486.209	563.94
486.427	588.94
486.645	619.94
486.863	601.94
487.081	597.94
487.299	594.94
487.517	581.94
487.735	565.94
487.953	597.94
488.171	578.94
488.389	604.94
488.607	610.94
488.825	594.94
489.043	590.94
489.261	590.94
489.479	600.94
489.696	604.94
489.914	621.94
490.132	603.94
490.35	604.94
490.568	631.94
490.786	636.94
491.003	661.94
491.221	657.94
491.439	646.94
491.657	672.94
491.874	657.94
492.092	656.94
492.31	664.94
492.527	637.94
492.745	659.94
492.963	657.94
493.18	672.94
493.398	672.94
493.615	704.94
493.833	679.94
494.05	682.94
494.268	683.94
494.485	692.94
494.703	703.94
494.92	707.94
495.138	699.94
495.355	683.94
495.573	694.94
495.79	712.94
496.008	696.94
496.225	687.94
496.442	719.94
496.66	700.94
496.877	704.94
497.094	717.94
497.312	726.94
497.529	709.94
497.746	719.94
497.963	739.94
498.181	788.94
498.398	775.94
498.615	801.94
498.832	802.94
499.049	808.94
499.267	854.94
499.484	878.94
499.701	904.94
499.918	906.94
500.135	976.94
500.352	1015.94
500.569	1017.94
500.786	1032.94
501.003	996.94
501.22	974.94
501.437	966.94
501.654	941.94
501.871	925.94
