Data from 1988.PennyLincolnUp.Lamp.En5.5.200Scan.071819.P2_HRD10591_17-19-42-972.txt Node
Date: Thu Jul 18 17:19:42 EDT 2019
User: cochatt
Spectrometer: HR+D1059
Trigger mode: 1
Integration Time (sec): 1.000000E-1
Scans to average: 1
Electric dark correction enabled: true
Nonlinearity correction enabled: false
Boxcar width: 0
XAxis mode: Wavelengths
Number of Pixels in Spectrum: 2048
>>>>>Begin Spectral Data<<<<<
223.165	-24.12
223.4	-24.12
223.635	-24.12
223.869	-21.12
224.104	-10.12
224.338	-14.12
224.573	-5.12
224.808	-18.12
225.042	-23.12
225.277	-9.12
225.511	8.88
225.746	-2.12
225.98	1.88
226.215	12.88
226.449	16.88
226.683	26.88
226.918	20.88
227.152	38.88
227.387	37.88
227.621	32.88
227.856	54.88
228.09	61.88
228.324	56.88
228.559	45.88
228.793	62.88
229.027	99.88
229.262	131.88
229.496	121.88
229.73	152.88
229.964	170.88
230.199	138.88
230.433	125.88
230.667	118.88
230.901	121.88
231.136	116.88
231.37	103.88
231.604	117.88
231.838	114.88
232.072	124.88
232.306	115.88
232.541	117.88
232.775	106.88
233.009	123.88
233.243	132.88
233.477	112.88
233.711	125.88
233.945	129.88
234.179	102.88
234.413	126.88
234.647	118.88
234.881	119.88
235.115	123.88
235.349	116.88
235.583	102.88
235.817	122.88
236.051	121.88
236.285	124.88
236.519	130.88
236.753	154.88
236.987	139.88
237.221	196.88
237.455	246.88
237.689	207.88
237.922	118.88
238.156	143.88
238.39	142.88
238.624	135.88
238.858	140.88
239.091	125.88
239.325	128.88
239.559	124.88
239.793	128.88
240.027	142.88
240.26	152.88
240.494	160.88
240.728	165.88
240.961	152.88
241.195	157.88
241.429	140.88
241.662	140.88
241.896	143.88
242.13	145.88
242.363	153.88
242.597	164.88
242.83	147.88
243.064	138.88
243.298	142.88
243.531	136.88
243.765	148.88
243.998	147.88
244.232	149.88
244.465	149.88
244.699	146.88
244.932	146.88
245.166	150.88
245.399	141.88
245.633	164.88
245.866	153.88
246.099	154.88
246.333	154.88
246.566	149.88
246.8	162.88
247.033	168.88
247.266	169.88
247.5	165.88
247.733	173.88
247.966	188.88
248.2	191.88
248.433	165.88
248.666	176.88
248.899	195.88
249.133	214.88
249.366	215.88
249.599	204.88
249.832	197.88
250.066	184.88
250.299	178.88
250.532	182.88
250.765	191.88
250.998	233.88
251.231	226.88
251.465	198.88
251.698	204.88
251.931	194.88
252.164	212.88
252.397	186.88
252.63	211.88
252.863	206.88
253.096	220.88
253.329	259.88
253.562	262.88
253.795	240.88
254.028	225.88
254.261	220.88
254.494	229.88
254.727	244.88
254.96	286.88
255.193	260.88
255.426	275.88
255.659	226.88
255.892	243.88
256.124	222.88
256.357	236.88
256.59	232.88
256.823	219.88
257.056	219.88
257.289	220.88
257.521	215.88
257.754	226.88
257.987	215.88
258.22	226.88
258.452	206.88
258.685	218.88
258.918	215.88
259.151	212.88
259.383	226.88
259.616	218.88
259.849	237.88
260.081	240.88
260.314	278.88
260.547	260.88
260.779	253.88
261.012	229.88
261.244	236.88
261.477	226.88
261.71	228.88
261.942	224.88
262.175	250.88
262.407	256.88
262.64	226.88
262.872	220.88
263.105	233.88
263.337	224.88
263.57	226.88
263.802	220.88
264.035	200.88
264.267	211.88
264.499	217.88
264.732	219.88
264.964	224.88
265.197	219.88
265.429	217.88
265.661	227.88
265.894	217.88
266.126	218.88
266.358	220.88
266.591	237.88
266.823	226.88
267.055	242.88
267.287	252.88
267.52	218.88
267.752	227.88
267.984	234.88
268.216	240.88
268.448	246.88
268.681	243.88
268.913	255.88
269.145	269.88
269.377	298.88
269.609	289.88
269.841	280.88
270.073	272.88
270.306	296.88
270.538	327.88
270.77	320.88
271.002	323.88
271.234	307.88
271.466	313.88
271.698	330.88
271.93	318.88
272.162	320.88
272.394	325.88
272.626	318.88
272.858	314.88
273.09	297.88
273.322	272.88
273.553	299.88
273.785	266.88
274.017	273.88
274.249	291.88
274.481	269.88
274.713	271.88
274.945	264.88
275.176	266.88
275.408	265.88
275.64	277.88
275.872	281.88
276.104	276.88
276.335	295.88
276.567	270.88
276.799	273.88
277.031	312.88
277.262	320.88
277.494	334.88
277.726	323.88
277.957	299.88
278.189	287.88
278.421	302.88
278.652	303.88
278.884	278.88
279.115	288.88
279.347	286.88
279.579	266.88
279.81	272.88
280.042	271.88
280.273	280.88
280.505	280.88
280.736	278.88
280.968	268.88
281.199	288.88
281.431	287.88
281.662	293.88
281.894	279.88
282.125	285.88
282.356	298.88
282.588	329.88
282.819	309.88
283.051	305.88
283.282	297.88
283.513	296.88
283.745	291.88
283.976	280.88
284.207	294.88
284.439	300.88
284.67	314.88
284.901	282.88
285.132	268.88
285.364	283.88
285.595	299.88
285.826	295.88
286.057	322.88
286.288	293.88
286.52	296.88
286.751	299.88
286.982	305.88
287.213	297.88
287.444	308.88
287.675	313.88
287.906	314.88
288.138	322.88
288.369	325.88
288.6	326.88
288.831	320.88
289.062	315.88
289.293	305.88
289.524	313.88
289.755	300.88
289.986	312.88
290.217	320.88
290.448	319.88
290.679	316.88
290.91	290.88
291.141	306.88
291.371	306.88
291.602	303.88
291.833	300.88
292.064	312.88
292.295	296.88
292.526	317.88
292.757	328.88
292.987	309.88
293.218	293.88
293.449	310.88
293.68	320.88
293.91	306.88
294.141	290.88
294.372	312.88
294.603	308.88
294.833	311.88
295.064	321.88
295.295	323.88
295.525	289.88
295.756	320.88
295.987	335.88
296.217	352.88
296.448	365.88
296.679	338.88
296.909	314.88
297.14	320.88
297.37	322.88
297.601	320.88
297.831	338.88
298.062	311.88
298.292	317.88
298.523	337.88
298.753	348.88
298.984	339.88
299.214	334.88
299.445	329.88
299.675	340.88
299.905	347.88
300.136	326.88
300.366	329.88
300.597	348.88
300.827	345.88
301.057	361.88
301.288	361.88
301.518	349.88
301.748	341.88
301.979	338.88
302.209	359.88
302.439	360.88
302.669	346.88
302.9	363.88
303.13	350.88
303.36	352.88
303.59	358.88
303.82	373.88
304.051	370.88
304.281	353.88
304.511	348.88
304.741	356.88
304.971	347.88
305.201	371.88
305.431	361.88
305.661	362.88
305.891	342.88
306.121	333.88
306.352	360.88
306.582	357.88
306.812	373.88
307.042	372.88
307.272	342.88
307.502	357.88
307.731	368.88
307.961	358.88
308.191	356.88
308.421	356.88
308.651	339.88
308.881	359.88
309.111	377.88
309.341	374.88
309.571	366.88
309.8	381.88
310.03	404.88
310.26	409.88
310.49	394.88
310.72	406.88
310.949	441.88
311.179	451.88
311.409	416.88
311.639	402.88
311.868	405.88
312.098	396.88
312.328	413.88
312.557	411.88
312.787	449.88
313.017	443.88
313.246	421.88
313.476	407.88
313.706	396.88
313.935	405.88
314.165	444.88
314.394	466.88
314.624	427.88
314.853	419.88
315.083	426.88
315.312	406.88
315.542	410.88
315.771	381.88
316.001	384.88
316.23	397.88
316.46	416.88
316.689	405.88
316.919	413.88
317.148	423.88
317.377	421.88
317.607	438.88
317.836	424.88
318.065	413.88
318.295	405.88
318.524	418.88
318.753	421.88
318.983	419.88
319.212	406.88
319.441	457.88
319.67	438.88
319.9	414.88
320.129	388.88
320.358	390.88
320.587	417.88
320.816	409.88
321.046	436.88
321.275	434.88
321.504	445.88
321.733	446.88
321.962	443.88
322.191	478.88
322.42	486.88
322.649	475.88
322.878	469.88
323.108	495.88
323.337	509.88
323.566	537.88
323.795	587.88
324.024	625.88
324.253	760.88
324.482	1049.88
324.71	1642.88
324.939	2450.88
325.168	2090.88
325.397	1081.88
325.626	737.88
325.855	618.88
326.084	568.88
326.313	570.88
326.542	551.88
326.77	604.88
326.999	690.88
327.228	942.88
327.457	1478.88
327.686	1819.88
327.914	1197.88
328.143	775.88
328.372	682.88
328.6	636.88
328.829	626.88
329.058	616.88
329.287	640.88
329.515	596.88
329.744	562.88
329.972	528.88
330.201	529.88
330.43	569.88
330.658	595.88
330.887	660.88
331.115	651.88
331.344	588.88
331.572	528.88
331.801	529.88
332.03	542.88
332.258	511.88
332.486	486.88
332.715	500.88
332.943	496.88
333.172	492.88
333.4	503.88
333.629	482.88
333.857	514.88
334.085	527.88
334.314	496.88
334.542	533.88
334.771	525.88
334.999	524.88
335.227	490.88
335.455	512.88
335.684	488.88
335.912	488.88
336.14	488.88
336.369	477.88
336.597	497.88
336.825	506.88
337.053	493.88
337.281	502.88
337.51	471.88
337.738	499.88
337.966	504.88
338.194	491.88
338.422	493.88
338.65	460.88
338.878	497.88
339.106	472.88
339.334	483.88
339.562	485.88
339.79	466.88
340.018	475.88
340.246	488.88
340.474	469.88
340.702	491.88
340.93	478.88
341.158	484.88
341.386	486.88
341.614	484.88
341.842	482.88
342.07	470.88
342.298	461.88
342.526	470.88
342.754	468.88
342.981	443.88
343.209	454.88
343.437	468.88
343.665	461.88
343.893	468.88
344.12	493.88
344.348	505.88
344.576	508.88
344.804	488.88
345.031	474.88
345.259	505.88
345.487	491.88
345.714	477.88
345.942	488.88
346.17	471.88
346.397	466.88
346.625	463.88
346.853	454.88
347.08	450.88
347.308	465.88
347.535	463.88
347.763	479.88
347.99	469.88
348.218	490.88
348.445	480.88
348.673	485.88
348.9	471.88
349.128	460.88
349.355	450.88
349.583	448.88
349.81	458.88
350.037	451.88
350.265	452.88
350.492	451.88
350.72	433.88
350.947	438.88
351.174	481.88
351.402	480.88
351.629	482.88
351.856	465.88
352.083	474.88
352.311	475.88
352.538	469.88
352.765	462.88
352.992	476.88
353.22	475.88
353.447	458.88
353.674	454.88
353.901	446.88
354.128	456.88
354.355	452.88
354.583	419.88
354.81	433.88
355.037	436.88
355.264	461.88
355.491	442.88
355.718	446.88
355.945	424.88
356.172	440.88
356.399	430.88
356.626	433.88
356.853	442.88
357.08	429.88
357.307	432.88
357.534	438.88
357.761	444.88
357.988	456.88
358.215	425.88
358.441	427.88
358.668	442.88
358.895	452.88
359.122	434.88
359.349	455.88
359.576	465.88
359.802	481.88
360.029	497.88
360.256	541.88
360.483	539.88
360.709	453.88
360.936	477.88
361.163	484.88
361.39	471.88
361.616	460.88
361.843	458.88
362.07	457.88
362.296	487.88
362.523	447.88
362.749	462.88
362.976	447.88
363.203	454.88
363.429	451.88
363.656	448.88
363.882	444.88
364.109	452.88
364.335	465.88
364.562	438.88
364.788	453.88
365.015	470.88
365.241	456.88
365.468	440.88
365.694	437.88
365.92	458.88
366.147	436.88
366.373	443.88
366.599	433.88
366.826	464.88
367.052	441.88
367.278	461.88
367.505	443.88
367.731	444.88
367.957	453.88
368.184	466.88
368.41	447.88
368.636	457.88
368.862	458.88
369.089	456.88
369.315	452.88
369.541	460.88
369.767	445.88
369.993	450.88
370.219	452.88
370.445	438.88
370.672	473.88
370.898	441.88
371.124	447.88
371.35	467.88
371.576	451.88
371.802	450.88
372.028	458.88
372.254	425.88
372.48	426.88
372.706	432.88
372.932	444.88
373.158	443.88
373.384	435.88
373.61	477.88
373.835	453.88
374.061	444.88
374.287	477.88
374.513	456.88
374.739	454.88
374.965	481.88
375.191	434.88
375.416	470.88
375.642	463.88
375.868	461.88
376.094	430.88
376.319	467.88
376.545	454.88
376.771	460.88
376.997	451.88
377.222	442.88
377.448	436.88
377.674	446.88
377.899	436.88
378.125	433.88
378.35	446.88
378.576	437.88
378.802	456.88
379.027	454.88
379.253	444.88
379.478	429.88
379.704	440.88
379.929	462.88
380.155	455.88
380.38	464.88
380.606	462.88
380.831	466.88
381.057	458.88
381.282	459.88
381.507	455.88
381.733	443.88
381.958	436.88
382.184	466.88
382.409	443.88
382.634	469.88
382.86	434.88
383.085	476.88
383.31	467.88
383.535	491.88
383.761	477.88
383.986	467.88
384.211	468.88
384.436	469.88
384.662	482.88
384.887	501.88
385.112	501.88
385.337	498.88
385.562	514.88
385.787	517.88
386.013	498.88
386.238	491.88
386.463	495.88
386.688	487.88
386.913	484.88
387.138	484.88
387.363	471.88
387.588	493.88
387.813	494.88
388.038	479.88
388.263	504.88
388.488	513.88
388.713	483.88
388.938	491.88
389.163	530.88
389.387	507.88
389.612	473.88
389.837	489.88
390.062	509.88
390.287	477.88
390.512	511.88
390.736	507.88
390.961	482.88
391.186	480.88
391.411	503.88
391.636	498.88
391.86	526.88
392.085	505.88
392.31	522.88
392.534	531.88
392.759	522.88
392.984	520.88
393.208	499.88
393.433	486.88
393.658	521.88
393.882	502.88
394.107	512.88
394.331	501.88
394.556	502.88
394.78	508.88
395.005	519.88
395.229	510.88
395.454	510.88
395.678	546.88
395.903	546.88
396.127	569.88
396.352	571.88
396.576	534.88
396.801	528.88
397.025	548.88
397.249	540.88
397.474	548.88
397.698	548.88
397.922	558.88
398.147	574.88
398.371	576.88
398.595	589.88
398.82	582.88
399.044	585.88
399.268	612.88
399.492	638.88
399.717	665.88
399.941	686.88
400.165	754.88
400.389	720.88
400.613	674.88
400.837	609.88
401.062	602.88
401.286	597.88
401.51	611.88
401.734	588.88
401.958	571.88
402.182	594.88
402.406	587.88
402.63	594.88
402.854	600.88
403.078	616.88
403.302	588.88
403.526	618.88
403.75	610.88
403.974	617.88
404.198	589.88
404.422	607.88
404.645	613.88
404.869	614.88
405.093	635.88
405.317	646.88
405.541	681.88
405.765	657.88
405.988	614.88
406.212	642.88
406.436	660.88
406.66	669.88
406.883	658.88
407.107	706.88
407.331	737.88
407.555	813.88
407.778	806.88
408.002	757.88
408.226	673.88
408.449	676.88
408.673	699.88
408.896	691.88
409.12	746.88
409.344	720.88
409.567	628.88
409.791	621.88
410.014	633.88
410.238	615.88
410.461	594.88
410.685	624.88
410.908	634.88
411.132	672.88
411.355	686.88
411.578	692.88
411.802	626.88
412.025	600.88
412.249	584.88
412.472	605.88
412.695	630.88
412.919	608.88
413.142	584.88
413.365	573.88
413.589	590.88
413.812	578.88
414.035	570.88
414.258	585.88
414.482	579.88
414.705	574.88
414.928	587.88
415.151	576.88
415.374	563.88
415.597	593.88
415.821	568.88
416.044	573.88
416.267	577.88
416.49	571.88
416.713	537.88
416.936	560.88
417.159	547.88
417.382	589.88
417.605	593.88
417.828	589.88
418.051	587.88
418.274	612.88
418.497	590.88
418.72	567.88
418.943	578.88
419.166	585.88
419.389	625.88
419.611	618.88
419.834	610.88
420.057	597.88
420.28	587.88
420.503	586.88
420.726	613.88
420.948	621.88
421.171	668.88
421.394	681.88
421.617	624.88
421.839	596.88
422.062	578.88
422.285	619.88
422.507	701.88
422.73	780.88
422.953	750.88
423.175	667.88
423.398	632.88
423.621	602.88
423.843	638.88
424.066	652.88
424.288	648.88
424.511	676.88
424.733	707.88
424.956	806.88
425.178	770.88
425.401	783.88
425.623	810.88
425.846	708.88
426.068	654.88
426.291	641.88
426.513	659.88
426.735	653.88
426.958	706.88
427.18	800.88
427.402	925.88
427.625	1018.88
427.847	898.88
428.069	756.88
428.292	677.88
428.514	656.88
428.736	620.88
428.958	648.88
429.181	608.88
429.403	609.88
429.625	595.88
429.847	626.88
430.069	718.88
430.292	714.88
430.514	639.88
430.736	599.88
430.958	597.88
431.18	566.88
431.402	567.88
431.624	551.88
431.846	556.88
432.068	575.88
432.29	570.88
432.512	573.88
432.734	558.88
432.956	581.88
433.178	596.88
433.4	554.88
433.622	550.88
433.844	562.88
434.066	556.88
434.287	570.88
434.509	562.88
434.731	584.88
434.953	593.88
435.175	592.88
435.397	625.88
435.618	648.88
435.84	690.88
436.062	803.88
436.284	878.88
436.505	758.88
436.727	661.88
436.949	599.88
437.17	610.88
437.392	601.88
437.614	603.88
437.835	660.88
438.057	742.88
438.278	873.88
438.5	890.88
438.721	964.88
438.943	925.88
439.165	722.88
439.386	683.88
439.608	655.88
439.829	651.88
440.05	662.88
440.272	733.88
440.493	692.88
440.715	645.88
440.936	620.88
441.158	634.88
441.379	610.88
441.6	627.88
441.822	651.88
442.043	688.88
442.264	810.88
442.486	842.88
442.707	733.88
442.928	667.88
443.149	714.88
443.371	707.88
443.592	728.88
443.813	843.88
444.034	923.88
444.255	747.88
444.476	685.88
444.698	670.88
444.919	668.88
445.14	762.88
445.361	724.88
445.582	694.88
445.803	778.88
446.024	894.88
446.245	876.88
446.466	800.88
446.687	696.88
446.908	655.88
447.129	614.88
447.35	594.88
447.571	584.88
447.792	588.88
448.013	610.88
448.234	615.88
448.455	659.88
448.675	813.88
448.896	928.88
449.117	787.88
449.338	741.88
449.559	906.88
449.779	1005.88
450	802.88
450.221	654.88
450.442	602.88
450.662	580.88
450.883	618.88
451.104	608.88
451.324	594.88
451.545	583.88
451.766	516.88
451.986	554.88
452.207	514.88
452.428	530.88
452.648	558.88
452.869	551.88
453.089	525.88
453.31	557.88
453.53	553.88
453.751	545.88
453.971	535.88
454.192	552.88
454.412	529.88
454.633	522.88
454.853	525.88
455.073	518.88
455.294	567.88
455.514	626.88
455.734	630.88
455.955	536.88
456.175	505.88
456.395	491.88
456.616	511.88
456.836	521.88
457.056	510.88
457.276	501.88
457.497	516.88
457.717	507.88
457.937	520.88
458.157	511.88
458.377	536.88
458.598	556.88
458.818	607.88
459.038	710.88
459.258	721.88
459.478	642.88
459.698	586.88
459.918	555.88
460.138	560.88
460.358	568.88
460.578	570.88
460.798	614.88
461.018	596.88
461.238	591.88
461.458	591.88
461.678	575.88
461.898	600.88
462.118	606.88
462.338	613.88
462.558	608.88
462.777	626.88
462.997	633.88
463.217	668.88
463.437	647.88
463.657	608.88
463.876	622.88
464.096	642.88
464.316	646.88
464.536	652.88
464.755	637.88
464.975	629.88
465.195	668.88
465.414	747.88
465.634	663.88
465.854	620.88
466.073	585.88
466.293	584.88
466.512	545.88
466.732	553.88
466.951	557.88
467.171	558.88
467.391	571.88
467.61	571.88
467.829	579.88
468.049	550.88
468.268	530.88
468.488	546.88
468.707	545.88
468.927	536.88
469.146	523.88
469.365	530.88
469.585	545.88
469.804	529.88
470.023	561.88
470.243	570.88
470.462	547.88
470.681	590.88
470.901	577.88
471.12	562.88
471.339	542.88
471.558	539.88
471.777	558.88
471.997	551.88
472.216	572.88
472.435	575.88
472.654	528.88
472.873	545.88
473.092	531.88
473.311	546.88
473.53	554.88
473.749	568.88
473.968	605.88
474.187	724.88
474.406	758.88
474.625	634.88
474.844	590.88
475.063	557.88
475.282	573.88
475.501	574.88
475.72	555.88
475.939	570.88
476.158	611.88
476.377	590.88
476.596	570.88
476.814	590.88
477.033	579.88
477.252	600.88
477.471	596.88
477.69	600.88
477.908	578.88
478.127	608.88
478.346	629.88
478.564	646.88
478.783	645.88
479.002	618.88
479.22	637.88
479.439	658.88
479.658	654.88
479.876	669.88
480.095	674.88
480.313	706.88
480.532	719.88
480.751	705.88
480.969	666.88
481.188	690.88
481.406	693.88
481.624	675.88
481.843	658.88
482.061	664.88
482.28	658.88
482.498	648.88
482.717	649.88
482.935	663.88
483.153	648.88
483.372	654.88
483.59	689.88
483.808	646.88
484.027	662.88
484.245	668.88
484.463	677.88
484.681	647.88
484.9	662.88
485.118	653.88
485.336	665.88
485.554	678.88
485.772	689.88
485.99	682.88
486.209	692.88
486.427	680.88
486.645	714.88
486.863	719.88
487.081	706.88
487.299	716.88
487.517	716.88
487.735	727.88
487.953	694.88
488.171	692.88
488.389	724.88
488.607	718.88
488.825	716.88
489.043	706.88
489.261	708.88
489.479	711.88
489.696	704.88
489.914	711.88
490.132	721.88
490.35	758.88
490.568	726.88
490.786	732.88
491.003	759.88
491.221	773.88
491.439	791.88
491.657	786.88
491.874	791.88
492.092	800.88
492.31	816.88
492.527	803.88
492.745	794.88
492.963	776.88
493.18	806.88
493.398	801.88
493.615	816.88
493.833	822.88
494.05	836.88
494.268	842.88
494.485	828.88
494.703	853.88
494.92	838.88
495.138	822.88
495.355	849.88
495.573	851.88
495.79	841.88
496.008	846.88
496.225	843.88
496.442	809.88
496.66	836.88
496.877	854.88
497.094	862.88
497.312	842.88
497.529	864.88
497.746	880.88
497.963	910.88
498.181	907.88
498.398	960.88
498.615	939.88
498.832	966.88
499.049	987.88
499.267	1027.88
499.484	1033.88
499.701	1086.88
499.918	1101.88
500.135	1144.88
500.352	1218.88
500.569	1227.88
500.786	1216.88
501.003	1196.88
501.22	1205.88
501.437	1097.88
501.654	1108.88
