Data from 1988.PennyLincolnUp.Lamp.En5.5.200Scan.071819.P2_HRD10591_17-19-51-971.txt Node
Date: Thu Jul 18 17:19:51 EDT 2019
User: cochatt
Spectrometer: HR+D1059
Trigger mode: 1
Integration Time (sec): 1.000000E-1
Scans to average: 1
Electric dark correction enabled: true
Nonlinearity correction enabled: false
Boxcar width: 0
XAxis mode: Wavelengths
Number of Pixels in Spectrum: 2048
>>>>>Begin Spectral Data<<<<<
223.165	-6.75
223.4	-6.75
223.635	-6.75
223.869	-18.75
224.104	-16.75
224.338	2.25
224.573	-27.75
224.808	-18.75
225.042	-5.75
225.277	-5.75
225.511	2.25
225.746	15.25
225.98	0.25
226.215	-0.75
226.449	1.25
226.683	14.25
226.918	34.25
227.152	31.25
227.387	26.25
227.621	44.25
227.856	43.25
228.09	45.25
228.324	42.25
228.559	53.25
228.793	70.25
229.027	110.25
229.262	108.25
229.496	135.25
229.73	127.25
229.964	158.25
230.199	135.25
230.433	125.25
230.667	112.25
230.901	131.25
231.136	114.25
231.37	105.25
231.604	117.25
231.838	123.25
232.072	114.25
232.306	115.25
232.541	117.25
232.775	116.25
233.009	122.25
233.243	121.25
233.477	95.25
233.711	108.25
233.945	111.25
234.179	119.25
234.413	123.25
234.647	128.25
234.881	109.25
235.115	120.25
235.349	109.25
235.583	123.25
235.817	129.25
236.051	133.25
236.285	137.25
236.519	125.25
236.753	134.25
236.987	138.25
237.221	196.25
237.455	254.25
237.689	183.25
237.922	148.25
238.156	138.25
238.39	116.25
238.624	125.25
238.858	128.25
239.091	128.25
239.325	132.25
239.559	146.25
239.793	123.25
240.027	130.25
240.26	146.25
240.494	161.25
240.728	167.25
240.961	146.25
241.195	149.25
241.429	153.25
241.662	140.25
241.896	141.25
242.13	132.25
242.363	130.25
242.597	134.25
242.83	140.25
243.064	145.25
243.298	151.25
243.531	141.25
243.765	148.25
243.998	145.25
244.232	159.25
244.465	153.25
244.699	152.25
244.932	145.25
245.166	144.25
245.399	167.25
245.633	157.25
245.866	157.25
246.099	160.25
246.333	143.25
246.566	141.25
246.8	170.25
247.033	159.25
247.266	175.25
247.5	179.25
247.733	180.25
247.966	159.25
248.2	189.25
248.433	175.25
248.666	173.25
248.899	195.25
249.133	209.25
249.366	235.25
249.599	214.25
249.832	197.25
250.066	192.25
250.299	171.25
250.532	209.25
250.765	205.25
250.998	217.25
251.231	223.25
251.465	218.25
251.698	207.25
251.931	224.25
252.164	211.25
252.397	220.25
252.63	217.25
252.863	192.25
253.096	206.25
253.329	235.25
253.562	223.25
253.795	223.25
254.028	223.25
254.261	204.25
254.494	221.25
254.727	249.25
254.96	287.25
255.193	299.25
255.426	256.25
255.659	259.25
255.892	238.25
256.124	224.25
256.357	229.25
256.59	223.25
256.823	224.25
257.056	221.25
257.289	220.25
257.521	233.25
257.754	216.25
257.987	207.25
258.22	207.25
258.452	218.25
258.685	216.25
258.918	221.25
259.151	204.25
259.383	225.25
259.616	211.25
259.849	242.25
260.081	265.25
260.314	261.25
260.547	260.25
260.779	271.25
261.012	246.25
261.244	231.25
261.477	225.25
261.71	211.25
261.942	249.25
262.175	245.25
262.407	249.25
262.64	225.25
262.872	232.25
263.105	238.25
263.337	241.25
263.57	220.25
263.802	236.25
264.035	216.25
264.267	225.25
264.499	221.25
264.732	230.25
264.964	219.25
265.197	224.25
265.429	218.25
265.661	240.25
265.894	223.25
266.126	224.25
266.358	228.25
266.591	247.25
266.823	232.25
267.055	233.25
267.287	241.25
267.52	248.25
267.752	227.25
267.984	245.25
268.216	249.25
268.448	253.25
268.681	258.25
268.913	282.25
269.145	275.25
269.377	290.25
269.609	290.25
269.841	281.25
270.073	288.25
270.306	285.25
270.538	346.25
270.77	325.25
271.002	300.25
271.234	314.25
271.466	297.25
271.698	305.25
271.93	333.25
272.162	339.25
272.394	328.25
272.626	297.25
272.858	307.25
273.09	285.25
273.322	295.25
273.553	288.25
273.785	308.25
274.017	292.25
274.249	283.25
274.481	273.25
274.713	270.25
274.945	267.25
275.176	275.25
275.408	263.25
275.64	275.25
275.872	281.25
276.104	256.25
276.335	265.25
276.567	277.25
276.799	298.25
277.031	314.25
277.262	344.25
277.494	352.25
277.726	332.25
277.957	305.25
278.189	288.25
278.421	311.25
278.652	285.25
278.884	277.25
279.115	277.25
279.347	282.25
279.579	284.25
279.81	269.25
280.042	255.25
280.273	291.25
280.505	280.25
280.736	260.25
280.968	267.25
281.199	279.25
281.431	295.25
281.662	287.25
281.894	299.25
282.125	291.25
282.356	309.25
282.588	326.25
282.819	324.25
283.051	292.25
283.282	269.25
283.513	282.25
283.745	295.25
283.976	289.25
284.207	309.25
284.439	297.25
284.67	304.25
284.901	295.25
285.132	307.25
285.364	281.25
285.595	289.25
285.826	283.25
286.057	295.25
286.288	296.25
286.52	308.25
286.751	307.25
286.982	291.25
287.213	305.25
287.444	287.25
287.675	299.25
287.906	336.25
288.138	307.25
288.369	325.25
288.6	321.25
288.831	307.25
289.062	313.25
289.293	316.25
289.524	308.25
289.755	325.25
289.986	304.25
290.217	318.25
290.448	297.25
290.679	309.25
290.91	322.25
291.141	303.25
291.371	303.25
291.602	321.25
291.833	292.25
292.064	309.25
292.295	300.25
292.526	309.25
292.757	325.25
292.987	320.25
293.218	322.25
293.449	315.25
293.68	321.25
293.91	296.25
294.141	291.25
294.372	307.25
294.603	317.25
294.833	323.25
295.064	311.25
295.295	313.25
295.525	327.25
295.756	320.25
295.987	325.25
296.217	361.25
296.448	364.25
296.679	326.25
296.909	324.25
297.14	337.25
297.37	330.25
297.601	329.25
297.831	303.25
298.062	324.25
298.292	331.25
298.523	332.25
298.753	332.25
298.984	337.25
299.214	323.25
299.445	349.25
299.675	343.25
299.905	344.25
300.136	340.25
300.366	340.25
300.597	343.25
300.827	353.25
301.057	333.25
301.288	345.25
301.518	346.25
301.748	348.25
301.979	354.25
302.209	347.25
302.439	358.25
302.669	348.25
302.9	342.25
303.13	354.25
303.36	343.25
303.59	364.25
303.82	368.25
304.051	363.25
304.281	356.25
304.511	364.25
304.741	366.25
304.971	348.25
305.201	358.25
305.431	364.25
305.661	365.25
305.891	371.25
306.121	367.25
306.352	370.25
306.582	389.25
306.812	357.25
307.042	362.25
307.272	359.25
307.502	345.25
307.731	360.25
307.961	359.25
308.191	375.25
308.421	360.25
308.651	366.25
308.881	371.25
309.111	378.25
309.341	378.25
309.571	359.25
309.8	382.25
310.03	390.25
310.26	405.25
310.49	411.25
310.72	406.25
310.949	437.25
311.179	418.25
311.409	421.25
311.639	410.25
311.868	423.25
312.098	433.25
312.328	429.25
312.557	433.25
312.787	451.25
313.017	435.25
313.246	444.25
313.476	395.25
313.706	403.25
313.935	406.25
314.165	410.25
314.394	425.25
314.624	438.25
314.853	420.25
315.083	418.25
315.312	390.25
315.542	426.25
315.771	407.25
316.001	408.25
316.23	401.25
316.46	405.25
316.689	403.25
316.919	420.25
317.148	425.25
317.377	421.25
317.607	413.25
317.836	411.25
318.065	397.25
318.295	420.25
318.524	420.25
318.753	398.25
318.983	410.25
319.212	419.25
319.441	404.25
319.67	417.25
319.9	413.25
320.129	420.25
320.358	414.25
320.587	415.25
320.816	440.25
321.046	449.25
321.275	447.25
321.504	444.25
321.733	435.25
321.962	439.25
322.191	466.25
322.42	490.25
322.649	485.25
322.878	489.25
323.108	488.25
323.337	549.25
323.566	535.25
323.795	593.25
324.024	619.25
324.253	760.25
324.482	1075.25
324.71	1726.25
324.939	2503.25
325.168	2173.25
325.397	1108.25
325.626	751.25
325.855	633.25
326.084	585.25
326.313	560.25
326.542	551.25
326.77	588.25
326.999	717.25
327.228	962.25
327.457	1507.25
327.686	1908.25
327.914	1233.25
328.143	773.25
328.372	662.25
328.6	623.25
328.829	589.25
329.058	620.25
329.287	632.25
329.515	600.25
329.744	545.25
329.972	552.25
330.201	549.25
330.43	573.25
330.658	597.25
330.887	643.25
331.115	646.25
331.344	559.25
331.572	543.25
331.801	540.25
332.03	555.25
332.258	531.25
332.486	490.25
332.715	499.25
332.943	473.25
333.172	499.25
333.4	494.25
333.629	485.25
333.857	503.25
334.085	531.25
334.314	514.25
334.542	514.25
334.771	547.25
334.999	498.25
335.227	511.25
335.455	483.25
335.684	503.25
335.912	471.25
336.14	502.25
336.369	485.25
336.597	529.25
336.825	492.25
337.053	481.25
337.281	497.25
337.51	480.25
337.738	491.25
337.966	465.25
338.194	499.25
338.422	486.25
338.65	507.25
338.878	503.25
339.106	481.25
339.334	472.25
339.562	477.25
339.79	450.25
340.018	483.25
340.246	459.25
340.474	474.25
340.702	477.25
340.93	471.25
341.158	464.25
341.386	482.25
341.614	500.25
341.842	474.25
342.07	492.25
342.298	491.25
342.526	463.25
342.754	465.25
342.981	459.25
343.209	442.25
343.437	458.25
343.665	461.25
343.893	480.25
344.12	492.25
344.348	506.25
344.576	469.25
344.804	468.25
345.031	476.25
345.259	505.25
345.487	469.25
345.714	468.25
345.942	490.25
346.17	469.25
346.397	446.25
346.625	463.25
346.853	467.25
347.08	456.25
347.308	469.25
347.535	473.25
347.763	487.25
347.99	487.25
348.218	477.25
348.445	479.25
348.673	464.25
348.9	468.25
349.128	464.25
349.355	454.25
349.583	447.25
349.81	458.25
350.037	469.25
350.265	459.25
350.492	466.25
350.72	440.25
350.947	448.25
351.174	463.25
351.402	473.25
351.629	471.25
351.856	474.25
352.083	482.25
352.311	486.25
352.538	505.25
352.765	469.25
352.992	481.25
353.22	458.25
353.447	463.25
353.674	477.25
353.901	441.25
354.128	465.25
354.355	435.25
354.583	454.25
354.81	441.25
355.037	440.25
355.264	440.25
355.491	458.25
355.718	434.25
355.945	435.25
356.172	436.25
356.399	443.25
356.626	431.25
356.853	432.25
357.08	435.25
357.307	427.25
357.534	423.25
357.761	426.25
357.988	454.25
358.215	428.25
358.441	449.25
358.668	444.25
358.895	461.25
359.122	461.25
359.349	444.25
359.576	464.25
359.802	486.25
360.029	543.25
360.256	530.25
360.483	513.25
360.709	492.25
360.936	503.25
361.163	472.25
361.39	475.25
361.616	464.25
361.843	469.25
362.07	486.25
362.296	442.25
362.523	459.25
362.749	458.25
362.976	456.25
363.203	472.25
363.429	466.25
363.656	464.25
363.882	431.25
364.109	436.25
364.335	458.25
364.562	452.25
364.788	452.25
365.015	460.25
365.241	446.25
365.468	455.25
365.694	455.25
365.92	467.25
366.147	463.25
366.373	455.25
366.599	435.25
366.826	446.25
367.052	423.25
367.278	453.25
367.505	456.25
367.731	476.25
367.957	456.25
368.184	448.25
368.41	461.25
368.636	495.25
368.862	472.25
369.089	448.25
369.315	459.25
369.541	459.25
369.767	460.25
369.993	451.25
370.219	445.25
370.445	458.25
370.672	449.25
370.898	457.25
371.124	430.25
371.35	436.25
371.576	451.25
371.802	452.25
372.028	447.25
372.254	450.25
372.48	431.25
372.706	454.25
372.932	458.25
373.158	456.25
373.384	440.25
373.61	443.25
373.835	445.25
374.061	453.25
374.287	458.25
374.513	476.25
374.739	461.25
374.965	487.25
375.191	470.25
375.416	441.25
375.642	452.25
375.868	469.25
376.094	446.25
376.319	458.25
376.545	480.25
376.771	455.25
376.997	438.25
377.222	465.25
377.448	442.25
377.674	453.25
377.899	454.25
378.125	443.25
378.35	449.25
378.576	462.25
378.802	472.25
379.027	461.25
379.253	447.25
379.478	447.25
379.704	434.25
379.929	442.25
380.155	480.25
380.38	455.25
380.606	467.25
380.831	454.25
381.057	448.25
381.282	457.25
381.507	462.25
381.733	479.25
381.958	464.25
382.184	442.25
382.409	457.25
382.634	456.25
382.86	455.25
383.085	472.25
383.31	466.25
383.535	471.25
383.761	495.25
383.986	477.25
384.211	480.25
384.436	468.25
384.662	483.25
384.887	483.25
385.112	476.25
385.337	481.25
385.562	480.25
385.787	496.25
386.013	527.25
386.238	514.25
386.463	523.25
386.688	503.25
386.913	520.25
387.138	490.25
387.363	478.25
387.588	504.25
387.813	472.25
388.038	487.25
388.263	499.25
388.488	511.25
388.713	527.25
388.938	514.25
389.163	509.25
389.387	491.25
389.612	516.25
389.837	483.25
390.062	475.25
390.287	515.25
390.512	497.25
390.736	505.25
390.961	499.25
391.186	501.25
391.411	504.25
391.636	535.25
391.86	512.25
392.085	522.25
392.31	525.25
392.534	527.25
392.759	535.25
392.984	531.25
393.208	495.25
393.433	520.25
393.658	519.25
393.882	500.25
394.107	505.25
394.331	526.25
394.556	505.25
394.78	524.25
395.005	504.25
395.229	523.25
395.454	512.25
395.678	551.25
395.903	551.25
396.127	562.25
396.352	567.25
396.576	542.25
396.801	546.25
397.025	554.25
397.249	551.25
397.474	552.25
397.698	539.25
397.922	572.25
398.147	550.25
398.371	577.25
398.595	578.25
398.82	582.25
399.044	590.25
399.268	609.25
399.492	642.25
399.717	659.25
399.941	719.25
400.165	727.25
400.389	724.25
400.613	678.25
400.837	641.25
401.062	609.25
401.286	598.25
401.51	579.25
401.734	587.25
401.958	590.25
402.182	596.25
402.406	602.25
402.63	581.25
402.854	587.25
403.078	602.25
403.302	622.25
403.526	611.25
403.75	641.25
403.974	598.25
404.198	601.25
404.422	587.25
404.645	637.25
404.869	595.25
405.093	639.25
405.317	646.25
405.541	686.25
405.765	633.25
405.988	623.25
406.212	652.25
406.436	649.25
406.66	687.25
406.883	682.25
407.107	705.25
407.331	723.25
407.555	821.25
407.778	828.25
408.002	745.25
408.226	713.25
408.449	676.25
408.673	665.25
408.896	684.25
409.12	736.25
409.344	709.25
409.567	647.25
409.791	644.25
410.014	620.25
410.238	620.25
410.461	599.25
410.685	627.25
410.908	649.25
411.132	677.25
411.355	701.25
411.578	677.25
411.802	636.25
412.025	599.25
412.249	621.25
412.472	613.25
412.695	623.25
412.919	622.25
413.142	588.25
413.365	577.25
413.589	582.25
413.812	576.25
414.035	554.25
414.258	576.25
414.482	576.25
414.705	578.25
414.928	580.25
415.151	565.25
415.374	569.25
415.597	589.25
415.821	566.25
416.044	567.25
416.267	577.25
416.49	586.25
416.713	571.25
416.936	562.25
417.159	561.25
417.382	591.25
417.605	585.25
417.828	581.25
418.051	617.25
418.274	579.25
418.497	587.25
418.72	592.25
418.943	571.25
419.166	592.25
419.389	603.25
419.611	598.25
419.834	604.25
420.057	611.25
420.28	597.25
420.503	582.25
420.726	584.25
420.948	603.25
421.171	653.25
421.394	701.25
421.617	626.25
421.839	591.25
422.062	599.25
422.285	625.25
422.507	677.25
422.73	766.25
422.953	728.25
423.175	659.25
423.398	649.25
423.621	627.25
423.843	659.25
424.066	642.25
424.288	660.25
424.511	669.25
424.733	727.25
424.956	833.25
425.178	804.25
425.401	802.25
425.623	839.25
425.846	675.25
426.068	675.25
426.291	627.25
426.513	648.25
426.735	699.25
426.958	695.25
427.18	786.25
427.402	957.25
427.625	1081.25
427.847	895.25
428.069	789.25
428.292	707.25
428.514	638.25
428.736	611.25
428.958	591.25
429.181	606.25
429.403	626.25
429.625	639.25
429.847	663.25
430.069	725.25
430.292	736.25
430.514	629.25
430.736	620.25
430.958	583.25
431.18	601.25
431.402	571.25
431.624	574.25
431.846	565.25
432.068	559.25
432.29	586.25
432.512	582.25
432.734	571.25
432.956	573.25
433.178	567.25
433.4	563.25
433.622	567.25
433.844	565.25
434.066	547.25
434.287	589.25
434.509	565.25
434.731	573.25
434.953	602.25
435.175	607.25
435.397	639.25
435.618	670.25
435.84	715.25
436.062	812.25
436.284	879.25
436.505	745.25
436.727	683.25
436.949	615.25
437.17	604.25
437.392	618.25
437.614	620.25
437.835	666.25
438.057	801.25
438.278	882.25
438.5	898.25
438.721	966.25
438.943	923.25
439.165	746.25
439.386	691.25
439.608	667.25
439.829	645.25
440.05	705.25
440.272	757.25
440.493	703.25
440.715	665.25
440.936	645.25
441.158	616.25
441.379	585.25
441.6	610.25
441.822	655.25
442.043	691.25
442.264	788.25
442.486	867.25
442.707	718.25
442.928	681.25
443.149	698.25
443.371	713.25
443.592	743.25
443.813	843.25
444.034	949.25
444.255	784.25
444.476	704.25
444.698	675.25
444.919	660.25
445.14	749.25
445.361	699.25
445.582	701.25
445.803	780.25
446.024	899.25
446.245	941.25
446.466	824.25
446.687	703.25
446.908	664.25
447.129	630.25
447.35	603.25
447.571	593.25
447.792	590.25
448.013	591.25
448.234	624.25
448.455	680.25
448.675	815.25
448.896	964.25
449.117	817.25
449.338	748.25
449.559	906.25
449.779	1005.25
450	827.25
450.221	684.25
450.442	628.25
450.662	581.25
450.883	608.25
451.104	615.25
451.324	587.25
451.545	579.25
451.766	549.25
451.986	548.25
452.207	540.25
452.428	531.25
452.648	545.25
452.869	541.25
453.089	541.25
453.31	566.25
453.53	572.25
453.751	568.25
453.971	528.25
454.192	572.25
454.412	559.25
454.633	547.25
454.853	508.25
455.073	519.25
455.294	555.25
455.514	638.25
455.734	618.25
455.955	540.25
456.175	517.25
456.395	511.25
456.616	509.25
456.836	512.25
457.056	519.25
457.276	513.25
457.497	516.25
457.717	508.25
457.937	528.25
458.157	519.25
458.377	550.25
458.598	574.25
458.818	602.25
459.038	707.25
459.258	712.25
459.478	628.25
459.698	601.25
459.918	577.25
460.138	586.25
460.358	591.25
460.578	595.25
460.798	587.25
461.018	602.25
461.238	582.25
461.458	594.25
461.678	581.25
461.898	600.25
462.118	600.25
462.338	582.25
462.558	633.25
462.777	629.25
462.997	645.25
463.217	647.25
463.437	642.25
463.657	632.25
463.876	623.25
464.096	627.25
464.316	605.25
464.536	635.25
464.755	636.25
464.975	629.25
465.195	669.25
465.414	753.25
465.634	653.25
465.854	625.25
466.073	586.25
466.293	577.25
466.512	592.25
466.732	565.25
466.951	535.25
467.171	537.25
467.391	588.25
467.61	551.25
467.829	567.25
468.049	556.25
468.268	537.25
468.488	543.25
468.707	529.25
468.927	549.25
469.146	552.25
469.365	552.25
469.585	541.25
469.804	540.25
470.023	559.25
470.243	578.25
470.462	563.25
470.681	592.25
470.901	572.25
471.12	581.25
471.339	560.25
471.558	580.25
471.777	585.25
471.997	553.25
472.216	575.25
472.435	539.25
472.654	541.25
472.873	555.25
473.092	544.25
473.311	548.25
473.53	570.25
473.749	569.25
473.968	614.25
474.187	729.25
474.406	749.25
474.625	651.25
474.844	593.25
475.063	573.25
475.282	555.25
475.501	566.25
475.72	570.25
475.939	601.25
476.158	587.25
476.377	573.25
476.596	600.25
476.814	601.25
477.033	597.25
477.252	609.25
477.471	615.25
477.69	609.25
477.908	587.25
478.127	623.25
478.346	626.25
478.564	632.25
478.783	629.25
479.002	646.25
479.22	625.25
479.439	664.25
479.658	668.25
479.876	686.25
480.095	667.25
480.313	721.25
480.532	700.25
480.751	666.25
480.969	709.25
481.188	711.25
481.406	684.25
481.624	679.25
481.843	657.25
482.061	670.25
482.28	659.25
482.498	663.25
482.717	655.25
482.935	687.25
483.153	644.25
483.372	660.25
483.59	662.25
483.808	652.25
484.027	669.25
484.245	663.25
484.463	672.25
484.681	663.25
484.9	652.25
485.118	656.25
485.336	685.25
485.554	707.25
485.772	700.25
485.99	668.25
486.209	683.25
486.427	688.25
486.645	678.25
486.863	709.25
487.081	708.25
487.299	701.25
487.517	718.25
487.735	690.25
487.953	711.25
488.171	734.25
488.389	704.25
488.607	725.25
488.825	739.25
489.043	700.25
489.261	711.25
489.479	710.25
489.696	709.25
489.914	728.25
490.132	737.25
490.35	763.25
490.568	737.25
490.786	758.25
491.003	744.25
491.221	763.25
491.439	781.25
491.657	800.25
491.874	777.25
492.092	809.25
492.31	819.25
492.527	819.25
492.745	804.25
492.963	807.25
493.18	819.25
493.398	827.25
493.615	839.25
493.833	816.25
494.05	841.25
494.268	863.25
494.485	827.25
494.703	823.25
494.92	840.25
495.138	827.25
495.355	819.25
495.573	829.25
495.79	856.25
496.008	844.25
496.225	856.25
496.442	871.25
496.66	842.25
496.877	853.25
497.094	851.25
497.312	888.25
497.529	860.25
497.746	906.25
497.963	887.25
498.181	925.25
498.398	934.25
498.615	929.25
498.832	969.25
499.049	1017.25
499.267	1011.25
499.484	1070.25
499.701	1059.25
499.918	1087.25
500.135	1149.25
500.352	1203.25
500.569	1209.25
500.786	1225.25
501.003	1219.25
501.22	1165.25
501.437	1135.25
501.654	1095.25
501.871	1113.25
