Data from 1988.PennyLincolnUp.Lamp.En5.5.200Scan.071819.P2_HRD10591_17-18-25-972.txt Node
Date: Thu Jul 18 17:18:25 EDT 2019
User: cochatt
Spectrometer: HR+D1059
Trigger mode: 1
Integration Time (sec): 1.000000E-1
Scans to average: 1
Electric dark correction enabled: true
Nonlinearity correction enabled: false
Boxcar width: 0
XAxis mode: Wavelengths
Number of Pixels in Spectrum: 2048
>>>>>Begin Spectral Data<<<<<
223.165	-9.56
223.4	-9.56
223.635	-9.56
223.869	-22.56
224.104	-18.56
224.338	-17.56
224.573	-10.56
224.808	-15.56
225.042	-24.56
225.277	5.44
225.511	2.44
225.746	-2.56
225.98	13.44
226.215	15.44
226.449	18.44
226.683	9.44
226.918	22.44
227.152	34.44
227.387	29.44
227.621	44.44
227.856	27.44
228.09	48.44
228.324	42.44
228.559	54.44
228.793	72.44
229.027	81.44
229.262	77.44
229.496	90.44
229.73	105.44
229.964	124.44
230.199	112.44
230.433	107.44
230.667	105.44
230.901	98.44
231.136	104.44
231.37	101.44
231.604	113.44
231.838	105.44
232.072	92.44
232.306	98.44
232.541	102.44
232.775	112.44
233.009	104.44
233.243	89.44
233.477	100.44
233.711	109.44
233.945	105.44
234.179	117.44
234.413	113.44
234.647	103.44
234.881	99.44
235.115	117.44
235.349	127.44
235.583	114.44
235.817	101.44
236.051	116.44
236.285	126.44
236.519	97.44
236.753	120.44
236.987	126.44
237.221	148.44
237.455	188.44
237.689	161.44
237.922	119.44
238.156	104.44
238.39	115.44
238.624	123.44
238.858	116.44
239.091	107.44
239.325	110.44
239.559	122.44
239.793	120.44
240.027	121.44
240.26	117.44
240.494	128.44
240.728	136.44
240.961	131.44
241.195	131.44
241.429	119.44
241.662	109.44
241.896	138.44
242.13	132.44
242.363	120.44
242.597	134.44
242.83	122.44
243.064	126.44
243.298	135.44
243.531	130.44
243.765	109.44
243.998	132.44
244.232	134.44
244.465	138.44
244.699	134.44
244.932	131.44
245.166	122.44
245.399	150.44
245.633	134.44
245.866	131.44
246.099	131.44
246.333	150.44
246.566	138.44
246.8	141.44
247.033	135.44
247.266	147.44
247.5	134.44
247.733	153.44
247.966	140.44
248.2	153.44
248.433	156.44
248.666	153.44
248.899	161.44
249.133	156.44
249.366	171.44
249.599	171.44
249.832	166.44
250.066	156.44
250.299	148.44
250.532	153.44
250.765	159.44
250.998	170.44
251.231	173.44
251.465	191.44
251.698	170.44
251.931	165.44
252.164	173.44
252.397	168.44
252.63	181.44
252.863	185.44
253.096	178.44
253.329	180.44
253.562	195.44
253.795	182.44
254.028	177.44
254.261	178.44
254.494	189.44
254.727	205.44
254.96	210.44
255.193	221.44
255.426	192.44
255.659	185.44
255.892	185.44
256.124	185.44
256.357	187.44
256.59	189.44
256.823	169.44
257.056	183.44
257.289	180.44
257.521	196.44
257.754	165.44
257.987	173.44
258.22	172.44
258.452	160.44
258.685	174.44
258.918	192.44
259.151	188.44
259.383	178.44
259.616	192.44
259.849	185.44
260.081	213.44
260.314	216.44
260.547	202.44
260.779	210.44
261.012	212.44
261.244	191.44
261.477	190.44
261.71	210.44
261.942	185.44
262.175	192.44
262.407	202.44
262.64	193.44
262.872	191.44
263.105	205.44
263.337	194.44
263.57	182.44
263.802	178.44
264.035	192.44
264.267	205.44
264.499	182.44
264.732	194.44
264.964	186.44
265.197	195.44
265.429	195.44
265.661	185.44
265.894	199.44
266.126	202.44
266.358	196.44
266.591	198.44
266.823	204.44
267.055	191.44
267.287	190.44
267.52	202.44
267.752	212.44
267.984	204.44
268.216	216.44
268.448	199.44
268.681	205.44
268.913	220.44
269.145	221.44
269.377	228.44
269.609	223.44
269.841	229.44
270.073	228.44
270.306	213.44
270.538	242.44
270.77	246.44
271.002	241.44
271.234	238.44
271.466	262.44
271.698	230.44
271.93	247.44
272.162	245.44
272.394	273.44
272.626	275.44
272.858	256.44
273.09	228.44
273.322	221.44
273.553	212.44
273.785	239.44
274.017	232.44
274.249	220.44
274.481	220.44
274.713	220.44
274.945	232.44
275.176	223.44
275.408	246.44
275.64	229.44
275.872	232.44
276.104	228.44
276.335	241.44
276.567	230.44
276.799	259.44
277.031	258.44
277.262	264.44
277.494	244.44
277.726	277.44
277.957	251.44
278.189	259.44
278.421	231.44
278.652	230.44
278.884	235.44
279.115	257.44
279.347	230.44
279.579	243.44
279.81	244.44
280.042	250.44
280.273	262.44
280.505	254.44
280.736	249.44
280.968	237.44
281.199	256.44
281.431	226.44
281.662	244.44
281.894	240.44
282.125	249.44
282.356	242.44
282.588	269.44
282.819	263.44
283.051	262.44
283.282	249.44
283.513	252.44
283.745	243.44
283.976	245.44
284.207	233.44
284.439	249.44
284.67	239.44
284.901	241.44
285.132	246.44
285.364	257.44
285.595	268.44
285.826	259.44
286.057	256.44
286.288	256.44
286.52	247.44
286.751	254.44
286.982	269.44
287.213	240.44
287.444	257.44
287.675	278.44
287.906	278.44
288.138	274.44
288.369	285.44
288.6	254.44
288.831	269.44
289.062	248.44
289.293	248.44
289.524	265.44
289.755	264.44
289.986	260.44
290.217	264.44
290.448	264.44
290.679	276.44
290.91	271.44
291.141	267.44
291.371	256.44
291.602	257.44
291.833	265.44
292.064	277.44
292.295	250.44
292.526	258.44
292.757	275.44
292.987	256.44
293.218	276.44
293.449	285.44
293.68	268.44
293.91	245.44
294.141	258.44
294.372	256.44
294.603	256.44
294.833	283.44
295.064	273.44
295.295	257.44
295.525	273.44
295.756	276.44
295.987	270.44
296.217	289.44
296.448	278.44
296.679	288.44
296.909	264.44
297.14	275.44
297.37	272.44
297.601	268.44
297.831	257.44
298.062	276.44
298.292	275.44
298.523	272.44
298.753	288.44
298.984	291.44
299.214	296.44
299.445	285.44
299.675	278.44
299.905	270.44
300.136	278.44
300.366	275.44
300.597	288.44
300.827	292.44
301.057	285.44
301.288	282.44
301.518	285.44
301.748	302.44
301.979	297.44
302.209	300.44
302.439	296.44
302.669	290.44
302.9	302.44
303.13	306.44
303.36	294.44
303.59	305.44
303.82	310.44
304.051	308.44
304.281	282.44
304.511	306.44
304.741	308.44
304.971	297.44
305.201	285.44
305.431	292.44
305.661	282.44
305.891	298.44
306.121	289.44
306.352	310.44
306.582	292.44
306.812	277.44
307.042	305.44
307.272	297.44
307.502	303.44
307.731	299.44
307.961	308.44
308.191	300.44
308.421	314.44
308.651	310.44
308.881	310.44
309.111	300.44
309.341	309.44
309.571	300.44
309.8	316.44
310.03	324.44
310.26	330.44
310.49	329.44
310.72	335.44
310.949	329.44
311.179	354.44
311.409	341.44
311.639	333.44
311.868	330.44
312.098	316.44
312.328	349.44
312.557	356.44
312.787	369.44
313.017	346.44
313.246	350.44
313.476	342.44
313.706	324.44
313.935	325.44
314.165	348.44
314.394	353.44
314.624	347.44
314.853	342.44
315.083	341.44
315.312	331.44
315.542	345.44
315.771	338.44
316.001	329.44
316.23	344.44
316.46	342.44
316.689	355.44
316.919	347.44
317.148	347.44
317.377	356.44
317.607	353.44
317.836	334.44
318.065	367.44
318.295	328.44
318.524	360.44
318.753	329.44
318.983	350.44
319.212	342.44
319.441	366.44
319.67	360.44
319.9	328.44
320.129	356.44
320.358	346.44
320.587	351.44
320.816	340.44
321.046	332.44
321.275	340.44
321.504	359.44
321.733	351.44
321.962	357.44
322.191	357.44
322.42	367.44
322.649	380.44
322.878	387.44
323.108	403.44
323.337	390.44
323.566	392.44
323.795	420.44
324.024	477.44
324.253	510.44
324.482	707.44
324.71	1030.44
324.939	1483.44
325.168	1309.44
325.397	688.44
325.626	477.44
325.855	442.44
326.084	416.44
326.313	411.44
326.542	425.44
326.77	445.44
326.999	508.44
327.228	643.44
327.457	922.44
327.686	1112.44
327.914	747.44
328.143	537.44
328.372	460.44
328.6	437.44
328.829	426.44
329.058	438.44
329.287	449.44
329.515	440.44
329.744	413.44
329.972	399.44
330.201	386.44
330.43	430.44
330.658	440.44
330.887	465.44
331.115	475.44
331.344	410.44
331.572	408.44
331.801	411.44
332.03	402.44
332.258	416.44
332.486	411.44
332.715	391.44
332.943	395.44
333.172	393.44
333.4	398.44
333.629	413.44
333.857	419.44
334.085	409.44
334.314	423.44
334.542	419.44
334.771	417.44
334.999	407.44
335.227	403.44
335.455	409.44
335.684	413.44
335.912	409.44
336.14	405.44
336.369	396.44
336.597	404.44
336.825	398.44
337.053	385.44
337.281	410.44
337.51	404.44
337.738	389.44
337.966	407.44
338.194	385.44
338.422	414.44
338.65	413.44
338.878	401.44
339.106	397.44
339.334	380.44
339.562	405.44
339.79	384.44
340.018	378.44
340.246	391.44
340.474	377.44
340.702	382.44
340.93	406.44
341.158	377.44
341.386	393.44
341.614	393.44
341.842	396.44
342.07	391.44
342.298	385.44
342.526	380.44
342.754	386.44
342.981	392.44
343.209	394.44
343.437	388.44
343.665	388.44
343.893	403.44
344.12	415.44
344.348	404.44
344.576	387.44
344.804	403.44
345.031	412.44
345.259	406.44
345.487	402.44
345.714	385.44
345.942	363.44
346.17	377.44
346.397	384.44
346.625	398.44
346.853	378.44
347.08	365.44
347.308	379.44
347.535	370.44
347.763	372.44
347.99	397.44
348.218	390.44
348.445	386.44
348.673	384.44
348.9	385.44
349.128	390.44
349.355	382.44
349.583	359.44
349.81	372.44
350.037	371.44
350.265	378.44
350.492	380.44
350.72	365.44
350.947	356.44
351.174	368.44
351.402	384.44
351.629	376.44
351.856	381.44
352.083	392.44
352.311	372.44
352.538	391.44
352.765	370.44
352.992	379.44
353.22	384.44
353.447	381.44
353.674	373.44
353.901	372.44
354.128	350.44
354.355	360.44
354.583	359.44
354.81	365.44
355.037	353.44
355.264	361.44
355.491	356.44
355.718	347.44
355.945	355.44
356.172	354.44
356.399	371.44
356.626	356.44
356.853	376.44
357.08	361.44
357.307	368.44
357.534	376.44
357.761	379.44
357.988	349.44
358.215	354.44
358.441	344.44
358.668	328.44
358.895	361.44
359.122	379.44
359.349	388.44
359.576	396.44
359.802	395.44
360.029	400.44
360.256	399.44
360.483	383.44
360.709	365.44
360.936	346.44
361.163	373.44
361.39	393.44
361.616	394.44
361.843	383.44
362.07	349.44
362.296	366.44
362.523	350.44
362.749	359.44
362.976	362.44
363.203	373.44
363.429	361.44
363.656	392.44
363.882	370.44
364.109	379.44
364.335	382.44
364.562	356.44
364.788	362.44
365.015	393.44
365.241	360.44
365.468	375.44
365.694	384.44
365.92	373.44
366.147	368.44
366.373	368.44
366.599	375.44
366.826	388.44
367.052	355.44
367.278	367.44
367.505	370.44
367.731	365.44
367.957	360.44
368.184	391.44
368.41	379.44
368.636	405.44
368.862	402.44
369.089	378.44
369.315	360.44
369.541	378.44
369.767	358.44
369.993	364.44
370.219	385.44
370.445	384.44
370.672	368.44
370.898	395.44
371.124	353.44
371.35	384.44
371.576	364.44
371.802	396.44
372.028	370.44
372.254	396.44
372.48	378.44
372.706	382.44
372.932	370.44
373.158	366.44
373.384	388.44
373.61	381.44
373.835	390.44
374.061	394.44
374.287	364.44
374.513	364.44
374.739	396.44
374.965	379.44
375.191	366.44
375.416	394.44
375.642	376.44
375.868	380.44
376.094	403.44
376.319	377.44
376.545	378.44
376.771	375.44
376.997	372.44
377.222	368.44
377.448	373.44
377.674	388.44
377.899	368.44
378.125	378.44
378.35	360.44
378.576	372.44
378.802	372.44
379.027	358.44
379.253	372.44
379.478	372.44
379.704	360.44
379.929	372.44
380.155	374.44
380.38	369.44
380.606	362.44
380.831	394.44
381.057	378.44
381.282	390.44
381.507	378.44
381.733	377.44
381.958	390.44
382.184	380.44
382.409	411.44
382.634	383.44
382.86	388.44
383.085	377.44
383.31	386.44
383.535	395.44
383.761	414.44
383.986	415.44
384.211	394.44
384.436	423.44
384.662	398.44
384.887	407.44
385.112	424.44
385.337	424.44
385.562	395.44
385.787	417.44
386.013	405.44
386.238	422.44
386.463	426.44
386.688	437.44
386.913	417.44
387.138	410.44
387.363	414.44
387.588	417.44
387.813	429.44
388.038	443.44
388.263	438.44
388.488	424.44
388.713	410.44
388.938	404.44
389.163	416.44
389.387	410.44
389.612	423.44
389.837	421.44
390.062	411.44
390.287	405.44
390.512	428.44
390.736	407.44
390.961	405.44
391.186	432.44
391.411	398.44
391.636	424.44
391.86	443.44
392.085	438.44
392.31	448.44
392.534	427.44
392.759	446.44
392.984	433.44
393.208	427.44
393.433	454.44
393.658	453.44
393.882	404.44
394.107	421.44
394.331	417.44
394.556	414.44
394.78	422.44
395.005	429.44
395.229	410.44
395.454	421.44
395.678	426.44
395.903	452.44
396.127	469.44
396.352	461.44
396.576	424.44
396.801	433.44
397.025	456.44
397.249	439.44
397.474	447.44
397.698	456.44
397.922	485.44
398.147	479.44
398.371	497.44
398.595	473.44
398.82	461.44
399.044	470.44
399.268	505.44
399.492	541.44
399.717	569.44
399.941	587.44
400.165	590.44
400.389	597.44
400.613	531.44
400.837	518.44
401.062	502.44
401.286	505.44
401.51	488.44
401.734	485.44
401.958	476.44
402.182	468.44
402.406	464.44
402.63	498.44
402.854	477.44
403.078	483.44
403.302	509.44
403.526	496.44
403.75	498.44
403.974	492.44
404.198	483.44
404.422	491.44
404.645	493.44
404.869	499.44
405.093	503.44
405.317	520.44
405.541	544.44
405.765	529.44
405.988	511.44
406.212	516.44
406.436	519.44
406.66	550.44
406.883	506.44
407.107	551.44
407.331	571.44
407.555	633.44
407.778	623.44
408.002	588.44
408.226	553.44
408.449	559.44
408.673	556.44
408.896	576.44
409.12	601.44
409.344	576.44
409.567	515.44
409.791	496.44
410.014	489.44
410.238	503.44
410.461	507.44
410.685	517.44
410.908	502.44
411.132	523.44
411.355	566.44
411.578	542.44
411.802	507.44
412.025	488.44
412.249	483.44
412.472	513.44
412.695	492.44
412.919	496.44
413.142	478.44
413.365	489.44
413.589	490.44
413.812	477.44
414.035	465.44
414.258	450.44
414.482	452.44
414.705	470.44
414.928	475.44
415.151	482.44
415.374	487.44
415.597	487.44
415.821	451.44
416.044	467.44
416.267	459.44
416.49	444.44
416.713	461.44
416.936	462.44
417.159	466.44
417.382	465.44
417.605	470.44
417.828	487.44
418.051	471.44
418.274	482.44
418.497	461.44
418.72	452.44
418.943	475.44
419.166	484.44
419.389	517.44
419.611	512.44
419.834	505.44
420.057	504.44
420.28	476.44
420.503	472.44
420.726	467.44
420.948	473.44
421.171	524.44
421.394	555.44
421.617	478.44
421.839	469.44
422.062	481.44
422.285	499.44
422.507	533.44
422.73	605.44
422.953	589.44
423.175	524.44
423.398	502.44
423.621	499.44
423.843	518.44
424.066	499.44
424.288	503.44
424.511	535.44
424.733	574.44
424.956	616.44
425.178	590.44
425.401	594.44
425.623	605.44
425.846	536.44
426.068	519.44
426.291	512.44
426.513	526.44
426.735	496.44
426.958	508.44
427.18	618.44
427.402	734.44
427.625	800.44
427.847	642.44
428.069	562.44
428.292	524.44
428.514	499.44
428.736	482.44
428.958	474.44
429.181	455.44
429.403	467.44
429.625	469.44
429.847	493.44
430.069	554.44
430.292	557.44
430.514	485.44
430.736	468.44
430.958	451.44
431.18	453.44
431.402	477.44
431.624	452.44
431.846	460.44
432.068	448.44
432.29	450.44
432.512	450.44
432.734	452.44
432.956	474.44
433.178	469.44
433.4	450.44
433.622	484.44
433.844	462.44
434.066	471.44
434.287	438.44
434.509	476.44
434.731	461.44
434.953	466.44
435.175	482.44
435.397	491.44
435.618	513.44
435.84	553.44
436.062	629.44
436.284	681.44
436.505	581.44
436.727	522.44
436.949	490.44
437.17	464.44
437.392	469.44
437.614	468.44
437.835	490.44
438.057	575.44
438.278	655.44
438.5	658.44
438.721	700.44
438.943	693.44
439.165	564.44
439.386	520.44
439.608	524.44
439.829	511.44
440.05	528.44
440.272	547.44
440.493	525.44
440.715	500.44
440.936	491.44
441.158	487.44
441.379	486.44
441.6	473.44
441.822	490.44
442.043	537.44
442.264	609.44
442.486	625.44
442.707	563.44
442.928	519.44
443.149	520.44
443.371	547.44
443.592	591.44
443.813	653.44
444.034	707.44
444.255	583.44
444.476	548.44
444.698	518.44
444.919	518.44
445.14	630.44
445.361	568.44
445.582	546.44
445.803	579.44
446.024	659.44
446.245	680.44
446.466	613.44
446.687	536.44
446.908	517.44
447.129	512.44
447.35	477.44
447.571	473.44
447.792	457.44
448.013	474.44
448.234	460.44
448.455	495.44
448.675	624.44
448.896	710.44
449.117	620.44
449.338	585.44
449.559	680.44
449.779	772.44
450	602.44
450.221	502.44
450.442	486.44
450.662	470.44
450.883	440.44
451.104	445.44
451.324	438.44
451.545	432.44
451.766	434.44
451.986	421.44
452.207	410.44
452.428	429.44
452.648	425.44
452.869	434.44
453.089	430.44
453.31	440.44
453.53	430.44
453.751	422.44
453.971	421.44
454.192	428.44
454.412	428.44
454.633	425.44
454.853	414.44
455.073	409.44
455.294	458.44
455.514	461.44
455.734	471.44
455.955	437.44
456.175	414.44
456.395	403.44
456.616	404.44
456.836	395.44
457.056	412.44
457.276	386.44
457.497	398.44
457.717	411.44
457.937	406.44
458.157	407.44
458.377	430.44
458.598	446.44
458.818	466.44
459.038	518.44
459.258	540.44
459.478	502.44
459.698	456.44
459.918	441.44
460.138	456.44
460.358	448.44
460.578	474.44
460.798	476.44
461.018	476.44
461.238	489.44
461.458	498.44
461.678	477.44
461.898	491.44
462.118	476.44
462.338	483.44
462.558	502.44
462.777	507.44
462.997	512.44
463.217	516.44
463.437	516.44
463.657	508.44
463.876	520.44
464.096	520.44
464.316	520.44
464.536	536.44
464.755	522.44
464.975	499.44
465.195	514.44
465.414	544.44
465.634	507.44
465.854	481.44
466.073	479.44
466.293	469.44
466.512	457.44
466.732	445.44
466.951	453.44
467.171	465.44
467.391	424.44
467.61	448.44
467.829	444.44
468.049	462.44
468.268	452.44
468.488	420.44
468.707	437.44
468.927	446.44
469.146	459.44
469.365	442.44
469.585	439.44
469.804	439.44
470.023	458.44
470.243	454.44
470.462	459.44
470.681	470.44
470.901	452.44
471.12	448.44
471.339	440.44
471.558	452.44
471.777	440.44
471.997	452.44
472.216	434.44
472.435	440.44
472.654	430.44
472.873	442.44
473.092	425.44
473.311	432.44
473.53	436.44
473.749	468.44
473.968	491.44
474.187	567.44
474.406	562.44
474.625	483.44
474.844	495.44
475.063	468.44
475.282	445.44
475.501	450.44
475.72	477.44
475.939	482.44
476.158	466.44
476.377	464.44
476.596	475.44
476.814	458.44
477.033	482.44
477.252	454.44
477.471	496.44
477.69	506.44
477.908	491.44
478.127	484.44
478.346	508.44
478.564	486.44
478.783	484.44
479.002	508.44
479.22	519.44
479.439	532.44
479.658	532.44
479.876	540.44
480.095	544.44
480.313	551.44
480.532	565.44
480.751	560.44
480.969	555.44
481.188	556.44
481.406	568.44
481.624	555.44
481.843	539.44
482.061	557.44
482.28	517.44
482.498	518.44
482.717	535.44
482.935	518.44
483.153	522.44
483.372	522.44
483.59	525.44
483.808	539.44
484.027	536.44
484.245	526.44
484.463	533.44
484.681	551.44
484.9	536.44
485.118	540.44
485.336	542.44
485.554	565.44
485.772	562.44
485.99	522.44
486.209	541.44
486.427	555.44
486.645	551.44
486.863	558.44
487.081	573.44
487.299	571.44
487.517	569.44
487.735	556.44
487.953	566.44
488.171	580.44
488.389	557.44
488.607	573.44
488.825	579.44
489.043	555.44
489.261	561.44
489.479	570.44
489.696	568.44
489.914	600.44
490.132	586.44
490.35	574.44
490.568	574.44
490.786	620.44
491.003	605.44
491.221	631.44
491.439	628.44
491.657	612.44
491.874	611.44
492.092	622.44
492.31	623.44
492.527	628.44
492.745	631.44
492.963	642.44
493.18	618.44
493.398	622.44
493.615	628.44
493.833	647.44
494.05	640.44
494.268	630.44
494.485	644.44
494.703	640.44
494.92	661.44
495.138	643.44
495.355	663.44
495.573	655.44
495.79	659.44
496.008	667.44
496.225	651.44
496.442	644.44
496.66	675.44
496.877	683.44
497.094	684.44
497.312	681.44
497.529	693.44
497.746	697.44
497.963	705.44
498.181	698.44
498.398	721.44
498.615	768.44
498.832	776.44
499.049	777.44
499.267	803.44
499.484	811.44
499.701	854.44
499.918	873.44
500.135	956.44
500.352	946.44
500.569	978.44
500.786	998.44
501.003	947.44
501.22	922.44
501.437	884.44
501.654	871.44
501.871	832.44
502.088	833.44
