Data from 1988.PennyLincolnUp.Lamp.En5.5.200Scan.071819.P2_HRD10591_17-18-36-973.txt Node
Date: Thu Jul 18 17:18:36 EDT 2019
User: cochatt
Spectrometer: HR+D1059
Trigger mode: 1
Integration Time (sec): 1.000000E-1
Scans to average: 1
Electric dark correction enabled: true
Nonlinearity correction enabled: false
Boxcar width: 0
XAxis mode: Wavelengths
Number of Pixels in Spectrum: 2048
>>>>>Begin Spectral Data<<<<<
223.165	-15.88
223.4	-15.88
223.635	-15.88
223.869	-34.88
224.104	-24.88
224.338	-12.88
224.573	-29.88
224.808	-2.88
225.042	-11.88
225.277	2.12
225.511	-4.88
225.746	12.12
225.98	10.12
226.215	19.12
226.449	14.12
226.683	15.12
226.918	34.12
227.152	31.12
227.387	49.12
227.621	27.12
227.856	53.12
228.09	49.12
228.324	47.12
228.559	69.12
228.793	65.12
229.027	98.12
229.262	91.12
229.496	119.12
229.73	124.12
229.964	137.12
230.199	133.12
230.433	121.12
230.667	111.12
230.901	109.12
231.136	112.12
231.37	100.12
231.604	109.12
231.838	118.12
232.072	102.12
232.306	124.12
232.541	117.12
232.775	118.12
233.009	120.12
233.243	101.12
233.477	111.12
233.711	110.12
233.945	119.12
234.179	115.12
234.413	114.12
234.647	115.12
234.881	105.12
235.115	125.12
235.349	115.12
235.583	121.12
235.817	115.12
236.051	126.12
236.285	116.12
236.519	108.12
236.753	126.12
236.987	131.12
237.221	154.12
237.455	207.12
237.689	175.12
237.922	140.12
238.156	123.12
238.39	116.12
238.624	115.12
238.858	117.12
239.091	124.12
239.325	134.12
239.559	141.12
239.793	119.12
240.027	129.12
240.26	125.12
240.494	148.12
240.728	132.12
240.961	142.12
241.195	137.12
241.429	141.12
241.662	128.12
241.896	111.12
242.13	143.12
242.363	119.12
242.597	133.12
242.83	128.12
243.064	137.12
243.298	146.12
243.531	138.12
243.765	143.12
243.998	131.12
244.232	122.12
244.465	144.12
244.699	137.12
244.932	144.12
245.166	141.12
245.399	149.12
245.633	142.12
245.866	141.12
246.099	144.12
246.333	142.12
246.566	149.12
246.8	149.12
247.033	147.12
247.266	150.12
247.5	159.12
247.733	154.12
247.966	153.12
248.2	164.12
248.433	161.12
248.666	165.12
248.899	177.12
249.133	166.12
249.366	202.12
249.599	180.12
249.832	151.12
250.066	179.12
250.299	165.12
250.532	174.12
250.765	180.12
250.998	196.12
251.231	205.12
251.465	194.12
251.698	186.12
251.931	195.12
252.164	171.12
252.397	196.12
252.63	180.12
252.863	198.12
253.096	196.12
253.329	197.12
253.562	201.12
253.795	201.12
254.028	192.12
254.261	204.12
254.494	203.12
254.727	226.12
254.96	261.12
255.193	237.12
255.426	218.12
255.659	215.12
255.892	201.12
256.124	190.12
256.357	195.12
256.59	205.12
256.823	191.12
257.056	197.12
257.289	190.12
257.521	194.12
257.754	201.12
257.987	194.12
258.22	201.12
258.452	189.12
258.685	203.12
258.918	191.12
259.151	190.12
259.383	208.12
259.616	188.12
259.849	218.12
260.081	217.12
260.314	233.12
260.547	236.12
260.779	239.12
261.012	210.12
261.244	228.12
261.477	198.12
261.71	192.12
261.942	219.12
262.175	224.12
262.407	213.12
262.64	189.12
262.872	203.12
263.105	204.12
263.337	209.12
263.57	201.12
263.802	194.12
264.035	210.12
264.267	214.12
264.499	219.12
264.732	195.12
264.964	214.12
265.197	208.12
265.429	209.12
265.661	199.12
265.894	210.12
266.126	215.12
266.358	203.12
266.591	213.12
266.823	204.12
267.055	213.12
267.287	213.12
267.52	214.12
267.752	221.12
267.984	195.12
268.216	213.12
268.448	220.12
268.681	220.12
268.913	233.12
269.145	245.12
269.377	261.12
269.609	248.12
269.841	233.12
270.073	245.12
270.306	254.12
270.538	282.12
270.77	286.12
271.002	290.12
271.234	267.12
271.466	282.12
271.698	282.12
271.93	288.12
272.162	288.12
272.394	278.12
272.626	286.12
272.858	259.12
273.09	261.12
273.322	261.12
273.553	248.12
273.785	245.12
274.017	248.12
274.249	222.12
274.481	248.12
274.713	235.12
274.945	259.12
275.176	263.12
275.408	266.12
275.64	260.12
275.872	233.12
276.104	238.12
276.335	255.12
276.567	251.12
276.799	259.12
277.031	283.12
277.262	287.12
277.494	280.12
277.726	276.12
277.957	268.12
278.189	273.12
278.421	254.12
278.652	258.12
278.884	241.12
279.115	239.12
279.347	253.12
279.579	250.12
279.81	249.12
280.042	261.12
280.273	251.12
280.505	259.12
280.736	251.12
280.968	242.12
281.199	231.12
281.431	261.12
281.662	256.12
281.894	256.12
282.125	250.12
282.356	270.12
282.588	296.12
282.819	308.12
283.051	276.12
283.282	259.12
283.513	253.12
283.745	255.12
283.976	250.12
284.207	250.12
284.439	262.12
284.67	270.12
284.901	262.12
285.132	278.12
285.364	262.12
285.595	261.12
285.826	266.12
286.057	268.12
286.288	284.12
286.52	257.12
286.751	262.12
286.982	259.12
287.213	258.12
287.444	261.12
287.675	257.12
287.906	285.12
288.138	286.12
288.369	275.12
288.6	277.12
288.831	288.12
289.062	286.12
289.293	302.12
289.524	267.12
289.755	281.12
289.986	274.12
290.217	277.12
290.448	264.12
290.679	266.12
290.91	275.12
291.141	282.12
291.371	291.12
291.602	279.12
291.833	271.12
292.064	271.12
292.295	256.12
292.526	286.12
292.757	302.12
292.987	286.12
293.218	286.12
293.449	293.12
293.68	288.12
293.91	289.12
294.141	270.12
294.372	281.12
294.603	284.12
294.833	286.12
295.064	271.12
295.295	292.12
295.525	307.12
295.756	273.12
295.987	284.12
296.217	316.12
296.448	327.12
296.679	283.12
296.909	305.12
297.14	296.12
297.37	285.12
297.601	281.12
297.831	280.12
298.062	292.12
298.292	283.12
298.523	298.12
298.753	290.12
298.984	287.12
299.214	302.12
299.445	306.12
299.675	313.12
299.905	291.12
300.136	309.12
300.366	286.12
300.597	283.12
300.827	326.12
301.057	312.12
301.288	317.12
301.518	321.12
301.748	317.12
301.979	324.12
302.209	319.12
302.439	308.12
302.669	292.12
302.9	312.12
303.13	321.12
303.36	319.12
303.59	320.12
303.82	341.12
304.051	347.12
304.281	332.12
304.511	313.12
304.741	317.12
304.971	333.12
305.201	314.12
305.431	301.12
305.661	307.12
305.891	328.12
306.121	326.12
306.352	332.12
306.582	301.12
306.812	307.12
307.042	307.12
307.272	323.12
307.502	312.12
307.731	332.12
307.961	336.12
308.191	317.12
308.421	314.12
308.651	328.12
308.881	315.12
309.111	346.12
309.341	334.12
309.571	341.12
309.8	341.12
310.03	371.12
310.26	366.12
310.49	345.12
310.72	365.12
310.949	372.12
311.179	371.12
311.409	365.12
311.639	352.12
311.868	346.12
312.098	362.12
312.328	361.12
312.557	376.12
312.787	399.12
313.017	401.12
313.246	364.12
313.476	355.12
313.706	364.12
313.935	365.12
314.165	387.12
314.394	383.12
314.624	388.12
314.853	370.12
315.083	356.12
315.312	368.12
315.542	367.12
315.771	367.12
316.001	364.12
316.23	373.12
316.46	349.12
316.689	375.12
316.919	356.12
317.148	371.12
317.377	372.12
317.607	370.12
317.836	353.12
318.065	373.12
318.295	375.12
318.524	355.12
318.753	350.12
318.983	356.12
319.212	381.12
319.441	385.12
319.67	381.12
319.9	363.12
320.129	370.12
320.358	373.12
320.587	374.12
320.816	379.12
321.046	392.12
321.275	375.12
321.504	376.12
321.733	400.12
321.962	407.12
322.191	418.12
322.42	411.12
322.649	438.12
322.878	433.12
323.108	421.12
323.337	434.12
323.566	453.12
323.795	499.12
324.024	510.12
324.253	596.12
324.482	872.12
324.71	1317.12
324.939	1853.12
325.168	1641.12
325.397	846.12
325.626	574.12
325.855	499.12
326.084	478.12
326.313	478.12
326.542	464.12
326.77	536.12
326.999	603.12
327.228	801.12
327.457	1173.12
327.686	1426.12
327.914	969.12
328.143	641.12
328.372	545.12
328.6	523.12
328.829	512.12
329.058	518.12
329.287	525.12
329.515	490.12
329.744	457.12
329.972	445.12
330.201	458.12
330.43	476.12
330.658	501.12
330.887	540.12
331.115	547.12
331.344	478.12
331.572	478.12
331.801	445.12
332.03	454.12
332.258	437.12
332.486	438.12
332.715	427.12
332.943	405.12
333.172	444.12
333.4	430.12
333.629	425.12
333.857	438.12
334.085	441.12
334.314	463.12
334.542	451.12
334.771	454.12
334.999	462.12
335.227	433.12
335.455	450.12
335.684	437.12
335.912	457.12
336.14	434.12
336.369	430.12
336.597	419.12
336.825	436.12
337.053	447.12
337.281	426.12
337.51	419.12
337.738	423.12
337.966	445.12
338.194	440.12
338.422	439.12
338.65	418.12
338.878	405.12
339.106	413.12
339.334	423.12
339.562	411.12
339.79	403.12
340.018	429.12
340.246	400.12
340.474	419.12
340.702	421.12
340.93	410.12
341.158	416.12
341.386	433.12
341.614	428.12
341.842	405.12
342.07	400.12
342.298	413.12
342.526	414.12
342.754	422.12
342.981	421.12
343.209	382.12
343.437	408.12
343.665	422.12
343.893	434.12
344.12	437.12
344.348	430.12
344.576	425.12
344.804	454.12
345.031	444.12
345.259	428.12
345.487	425.12
345.714	425.12
345.942	425.12
346.17	423.12
346.397	405.12
346.625	416.12
346.853	408.12
347.08	391.12
347.308	410.12
347.535	405.12
347.763	393.12
347.99	407.12
348.218	440.12
348.445	421.12
348.673	402.12
348.9	395.12
349.128	386.12
349.355	396.12
349.583	411.12
349.81	403.12
350.037	377.12
350.265	390.12
350.492	407.12
350.72	407.12
350.947	381.12
351.174	414.12
351.402	400.12
351.629	395.12
351.856	401.12
352.083	415.12
352.311	422.12
352.538	412.12
352.765	413.12
352.992	404.12
353.22	390.12
353.447	398.12
353.674	401.12
353.901	392.12
354.128	394.12
354.355	406.12
354.583	403.12
354.81	391.12
355.037	383.12
355.264	380.12
355.491	375.12
355.718	382.12
355.945	362.12
356.172	378.12
356.399	381.12
356.626	383.12
356.853	380.12
357.08	399.12
357.307	389.12
357.534	386.12
357.761	389.12
357.988	393.12
358.215	407.12
358.441	378.12
358.668	393.12
358.895	413.12
359.122	374.12
359.349	399.12
359.576	400.12
359.802	413.12
360.029	427.12
360.256	436.12
360.483	428.12
360.709	413.12
360.936	416.12
361.163	404.12
361.39	412.12
361.616	408.12
361.843	391.12
362.07	397.12
362.296	421.12
362.523	380.12
362.749	393.12
362.976	395.12
363.203	407.12
363.429	371.12
363.656	398.12
363.882	388.12
364.109	381.12
364.335	381.12
364.562	379.12
364.788	398.12
365.015	411.12
365.241	395.12
365.468	366.12
365.694	381.12
365.92	389.12
366.147	391.12
366.373	378.12
366.599	387.12
366.826	386.12
367.052	405.12
367.278	387.12
367.505	380.12
367.731	404.12
367.957	400.12
368.184	414.12
368.41	385.12
368.636	396.12
368.862	411.12
369.089	395.12
369.315	380.12
369.541	378.12
369.767	396.12
369.993	387.12
370.219	383.12
370.445	398.12
370.672	380.12
370.898	389.12
371.124	407.12
371.35	396.12
371.576	391.12
371.802	381.12
372.028	389.12
372.254	407.12
372.48	405.12
372.706	398.12
372.932	392.12
373.158	395.12
373.384	398.12
373.61	400.12
373.835	403.12
374.061	403.12
374.287	409.12
374.513	413.12
374.739	402.12
374.965	398.12
375.191	401.12
375.416	421.12
375.642	390.12
375.868	395.12
376.094	425.12
376.319	397.12
376.545	392.12
376.771	390.12
376.997	389.12
377.222	396.12
377.448	409.12
377.674	394.12
377.899	388.12
378.125	384.12
378.35	399.12
378.576	396.12
378.802	386.12
379.027	399.12
379.253	394.12
379.478	395.12
379.704	395.12
379.929	396.12
380.155	403.12
380.38	396.12
380.606	407.12
380.831	398.12
381.057	427.12
381.282	402.12
381.507	382.12
381.733	403.12
381.958	389.12
382.184	399.12
382.409	405.12
382.634	417.12
382.86	399.12
383.085	410.12
383.31	410.12
383.535	403.12
383.761	414.12
383.986	426.12
384.211	428.12
384.436	418.12
384.662	423.12
384.887	426.12
385.112	422.12
385.337	431.12
385.562	430.12
385.787	444.12
386.013	449.12
386.238	454.12
386.463	456.12
386.688	431.12
386.913	458.12
387.138	457.12
387.363	441.12
387.588	427.12
387.813	414.12
388.038	446.12
388.263	439.12
388.488	433.12
388.713	444.12
388.938	427.12
389.163	445.12
389.387	431.12
389.612	425.12
389.837	426.12
390.062	447.12
390.287	433.12
390.512	433.12
390.736	440.12
390.961	426.12
391.186	438.12
391.411	443.12
391.636	445.12
391.86	442.12
392.085	441.12
392.31	453.12
392.534	418.12
392.759	422.12
392.984	452.12
393.208	439.12
393.433	460.12
393.658	462.12
393.882	458.12
394.107	435.12
394.331	427.12
394.556	454.12
394.78	439.12
395.005	433.12
395.229	445.12
395.454	455.12
395.678	447.12
395.903	470.12
396.127	501.12
396.352	494.12
396.576	460.12
396.801	443.12
397.025	438.12
397.249	461.12
397.474	462.12
397.698	470.12
397.922	477.12
398.147	492.12
398.371	516.12
398.595	519.12
398.82	508.12
399.044	522.12
399.268	492.12
399.492	545.12
399.717	567.12
399.941	595.12
400.165	621.12
400.389	619.12
400.613	582.12
400.837	544.12
401.062	516.12
401.286	531.12
401.51	524.12
401.734	511.12
401.958	500.12
402.182	495.12
402.406	519.12
402.63	524.12
402.854	507.12
403.078	526.12
403.302	534.12
403.526	520.12
403.75	504.12
403.974	504.12
404.198	528.12
404.422	518.12
404.645	510.12
404.869	513.12
405.093	559.12
405.317	561.12
405.541	569.12
405.765	541.12
405.988	525.12
406.212	550.12
406.436	566.12
406.66	555.12
406.883	533.12
407.107	597.12
407.331	599.12
407.555	659.12
407.778	685.12
408.002	602.12
408.226	585.12
408.449	565.12
408.673	571.12
408.896	601.12
409.12	644.12
409.344	627.12
409.567	551.12
409.791	540.12
410.014	531.12
410.238	534.12
410.461	495.12
410.685	526.12
410.908	539.12
411.132	577.12
411.355	595.12
411.578	574.12
411.802	562.12
412.025	511.12
412.249	520.12
412.472	513.12
412.695	519.12
412.919	527.12
413.142	497.12
413.365	500.12
413.589	512.12
413.812	492.12
414.035	497.12
414.258	483.12
414.482	493.12
414.705	510.12
414.928	492.12
415.151	500.12
415.374	509.12
415.597	481.12
415.821	488.12
416.044	496.12
416.267	499.12
416.49	483.12
416.713	489.12
416.936	482.12
417.159	477.12
417.382	491.12
417.605	503.12
417.828	509.12
418.051	506.12
418.274	481.12
418.497	467.12
418.72	497.12
418.943	476.12
419.166	510.12
419.389	534.12
419.611	510.12
419.834	518.12
420.057	527.12
420.28	502.12
420.503	499.12
420.726	492.12
420.948	509.12
421.171	562.12
421.394	574.12
421.617	532.12
421.839	520.12
422.062	509.12
422.285	524.12
422.507	575.12
422.73	655.12
422.953	621.12
423.175	533.12
423.398	547.12
423.621	520.12
423.843	528.12
424.066	542.12
424.288	542.12
424.511	553.12
424.733	601.12
424.956	701.12
425.178	663.12
425.401	635.12
425.623	676.12
425.846	588.12
426.068	551.12
426.291	559.12
426.513	559.12
426.735	553.12
426.958	595.12
427.18	663.12
427.402	784.12
427.625	864.12
427.847	723.12
428.069	613.12
428.292	574.12
428.514	546.12
428.736	543.12
428.958	520.12
429.181	499.12
429.403	531.12
429.625	501.12
429.847	538.12
430.069	603.12
430.292	608.12
430.514	522.12
430.736	506.12
430.958	506.12
431.18	478.12
431.402	503.12
431.624	478.12
431.846	473.12
432.068	477.12
432.29	492.12
432.512	491.12
432.734	472.12
432.956	484.12
433.178	499.12
433.4	503.12
433.622	492.12
433.844	476.12
434.066	486.12
434.287	482.12
434.509	486.12
434.731	492.12
434.953	507.12
435.175	513.12
435.397	543.12
435.618	555.12
435.84	569.12
436.062	664.12
436.284	757.12
436.505	608.12
436.727	574.12
436.949	531.12
437.17	513.12
437.392	499.12
437.614	519.12
437.835	539.12
438.057	633.12
438.278	739.12
438.5	716.12
438.721	789.12
438.943	778.12
439.165	603.12
439.386	556.12
439.608	541.12
439.829	534.12
440.05	579.12
440.272	599.12
440.493	601.12
440.715	559.12
440.936	525.12
441.158	538.12
441.379	511.12
441.6	528.12
441.822	526.12
442.043	561.12
442.264	659.12
442.486	690.12
442.707	578.12
442.928	547.12
443.149	569.12
443.371	576.12
443.592	607.12
443.813	725.12
444.034	770.12
444.255	662.12
444.476	583.12
444.698	551.12
444.919	551.12
445.14	611.12
445.361	601.12
445.582	598.12
445.803	636.12
446.024	757.12
446.245	745.12
446.466	676.12
446.687	573.12
446.908	553.12
447.129	530.12
447.35	517.12
447.571	517.12
447.792	484.12
448.013	501.12
448.234	534.12
448.455	560.12
448.675	672.12
448.896	776.12
449.117	686.12
449.338	630.12
449.559	774.12
449.779	862.12
450	691.12
450.221	542.12
450.442	515.12
450.662	490.12
450.883	511.12
451.104	531.12
451.324	501.12
451.545	481.12
451.766	464.12
451.986	454.12
452.207	449.12
452.428	451.12
452.648	435.12
452.869	464.12
453.089	453.12
453.31	469.12
453.53	460.12
453.751	474.12
453.971	470.12
454.192	454.12
454.412	469.12
454.633	448.12
454.853	447.12
455.073	441.12
455.294	499.12
455.514	532.12
455.734	521.12
455.955	459.12
456.175	433.12
456.395	430.12
456.616	422.12
456.836	435.12
457.056	429.12
457.276	438.12
457.497	457.12
457.717	433.12
457.937	437.12
458.157	426.12
458.377	431.12
458.598	471.12
458.818	497.12
459.038	582.12
459.258	597.12
459.478	518.12
459.698	492.12
459.918	511.12
460.138	489.12
460.358	478.12
460.578	491.12
460.798	505.12
461.018	484.12
461.238	519.12
461.458	490.12
461.678	503.12
461.898	520.12
462.118	517.12
462.338	523.12
462.558	502.12
462.777	508.12
462.997	522.12
463.217	537.12
463.437	551.12
463.657	572.12
463.876	551.12
464.096	536.12
464.316	548.12
464.536	535.12
464.755	537.12
464.975	546.12
465.195	558.12
465.414	617.12
465.634	541.12
465.854	532.12
466.073	493.12
466.293	482.12
466.512	484.12
466.732	478.12
466.951	460.12
467.171	468.12
467.391	479.12
467.61	483.12
467.829	514.12
468.049	466.12
468.268	459.12
468.488	463.12
468.707	454.12
468.927	445.12
469.146	475.12
469.365	477.12
469.585	439.12
469.804	476.12
470.023	450.12
470.243	475.12
470.462	484.12
470.681	494.12
470.901	490.12
471.12	478.12
471.339	479.12
471.558	475.12
471.777	470.12
471.997	465.12
472.216	466.12
472.435	462.12
472.654	467.12
472.873	463.12
473.092	468.12
473.311	467.12
473.53	482.12
473.749	487.12
473.968	529.12
474.187	595.12
474.406	619.12
474.625	525.12
474.844	520.12
475.063	495.12
475.282	492.12
475.501	502.12
475.72	500.12
475.939	493.12
476.158	475.12
476.377	489.12
476.596	478.12
476.814	498.12
477.033	498.12
477.252	528.12
477.471	519.12
477.69	507.12
477.908	493.12
478.127	529.12
478.346	533.12
478.564	514.12
478.783	523.12
479.002	539.12
479.22	545.12
479.439	555.12
479.658	596.12
479.876	574.12
480.095	588.12
480.313	618.12
480.532	577.12
480.751	573.12
480.969	581.12
481.188	600.12
481.406	590.12
481.624	578.12
481.843	548.12
482.061	569.12
482.28	561.12
482.498	552.12
482.717	549.12
482.935	573.12
483.153	562.12
483.372	555.12
483.59	580.12
483.808	572.12
484.027	572.12
484.245	567.12
484.463	589.12
484.681	595.12
484.9	586.12
485.118	573.12
485.336	603.12
485.554	587.12
485.772	572.12
485.99	595.12
486.209	555.12
486.427	573.12
486.645	583.12
486.863	596.12
487.081	590.12
487.299	576.12
487.517	596.12
487.735	585.12
487.953	595.12
488.171	602.12
488.389	594.12
488.607	632.12
488.825	628.12
489.043	586.12
489.261	597.12
489.479	597.12
489.696	632.12
489.914	599.12
490.132	629.12
490.35	635.12
490.568	620.12
490.786	625.12
491.003	639.12
491.221	651.12
491.439	654.12
491.657	659.12
491.874	657.12
492.092	662.12
492.31	664.12
492.527	681.12
492.745	685.12
492.963	676.12
493.18	699.12
493.398	684.12
493.615	683.12
493.833	679.12
494.05	679.12
494.268	684.12
494.485	678.12
494.703	673.12
494.92	687.12
495.138	677.12
495.355	682.12
495.573	685.12
495.79	693.12
496.008	690.12
496.225	710.12
496.442	712.12
496.66	724.12
496.877	686.12
497.094	723.12
497.312	724.12
497.529	758.12
497.746	744.12
497.963	755.12
498.181	761.12
498.398	776.12
498.615	810.12
498.832	798.12
499.049	834.12
499.267	841.12
499.484	862.12
499.701	905.12
499.918	941.12
500.135	972.12
500.352	1022.12
500.569	1011.12
500.786	1021.12
501.003	974.12
501.22	981.12
501.437	945.12
501.654	932.12
501.871	903.12
