Data from 1988.PennyLincolnUp.Lamp.En5.5.200Scan.071819.P2_HRD10591_17-20-13-973.txt Node
Date: Thu Jul 18 17:20:13 EDT 2019
User: cochatt
Spectrometer: HR+D1059
Trigger mode: 1
Integration Time (sec): 1.000000E-1
Scans to average: 1
Electric dark correction enabled: true
Nonlinearity correction enabled: false
Boxcar width: 0
XAxis mode: Wavelengths
Number of Pixels in Spectrum: 2048
>>>>>Begin Spectral Data<<<<<
223.165	2.25
223.4	2.25
223.635	2.25
223.869	-26.75
224.104	-13.75
224.338	-8.75
224.573	-9.75
224.808	-21.75
225.042	-13.75
225.277	-11.75
225.511	-4.75
225.746	-10.75
225.98	29.25
226.215	9.25
226.449	12.25
226.683	26.25
226.918	13.25
227.152	29.25
227.387	29.25
227.621	36.25
227.856	46.25
228.09	47.25
228.324	53.25
228.559	61.25
228.793	57.25
229.027	86.25
229.262	110.25
229.496	118.25
229.73	135.25
229.964	144.25
230.199	131.25
230.433	132.25
230.667	111.25
230.901	127.25
231.136	116.25
231.37	129.25
231.604	115.25
231.838	105.25
232.072	108.25
232.306	123.25
232.541	105.25
232.775	108.25
233.009	105.25
233.243	116.25
233.477	103.25
233.711	116.25
233.945	117.25
234.179	137.25
234.413	133.25
234.647	114.25
234.881	119.25
235.115	130.25
235.349	129.25
235.583	138.25
235.817	122.25
236.051	125.25
236.285	126.25
236.519	132.25
236.753	137.25
236.987	158.25
237.221	204.25
237.455	257.25
237.689	211.25
237.922	157.25
238.156	141.25
238.39	133.25
238.624	136.25
238.858	137.25
239.091	127.25
239.325	132.25
239.559	125.25
239.793	131.25
240.027	133.25
240.26	147.25
240.494	160.25
240.728	169.25
240.961	170.25
241.195	132.25
241.429	151.25
241.662	146.25
241.896	145.25
242.13	157.25
242.363	147.25
242.597	141.25
242.83	147.25
243.064	149.25
243.298	139.25
243.531	154.25
243.765	136.25
243.998	142.25
244.232	159.25
244.465	156.25
244.699	173.25
244.932	164.25
245.166	134.25
245.399	149.25
245.633	151.25
245.866	150.25
246.099	165.25
246.333	150.25
246.566	158.25
246.8	163.25
247.033	156.25
247.266	154.25
247.5	182.25
247.733	172.25
247.966	187.25
248.2	169.25
248.433	164.25
248.666	187.25
248.899	189.25
249.133	213.25
249.366	202.25
249.599	209.25
249.832	191.25
250.066	196.25
250.299	184.25
250.532	196.25
250.765	193.25
250.998	221.25
251.231	232.25
251.465	231.25
251.698	209.25
251.931	219.25
252.164	211.25
252.397	201.25
252.63	206.25
252.863	213.25
253.096	230.25
253.329	238.25
253.562	240.25
253.795	229.25
254.028	251.25
254.261	233.25
254.494	230.25
254.727	272.25
254.96	301.25
255.193	301.25
255.426	294.25
255.659	260.25
255.892	224.25
256.124	229.25
256.357	238.25
256.59	226.25
256.823	243.25
257.056	222.25
257.289	214.25
257.521	217.25
257.754	218.25
257.987	211.25
258.22	215.25
258.452	207.25
258.685	208.25
258.918	219.25
259.151	232.25
259.383	217.25
259.616	252.25
259.849	242.25
260.081	250.25
260.314	260.25
260.547	262.25
260.779	274.25
261.012	263.25
261.244	234.25
261.477	223.25
261.71	237.25
261.942	248.25
262.175	259.25
262.407	235.25
262.64	222.25
262.872	226.25
263.105	234.25
263.337	242.25
263.57	241.25
263.802	225.25
264.035	223.25
264.267	239.25
264.499	216.25
264.732	233.25
264.964	228.25
265.197	242.25
265.429	236.25
265.661	215.25
265.894	216.25
266.126	234.25
266.358	225.25
266.591	241.25
266.823	263.25
267.055	239.25
267.287	254.25
267.52	242.25
267.752	253.25
267.984	246.25
268.216	235.25
268.448	254.25
268.681	256.25
268.913	267.25
269.145	287.25
269.377	294.25
269.609	286.25
269.841	298.25
270.073	310.25
270.306	318.25
270.538	320.25
270.77	347.25
271.002	327.25
271.234	313.25
271.466	329.25
271.698	352.25
271.93	342.25
272.162	355.25
272.394	348.25
272.626	326.25
272.858	327.25
273.09	310.25
273.322	302.25
273.553	287.25
273.785	282.25
274.017	287.25
274.249	276.25
274.481	290.25
274.713	295.25
274.945	304.25
275.176	287.25
275.408	283.25
275.64	289.25
275.872	285.25
276.104	279.25
276.335	298.25
276.567	290.25
276.799	311.25
277.031	319.25
277.262	333.25
277.494	336.25
277.726	325.25
277.957	303.25
278.189	309.25
278.421	295.25
278.652	296.25
278.884	277.25
279.115	297.25
279.347	290.25
279.579	273.25
279.81	266.25
280.042	286.25
280.273	279.25
280.505	267.25
280.736	281.25
280.968	286.25
281.199	297.25
281.431	290.25
281.662	274.25
281.894	282.25
282.125	291.25
282.356	328.25
282.588	346.25
282.819	343.25
283.051	319.25
283.282	294.25
283.513	300.25
283.745	285.25
283.976	317.25
284.207	302.25
284.439	297.25
284.67	296.25
284.901	289.25
285.132	295.25
285.364	316.25
285.595	303.25
285.826	286.25
286.057	296.25
286.288	306.25
286.52	305.25
286.751	312.25
286.982	305.25
287.213	316.25
287.444	305.25
287.675	316.25
287.906	337.25
288.138	337.25
288.369	332.25
288.6	321.25
288.831	326.25
289.062	318.25
289.293	316.25
289.524	319.25
289.755	310.25
289.986	312.25
290.217	289.25
290.448	305.25
290.679	313.25
290.91	323.25
291.141	308.25
291.371	323.25
291.602	302.25
291.833	301.25
292.064	290.25
292.295	326.25
292.526	311.25
292.757	319.25
292.987	317.25
293.218	300.25
293.449	302.25
293.68	346.25
293.91	308.25
294.141	320.25
294.372	305.25
294.603	296.25
294.833	310.25
295.064	324.25
295.295	312.25
295.525	344.25
295.756	320.25
295.987	341.25
296.217	345.25
296.448	373.25
296.679	352.25
296.909	329.25
297.14	345.25
297.37	327.25
297.601	309.25
297.831	320.25
298.062	357.25
298.292	338.25
298.523	332.25
298.753	331.25
298.984	325.25
299.214	329.25
299.445	342.25
299.675	338.25
299.905	330.25
300.136	323.25
300.366	334.25
300.597	334.25
300.827	362.25
301.057	360.25
301.288	375.25
301.518	342.25
301.748	356.25
301.979	372.25
302.209	360.25
302.439	358.25
302.669	353.25
302.9	362.25
303.13	366.25
303.36	365.25
303.59	350.25
303.82	366.25
304.051	378.25
304.281	364.25
304.511	364.25
304.741	358.25
304.971	360.25
305.201	363.25
305.431	356.25
305.661	363.25
305.891	371.25
306.121	343.25
306.352	363.25
306.582	353.25
306.812	354.25
307.042	358.25
307.272	366.25
307.502	375.25
307.731	356.25
307.961	368.25
308.191	361.25
308.421	367.25
308.651	378.25
308.881	369.25
309.111	374.25
309.341	379.25
309.571	381.25
309.8	404.25
310.03	429.25
310.26	404.25
310.49	413.25
310.72	430.25
310.949	450.25
311.179	433.25
311.409	429.25
311.639	389.25
311.868	412.25
312.098	416.25
312.328	413.25
312.557	429.25
312.787	461.25
313.017	441.25
313.246	423.25
313.476	407.25
313.706	417.25
313.935	429.25
314.165	421.25
314.394	417.25
314.624	441.25
314.853	426.25
315.083	403.25
315.312	427.25
315.542	411.25
315.771	417.25
316.001	403.25
316.23	434.25
316.46	415.25
316.689	425.25
316.919	433.25
317.148	439.25
317.377	419.25
317.607	423.25
317.836	427.25
318.065	409.25
318.295	418.25
318.524	443.25
318.753	396.25
318.983	419.25
319.212	433.25
319.441	441.25
319.67	443.25
319.9	445.25
320.129	423.25
320.358	430.25
320.587	417.25
320.816	430.25
321.046	460.25
321.275	440.25
321.504	430.25
321.733	442.25
321.962	443.25
322.191	457.25
322.42	507.25
322.649	484.25
322.878	492.25
323.108	505.25
323.337	535.25
323.566	571.25
323.795	590.25
324.024	631.25
324.253	794.25
324.482	1105.25
324.71	1707.25
324.939	2579.25
325.168	2285.25
325.397	1121.25
325.626	756.25
325.855	661.25
326.084	582.25
326.313	590.25
326.542	581.25
326.77	624.25
326.999	724.25
327.228	1003.25
327.457	1558.25
327.686	1934.25
327.914	1260.25
328.143	810.25
328.372	707.25
328.6	633.25
328.829	599.25
329.058	655.25
329.287	657.25
329.515	593.25
329.744	573.25
329.972	547.25
330.201	548.25
330.43	570.25
330.658	625.25
330.887	680.25
331.115	632.25
331.344	581.25
331.572	547.25
331.801	558.25
332.03	575.25
332.258	541.25
332.486	500.25
332.715	499.25
332.943	492.25
333.172	541.25
333.4	500.25
333.629	525.25
333.857	536.25
334.085	527.25
334.314	517.25
334.542	523.25
334.771	521.25
334.999	524.25
335.227	521.25
335.455	479.25
335.684	518.25
335.912	485.25
336.14	483.25
336.369	502.25
336.597	490.25
336.825	524.25
337.053	483.25
337.281	484.25
337.51	490.25
337.738	487.25
337.966	475.25
338.194	485.25
338.422	479.25
338.65	509.25
338.878	505.25
339.106	484.25
339.334	483.25
339.562	488.25
339.79	462.25
340.018	486.25
340.246	478.25
340.474	481.25
340.702	485.25
340.93	463.25
341.158	468.25
341.386	469.25
341.614	476.25
341.842	487.25
342.07	470.25
342.298	491.25
342.526	490.25
342.754	465.25
342.981	477.25
343.209	478.25
343.437	463.25
343.665	463.25
343.893	499.25
344.12	491.25
344.348	497.25
344.576	509.25
344.804	494.25
345.031	497.25
345.259	515.25
345.487	503.25
345.714	484.25
345.942	483.25
346.17	461.25
346.397	460.25
346.625	459.25
346.853	485.25
347.08	472.25
347.308	485.25
347.535	466.25
347.763	479.25
347.99	502.25
348.218	465.25
348.445	491.25
348.673	483.25
348.9	474.25
349.128	454.25
349.355	443.25
349.583	461.25
349.81	444.25
350.037	461.25
350.265	447.25
350.492	452.25
350.72	453.25
350.947	458.25
351.174	470.25
351.402	494.25
351.629	477.25
351.856	485.25
352.083	521.25
352.311	493.25
352.538	479.25
352.765	496.25
352.992	460.25
353.22	489.25
353.447	481.25
353.674	465.25
353.901	450.25
354.128	436.25
354.355	459.25
354.583	434.25
354.81	421.25
355.037	430.25
355.264	433.25
355.491	443.25
355.718	458.25
355.945	445.25
356.172	450.25
356.399	440.25
356.626	448.25
356.853	459.25
357.08	470.25
357.307	446.25
357.534	440.25
357.761	451.25
357.988	436.25
358.215	439.25
358.441	433.25
358.668	447.25
358.895	454.25
359.122	443.25
359.349	451.25
359.576	462.25
359.802	493.25
360.029	529.25
360.256	549.25
360.483	512.25
360.709	475.25
360.936	475.25
361.163	474.25
361.39	479.25
361.616	471.25
361.843	470.25
362.07	486.25
362.296	487.25
362.523	470.25
362.749	498.25
362.976	491.25
363.203	479.25
363.429	450.25
363.656	468.25
363.882	448.25
364.109	462.25
364.335	470.25
364.562	452.25
364.788	439.25
365.015	458.25
365.241	476.25
365.468	445.25
365.694	474.25
365.92	469.25
366.147	444.25
366.373	463.25
366.599	460.25
366.826	466.25
367.052	446.25
367.278	458.25
367.505	455.25
367.731	471.25
367.957	457.25
368.184	448.25
368.41	464.25
368.636	457.25
368.862	499.25
369.089	480.25
369.315	448.25
369.541	462.25
369.767	457.25
369.993	470.25
370.219	461.25
370.445	429.25
370.672	444.25
370.898	444.25
371.124	467.25
371.35	456.25
371.576	461.25
371.802	474.25
372.028	467.25
372.254	452.25
372.48	459.25
372.706	458.25
372.932	481.25
373.158	479.25
373.384	460.25
373.61	461.25
373.835	482.25
374.061	479.25
374.287	470.25
374.513	462.25
374.739	451.25
374.965	488.25
375.191	462.25
375.416	465.25
375.642	455.25
375.868	467.25
376.094	445.25
376.319	418.25
376.545	473.25
376.771	481.25
376.997	441.25
377.222	441.25
377.448	440.25
377.674	471.25
377.899	444.25
378.125	445.25
378.35	450.25
378.576	437.25
378.802	433.25
379.027	456.25
379.253	450.25
379.478	472.25
379.704	462.25
379.929	477.25
380.155	477.25
380.38	458.25
380.606	465.25
380.831	450.25
381.057	462.25
381.282	458.25
381.507	445.25
381.733	436.25
381.958	484.25
382.184	443.25
382.409	451.25
382.634	478.25
382.86	469.25
383.085	469.25
383.31	455.25
383.535	470.25
383.761	479.25
383.986	502.25
384.211	483.25
384.436	480.25
384.662	488.25
384.887	470.25
385.112	479.25
385.337	483.25
385.562	493.25
385.787	502.25
386.013	492.25
386.238	513.25
386.463	505.25
386.688	490.25
386.913	505.25
387.138	519.25
387.363	498.25
387.588	499.25
387.813	507.25
388.038	511.25
388.263	500.25
388.488	501.25
388.713	483.25
388.938	525.25
389.163	501.25
389.387	499.25
389.612	521.25
389.837	510.25
390.062	491.25
390.287	505.25
390.512	488.25
390.736	518.25
390.961	517.25
391.186	501.25
391.411	510.25
391.636	526.25
391.86	520.25
392.085	518.25
392.31	510.25
392.534	499.25
392.759	512.25
392.984	514.25
393.208	542.25
393.433	535.25
393.658	515.25
393.882	506.25
394.107	519.25
394.331	524.25
394.556	524.25
394.78	530.25
395.005	533.25
395.229	511.25
395.454	530.25
395.678	535.25
395.903	548.25
396.127	569.25
396.352	570.25
396.576	528.25
396.801	523.25
397.025	537.25
397.249	528.25
397.474	568.25
397.698	554.25
397.922	565.25
398.147	575.25
398.371	594.25
398.595	588.25
398.82	583.25
399.044	625.25
399.268	603.25
399.492	651.25
399.717	690.25
399.941	699.25
400.165	740.25
400.389	773.25
400.613	673.25
400.837	621.25
401.062	613.25
401.286	610.25
401.51	577.25
401.734	587.25
401.958	589.25
402.182	606.25
402.406	612.25
402.63	606.25
402.854	605.25
403.078	632.25
403.302	604.25
403.526	623.25
403.75	627.25
403.974	604.25
404.198	617.25
404.422	609.25
404.645	622.25
404.869	616.25
405.093	666.25
405.317	661.25
405.541	669.25
405.765	643.25
405.988	655.25
406.212	641.25
406.436	657.25
406.66	691.25
406.883	662.25
407.107	706.25
407.331	761.25
407.555	833.25
407.778	831.25
408.002	746.25
408.226	702.25
408.449	693.25
408.673	677.25
408.896	722.25
409.12	769.25
409.344	737.25
409.567	649.25
409.791	627.25
410.014	640.25
410.238	621.25
410.461	598.25
410.685	615.25
410.908	636.25
411.132	686.25
411.355	687.25
411.578	672.25
411.802	631.25
412.025	610.25
412.249	633.25
412.472	621.25
412.695	641.25
412.919	613.25
413.142	598.25
413.365	616.25
413.589	596.25
413.812	582.25
414.035	607.25
414.258	587.25
414.482	594.25
414.705	572.25
414.928	574.25
415.151	591.25
415.374	571.25
415.597	573.25
415.821	572.25
416.044	596.25
416.267	574.25
416.49	609.25
416.713	594.25
416.936	565.25
417.159	570.25
417.382	577.25
417.605	593.25
417.828	592.25
418.051	602.25
418.274	574.25
418.497	589.25
418.72	596.25
418.943	574.25
419.166	611.25
419.389	631.25
419.611	622.25
419.834	623.25
420.057	658.25
420.28	601.25
420.503	579.25
420.726	588.25
420.948	629.25
421.171	691.25
421.394	689.25
421.617	627.25
421.839	616.25
422.062	606.25
422.285	631.25
422.507	713.25
422.73	790.25
422.953	767.25
423.175	654.25
423.398	637.25
423.621	616.25
423.843	691.25
424.066	669.25
424.288	669.25
424.511	659.25
424.733	768.25
424.956	851.25
425.178	840.25
425.401	798.25
425.623	836.25
425.846	721.25
426.068	679.25
426.291	656.25
426.513	671.25
426.735	660.25
426.958	734.25
427.18	806.25
427.402	975.25
427.625	1065.25
427.847	897.25
428.069	751.25
428.292	691.25
428.514	651.25
428.736	641.25
428.958	631.25
429.181	611.25
429.403	603.25
429.625	623.25
429.847	661.25
430.069	749.25
430.292	734.25
430.514	667.25
430.736	614.25
430.958	605.25
431.18	600.25
431.402	597.25
431.624	553.25
431.846	595.25
432.068	595.25
432.29	574.25
432.512	573.25
432.734	583.25
432.956	593.25
433.178	594.25
433.4	612.25
433.622	580.25
433.844	575.25
434.066	576.25
434.287	581.25
434.509	600.25
434.731	591.25
434.953	607.25
435.175	616.25
435.397	659.25
435.618	666.25
435.84	709.25
436.062	823.25
436.284	906.25
436.505	761.25
436.727	671.25
436.949	631.25
437.17	634.25
437.392	584.25
437.614	619.25
437.835	675.25
438.057	770.25
438.278	922.25
438.5	890.25
438.721	988.25
438.943	941.25
439.165	753.25
439.386	668.25
439.608	660.25
439.829	658.25
440.05	710.25
440.272	775.25
440.493	710.25
440.715	675.25
440.936	619.25
441.158	613.25
441.379	625.25
441.6	636.25
441.822	653.25
442.043	707.25
442.264	827.25
442.486	869.25
442.707	725.25
442.928	670.25
443.149	662.25
443.371	717.25
443.592	777.25
443.813	864.25
444.034	945.25
444.255	801.25
444.476	684.25
444.698	697.25
444.919	665.25
445.14	767.25
445.361	771.25
445.582	748.25
445.803	821.25
446.024	909.25
446.245	922.25
446.466	834.25
446.687	705.25
446.908	662.25
447.129	626.25
447.35	616.25
447.571	611.25
447.792	593.25
448.013	637.25
448.234	641.25
448.455	677.25
448.675	830.25
448.896	967.25
449.117	838.25
449.338	773.25
449.559	918.25
449.779	1008.25
450	827.25
450.221	659.25
450.442	629.25
450.662	595.25
450.883	621.25
451.104	628.25
451.324	630.25
451.545	585.25
451.766	573.25
451.986	551.25
452.207	552.25
452.428	545.25
452.648	537.25
452.869	548.25
453.089	554.25
453.31	567.25
453.53	567.25
453.751	519.25
453.971	551.25
454.192	568.25
454.412	565.25
454.633	551.25
454.853	547.25
455.073	543.25
455.294	585.25
455.514	648.25
455.734	636.25
455.955	567.25
456.175	510.25
456.395	515.25
456.616	503.25
456.836	510.25
457.056	512.25
457.276	512.25
457.497	507.25
457.717	514.25
457.937	525.25
458.157	518.25
458.377	556.25
458.598	558.25
458.818	625.25
459.038	704.25
459.258	748.25
459.478	631.25
459.698	619.25
459.918	596.25
460.138	585.25
460.358	591.25
460.578	572.25
460.798	583.25
461.018	595.25
461.238	591.25
461.458	622.25
461.678	595.25
461.898	597.25
462.118	599.25
462.338	600.25
462.558	588.25
462.777	601.25
462.997	623.25
463.217	645.25
463.437	654.25
463.657	621.25
463.876	602.25
464.096	645.25
464.316	615.25
464.536	652.25
464.755	610.25
464.975	649.25
465.195	662.25
465.414	733.25
465.634	692.25
465.854	633.25
466.073	613.25
466.293	582.25
466.512	550.25
466.732	562.25
466.951	569.25
467.171	590.25
467.391	587.25
467.61	564.25
467.829	603.25
468.049	550.25
468.268	549.25
468.488	550.25
468.707	561.25
468.927	526.25
469.146	535.25
469.365	557.25
469.585	536.25
469.804	556.25
470.023	579.25
470.243	580.25
470.462	589.25
470.681	589.25
470.901	596.25
471.12	553.25
471.339	574.25
471.558	559.25
471.777	553.25
471.997	567.25
472.216	556.25
472.435	573.25
472.654	547.25
472.873	543.25
473.092	543.25
473.311	575.25
473.53	545.25
473.749	582.25
473.968	609.25
474.187	753.25
474.406	794.25
474.625	619.25
474.844	609.25
475.063	573.25
475.282	575.25
475.501	557.25
475.72	581.25
475.939	587.25
476.158	583.25
476.377	585.25
476.596	585.25
476.814	604.25
477.033	616.25
477.252	618.25
477.471	605.25
477.69	620.25
477.908	583.25
478.127	649.25
478.346	633.25
478.564	618.25
478.783	641.25
479.002	639.25
479.22	669.25
479.439	674.25
479.658	696.25
479.876	707.25
480.095	707.25
480.313	687.25
480.532	722.25
480.751	681.25
480.969	709.25
481.188	705.25
481.406	694.25
481.624	699.25
481.843	662.25
482.061	653.25
482.28	659.25
482.498	648.25
482.717	677.25
482.935	677.25
483.153	672.25
483.372	680.25
483.59	667.25
483.808	661.25
484.027	659.25
484.245	683.25
484.463	681.25
484.681	673.25
484.9	671.25
485.118	652.25
485.336	674.25
485.554	689.25
485.772	705.25
485.99	695.25
486.209	707.25
486.427	683.25
486.645	700.25
486.863	717.25
487.081	723.25
487.299	735.25
487.517	725.25
487.735	699.25
487.953	732.25
488.171	735.25
488.389	733.25
488.607	731.25
488.825	726.25
489.043	718.25
489.261	748.25
489.479	725.25
489.696	725.25
489.914	710.25
490.132	750.25
490.35	743.25
490.568	737.25
490.786	729.25
491.003	759.25
491.221	792.25
491.439	788.25
491.657	791.25
491.874	789.25
492.092	780.25
492.31	832.25
492.527	837.25
492.745	822.25
492.963	813.25
493.18	818.25
493.398	847.25
493.615	829.25
493.833	825.25
494.05	846.25
494.268	852.25
494.485	863.25
494.703	813.25
494.92	845.25
495.138	837.25
495.355	850.25
495.573	861.25
495.79	864.25
496.008	861.25
496.225	857.25
496.442	850.25
496.66	842.25
496.877	852.25
497.094	861.25
497.312	882.25
497.529	901.25
497.746	900.25
497.963	911.25
498.181	947.25
498.398	959.25
498.615	974.25
498.832	987.25
499.049	1021.25
499.267	1051.25
499.484	1045.25
499.701	1080.25
499.918	1139.25
500.135	1133.25
500.352	1207.25
500.569	1227.25
500.786	1243.25
501.003	1236.25
501.22	1205.25
501.437	1132.25
501.654	1108.25
