Data from 1988.PennyLincolnUp.Lamp.En5.5.200Scan.071819.P2_HRD10591_17-18-53-972.txt Node
Date: Thu Jul 18 17:18:53 EDT 2019
User: cochatt
Spectrometer: HR+D1059
Trigger mode: 1
Integration Time (sec): 1.000000E-1
Scans to average: 1
Electric dark correction enabled: true
Nonlinearity correction enabled: false
Boxcar width: 0
XAxis mode: Wavelengths
Number of Pixels in Spectrum: 2048
>>>>>Begin Spectral Data<<<<<
223.165	-22.19
223.4	-22.19
223.635	-22.19
223.869	-19.19
224.104	-24.19
224.338	-14.19
224.573	-2.19
224.808	-4.19
225.042	-5.19
225.277	12.81
225.511	-7.19
225.746	-5.19
225.98	17.81
226.215	10.81
226.449	10.81
226.683	12.81
226.918	18.81
227.152	19.81
227.387	28.81
227.621	38.81
227.856	33.81
228.09	50.81
228.324	53.81
228.559	67.81
228.793	76.81
229.027	102.81
229.262	105.81
229.496	111.81
229.73	130.81
229.964	154.81
230.199	137.81
230.433	107.81
230.667	108.81
230.901	102.81
231.136	107.81
231.37	112.81
231.604	108.81
231.838	109.81
232.072	117.81
232.306	103.81
232.541	116.81
232.775	107.81
233.009	111.81
233.243	114.81
233.477	110.81
233.711	133.81
233.945	109.81
234.179	113.81
234.413	118.81
234.647	103.81
234.881	124.81
235.115	115.81
235.349	131.81
235.583	108.81
235.817	121.81
236.051	129.81
236.285	130.81
236.519	142.81
236.753	143.81
236.987	154.81
237.221	172.81
237.455	216.81
237.689	193.81
237.922	141.81
238.156	137.81
238.39	140.81
238.624	126.81
238.858	115.81
239.091	136.81
239.325	123.81
239.559	121.81
239.793	121.81
240.027	144.81
240.26	154.81
240.494	146.81
240.728	134.81
240.961	160.81
241.195	141.81
241.429	141.81
241.662	138.81
241.896	146.81
242.13	151.81
242.363	120.81
242.597	127.81
242.83	135.81
243.064	137.81
243.298	139.81
243.531	142.81
243.765	135.81
243.998	139.81
244.232	147.81
244.465	135.81
244.699	136.81
244.932	146.81
245.166	154.81
245.399	158.81
245.633	152.81
245.866	157.81
246.099	166.81
246.333	165.81
246.566	137.81
246.8	147.81
247.033	157.81
247.266	159.81
247.5	172.81
247.733	179.81
247.966	164.81
248.2	179.81
248.433	167.81
248.666	177.81
248.899	171.81
249.133	201.81
249.366	184.81
249.599	199.81
249.832	168.81
250.066	185.81
250.299	165.81
250.532	186.81
250.765	207.81
250.998	221.81
251.231	214.81
251.465	212.81
251.698	195.81
251.931	199.81
252.164	192.81
252.397	193.81
252.63	198.81
252.863	201.81
253.096	210.81
253.329	215.81
253.562	211.81
253.795	217.81
254.028	207.81
254.261	206.81
254.494	214.81
254.727	236.81
254.96	269.81
255.193	248.81
255.426	222.81
255.659	241.81
255.892	201.81
256.124	196.81
256.357	210.81
256.59	211.81
256.823	195.81
257.056	212.81
257.289	202.81
257.521	210.81
257.754	221.81
257.987	197.81
258.22	205.81
258.452	203.81
258.685	196.81
258.918	198.81
259.151	209.81
259.383	195.81
259.616	215.81
259.849	229.81
260.081	234.81
260.314	238.81
260.547	250.81
260.779	239.81
261.012	227.81
261.244	229.81
261.477	226.81
261.71	221.81
261.942	245.81
262.175	248.81
262.407	219.81
262.64	219.81
262.872	205.81
263.105	217.81
263.337	210.81
263.57	215.81
263.802	218.81
264.035	220.81
264.267	225.81
264.499	215.81
264.732	198.81
264.964	203.81
265.197	212.81
265.429	226.81
265.661	207.81
265.894	219.81
266.126	223.81
266.358	236.81
266.591	219.81
266.823	230.81
267.055	229.81
267.287	236.81
267.52	223.81
267.752	210.81
267.984	231.81
268.216	225.81
268.448	227.81
268.681	237.81
268.913	234.81
269.145	238.81
269.377	279.81
269.609	273.81
269.841	263.81
270.073	263.81
270.306	273.81
270.538	279.81
270.77	309.81
271.002	298.81
271.234	280.81
271.466	281.81
271.698	296.81
271.93	294.81
272.162	291.81
272.394	317.81
272.626	287.81
272.858	277.81
273.09	269.81
273.322	263.81
273.553	273.81
273.785	267.81
274.017	249.81
274.249	267.81
274.481	262.81
274.713	267.81
274.945	280.81
275.176	268.81
275.408	265.81
275.64	267.81
275.872	281.81
276.104	280.81
276.335	281.81
276.567	270.81
276.799	277.81
277.031	293.81
277.262	320.81
277.494	325.81
277.726	284.81
277.957	283.81
278.189	272.81
278.421	267.81
278.652	281.81
278.884	253.81
279.115	269.81
279.347	269.81
279.579	271.81
279.81	264.81
280.042	260.81
280.273	259.81
280.505	282.81
280.736	267.81
280.968	273.81
281.199	265.81
281.431	264.81
281.662	274.81
281.894	261.81
282.125	261.81
282.356	270.81
282.588	302.81
282.819	301.81
283.051	262.81
283.282	269.81
283.513	280.81
283.745	268.81
283.976	267.81
284.207	271.81
284.439	282.81
284.67	282.81
284.901	287.81
285.132	294.81
285.364	269.81
285.595	275.81
285.826	298.81
286.057	288.81
286.288	291.81
286.52	297.81
286.751	293.81
286.982	299.81
287.213	285.81
287.444	292.81
287.675	289.81
287.906	306.81
288.138	313.81
288.369	311.81
288.6	308.81
288.831	295.81
289.062	300.81
289.293	301.81
289.524	286.81
289.755	291.81
289.986	293.81
290.217	295.81
290.448	297.81
290.679	293.81
290.91	282.81
291.141	317.81
291.371	302.81
291.602	299.81
291.833	300.81
292.064	292.81
292.295	291.81
292.526	295.81
292.757	297.81
292.987	279.81
293.218	299.81
293.449	301.81
293.68	306.81
293.91	291.81
294.141	306.81
294.372	290.81
294.603	311.81
294.833	315.81
295.064	296.81
295.295	309.81
295.525	312.81
295.756	306.81
295.987	324.81
296.217	343.81
296.448	327.81
296.679	312.81
296.909	302.81
297.14	307.81
297.37	311.81
297.601	316.81
297.831	307.81
298.062	319.81
298.292	318.81
298.523	306.81
298.753	320.81
298.984	318.81
299.214	307.81
299.445	321.81
299.675	319.81
299.905	343.81
300.136	335.81
300.366	325.81
300.597	310.81
300.827	329.81
301.057	313.81
301.288	341.81
301.518	329.81
301.748	341.81
301.979	348.81
302.209	331.81
302.439	341.81
302.669	339.81
302.9	334.81
303.13	337.81
303.36	333.81
303.59	333.81
303.82	340.81
304.051	346.81
304.281	335.81
304.511	358.81
304.741	341.81
304.971	330.81
305.201	339.81
305.431	341.81
305.661	333.81
305.891	324.81
306.121	358.81
306.352	355.81
306.582	336.81
306.812	338.81
307.042	346.81
307.272	357.81
307.502	334.81
307.731	353.81
307.961	355.81
308.191	340.81
308.421	342.81
308.651	348.81
308.881	358.81
309.111	361.81
309.341	364.81
309.571	369.81
309.8	371.81
310.03	361.81
310.26	385.81
310.49	397.81
310.72	377.81
310.949	389.81
311.179	406.81
311.409	378.81
311.639	390.81
311.868	381.81
312.098	390.81
312.328	405.81
312.557	393.81
312.787	427.81
313.017	428.81
313.246	409.81
313.476	389.81
313.706	386.81
313.935	407.81
314.165	398.81
314.394	441.81
314.624	438.81
314.853	379.81
315.083	383.81
315.312	400.81
315.542	397.81
315.771	385.81
316.001	383.81
316.23	426.81
316.46	399.81
316.689	419.81
316.919	393.81
317.148	402.81
317.377	394.81
317.607	416.81
317.836	399.81
318.065	433.81
318.295	400.81
318.524	401.81
318.753	398.81
318.983	391.81
319.212	392.81
319.441	410.81
319.67	408.81
319.9	393.81
320.129	406.81
320.358	384.81
320.587	387.81
320.816	409.81
321.046	417.81
321.275	421.81
321.504	396.81
321.733	422.81
321.962	441.81
322.191	421.81
322.42	434.81
322.649	431.81
322.878	459.81
323.108	463.81
323.337	491.81
323.566	494.81
323.795	522.81
324.024	595.81
324.253	705.81
324.482	985.81
324.71	1500.81
324.939	2175.81
325.168	1871.81
325.397	929.81
325.626	672.81
325.855	540.81
326.084	518.81
326.313	493.81
326.542	495.81
326.77	569.81
326.999	659.81
327.228	874.81
327.457	1332.81
327.686	1583.81
327.914	1089.81
328.143	724.81
328.372	609.81
328.6	577.81
328.829	558.81
329.058	576.81
329.287	579.81
329.515	553.81
329.744	517.81
329.972	487.81
330.201	498.81
330.43	504.81
330.658	541.81
330.887	598.81
331.115	607.81
331.344	521.81
331.572	507.81
331.801	513.81
332.03	512.81
332.258	481.81
332.486	488.81
332.715	460.81
332.943	467.81
333.172	483.81
333.4	477.81
333.629	482.81
333.857	473.81
334.085	486.81
334.314	489.81
334.542	468.81
334.771	470.81
334.999	465.81
335.227	464.81
335.455	462.81
335.684	477.81
335.912	446.81
336.14	457.81
336.369	470.81
336.597	479.81
336.825	463.81
337.053	451.81
337.281	445.81
337.51	439.81
337.738	459.81
337.966	452.81
338.194	462.81
338.422	454.81
338.65	457.81
338.878	466.81
339.106	457.81
339.334	432.81
339.562	449.81
339.79	436.81
340.018	461.81
340.246	452.81
340.474	437.81
340.702	468.81
340.93	437.81
341.158	446.81
341.386	443.81
341.614	434.81
341.842	455.81
342.07	430.81
342.298	450.81
342.526	439.81
342.754	436.81
342.981	433.81
343.209	434.81
343.437	435.81
343.665	436.81
343.893	459.81
344.12	481.81
344.348	463.81
344.576	466.81
344.804	463.81
345.031	459.81
345.259	478.81
345.487	463.81
345.714	455.81
345.942	439.81
346.17	449.81
346.397	422.81
346.625	445.81
346.853	421.81
347.08	443.81
347.308	436.81
347.535	445.81
347.763	443.81
347.99	443.81
348.218	434.81
348.445	460.81
348.673	443.81
348.9	453.81
349.128	411.81
349.355	421.81
349.583	431.81
349.81	425.81
350.037	426.81
350.265	441.81
350.492	399.81
350.72	410.81
350.947	417.81
351.174	420.81
351.402	453.81
351.629	452.81
351.856	440.81
352.083	434.81
352.311	439.81
352.538	433.81
352.765	445.81
352.992	441.81
353.22	443.81
353.447	445.81
353.674	420.81
353.901	436.81
354.128	415.81
354.355	426.81
354.583	413.81
354.81	408.81
355.037	401.81
355.264	411.81
355.491	412.81
355.718	423.81
355.945	396.81
356.172	405.81
356.399	413.81
356.626	416.81
356.853	410.81
357.08	421.81
357.307	401.81
357.534	388.81
357.761	409.81
357.988	426.81
358.215	387.81
358.441	408.81
358.668	411.81
358.895	422.81
359.122	419.81
359.349	445.81
359.576	447.81
359.802	445.81
360.029	455.81
360.256	468.81
360.483	449.81
360.709	454.81
360.936	419.81
361.163	427.81
361.39	443.81
361.616	452.81
361.843	422.81
362.07	428.81
362.296	451.81
362.523	455.81
362.749	440.81
362.976	412.81
363.203	424.81
363.429	419.81
363.656	424.81
363.882	426.81
364.109	438.81
364.335	413.81
364.562	410.81
364.788	403.81
365.015	431.81
365.241	413.81
365.468	431.81
365.694	438.81
365.92	419.81
366.147	419.81
366.373	406.81
366.599	427.81
366.826	394.81
367.052	422.81
367.278	408.81
367.505	425.81
367.731	420.81
367.957	422.81
368.184	425.81
368.41	438.81
368.636	426.81
368.862	419.81
369.089	434.81
369.315	404.81
369.541	414.81
369.767	418.81
369.993	408.81
370.219	440.81
370.445	423.81
370.672	409.81
370.898	390.81
371.124	415.81
371.35	422.81
371.576	407.81
371.802	418.81
372.028	441.81
372.254	426.81
372.48	436.81
372.706	421.81
372.932	417.81
373.158	433.81
373.384	407.81
373.61	433.81
373.835	435.81
374.061	418.81
374.287	409.81
374.513	411.81
374.739	411.81
374.965	427.81
375.191	414.81
375.416	429.81
375.642	426.81
375.868	417.81
376.094	421.81
376.319	435.81
376.545	431.81
376.771	414.81
376.997	406.81
377.222	409.81
377.448	430.81
377.674	408.81
377.899	415.81
378.125	401.81
378.35	382.81
378.576	416.81
378.802	421.81
379.027	420.81
379.253	414.81
379.478	431.81
379.704	426.81
379.929	422.81
380.155	417.81
380.38	423.81
380.606	417.81
380.831	409.81
381.057	405.81
381.282	415.81
381.507	403.81
381.733	430.81
381.958	428.81
382.184	428.81
382.409	417.81
382.634	421.81
382.86	441.81
383.085	443.81
383.31	459.81
383.535	431.81
383.761	445.81
383.986	442.81
384.211	452.81
384.436	445.81
384.662	439.81
384.887	459.81
385.112	456.81
385.337	457.81
385.562	447.81
385.787	443.81
386.013	461.81
386.238	469.81
386.463	470.81
386.688	469.81
386.913	445.81
387.138	459.81
387.363	458.81
387.588	467.81
387.813	469.81
388.038	471.81
388.263	453.81
388.488	443.81
388.713	451.81
388.938	459.81
389.163	460.81
389.387	469.81
389.612	441.81
389.837	469.81
390.062	453.81
390.287	450.81
390.512	455.81
390.736	459.81
390.961	453.81
391.186	466.81
391.411	473.81
391.636	463.81
391.86	484.81
392.085	482.81
392.31	473.81
392.534	465.81
392.759	494.81
392.984	473.81
393.208	493.81
393.433	479.81
393.658	488.81
393.882	457.81
394.107	475.81
394.331	463.81
394.556	461.81
394.78	483.81
395.005	491.81
395.229	474.81
395.454	485.81
395.678	462.81
395.903	495.81
396.127	510.81
396.352	518.81
396.576	490.81
396.801	507.81
397.025	494.81
397.249	485.81
397.474	506.81
397.698	494.81
397.922	510.81
398.147	541.81
398.371	529.81
398.595	527.81
398.82	532.81
399.044	535.81
399.268	554.81
399.492	584.81
399.717	604.81
399.941	620.81
400.165	646.81
400.389	679.81
400.613	613.81
400.837	561.81
401.062	556.81
401.286	525.81
401.51	523.81
401.734	534.81
401.958	545.81
402.182	551.81
402.406	549.81
402.63	550.81
402.854	563.81
403.078	528.81
403.302	561.81
403.526	565.81
403.75	545.81
403.974	566.81
404.198	551.81
404.422	563.81
404.645	551.81
404.869	547.81
405.093	583.81
405.317	591.81
405.541	627.81
405.765	549.81
405.988	597.81
406.212	571.81
406.436	590.81
406.66	589.81
406.883	573.81
407.107	640.81
407.331	675.81
407.555	713.81
407.778	699.81
408.002	682.81
408.226	622.81
408.449	607.81
408.673	621.81
408.896	634.81
409.12	655.81
409.344	653.81
409.567	593.81
409.791	577.81
410.014	570.81
410.238	531.81
410.461	565.81
410.685	558.81
410.908	589.81
411.132	598.81
411.355	654.81
411.578	595.81
411.802	558.81
412.025	551.81
412.249	549.81
412.472	583.81
412.695	569.81
412.919	524.81
413.142	539.81
413.365	534.81
413.589	548.81
413.812	514.81
414.035	528.81
414.258	534.81
414.482	530.81
414.705	524.81
414.928	540.81
415.151	500.81
415.374	514.81
415.597	526.81
415.821	527.81
416.044	521.81
416.267	520.81
416.49	531.81
416.713	521.81
416.936	524.81
417.159	513.81
417.382	515.81
417.605	523.81
417.828	519.81
418.051	555.81
418.274	538.81
418.497	540.81
418.72	533.81
418.943	532.81
419.166	538.81
419.389	587.81
419.611	573.81
419.834	556.81
420.057	534.81
420.28	524.81
420.503	529.81
420.726	530.81
420.948	537.81
421.171	579.81
421.394	622.81
421.617	556.81
421.839	539.81
422.062	574.81
422.285	553.81
422.507	618.81
422.73	711.81
422.953	637.81
423.175	605.81
423.398	565.81
423.621	564.81
423.843	588.81
424.066	604.81
424.288	576.81
424.511	605.81
424.733	649.81
424.956	713.81
425.178	715.81
425.401	692.81
425.623	729.81
425.846	657.81
426.068	592.81
426.291	567.81
426.513	566.81
426.735	590.81
426.958	599.81
427.18	705.81
427.402	817.81
427.625	922.81
427.847	791.81
428.069	681.81
428.292	603.81
428.514	565.81
428.736	544.81
428.958	557.81
429.181	529.81
429.403	563.81
429.625	559.81
429.847	577.81
430.069	655.81
430.292	663.81
430.514	568.81
430.736	537.81
430.958	524.81
431.18	524.81
431.402	517.81
431.624	504.81
431.846	489.81
432.068	495.81
432.29	502.81
432.512	504.81
432.734	500.81
432.956	518.81
433.178	526.81
433.4	540.81
433.622	530.81
433.844	514.81
434.066	483.81
434.287	504.81
434.509	519.81
434.731	520.81
434.953	529.81
435.175	556.81
435.397	545.81
435.618	588.81
435.84	635.81
436.062	726.81
436.284	802.81
436.505	659.81
436.727	575.81
436.949	554.81
437.17	558.81
437.392	537.81
437.614	565.81
437.835	566.81
438.057	702.81
438.278	779.81
438.5	790.81
438.721	857.81
438.943	837.81
439.165	659.81
439.386	603.81
439.608	575.81
439.829	579.81
440.05	587.81
440.272	653.81
440.493	627.81
440.715	562.81
440.936	543.81
441.158	544.81
441.379	545.81
441.6	550.81
441.822	582.81
442.043	626.81
442.264	691.81
442.486	766.81
442.707	645.81
442.928	581.81
443.149	601.81
443.371	634.81
443.592	667.81
443.813	755.81
444.034	813.81
444.255	675.81
444.476	620.81
444.698	597.81
444.919	584.81
445.14	671.81
445.361	635.81
445.582	640.81
445.803	698.81
446.024	800.81
446.245	763.81
446.466	739.81
446.687	625.81
446.908	592.81
447.129	553.81
447.35	554.81
447.571	543.81
447.792	527.81
448.013	539.81
448.234	529.81
448.455	586.81
448.675	715.81
448.896	821.81
449.117	712.81
449.338	687.81
449.559	823.81
449.779	885.81
450	707.81
450.221	579.81
450.442	571.81
450.662	523.81
450.883	546.81
451.104	545.81
451.324	531.81
451.545	525.81
451.766	525.81
451.986	494.81
452.207	472.81
452.428	478.81
452.648	478.81
452.869	493.81
453.089	475.81
453.31	478.81
453.53	478.81
453.751	488.81
453.971	488.81
454.192	531.81
454.412	505.81
454.633	457.81
454.853	468.81
455.073	475.81
455.294	505.81
455.514	569.81
455.734	542.81
455.955	483.81
456.175	461.81
456.395	470.81
456.616	472.81
456.836	445.81
457.056	466.81
457.276	435.81
457.497	458.81
457.717	435.81
457.937	477.81
458.157	478.81
458.377	474.81
458.598	511.81
458.818	545.81
459.038	642.81
459.258	669.81
459.478	577.81
459.698	525.81
459.918	519.81
460.138	504.81
460.358	508.81
460.578	505.81
460.798	519.81
461.018	513.81
461.238	539.81
461.458	526.81
461.678	537.81
461.898	523.81
462.118	523.81
462.338	549.81
462.558	548.81
462.777	564.81
462.997	585.81
463.217	558.81
463.437	598.81
463.657	575.81
463.876	573.81
464.096	579.81
464.316	558.81
464.536	579.81
464.755	587.81
464.975	587.81
465.195	586.81
465.414	645.81
465.634	599.81
465.854	551.81
466.073	545.81
466.293	513.81
466.512	516.81
466.732	503.81
466.951	511.81
467.171	493.81
467.391	517.81
467.61	516.81
467.829	502.81
468.049	506.81
468.268	483.81
468.488	485.81
468.707	479.81
468.927	475.81
469.146	476.81
469.365	495.81
469.585	491.81
469.804	513.81
470.023	511.81
470.243	486.81
470.462	478.81
470.681	498.81
470.901	517.81
471.12	513.81
471.339	505.81
471.558	514.81
471.777	499.81
471.997	467.81
472.216	477.81
472.435	519.81
472.654	502.81
472.873	484.81
473.092	501.81
473.311	502.81
473.53	491.81
473.749	539.81
473.968	542.81
474.187	621.81
474.406	656.81
474.625	551.81
474.844	514.81
475.063	505.81
475.282	521.81
475.501	515.81
475.72	539.81
475.939	527.81
476.158	502.81
476.377	524.81
476.596	517.81
476.814	519.81
477.033	520.81
477.252	550.81
477.471	550.81
477.69	543.81
477.908	545.81
478.127	573.81
478.346	545.81
478.564	578.81
478.783	587.81
479.002	552.81
479.22	559.81
479.439	600.81
479.658	587.81
479.876	618.81
480.095	619.81
480.313	641.81
480.532	617.81
480.751	617.81
480.969	614.81
481.188	609.81
481.406	625.81
481.624	594.81
481.843	587.81
482.061	597.81
482.28	593.81
482.498	580.81
482.717	573.81
482.935	580.81
483.153	593.81
483.372	585.81
483.59	593.81
483.808	579.81
484.027	597.81
484.245	593.81
484.463	602.81
484.681	614.81
484.9	610.81
485.118	614.81
485.336	585.81
485.554	619.81
485.772	613.81
485.99	606.81
486.209	618.81
486.427	624.81
486.645	616.81
486.863	635.81
487.081	639.81
487.299	631.81
487.517	638.81
487.735	637.81
487.953	635.81
488.171	641.81
488.389	619.81
488.607	629.81
488.825	634.81
489.043	630.81
489.261	636.81
489.479	643.81
489.696	641.81
489.914	646.81
490.132	652.81
490.35	648.81
490.568	644.81
490.786	663.81
491.003	692.81
491.221	678.81
491.439	686.81
491.657	708.81
491.874	691.81
492.092	685.81
492.31	708.81
492.527	715.81
492.745	694.81
492.963	712.81
493.18	729.81
493.398	729.81
493.615	724.81
493.833	716.81
494.05	729.81
494.268	724.81
494.485	717.81
494.703	736.81
494.92	713.81
495.138	751.81
495.355	730.81
495.573	731.81
495.79	746.81
496.008	741.81
496.225	777.81
496.442	767.81
496.66	771.81
496.877	742.81
497.094	726.81
497.312	744.81
497.529	760.81
497.746	790.81
497.963	797.81
498.181	802.81
498.398	834.81
498.615	855.81
498.832	838.81
499.049	862.81
499.267	918.81
499.484	923.81
499.701	950.81
499.918	971.81
500.135	1031.81
500.352	1094.81
500.569	1080.81
500.786	1111.81
501.003	1049.81
501.22	1025.81
501.437	1023.81
501.654	978.81
501.871	987.81
