Data from 1988.PennyLincolnUp.Lamp.En5.5.200Scan.071819.P2_HRD10591_17-19-56-973.txt Node
Date: Thu Jul 18 17:19:56 EDT 2019
User: cochatt
Spectrometer: HR+D1059
Trigger mode: 1
Integration Time (sec): 1.000000E-1
Scans to average: 1
Electric dark correction enabled: true
Nonlinearity correction enabled: false
Boxcar width: 0
XAxis mode: Wavelengths
Number of Pixels in Spectrum: 2048
>>>>>Begin Spectral Data<<<<<
223.165	-15.69
223.4	-15.69
223.635	-15.69
223.869	-16.69
224.104	-18.69
224.338	-18.69
224.573	-20.69
224.808	-18.69
225.042	-3.69
225.277	-0.69
225.511	-13.69
225.746	7.31
225.98	2.31
226.215	18.31
226.449	18.31
226.683	24.31
226.918	26.31
227.152	30.31
227.387	39.31
227.621	31.31
227.856	38.31
228.09	41.31
228.324	50.31
228.559	58.31
228.793	69.31
229.027	116.31
229.262	114.31
229.496	127.31
229.73	138.31
229.964	178.31
230.199	143.31
230.433	107.31
230.667	122.31
230.901	125.31
231.136	127.31
231.37	133.31
231.604	122.31
231.838	126.31
232.072	126.31
232.306	120.31
232.541	115.31
232.775	132.31
233.009	117.31
233.243	114.31
233.477	107.31
233.711	120.31
233.945	111.31
234.179	111.31
234.413	126.31
234.647	125.31
234.881	111.31
235.115	127.31
235.349	127.31
235.583	127.31
235.817	125.31
236.051	126.31
236.285	123.31
236.519	117.31
236.753	151.31
236.987	159.31
237.221	174.31
237.455	251.31
237.689	198.31
237.922	155.31
238.156	150.31
238.39	141.31
238.624	128.31
238.858	127.31
239.091	141.31
239.325	122.31
239.559	132.31
239.793	136.31
240.027	140.31
240.26	158.31
240.494	173.31
240.728	166.31
240.961	153.31
241.195	160.31
241.429	141.31
241.662	151.31
241.896	150.31
242.13	127.31
242.363	142.31
242.597	143.31
242.83	135.31
243.064	138.31
243.298	148.31
243.531	141.31
243.765	158.31
243.998	132.31
244.232	140.31
244.465	152.31
244.699	148.31
244.932	166.31
245.166	150.31
245.399	170.31
245.633	152.31
245.866	168.31
246.099	153.31
246.333	145.31
246.566	148.31
246.8	149.31
247.033	157.31
247.266	173.31
247.5	173.31
247.733	168.31
247.966	163.31
248.2	183.31
248.433	180.31
248.666	190.31
248.899	192.31
249.133	203.31
249.366	222.31
249.599	219.31
249.832	205.31
250.066	189.31
250.299	185.31
250.532	204.31
250.765	204.31
250.998	235.31
251.231	223.31
251.465	233.31
251.698	215.31
251.931	219.31
252.164	198.31
252.397	195.31
252.63	216.31
252.863	205.31
253.096	221.31
253.329	213.31
253.562	238.31
253.795	226.31
254.028	223.31
254.261	215.31
254.494	238.31
254.727	261.31
254.96	267.31
255.193	277.31
255.426	263.31
255.659	250.31
255.892	238.31
256.124	210.31
256.357	230.31
256.59	236.31
256.823	225.31
257.056	216.31
257.289	213.31
257.521	221.31
257.754	219.31
257.987	221.31
258.22	220.31
258.452	220.31
258.685	227.31
258.918	203.31
259.151	216.31
259.383	223.31
259.616	223.31
259.849	231.31
260.081	239.31
260.314	272.31
260.547	267.31
260.779	273.31
261.012	259.31
261.244	236.31
261.477	241.31
261.71	236.31
261.942	223.31
262.175	240.31
262.407	244.31
262.64	231.31
262.872	229.31
263.105	219.31
263.337	221.31
263.57	238.31
263.802	235.31
264.035	219.31
264.267	217.31
264.499	223.31
264.732	203.31
264.964	237.31
265.197	217.31
265.429	216.31
265.661	214.31
265.894	206.31
266.126	243.31
266.358	239.31
266.591	228.31
266.823	223.31
267.055	239.31
267.287	246.31
267.52	240.31
267.752	248.31
267.984	228.31
268.216	236.31
268.448	254.31
268.681	250.31
268.913	256.31
269.145	276.31
269.377	304.31
269.609	292.31
269.841	271.31
270.073	301.31
270.306	298.31
270.538	334.31
270.77	314.31
271.002	315.31
271.234	324.31
271.466	329.31
271.698	317.31
271.93	334.31
272.162	335.31
272.394	326.31
272.626	322.31
272.858	298.31
273.09	292.31
273.322	299.31
273.553	270.31
273.785	276.31
274.017	279.31
274.249	283.31
274.481	286.31
274.713	276.31
274.945	286.31
275.176	276.31
275.408	283.31
275.64	276.31
275.872	273.31
276.104	278.31
276.335	276.31
276.567	284.31
276.799	299.31
277.031	334.31
277.262	340.31
277.494	335.31
277.726	304.31
277.957	289.31
278.189	304.31
278.421	296.31
278.652	284.31
278.884	287.31
279.115	296.31
279.347	284.31
279.579	287.31
279.81	274.31
280.042	265.31
280.273	298.31
280.505	298.31
280.736	284.31
280.968	283.31
281.199	300.31
281.431	295.31
281.662	283.31
281.894	296.31
282.125	306.31
282.356	286.31
282.588	330.31
282.819	316.31
283.051	292.31
283.282	302.31
283.513	275.31
283.745	294.31
283.976	294.31
284.207	302.31
284.439	286.31
284.67	289.31
284.901	295.31
285.132	315.31
285.364	297.31
285.595	287.31
285.826	304.31
286.057	306.31
286.288	285.31
286.52	308.31
286.751	295.31
286.982	301.31
287.213	291.31
287.444	308.31
287.675	299.31
287.906	308.31
288.138	308.31
288.369	319.31
288.6	327.31
288.831	315.31
289.062	322.31
289.293	312.31
289.524	332.31
289.755	309.31
289.986	309.31
290.217	325.31
290.448	316.31
290.679	327.31
290.91	318.31
291.141	299.31
291.371	324.31
291.602	300.31
291.833	297.31
292.064	306.31
292.295	300.31
292.526	313.31
292.757	308.31
292.987	310.31
293.218	308.31
293.449	319.31
293.68	307.31
293.91	306.31
294.141	311.31
294.372	316.31
294.603	308.31
294.833	329.31
295.064	325.31
295.295	323.31
295.525	331.31
295.756	303.31
295.987	325.31
296.217	339.31
296.448	336.31
296.679	326.31
296.909	320.31
297.14	319.31
297.37	329.31
297.601	336.31
297.831	317.31
298.062	331.31
298.292	326.31
298.523	326.31
298.753	322.31
298.984	329.31
299.214	329.31
299.445	313.31
299.675	323.31
299.905	324.31
300.136	327.31
300.366	333.31
300.597	347.31
300.827	345.31
301.057	335.31
301.288	363.31
301.518	356.31
301.748	342.31
301.979	343.31
302.209	340.31
302.439	355.31
302.669	358.31
302.9	345.31
303.13	349.31
303.36	357.31
303.59	366.31
303.82	371.31
304.051	386.31
304.281	364.31
304.511	354.31
304.741	343.31
304.971	353.31
305.201	335.31
305.431	344.31
305.661	349.31
305.891	346.31
306.121	367.31
306.352	352.31
306.582	358.31
306.812	365.31
307.042	351.31
307.272	357.31
307.502	346.31
307.731	340.31
307.961	369.31
308.191	352.31
308.421	348.31
308.651	358.31
308.881	377.31
309.111	362.31
309.341	378.31
309.571	366.31
309.8	389.31
310.03	382.31
310.26	412.31
310.49	400.31
310.72	432.31
310.949	429.31
311.179	435.31
311.409	411.31
311.639	396.31
311.868	396.31
312.098	413.31
312.328	423.31
312.557	431.31
312.787	438.31
313.017	443.31
313.246	429.31
313.476	405.31
313.706	398.31
313.935	404.31
314.165	430.31
314.394	412.31
314.624	418.31
314.853	409.31
315.083	414.31
315.312	425.31
315.542	406.31
315.771	392.31
316.001	394.31
316.23	409.31
316.46	396.31
316.689	384.31
316.919	444.31
317.148	413.31
317.377	423.31
317.607	423.31
317.836	423.31
318.065	420.31
318.295	416.31
318.524	413.31
318.753	419.31
318.983	392.31
319.212	414.31
319.441	422.31
319.67	405.31
319.9	423.31
320.129	424.31
320.358	420.31
320.587	425.31
320.816	428.31
321.046	417.31
321.275	432.31
321.504	428.31
321.733	445.31
321.962	450.31
322.191	462.31
322.42	479.31
322.649	491.31
322.878	487.31
323.108	494.31
323.337	512.31
323.566	554.31
323.795	564.31
324.024	619.31
324.253	750.31
324.482	1054.31
324.71	1642.31
324.939	2413.31
325.168	2085.31
325.397	1050.31
325.626	726.31
325.855	606.31
326.084	561.31
326.313	578.31
326.542	550.31
326.77	588.31
326.999	715.31
327.228	972.31
327.457	1445.31
327.686	1817.31
327.914	1188.31
328.143	763.31
328.372	663.31
328.6	641.31
328.829	637.31
329.058	624.31
329.287	626.31
329.515	580.31
329.744	558.31
329.972	535.31
330.201	519.31
330.43	571.31
330.658	588.31
330.887	643.31
331.115	630.31
331.344	560.31
331.572	529.31
331.801	538.31
332.03	548.31
332.258	530.31
332.486	495.31
332.715	473.31
332.943	499.31
333.172	489.31
333.4	512.31
333.629	483.31
333.857	512.31
334.085	512.31
334.314	524.31
334.542	489.31
334.771	513.31
334.999	511.31
335.227	518.31
335.455	493.31
335.684	481.31
335.912	486.31
336.14	479.31
336.369	490.31
336.597	500.31
336.825	509.31
337.053	476.31
337.281	485.31
337.51	488.31
337.738	492.31
337.966	497.31
338.194	506.31
338.422	496.31
338.65	485.31
338.878	473.31
339.106	470.31
339.334	470.31
339.562	461.31
339.79	483.31
340.018	473.31
340.246	464.31
340.474	470.31
340.702	480.31
340.93	472.31
341.158	475.31
341.386	475.31
341.614	489.31
341.842	486.31
342.07	474.31
342.298	482.31
342.526	462.31
342.754	464.31
342.981	457.31
343.209	450.31
343.437	476.31
343.665	472.31
343.893	477.31
344.12	502.31
344.348	485.31
344.576	482.31
344.804	485.31
345.031	498.31
345.259	510.31
345.487	477.31
345.714	484.31
345.942	501.31
346.17	471.31
346.397	480.31
346.625	458.31
346.853	469.31
347.08	468.31
347.308	452.31
347.535	483.31
347.763	467.31
347.99	459.31
348.218	463.31
348.445	490.31
348.673	454.31
348.9	470.31
349.128	468.31
349.355	458.31
349.583	456.31
349.81	446.31
350.037	456.31
350.265	439.31
350.492	426.31
350.72	465.31
350.947	452.31
351.174	457.31
351.402	484.31
351.629	467.31
351.856	464.31
352.083	471.31
352.311	501.31
352.538	472.31
352.765	469.31
352.992	476.31
353.22	477.31
353.447	483.31
353.674	478.31
353.901	446.31
354.128	465.31
354.355	454.31
354.583	415.31
354.81	450.31
355.037	432.31
355.264	438.31
355.491	429.31
355.718	424.31
355.945	418.31
356.172	443.31
356.399	418.31
356.626	443.31
356.853	422.31
357.08	438.31
357.307	433.31
357.534	421.31
357.761	436.31
357.988	447.31
358.215	438.31
358.441	444.31
358.668	429.31
358.895	431.31
359.122	445.31
359.349	436.31
359.576	464.31
359.802	501.31
360.029	491.31
360.256	510.31
360.483	514.31
360.709	482.31
360.936	475.31
361.163	462.31
361.39	471.31
361.616	454.31
361.843	467.31
362.07	473.31
362.296	475.31
362.523	461.31
362.749	455.31
362.976	451.31
363.203	444.31
363.429	453.31
363.656	456.31
363.882	452.31
364.109	451.31
364.335	454.31
364.562	429.31
364.788	452.31
365.015	431.31
365.241	460.31
365.468	460.31
365.694	478.31
365.92	464.31
366.147	431.31
366.373	437.31
366.599	458.31
366.826	441.31
367.052	443.31
367.278	435.31
367.505	453.31
367.731	463.31
367.957	437.31
368.184	468.31
368.41	459.31
368.636	461.31
368.862	474.31
369.089	462.31
369.315	454.31
369.541	447.31
369.767	438.31
369.993	436.31
370.219	454.31
370.445	456.31
370.672	439.31
370.898	457.31
371.124	443.31
371.35	451.31
371.576	474.31
371.802	460.31
372.028	449.31
372.254	446.31
372.48	454.31
372.706	452.31
372.932	456.31
373.158	454.31
373.384	460.31
373.61	439.31
373.835	486.31
374.061	459.31
374.287	462.31
374.513	464.31
374.739	465.31
374.965	463.31
375.191	457.31
375.416	457.31
375.642	451.31
375.868	452.31
376.094	432.31
376.319	444.31
376.545	451.31
376.771	436.31
376.997	462.31
377.222	451.31
377.448	445.31
377.674	456.31
377.899	468.31
378.125	445.31
378.35	453.31
378.576	446.31
378.802	444.31
379.027	445.31
379.253	443.31
379.478	456.31
379.704	441.31
379.929	453.31
380.155	442.31
380.38	474.31
380.606	456.31
380.831	454.31
381.057	453.31
381.282	451.31
381.507	458.31
381.733	474.31
381.958	462.31
382.184	461.31
382.409	471.31
382.634	492.31
382.86	457.31
383.085	442.31
383.31	491.31
383.535	461.31
383.761	483.31
383.986	466.31
384.211	466.31
384.436	470.31
384.662	460.31
384.887	482.31
385.112	485.31
385.337	500.31
385.562	498.31
385.787	496.31
386.013	488.31
386.238	504.31
386.463	518.31
386.688	478.31
386.913	524.31
387.138	534.31
387.363	496.31
387.588	496.31
387.813	517.31
388.038	500.31
388.263	500.31
388.488	502.31
388.713	504.31
388.938	477.31
389.163	503.31
389.387	512.31
389.612	486.31
389.837	507.31
390.062	493.31
390.287	482.31
390.512	486.31
390.736	501.31
390.961	492.31
391.186	504.31
391.411	497.31
391.636	526.31
391.86	521.31
392.085	523.31
392.31	516.31
392.534	533.31
392.759	522.31
392.984	506.31
393.208	508.31
393.433	531.31
393.658	525.31
393.882	505.31
394.107	492.31
394.331	525.31
394.556	516.31
394.78	509.31
395.005	511.31
395.229	523.31
395.454	520.31
395.678	524.31
395.903	561.31
396.127	558.31
396.352	564.31
396.576	546.31
396.801	504.31
397.025	507.31
397.249	533.31
397.474	534.31
397.698	534.31
397.922	557.31
398.147	571.31
398.371	601.31
398.595	602.31
398.82	590.31
399.044	612.31
399.268	626.31
399.492	629.31
399.717	648.31
399.941	694.31
400.165	733.31
400.389	723.31
400.613	668.31
400.837	638.31
401.062	611.31
401.286	586.31
401.51	594.31
401.734	582.31
401.958	576.31
402.182	569.31
402.406	605.31
402.63	618.31
402.854	594.31
403.078	601.31
403.302	599.31
403.526	603.31
403.75	606.31
403.974	599.31
404.198	602.31
404.422	620.31
404.645	611.31
404.869	604.31
405.093	625.31
405.317	657.31
405.541	680.31
405.765	646.31
405.988	614.31
406.212	639.31
406.436	657.31
406.66	686.31
406.883	656.31
407.107	684.31
407.331	745.31
407.555	812.31
407.778	797.31
408.002	722.31
408.226	688.31
408.449	694.31
408.673	656.31
408.896	709.31
409.12	751.31
409.344	701.31
409.567	642.31
409.791	640.31
410.014	626.31
410.238	636.31
410.461	627.31
410.685	623.31
410.908	640.31
411.132	672.31
411.355	693.31
411.578	702.31
411.802	620.31
412.025	597.31
412.249	600.31
412.472	618.31
412.695	624.31
412.919	611.31
413.142	590.31
413.365	583.31
413.589	581.31
413.812	596.31
414.035	585.31
414.258	586.31
414.482	574.31
414.705	564.31
414.928	597.31
415.151	570.31
415.374	581.31
415.597	566.31
415.821	569.31
416.044	585.31
416.267	575.31
416.49	579.31
416.713	564.31
416.936	571.31
417.159	565.31
417.382	562.31
417.605	569.31
417.828	578.31
418.051	595.31
418.274	616.31
418.497	584.31
418.72	588.31
418.943	552.31
419.166	603.31
419.389	615.31
419.611	619.31
419.834	621.31
420.057	595.31
420.28	602.31
420.503	574.31
420.726	596.31
420.948	606.31
421.171	659.31
421.394	705.31
421.617	634.31
421.839	581.31
422.062	615.31
422.285	602.31
422.507	700.31
422.73	754.31
422.953	740.31
423.175	650.31
423.398	622.31
423.621	635.31
423.843	632.31
424.066	661.31
424.288	621.31
424.511	651.31
424.733	744.31
424.956	818.31
425.178	822.31
425.401	774.31
425.623	798.31
425.846	710.31
426.068	655.31
426.291	643.31
426.513	632.31
426.735	657.31
426.958	694.31
427.18	759.31
427.402	919.31
427.625	1040.31
427.847	900.31
428.069	773.31
428.292	698.31
428.514	654.31
428.736	627.31
428.958	652.31
429.181	604.31
429.403	587.31
429.625	595.31
429.847	642.31
430.069	705.31
430.292	732.31
430.514	612.31
430.736	606.31
430.958	588.31
431.18	567.31
431.402	565.31
431.624	557.31
431.846	566.31
432.068	554.31
432.29	569.31
432.512	575.31
432.734	554.31
432.956	573.31
433.178	569.31
433.4	574.31
433.622	563.31
433.844	568.31
434.066	575.31
434.287	556.31
434.509	566.31
434.731	582.31
434.953	600.31
435.175	613.31
435.397	645.31
435.618	664.31
435.84	698.31
436.062	803.31
436.284	898.31
436.505	742.31
436.727	668.31
436.949	615.31
437.17	615.31
437.392	571.31
437.614	619.31
437.835	682.31
438.057	754.31
438.278	872.31
438.5	873.31
438.721	947.31
438.943	936.31
439.165	714.31
439.386	657.31
439.608	669.31
439.829	640.31
440.05	679.31
440.272	732.31
440.493	690.31
440.715	634.31
440.936	620.31
441.158	617.31
441.379	576.31
441.6	618.31
441.822	618.31
442.043	696.31
442.264	788.31
442.486	822.31
442.707	723.31
442.928	684.31
443.149	654.31
443.371	699.31
443.592	735.31
443.813	824.31
444.034	898.31
444.255	784.31
444.476	699.31
444.698	673.31
444.919	665.31
445.14	768.31
445.361	721.31
445.582	698.31
445.803	767.31
446.024	889.31
446.245	896.31
446.466	812.31
446.687	702.31
446.908	647.31
447.129	633.31
447.35	601.31
447.571	610.31
447.792	570.31
448.013	601.31
448.234	630.31
448.455	670.31
448.675	809.31
448.896	923.31
449.117	805.31
449.338	756.31
449.559	876.31
449.779	995.31
450	813.31
450.221	665.31
450.442	623.31
450.662	589.31
450.883	571.31
451.104	612.31
451.324	575.31
451.545	582.31
451.766	553.31
451.986	536.31
452.207	532.31
452.428	549.31
452.648	516.31
452.869	532.31
453.089	539.31
453.31	542.31
453.53	535.31
453.751	550.31
453.971	544.31
454.192	574.31
454.412	574.31
454.633	554.31
454.853	534.31
455.073	524.31
455.294	542.31
455.514	631.31
455.734	636.31
455.955	544.31
456.175	515.31
456.395	503.31
456.616	510.31
456.836	498.31
457.056	489.31
457.276	485.31
457.497	518.31
457.717	535.31
457.937	514.31
458.157	518.31
458.377	539.31
458.598	556.31
458.818	633.31
459.038	685.31
459.258	711.31
459.478	613.31
459.698	586.31
459.918	575.31
460.138	570.31
460.358	591.31
460.578	574.31
460.798	575.31
461.018	600.31
461.238	611.31
461.458	590.31
461.678	570.31
461.898	582.31
462.118	585.31
462.338	582.31
462.558	606.31
462.777	609.31
462.997	622.31
463.217	644.31
463.437	638.31
463.657	631.31
463.876	642.31
464.096	648.31
464.316	646.31
464.536	627.31
464.755	638.31
464.975	622.31
465.195	648.31
465.414	723.31
465.634	670.31
465.854	617.31
466.073	613.31
466.293	576.31
466.512	572.31
466.732	546.31
466.951	548.31
467.171	559.31
467.391	564.31
467.61	552.31
467.829	569.31
468.049	548.31
468.268	556.31
468.488	564.31
468.707	538.31
468.927	559.31
469.146	536.31
469.365	522.31
469.585	533.31
469.804	565.31
470.023	563.31
470.243	556.31
470.462	550.31
470.681	585.31
470.901	568.31
471.12	579.31
471.339	579.31
471.558	550.31
471.777	556.31
471.997	522.31
472.216	539.31
472.435	562.31
472.654	548.31
472.873	550.31
473.092	539.31
473.311	541.31
473.53	562.31
473.749	574.31
473.968	613.31
474.187	706.31
474.406	732.31
474.625	617.31
474.844	557.31
475.063	606.31
475.282	564.31
475.501	559.31
475.72	572.31
475.939	582.31
476.158	564.31
476.377	578.31
476.596	558.31
476.814	581.31
477.033	586.31
477.252	620.31
477.471	627.31
477.69	615.31
477.908	607.31
478.127	604.31
478.346	593.31
478.564	637.31
478.783	637.31
479.002	638.31
479.22	644.31
479.439	626.31
479.658	660.31
479.876	671.31
480.095	687.31
480.313	702.31
480.532	706.31
480.751	692.31
480.969	675.31
481.188	705.31
481.406	703.31
481.624	693.31
481.843	635.31
482.061	664.31
482.28	668.31
482.498	663.31
482.717	632.31
482.935	645.31
483.153	670.31
483.372	672.31
483.59	661.31
483.808	660.31
484.027	659.31
484.245	652.31
484.463	676.31
484.681	708.31
484.9	683.31
485.118	660.31
485.336	669.31
485.554	654.31
485.772	693.31
485.99	678.31
486.209	672.31
486.427	672.31
486.645	688.31
486.863	710.31
487.081	711.31
487.299	731.31
487.517	707.31
487.735	723.31
487.953	714.31
488.171	718.31
488.389	703.31
488.607	722.31
488.825	724.31
489.043	716.31
489.261	703.31
489.479	717.31
489.696	714.31
489.914	687.31
490.132	737.31
490.35	742.31
490.568	716.31
490.786	770.31
491.003	766.31
491.221	766.31
491.439	792.31
491.657	787.31
491.874	789.31
492.092	807.31
492.31	832.31
492.527	798.31
492.745	795.31
492.963	818.31
493.18	818.31
493.398	821.31
493.615	822.31
493.833	809.31
494.05	839.31
494.268	820.31
494.485	814.31
494.703	785.31
494.92	838.31
495.138	863.31
495.355	837.31
495.573	876.31
495.79	827.31
496.008	873.31
496.225	824.31
496.442	841.31
496.66	845.31
496.877	865.31
497.094	870.31
497.312	847.31
497.529	885.31
497.746	884.31
497.963	870.31
498.181	919.31
498.398	927.31
498.615	924.31
498.832	949.31
499.049	973.31
499.267	992.31
499.484	1048.31
499.701	1090.31
499.918	1130.31
500.135	1174.31
500.352	1180.31
500.569	1231.31
500.786	1189.31
501.003	1178.31
501.22	1158.31
501.437	1125.31
501.654	1096.31
