Data from 1988.PennyLincolnUp.Lamp.En5.5.200Scan.071819.P2_HRD10591_17-20-28-973.txt Node
Date: Thu Jul 18 17:20:28 EDT 2019
User: cochatt
Spectrometer: HR+D1059
Trigger mode: 1
Integration Time (sec): 1.000000E-1
Scans to average: 1
Electric dark correction enabled: true
Nonlinearity correction enabled: false
Boxcar width: 0
XAxis mode: Wavelengths
Number of Pixels in Spectrum: 2048
>>>>>Begin Spectral Data<<<<<
223.165	-17.06
223.4	-17.06
223.635	-17.06
223.869	-15.06
224.104	-10.06
224.338	-16.06
224.573	-10.06
224.808	-5.06
225.042	-23.06
225.277	-13.06
225.511	2.94
225.746	5.94
225.98	4.94
226.215	16.94
226.449	18.94
226.683	18.94
226.918	13.94
227.152	26.94
227.387	39.94
227.621	29.94
227.856	41.94
228.09	63.94
228.324	49.94
228.559	60.94
228.793	70.94
229.027	99.94
229.262	103.94
229.496	121.94
229.73	144.94
229.964	151.94
230.199	132.94
230.433	120.94
230.667	114.94
230.901	101.94
231.136	127.94
231.37	107.94
231.604	109.94
231.838	107.94
232.072	107.94
232.306	124.94
232.541	118.94
232.775	106.94
233.009	112.94
233.243	117.94
233.477	126.94
233.711	119.94
233.945	124.94
234.179	117.94
234.413	113.94
234.647	127.94
234.881	128.94
235.115	116.94
235.349	138.94
235.583	102.94
235.817	114.94
236.051	120.94
236.285	145.94
236.519	125.94
236.753	136.94
236.987	148.94
237.221	217.94
237.455	274.94
237.689	199.94
237.922	142.94
238.156	151.94
238.39	146.94
238.624	147.94
238.858	148.94
239.091	122.94
239.325	140.94
239.559	130.94
239.793	135.94
240.027	138.94
240.26	142.94
240.494	158.94
240.728	163.94
240.961	164.94
241.195	140.94
241.429	148.94
241.662	144.94
241.896	159.94
242.13	138.94
242.363	131.94
242.597	151.94
242.83	154.94
243.064	150.94
243.298	147.94
243.531	140.94
243.765	143.94
243.998	150.94
244.232	149.94
244.465	156.94
244.699	150.94
244.932	166.94
245.166	166.94
245.399	154.94
245.633	143.94
245.866	142.94
246.099	160.94
246.333	160.94
246.566	138.94
246.8	160.94
247.033	168.94
247.266	157.94
247.5	170.94
247.733	158.94
247.966	202.94
248.2	173.94
248.433	177.94
248.666	176.94
248.899	194.94
249.133	201.94
249.366	210.94
249.599	210.94
249.832	198.94
250.066	191.94
250.299	185.94
250.532	203.94
250.765	202.94
250.998	215.94
251.231	242.94
251.465	233.94
251.698	215.94
251.931	212.94
252.164	187.94
252.397	206.94
252.63	210.94
252.863	213.94
253.096	234.94
253.329	249.94
253.562	236.94
253.795	230.94
254.028	220.94
254.261	224.94
254.494	234.94
254.727	251.94
254.96	299.94
255.193	294.94
255.426	265.94
255.659	239.94
255.892	238.94
256.124	230.94
256.357	227.94
256.59	218.94
256.823	225.94
257.056	220.94
257.289	230.94
257.521	222.94
257.754	218.94
257.987	225.94
258.22	229.94
258.452	241.94
258.685	219.94
258.918	212.94
259.151	210.94
259.383	226.94
259.616	234.94
259.849	231.94
260.081	254.94
260.314	286.94
260.547	279.94
260.779	260.94
261.012	244.94
261.244	242.94
261.477	233.94
261.71	233.94
261.942	241.94
262.175	256.94
262.407	242.94
262.64	226.94
262.872	239.94
263.105	232.94
263.337	230.94
263.57	216.94
263.802	230.94
264.035	236.94
264.267	227.94
264.499	235.94
264.732	227.94
264.964	240.94
265.197	223.94
265.429	217.94
265.661	229.94
265.894	242.94
266.126	214.94
266.358	229.94
266.591	227.94
266.823	245.94
267.055	212.94
267.287	242.94
267.52	230.94
267.752	260.94
267.984	251.94
268.216	242.94
268.448	240.94
268.681	247.94
268.913	264.94
269.145	286.94
269.377	292.94
269.609	305.94
269.841	295.94
270.073	300.94
270.306	296.94
270.538	326.94
270.77	341.94
271.002	321.94
271.234	314.94
271.466	296.94
271.698	336.94
271.93	319.94
272.162	319.94
272.394	345.94
272.626	321.94
272.858	310.94
273.09	299.94
273.322	297.94
273.553	290.94
273.785	303.94
274.017	289.94
274.249	279.94
274.481	258.94
274.713	271.94
274.945	283.94
275.176	295.94
275.408	273.94
275.64	276.94
275.872	277.94
276.104	268.94
276.335	286.94
276.567	274.94
276.799	307.94
277.031	312.94
277.262	340.94
277.494	346.94
277.726	311.94
277.957	328.94
278.189	293.94
278.421	291.94
278.652	285.94
278.884	287.94
279.115	286.94
279.347	289.94
279.579	279.94
279.81	285.94
280.042	277.94
280.273	280.94
280.505	273.94
280.736	279.94
280.968	294.94
281.199	300.94
281.431	280.94
281.662	276.94
281.894	282.94
282.125	286.94
282.356	300.94
282.588	327.94
282.819	346.94
283.051	312.94
283.282	287.94
283.513	302.94
283.745	278.94
283.976	295.94
284.207	292.94
284.439	300.94
284.67	307.94
284.901	294.94
285.132	285.94
285.364	286.94
285.595	280.94
285.826	306.94
286.057	305.94
286.288	293.94
286.52	295.94
286.751	294.94
286.982	308.94
287.213	299.94
287.444	294.94
287.675	300.94
287.906	313.94
288.138	316.94
288.369	309.94
288.6	316.94
288.831	310.94
289.062	321.94
289.293	318.94
289.524	310.94
289.755	302.94
289.986	328.94
290.217	304.94
290.448	288.94
290.679	305.94
290.91	319.94
291.141	298.94
291.371	325.94
291.602	331.94
291.833	305.94
292.064	307.94
292.295	294.94
292.526	303.94
292.757	313.94
292.987	317.94
293.218	299.94
293.449	321.94
293.68	295.94
293.91	326.94
294.141	302.94
294.372	302.94
294.603	300.94
294.833	324.94
295.064	318.94
295.295	306.94
295.525	312.94
295.756	323.94
295.987	334.94
296.217	350.94
296.448	383.94
296.679	343.94
296.909	318.94
297.14	326.94
297.37	327.94
297.601	346.94
297.831	324.94
298.062	340.94
298.292	340.94
298.523	332.94
298.753	328.94
298.984	337.94
299.214	337.94
299.445	335.94
299.675	322.94
299.905	345.94
300.136	347.94
300.366	331.94
300.597	339.94
300.827	342.94
301.057	355.94
301.288	360.94
301.518	352.94
301.748	347.94
301.979	353.94
302.209	349.94
302.439	363.94
302.669	360.94
302.9	364.94
303.13	365.94
303.36	368.94
303.59	356.94
303.82	375.94
304.051	358.94
304.281	353.94
304.511	370.94
304.741	364.94
304.971	382.94
305.201	367.94
305.431	342.94
305.661	369.94
305.891	362.94
306.121	371.94
306.352	366.94
306.582	371.94
306.812	377.94
307.042	370.94
307.272	361.94
307.502	380.94
307.731	379.94
307.961	387.94
308.191	363.94
308.421	355.94
308.651	355.94
308.881	364.94
309.111	384.94
309.341	362.94
309.571	377.94
309.8	392.94
310.03	405.94
310.26	399.94
310.49	386.94
310.72	402.94
310.949	407.94
311.179	440.94
311.409	403.94
311.639	405.94
311.868	418.94
312.098	415.94
312.328	432.94
312.557	448.94
312.787	446.94
313.017	463.94
313.246	426.94
313.476	412.94
313.706	419.94
313.935	432.94
314.165	422.94
314.394	439.94
314.624	439.94
314.853	426.94
315.083	420.94
315.312	415.94
315.542	436.94
315.771	406.94
316.001	397.94
316.23	414.94
316.46	412.94
316.689	411.94
316.919	422.94
317.148	417.94
317.377	411.94
317.607	424.94
317.836	433.94
318.065	430.94
318.295	417.94
318.524	412.94
318.753	414.94
318.983	419.94
319.212	425.94
319.441	421.94
319.67	443.94
319.9	426.94
320.129	404.94
320.358	419.94
320.587	437.94
320.816	438.94
321.046	447.94
321.275	447.94
321.504	455.94
321.733	463.94
321.962	460.94
322.191	465.94
322.42	487.94
322.649	470.94
322.878	484.94
323.108	529.94
323.337	536.94
323.566	565.94
323.795	595.94
324.024	631.94
324.253	770.94
324.482	1078.94
324.71	1705.94
324.939	2560.94
325.168	2212.94
325.397	1076.94
325.626	756.94
325.855	619.94
326.084	578.94
326.313	556.94
326.542	567.94
326.77	630.94
326.999	737.94
327.228	990.94
327.457	1554.94
327.686	1936.94
327.914	1263.94
328.143	807.94
328.372	686.94
328.6	638.94
328.829	634.94
329.058	628.94
329.287	647.94
329.515	615.94
329.744	565.94
329.972	562.94
330.201	559.94
330.43	575.94
330.658	597.94
330.887	655.94
331.115	657.94
331.344	564.94
331.572	560.94
331.801	561.94
332.03	548.94
332.258	522.94
332.486	528.94
332.715	484.94
332.943	488.94
333.172	523.94
333.4	520.94
333.629	510.94
333.857	553.94
334.085	508.94
334.314	503.94
334.542	519.94
334.771	531.94
334.999	526.94
335.227	519.94
335.455	507.94
335.684	484.94
335.912	490.94
336.14	497.94
336.369	494.94
336.597	523.94
336.825	491.94
337.053	489.94
337.281	476.94
337.51	480.94
337.738	506.94
337.966	480.94
338.194	516.94
338.422	510.94
338.65	478.94
338.878	496.94
339.106	477.94
339.334	472.94
339.562	481.94
339.79	469.94
340.018	489.94
340.246	492.94
340.474	490.94
340.702	476.94
340.93	482.94
341.158	468.94
341.386	473.94
341.614	475.94
341.842	490.94
342.07	474.94
342.298	473.94
342.526	466.94
342.754	466.94
342.981	453.94
343.209	446.94
343.437	471.94
343.665	459.94
343.893	495.94
344.12	516.94
344.348	515.94
344.576	504.94
344.804	510.94
345.031	482.94
345.259	504.94
345.487	494.94
345.714	484.94
345.942	482.94
346.17	478.94
346.397	481.94
346.625	468.94
346.853	464.94
347.08	466.94
347.308	475.94
347.535	485.94
347.763	473.94
347.99	479.94
348.218	461.94
348.445	491.94
348.673	486.94
348.9	466.94
349.128	461.94
349.355	450.94
349.583	460.94
349.81	471.94
350.037	438.94
350.265	435.94
350.492	457.94
350.72	464.94
350.947	473.94
351.174	481.94
351.402	483.94
351.629	485.94
351.856	466.94
352.083	463.94
352.311	457.94
352.538	500.94
352.765	498.94
352.992	492.94
353.22	461.94
353.447	457.94
353.674	464.94
353.901	471.94
354.128	453.94
354.355	428.94
354.583	451.94
354.81	446.94
355.037	443.94
355.264	430.94
355.491	422.94
355.718	440.94
355.945	441.94
356.172	436.94
356.399	444.94
356.626	439.94
356.853	431.94
357.08	426.94
357.307	446.94
357.534	420.94
357.761	439.94
357.988	449.94
358.215	449.94
358.441	457.94
358.668	451.94
358.895	452.94
359.122	443.94
359.349	455.94
359.576	477.94
359.802	496.94
360.029	534.94
360.256	524.94
360.483	502.94
360.709	496.94
360.936	459.94
361.163	475.94
361.39	478.94
361.616	482.94
361.843	478.94
362.07	471.94
362.296	476.94
362.523	482.94
362.749	486.94
362.976	477.94
363.203	484.94
363.429	471.94
363.656	452.94
363.882	475.94
364.109	451.94
364.335	450.94
364.562	448.94
364.788	455.94
365.015	458.94
365.241	460.94
365.468	471.94
365.694	461.94
365.92	470.94
366.147	442.94
366.373	451.94
366.599	450.94
366.826	466.94
367.052	445.94
367.278	445.94
367.505	484.94
367.731	452.94
367.957	465.94
368.184	457.94
368.41	463.94
368.636	483.94
368.862	458.94
369.089	482.94
369.315	463.94
369.541	447.94
369.767	470.94
369.993	462.94
370.219	463.94
370.445	464.94
370.672	463.94
370.898	457.94
371.124	457.94
371.35	468.94
371.576	481.94
371.802	455.94
372.028	459.94
372.254	453.94
372.48	456.94
372.706	453.94
372.932	448.94
373.158	479.94
373.384	489.94
373.61	466.94
373.835	467.94
374.061	451.94
374.287	443.94
374.513	466.94
374.739	468.94
374.965	470.94
375.191	470.94
375.416	465.94
375.642	447.94
375.868	472.94
376.094	433.94
376.319	453.94
376.545	457.94
376.771	449.94
376.997	444.94
377.222	454.94
377.448	448.94
377.674	450.94
377.899	458.94
378.125	435.94
378.35	453.94
378.576	450.94
378.802	458.94
379.027	456.94
379.253	464.94
379.478	464.94
379.704	459.94
379.929	478.94
380.155	450.94
380.38	455.94
380.606	452.94
380.831	464.94
381.057	462.94
381.282	465.94
381.507	487.94
381.733	472.94
381.958	461.94
382.184	454.94
382.409	478.94
382.634	482.94
382.86	486.94
383.085	458.94
383.31	469.94
383.535	505.94
383.761	465.94
383.986	462.94
384.211	476.94
384.436	487.94
384.662	495.94
384.887	499.94
385.112	483.94
385.337	504.94
385.562	498.94
385.787	528.94
386.013	518.94
386.238	505.94
386.463	510.94
386.688	513.94
386.913	497.94
387.138	514.94
387.363	498.94
387.588	491.94
387.813	530.94
388.038	519.94
388.263	492.94
388.488	502.94
388.713	507.94
388.938	502.94
389.163	506.94
389.387	508.94
389.612	500.94
389.837	492.94
390.062	485.94
390.287	506.94
390.512	510.94
390.736	515.94
390.961	523.94
391.186	513.94
391.411	530.94
391.636	508.94
391.86	523.94
392.085	532.94
392.31	556.94
392.534	520.94
392.759	525.94
392.984	535.94
393.208	504.94
393.433	533.94
393.658	542.94
393.882	520.94
394.107	516.94
394.331	510.94
394.556	537.94
394.78	521.94
395.005	527.94
395.229	517.94
395.454	521.94
395.678	549.94
395.903	542.94
396.127	565.94
396.352	560.94
396.576	555.94
396.801	516.94
397.025	543.94
397.249	558.94
397.474	573.94
397.698	544.94
397.922	562.94
398.147	572.94
398.371	593.94
398.595	564.94
398.82	576.94
399.044	597.94
399.268	629.94
399.492	636.94
399.717	691.94
399.941	702.94
400.165	738.94
400.389	755.94
400.613	682.94
400.837	658.94
401.062	608.94
401.286	597.94
401.51	606.94
401.734	602.94
401.958	598.94
402.182	609.94
402.406	618.94
402.63	612.94
402.854	599.94
403.078	597.94
403.302	602.94
403.526	638.94
403.75	616.94
403.974	626.94
404.198	619.94
404.422	622.94
404.645	590.94
404.869	618.94
405.093	611.94
405.317	683.94
405.541	710.94
405.765	655.94
405.988	642.94
406.212	659.94
406.436	668.94
406.66	699.94
406.883	667.94
407.107	710.94
407.331	754.94
407.555	818.94
407.778	805.94
408.002	716.94
408.226	680.94
408.449	690.94
408.673	723.94
408.896	706.94
409.12	766.94
409.344	727.94
409.567	646.94
409.791	643.94
410.014	634.94
410.238	633.94
410.461	618.94
410.685	636.94
410.908	631.94
411.132	700.94
411.355	736.94
411.578	700.94
411.802	644.94
412.025	630.94
412.249	605.94
412.472	627.94
412.695	658.94
412.919	640.94
413.142	625.94
413.365	600.94
413.589	606.94
413.812	593.94
414.035	614.94
414.258	577.94
414.482	578.94
414.705	593.94
414.928	580.94
415.151	593.94
415.374	605.94
415.597	595.94
415.821	584.94
416.044	597.94
416.267	567.94
416.49	564.94
416.713	584.94
416.936	597.94
417.159	591.94
417.382	606.94
417.605	611.94
417.828	586.94
418.051	592.94
418.274	578.94
418.497	589.94
418.72	583.94
418.943	565.94
419.166	610.94
419.389	644.94
419.611	615.94
419.834	613.94
420.057	616.94
420.28	597.94
420.503	608.94
420.726	609.94
420.948	629.94
421.171	658.94
421.394	715.94
421.617	632.94
421.839	607.94
422.062	606.94
422.285	651.94
422.507	684.94
422.73	764.94
422.953	752.94
423.175	655.94
423.398	640.94
423.621	628.94
423.843	665.94
424.066	667.94
424.288	645.94
424.511	660.94
424.733	730.94
424.956	849.94
425.178	822.94
425.401	789.94
425.623	816.94
425.846	739.94
426.068	662.94
426.291	690.94
426.513	660.94
426.735	647.94
426.958	726.94
427.18	819.94
427.402	975.94
427.625	1064.94
427.847	928.94
428.069	790.94
428.292	704.94
428.514	664.94
428.736	626.94
428.958	634.94
429.181	613.94
429.403	595.94
429.625	642.94
429.847	658.94
430.069	732.94
430.292	744.94
430.514	638.94
430.736	611.94
430.958	601.94
431.18	602.94
431.402	584.94
431.624	566.94
431.846	572.94
432.068	578.94
432.29	559.94
432.512	566.94
432.734	594.94
432.956	599.94
433.178	588.94
433.4	561.94
433.622	594.94
433.844	584.94
434.066	576.94
434.287	558.94
434.509	593.94
434.731	582.94
434.953	594.94
435.175	619.94
435.397	654.94
435.618	674.94
435.84	706.94
436.062	834.94
436.284	903.94
436.505	742.94
436.727	689.94
436.949	648.94
437.17	615.94
437.392	612.94
437.614	614.94
437.835	670.94
438.057	790.94
438.278	908.94
438.5	890.94
438.721	998.94
438.943	927.94
439.165	755.94
439.386	704.94
439.608	662.94
439.829	677.94
440.05	706.94
440.272	770.94
440.493	715.94
440.715	654.94
440.936	611.94
441.158	641.94
441.379	614.94
441.6	662.94
441.822	629.94
442.043	697.94
442.264	822.94
442.486	851.94
442.707	725.94
442.928	698.94
443.149	682.94
443.371	715.94
443.592	772.94
443.813	875.94
444.034	939.94
444.255	778.94
444.476	704.94
444.698	678.94
444.919	698.94
445.14	801.94
445.361	737.94
445.582	727.94
445.803	762.94
446.024	922.94
446.245	936.94
446.466	848.94
446.687	715.94
446.908	648.94
447.129	628.94
447.35	612.94
447.571	590.94
447.792	588.94
448.013	592.94
448.234	636.94
448.455	713.94
448.675	844.94
448.896	978.94
449.117	794.94
449.338	774.94
449.559	888.94
449.779	1024.94
450	809.94
450.221	690.94
450.442	650.94
450.662	606.94
450.883	620.94
451.104	630.94
451.324	626.94
451.545	585.94
451.766	568.94
451.986	532.94
452.207	532.94
452.428	524.94
452.648	558.94
452.869	562.94
453.089	558.94
453.31	572.94
453.53	561.94
453.751	546.94
453.971	566.94
454.192	587.94
454.412	566.94
454.633	558.94
454.853	531.94
455.073	530.94
455.294	589.94
455.514	668.94
455.734	656.94
455.955	569.94
456.175	544.94
456.395	514.94
456.616	521.94
456.836	505.94
457.056	516.94
457.276	489.94
457.497	512.94
457.717	530.94
457.937	524.94
458.157	537.94
458.377	519.94
458.598	560.94
458.818	622.94
459.038	704.94
459.258	739.94
459.478	650.94
459.698	605.94
459.918	566.94
460.138	586.94
460.358	593.94
460.578	595.94
460.798	598.94
461.018	599.94
461.238	595.94
461.458	571.94
461.678	597.94
461.898	598.94
462.118	603.94
462.338	586.94
462.558	611.94
462.777	624.94
462.997	638.94
463.217	651.94
463.437	674.94
463.657	634.94
463.876	622.94
464.096	669.94
464.316	634.94
464.536	642.94
464.755	639.94
464.975	633.94
465.195	672.94
465.414	748.94
465.634	672.94
465.854	626.94
466.073	578.94
466.293	606.94
466.512	587.94
466.732	580.94
466.951	573.94
467.171	568.94
467.391	565.94
467.61	579.94
467.829	581.94
468.049	575.94
468.268	562.94
468.488	554.94
468.707	564.94
468.927	529.94
469.146	534.94
469.365	550.94
469.585	541.94
469.804	572.94
470.023	549.94
470.243	568.94
470.462	570.94
470.681	578.94
470.901	583.94
471.12	594.94
471.339	570.94
471.558	570.94
471.777	575.94
471.997	563.94
472.216	550.94
472.435	550.94
472.654	565.94
472.873	555.94
473.092	540.94
473.311	568.94
473.53	556.94
473.749	556.94
473.968	616.94
474.187	731.94
474.406	766.94
474.625	665.94
474.844	615.94
475.063	578.94
475.282	574.94
475.501	567.94
475.72	614.94
475.939	587.94
476.158	596.94
476.377	606.94
476.596	583.94
476.814	600.94
477.033	584.94
477.252	615.94
477.471	617.94
477.69	604.94
477.908	640.94
478.127	632.94
478.346	621.94
478.564	632.94
478.783	643.94
479.002	664.94
479.22	666.94
479.439	671.94
479.658	694.94
479.876	676.94
480.095	713.94
480.313	727.94
480.532	708.94
480.751	722.94
480.969	730.94
481.188	719.94
481.406	698.94
481.624	692.94
481.843	657.94
482.061	672.94
482.28	663.94
482.498	684.94
482.717	650.94
482.935	666.94
483.153	678.94
483.372	674.94
483.59	652.94
483.808	681.94
484.027	674.94
484.245	678.94
484.463	680.94
484.681	670.94
484.9	680.94
485.118	661.94
485.336	713.94
485.554	683.94
485.772	680.94
485.99	702.94
486.209	694.94
486.427	711.94
486.645	715.94
486.863	709.94
487.081	754.94
487.299	724.94
487.517	708.94
487.735	722.94
487.953	695.94
488.171	730.94
488.389	694.94
488.607	723.94
488.825	706.94
489.043	715.94
489.261	723.94
489.479	733.94
489.696	722.94
489.914	740.94
490.132	741.94
490.35	731.94
490.568	739.94
490.786	773.94
491.003	777.94
491.221	783.94
491.439	786.94
491.657	820.94
491.874	825.94
492.092	832.94
492.31	786.94
492.527	805.94
492.745	826.94
492.963	822.94
493.18	809.94
493.398	803.94
493.615	839.94
493.833	832.94
494.05	827.94
494.268	844.94
494.485	852.94
494.703	860.94
494.92	842.94
495.138	834.94
495.355	862.94
495.573	863.94
495.79	882.94
496.008	898.94
496.225	854.94
496.442	850.94
496.66	873.94
496.877	864.94
497.094	881.94
497.312	892.94
497.529	883.94
497.746	895.94
497.963	918.94
498.181	960.94
498.398	953.94
498.615	1007.94
498.832	990.94
499.049	993.94
499.267	1051.94
499.484	1074.94
499.701	1091.94
499.918	1121.94
500.135	1190.94
500.352	1224.94
500.569	1244.94
500.786	1238.94
501.003	1231.94
501.22	1197.94
501.437	1143.94
501.654	1158.94
