Data from 1988.PennyLincolnUp.Lamp.En5.5.200Scan.071819.P2_HRD10591_17-20-17-972.txt Node
Date: Thu Jul 18 17:20:17 EDT 2019
User: cochatt
Spectrometer: HR+D1059
Trigger mode: 1
Integration Time (sec): 1.000000E-1
Scans to average: 1
Electric dark correction enabled: true
Nonlinearity correction enabled: false
Boxcar width: 0
XAxis mode: Wavelengths
Number of Pixels in Spectrum: 2048
>>>>>Begin Spectral Data<<<<<
223.165	-8.19
223.4	-8.19
223.635	-8.19
223.869	-10.19
224.104	-36.19
224.338	-4.19
224.573	-24.19
224.808	-18.19
225.042	-4.19
225.277	-10.19
225.511	11.81
225.746	8.81
225.98	1.81
226.215	11.81
226.449	23.81
226.683	16.81
226.918	19.81
227.152	20.81
227.387	37.81
227.621	31.81
227.856	50.81
228.09	38.81
228.324	47.81
228.559	45.81
228.793	77.81
229.027	99.81
229.262	116.81
229.496	113.81
229.73	147.81
229.964	160.81
230.199	108.81
230.433	135.81
230.667	127.81
230.901	107.81
231.136	111.81
231.37	115.81
231.604	130.81
231.838	121.81
232.072	127.81
232.306	99.81
232.541	120.81
232.775	108.81
233.009	115.81
233.243	121.81
233.477	107.81
233.711	123.81
233.945	130.81
234.179	117.81
234.413	116.81
234.647	113.81
234.881	121.81
235.115	124.81
235.349	116.81
235.583	127.81
235.817	132.81
236.051	134.81
236.285	130.81
236.519	135.81
236.753	137.81
236.987	145.81
237.221	191.81
237.455	253.81
237.689	203.81
237.922	152.81
238.156	145.81
238.39	143.81
238.624	130.81
238.858	147.81
239.091	123.81
239.325	131.81
239.559	117.81
239.793	136.81
240.027	142.81
240.26	135.81
240.494	156.81
240.728	151.81
240.961	146.81
241.195	157.81
241.429	136.81
241.662	143.81
241.896	137.81
242.13	143.81
242.363	140.81
242.597	153.81
242.83	151.81
243.064	139.81
243.298	151.81
243.531	163.81
243.765	145.81
243.998	134.81
244.232	150.81
244.465	156.81
244.699	134.81
244.932	161.81
245.166	155.81
245.399	155.81
245.633	144.81
245.866	155.81
246.099	169.81
246.333	156.81
246.566	151.81
246.8	154.81
247.033	159.81
247.266	141.81
247.5	154.81
247.733	172.81
247.966	172.81
248.2	187.81
248.433	172.81
248.666	182.81
248.899	194.81
249.133	201.81
249.366	219.81
249.599	203.81
249.832	196.81
250.066	185.81
250.299	195.81
250.532	196.81
250.765	209.81
250.998	251.81
251.231	233.81
251.465	228.81
251.698	226.81
251.931	197.81
252.164	211.81
252.397	201.81
252.63	211.81
252.863	207.81
253.096	223.81
253.329	256.81
253.562	230.81
253.795	237.81
254.028	220.81
254.261	245.81
254.494	255.81
254.727	260.81
254.96	293.81
255.193	288.81
255.426	245.81
255.659	241.81
255.892	232.81
256.124	229.81
256.357	217.81
256.59	225.81
256.823	227.81
257.056	221.81
257.289	214.81
257.521	218.81
257.754	232.81
257.987	219.81
258.22	216.81
258.452	215.81
258.685	227.81
258.918	218.81
259.151	225.81
259.383	231.81
259.616	248.81
259.849	230.81
260.081	257.81
260.314	250.81
260.547	281.81
260.779	267.81
261.012	254.81
261.244	231.81
261.477	241.81
261.71	237.81
261.942	225.81
262.175	246.81
262.407	248.81
262.64	228.81
262.872	211.81
263.105	225.81
263.337	231.81
263.57	214.81
263.802	216.81
264.035	224.81
264.267	221.81
264.499	212.81
264.732	221.81
264.964	229.81
265.197	216.81
265.429	225.81
265.661	249.81
265.894	240.81
266.126	232.81
266.358	228.81
266.591	219.81
266.823	220.81
267.055	244.81
267.287	234.81
267.52	225.81
267.752	232.81
267.984	244.81
268.216	236.81
268.448	252.81
268.681	257.81
268.913	279.81
269.145	267.81
269.377	292.81
269.609	276.81
269.841	280.81
270.073	287.81
270.306	309.81
270.538	332.81
270.77	312.81
271.002	341.81
271.234	314.81
271.466	313.81
271.698	331.81
271.93	343.81
272.162	331.81
272.394	326.81
272.626	330.81
272.858	308.81
273.09	307.81
273.322	287.81
273.553	303.81
273.785	287.81
274.017	272.81
274.249	284.81
274.481	279.81
274.713	272.81
274.945	279.81
275.176	277.81
275.408	280.81
275.64	250.81
275.872	266.81
276.104	279.81
276.335	285.81
276.567	278.81
276.799	290.81
277.031	326.81
277.262	339.81
277.494	343.81
277.726	336.81
277.957	307.81
278.189	305.81
278.421	288.81
278.652	292.81
278.884	280.81
279.115	275.81
279.347	289.81
279.579	295.81
279.81	278.81
280.042	269.81
280.273	278.81
280.505	297.81
280.736	282.81
280.968	270.81
281.199	276.81
281.431	294.81
281.662	287.81
281.894	270.81
282.125	285.81
282.356	303.81
282.588	307.81
282.819	326.81
283.051	305.81
283.282	297.81
283.513	306.81
283.745	287.81
283.976	307.81
284.207	306.81
284.439	305.81
284.67	288.81
284.901	309.81
285.132	288.81
285.364	306.81
285.595	297.81
285.826	294.81
286.057	296.81
286.288	288.81
286.52	295.81
286.751	305.81
286.982	295.81
287.213	291.81
287.444	288.81
287.675	301.81
287.906	306.81
288.138	312.81
288.369	336.81
288.6	322.81
288.831	315.81
289.062	331.81
289.293	324.81
289.524	315.81
289.755	309.81
289.986	311.81
290.217	295.81
290.448	306.81
290.679	309.81
290.91	304.81
291.141	296.81
291.371	305.81
291.602	295.81
291.833	297.81
292.064	313.81
292.295	300.81
292.526	307.81
292.757	303.81
292.987	314.81
293.218	313.81
293.449	332.81
293.68	318.81
293.91	300.81
294.141	311.81
294.372	297.81
294.603	308.81
294.833	325.81
295.064	320.81
295.295	325.81
295.525	332.81
295.756	323.81
295.987	312.81
296.217	357.81
296.448	345.81
296.679	325.81
296.909	319.81
297.14	311.81
297.37	331.81
297.601	325.81
297.831	328.81
298.062	322.81
298.292	328.81
298.523	330.81
298.753	328.81
298.984	329.81
299.214	328.81
299.445	324.81
299.675	343.81
299.905	342.81
300.136	333.81
300.366	323.81
300.597	328.81
300.827	338.81
301.057	340.81
301.288	347.81
301.518	337.81
301.748	345.81
301.979	354.81
302.209	360.81
302.439	354.81
302.669	329.81
302.9	351.81
303.13	341.81
303.36	367.81
303.59	365.81
303.82	369.81
304.051	348.81
304.281	347.81
304.511	359.81
304.741	328.81
304.971	344.81
305.201	351.81
305.431	359.81
305.661	352.81
305.891	345.81
306.121	361.81
306.352	351.81
306.582	378.81
306.812	356.81
307.042	355.81
307.272	350.81
307.502	362.81
307.731	365.81
307.961	355.81
308.191	355.81
308.421	353.81
308.651	355.81
308.881	392.81
309.111	379.81
309.341	381.81
309.571	386.81
309.8	386.81
310.03	378.81
310.26	415.81
310.49	423.81
310.72	418.81
310.949	418.81
311.179	416.81
311.409	421.81
311.639	395.81
311.868	410.81
312.098	394.81
312.328	407.81
312.557	428.81
312.787	435.81
313.017	462.81
313.246	439.81
313.476	404.81
313.706	424.81
313.935	415.81
314.165	429.81
314.394	424.81
314.624	443.81
314.853	403.81
315.083	416.81
315.312	401.81
315.542	409.81
315.771	416.81
316.001	391.81
316.23	406.81
316.46	419.81
316.689	424.81
316.919	401.81
317.148	420.81
317.377	439.81
317.607	421.81
317.836	391.81
318.065	402.81
318.295	407.81
318.524	408.81
318.753	420.81
318.983	413.81
319.212	410.81
319.441	420.81
319.67	432.81
319.9	415.81
320.129	407.81
320.358	422.81
320.587	436.81
320.816	439.81
321.046	433.81
321.275	441.81
321.504	426.81
321.733	435.81
321.962	434.81
322.191	444.81
322.42	468.81
322.649	481.81
322.878	504.81
323.108	499.81
323.337	544.81
323.566	546.81
323.795	579.81
324.024	635.81
324.253	803.81
324.482	1105.81
324.71	1706.81
324.939	2603.81
325.168	2188.81
325.397	1099.81
325.626	755.81
325.855	617.81
326.084	566.81
326.313	544.81
326.542	577.81
326.77	603.81
326.999	725.81
327.228	999.81
327.457	1526.81
327.686	1893.81
327.914	1250.81
328.143	803.81
328.372	691.81
328.6	659.81
328.829	628.81
329.058	639.81
329.287	651.81
329.515	588.81
329.744	559.81
329.972	524.81
330.201	533.81
330.43	559.81
330.658	626.81
330.887	643.81
331.115	670.81
331.344	564.81
331.572	523.81
331.801	518.81
332.03	548.81
332.258	511.81
332.486	492.81
332.715	489.81
332.943	500.81
333.172	494.81
333.4	489.81
333.629	503.81
333.857	502.81
334.085	516.81
334.314	511.81
334.542	525.81
334.771	525.81
334.999	519.81
335.227	492.81
335.455	509.81
335.684	503.81
335.912	488.81
336.14	498.81
336.369	484.81
336.597	507.81
336.825	497.81
337.053	499.81
337.281	466.81
337.51	473.81
337.738	509.81
337.966	493.81
338.194	495.81
338.422	495.81
338.65	463.81
338.878	483.81
339.106	464.81
339.334	455.81
339.562	459.81
339.79	464.81
340.018	467.81
340.246	467.81
340.474	471.81
340.702	477.81
340.93	477.81
341.158	483.81
341.386	481.81
341.614	482.81
341.842	487.81
342.07	461.81
342.298	468.81
342.526	465.81
342.754	458.81
342.981	459.81
343.209	457.81
343.437	461.81
343.665	470.81
343.893	482.81
344.12	477.81
344.348	478.81
344.576	477.81
344.804	476.81
345.031	495.81
345.259	487.81
345.487	473.81
345.714	492.81
345.942	451.81
346.17	456.81
346.397	449.81
346.625	464.81
346.853	469.81
347.08	472.81
347.308	461.81
347.535	487.81
347.763	483.81
347.99	472.81
348.218	492.81
348.445	463.81
348.673	476.81
348.9	459.81
349.128	451.81
349.355	461.81
349.583	448.81
349.81	432.81
350.037	440.81
350.265	464.81
350.492	459.81
350.72	465.81
350.947	461.81
351.174	466.81
351.402	462.81
351.629	461.81
351.856	468.81
352.083	471.81
352.311	473.81
352.538	468.81
352.765	491.81
352.992	468.81
353.22	469.81
353.447	449.81
353.674	472.81
353.901	426.81
354.128	431.81
354.355	412.81
354.583	427.81
354.81	432.81
355.037	435.81
355.264	435.81
355.491	416.81
355.718	428.81
355.945	434.81
356.172	433.81
356.399	440.81
356.626	441.81
356.853	440.81
357.08	437.81
357.307	457.81
357.534	456.81
357.761	429.81
357.988	451.81
358.215	435.81
358.441	419.81
358.668	435.81
358.895	451.81
359.122	453.81
359.349	459.81
359.576	467.81
359.802	477.81
360.029	521.81
360.256	542.81
360.483	520.81
360.709	462.81
360.936	441.81
361.163	458.81
361.39	474.81
361.616	469.81
361.843	461.81
362.07	459.81
362.296	466.81
362.523	484.81
362.749	467.81
362.976	465.81
363.203	461.81
363.429	450.81
363.656	446.81
363.882	423.81
364.109	443.81
364.335	447.81
364.562	444.81
364.788	451.81
365.015	440.81
365.241	444.81
365.468	460.81
365.694	461.81
365.92	456.81
366.147	440.81
366.373	453.81
366.599	457.81
366.826	440.81
367.052	439.81
367.278	457.81
367.505	439.81
367.731	459.81
367.957	448.81
368.184	466.81
368.41	437.81
368.636	424.81
368.862	465.81
369.089	460.81
369.315	462.81
369.541	451.81
369.767	444.81
369.993	463.81
370.219	453.81
370.445	417.81
370.672	452.81
370.898	440.81
371.124	448.81
371.35	440.81
371.576	448.81
371.802	458.81
372.028	444.81
372.254	450.81
372.48	461.81
372.706	459.81
372.932	469.81
373.158	470.81
373.384	454.81
373.61	455.81
373.835	443.81
374.061	439.81
374.287	474.81
374.513	457.81
374.739	468.81
374.965	447.81
375.191	475.81
375.416	468.81
375.642	465.81
375.868	445.81
376.094	453.81
376.319	450.81
376.545	450.81
376.771	452.81
376.997	447.81
377.222	449.81
377.448	448.81
377.674	438.81
377.899	463.81
378.125	452.81
378.35	447.81
378.576	464.81
378.802	448.81
379.027	440.81
379.253	442.81
379.478	439.81
379.704	467.81
379.929	463.81
380.155	433.81
380.38	449.81
380.606	465.81
380.831	469.81
381.057	477.81
381.282	452.81
381.507	447.81
381.733	451.81
381.958	459.81
382.184	456.81
382.409	465.81
382.634	482.81
382.86	454.81
383.085	445.81
383.31	458.81
383.535	484.81
383.761	484.81
383.986	462.81
384.211	461.81
384.436	491.81
384.662	480.81
384.887	485.81
385.112	474.81
385.337	490.81
385.562	480.81
385.787	509.81
386.013	509.81
386.238	505.81
386.463	503.81
386.688	496.81
386.913	487.81
387.138	513.81
387.363	522.81
387.588	499.81
387.813	511.81
388.038	483.81
388.263	494.81
388.488	504.81
388.713	482.81
388.938	492.81
389.163	501.81
389.387	500.81
389.612	499.81
389.837	488.81
390.062	501.81
390.287	490.81
390.512	471.81
390.736	482.81
390.961	488.81
391.186	484.81
391.411	496.81
391.636	506.81
391.86	486.81
392.085	524.81
392.31	525.81
392.534	517.81
392.759	524.81
392.984	517.81
393.208	511.81
393.433	517.81
393.658	515.81
393.882	498.81
394.107	499.81
394.331	501.81
394.556	519.81
394.78	516.81
395.005	524.81
395.229	515.81
395.454	522.81
395.678	529.81
395.903	553.81
396.127	582.81
396.352	563.81
396.576	523.81
396.801	523.81
397.025	551.81
397.249	535.81
397.474	542.81
397.698	539.81
397.922	527.81
398.147	580.81
398.371	573.81
398.595	566.81
398.82	589.81
399.044	598.81
399.268	607.81
399.492	608.81
399.717	668.81
399.941	692.81
400.165	714.81
400.389	703.81
400.613	664.81
400.837	635.81
401.062	629.81
401.286	586.81
401.51	586.81
401.734	571.81
401.958	588.81
402.182	600.81
402.406	601.81
402.63	610.81
402.854	597.81
403.078	593.81
403.302	607.81
403.526	601.81
403.75	612.81
403.974	625.81
404.198	611.81
404.422	575.81
404.645	598.81
404.869	596.81
405.093	634.81
405.317	665.81
405.541	695.81
405.765	658.81
405.988	610.81
406.212	652.81
406.436	651.81
406.66	672.81
406.883	659.81
407.107	694.81
407.331	748.81
407.555	827.81
407.778	821.81
408.002	755.81
408.226	657.81
408.449	671.81
408.673	673.81
408.896	680.81
409.12	739.81
409.344	736.81
409.567	636.81
409.791	621.81
410.014	611.81
410.238	621.81
410.461	638.81
410.685	622.81
410.908	630.81
411.132	673.81
411.355	680.81
411.578	653.81
411.802	627.81
412.025	615.81
412.249	587.81
412.472	601.81
412.695	601.81
412.919	609.81
413.142	594.81
413.365	586.81
413.589	601.81
413.812	570.81
414.035	561.81
414.258	570.81
414.482	579.81
414.705	574.81
414.928	555.81
415.151	563.81
415.374	561.81
415.597	564.81
415.821	552.81
416.044	567.81
416.267	569.81
416.49	587.81
416.713	576.81
416.936	577.81
417.159	587.81
417.382	567.81
417.605	592.81
417.828	592.81
418.051	599.81
418.274	607.81
418.497	589.81
418.72	580.81
418.943	559.81
419.166	608.81
419.389	602.81
419.611	623.81
419.834	606.81
420.057	610.81
420.28	601.81
420.503	566.81
420.726	574.81
420.948	613.81
421.171	669.81
421.394	699.81
421.617	624.81
421.839	595.81
422.062	611.81
422.285	620.81
422.507	691.81
422.73	773.81
422.953	748.81
423.175	659.81
423.398	633.81
423.621	617.81
423.843	625.81
424.066	658.81
424.288	626.81
424.511	644.81
424.733	729.81
424.956	850.81
425.178	793.81
425.401	792.81
425.623	803.81
425.846	695.81
426.068	649.81
426.291	643.81
426.513	664.81
426.735	663.81
426.958	740.81
427.18	796.81
427.402	954.81
427.625	1071.81
427.847	915.81
428.069	765.81
428.292	688.81
428.514	641.81
428.736	635.81
428.958	637.81
429.181	591.81
429.403	605.81
429.625	627.81
429.847	661.81
430.069	733.81
430.292	747.81
430.514	644.81
430.736	614.81
430.958	589.81
431.18	578.81
431.402	563.81
431.624	538.81
431.846	554.81
432.068	555.81
432.29	581.81
432.512	581.81
432.734	571.81
432.956	580.81
433.178	584.81
433.4	583.81
433.622	551.81
433.844	579.81
434.066	577.81
434.287	561.81
434.509	578.81
434.731	601.81
434.953	584.81
435.175	617.81
435.397	645.81
435.618	667.81
435.84	701.81
436.062	805.81
436.284	873.81
436.505	738.81
436.727	663.81
436.949	623.81
437.17	624.81
437.392	600.81
437.614	637.81
437.835	653.81
438.057	751.81
438.278	872.81
438.5	882.81
438.721	984.81
438.943	933.81
439.165	722.81
439.386	662.81
439.608	654.81
439.829	652.81
440.05	675.81
440.272	734.81
440.493	714.81
440.715	667.81
440.936	624.81
441.158	635.81
441.379	602.81
441.6	626.81
441.822	665.81
442.043	695.81
442.264	779.81
442.486	851.81
442.707	703.81
442.928	680.81
443.149	676.81
443.371	691.81
443.592	753.81
443.813	885.81
444.034	923.81
444.255	801.81
444.476	697.81
444.698	651.81
444.919	673.81
445.14	771.81
445.361	710.81
445.582	731.81
445.803	797.81
446.024	901.81
446.245	921.81
446.466	827.81
446.687	707.81
446.908	659.81
447.129	641.81
447.35	598.81
447.571	619.81
447.792	608.81
448.013	610.81
448.234	621.81
448.455	689.81
448.675	816.81
448.896	949.81
449.117	815.81
449.338	743.81
449.559	883.81
449.779	985.81
450	811.81
450.221	665.81
450.442	600.81
450.662	584.81
450.883	589.81
451.104	612.81
451.324	591.81
451.545	580.81
451.766	588.81
451.986	538.81
452.207	543.81
452.428	528.81
452.648	533.81
452.869	532.81
453.089	529.81
453.31	541.81
453.53	544.81
453.751	519.81
453.971	547.81
454.192	568.81
454.412	549.81
454.633	503.81
454.853	549.81
455.073	544.81
455.294	551.81
455.514	658.81
455.734	635.81
455.955	545.81
456.175	513.81
456.395	501.81
456.616	505.81
456.836	513.81
457.056	492.81
457.276	482.81
457.497	513.81
457.717	503.81
457.937	523.81
458.157	523.81
458.377	532.81
458.598	573.81
458.818	619.81
459.038	723.81
459.258	718.81
459.478	604.81
459.698	580.81
459.918	549.81
460.138	575.81
460.358	577.81
460.578	577.81
460.798	602.81
461.018	578.81
461.238	590.81
461.458	559.81
461.678	577.81
461.898	593.81
462.118	575.81
462.338	592.81
462.558	625.81
462.777	625.81
462.997	630.81
463.217	646.81
463.437	639.81
463.657	641.81
463.876	626.81
464.096	607.81
464.316	621.81
464.536	647.81
464.755	626.81
464.975	629.81
465.195	680.81
465.414	761.81
465.634	679.81
465.854	594.81
466.073	577.81
466.293	579.81
466.512	552.81
466.732	543.81
466.951	579.81
467.171	542.81
467.391	542.81
467.61	572.81
467.829	570.81
468.049	586.81
468.268	558.81
468.488	537.81
468.707	533.81
468.927	546.81
469.146	549.81
469.365	531.81
469.585	541.81
469.804	526.81
470.023	554.81
470.243	551.81
470.462	572.81
470.681	593.81
470.901	607.81
471.12	569.81
471.339	569.81
471.558	561.81
471.777	544.81
471.997	538.81
472.216	544.81
472.435	564.81
472.654	554.81
472.873	523.81
473.092	553.81
473.311	557.81
473.53	553.81
473.749	573.81
473.968	624.81
474.187	728.81
474.406	762.81
474.625	616.81
474.844	593.81
475.063	580.81
475.282	560.81
475.501	567.81
475.72	572.81
475.939	585.81
476.158	575.81
476.377	575.81
476.596	555.81
476.814	585.81
477.033	599.81
477.252	588.81
477.471	582.81
477.69	601.81
477.908	605.81
478.127	598.81
478.346	616.81
478.564	614.81
478.783	651.81
479.002	659.81
479.22	648.81
479.439	654.81
479.658	674.81
479.876	679.81
480.095	693.81
480.313	722.81
480.532	689.81
480.751	663.81
480.969	695.81
481.188	689.81
481.406	692.81
481.624	681.81
481.843	668.81
482.061	651.81
482.28	637.81
482.498	640.81
482.717	639.81
482.935	645.81
483.153	650.81
483.372	659.81
483.59	654.81
483.808	663.81
484.027	652.81
484.245	654.81
484.463	639.81
484.681	668.81
484.9	689.81
485.118	680.81
485.336	687.81
485.554	657.81
485.772	685.81
485.99	684.81
486.209	705.81
486.427	705.81
486.645	695.81
486.863	738.81
487.081	712.81
487.299	730.81
487.517	712.81
487.735	697.81
487.953	695.81
488.171	699.81
488.389	716.81
488.607	709.81
488.825	720.81
489.043	721.81
489.261	712.81
489.479	725.81
489.696	692.81
489.914	735.81
490.132	729.81
490.35	745.81
490.568	770.81
490.786	769.81
491.003	749.81
491.221	776.81
491.439	770.81
491.657	779.81
491.874	777.81
492.092	825.81
492.31	793.81
492.527	790.81
492.745	806.81
492.963	804.81
493.18	803.81
493.398	833.81
493.615	836.81
493.833	846.81
494.05	819.81
494.268	802.81
494.485	807.81
494.703	815.81
494.92	828.81
495.138	839.81
495.355	836.81
495.573	816.81
495.79	840.81
496.008	852.81
496.225	835.81
496.442	830.81
496.66	852.81
496.877	843.81
497.094	841.81
497.312	879.81
497.529	889.81
497.746	875.81
497.963	903.81
498.181	913.81
498.398	946.81
498.615	953.81
498.832	966.81
499.049	1003.81
499.267	1036.81
499.484	1015.81
499.701	1067.81
499.918	1113.81
500.135	1160.81
500.352	1190.81
500.569	1214.81
500.786	1204.81
501.003	1189.81
501.22	1174.81
501.437	1153.81
501.654	1111.81
