Data from 1988.PennyLincolnUp.Lamp.En5.5.200Scan.071819.P2_HRD10591_17-18-31-972.txt Node
Date: Thu Jul 18 17:18:31 EDT 2019
User: cochatt
Spectrometer: HR+D1059
Trigger mode: 1
Integration Time (sec): 1.000000E-1
Scans to average: 1
Electric dark correction enabled: true
Nonlinearity correction enabled: false
Boxcar width: 0
XAxis mode: Wavelengths
Number of Pixels in Spectrum: 2048
>>>>>Begin Spectral Data<<<<<
223.165	-3.31
223.4	-3.31
223.635	-3.31
223.869	-26.31
224.104	-11.31
224.338	-17.31
224.573	-14.31
224.808	-8.31
225.042	-8.31
225.277	-8.31
225.511	2.69
225.746	3.69
225.98	5.69
226.215	15.69
226.449	16.69
226.683	14.69
226.918	14.69
227.152	23.69
227.387	46.69
227.621	34.69
227.856	41.69
228.09	48.69
228.324	55.69
228.559	59.69
228.793	67.69
229.027	90.69
229.262	94.69
229.496	100.69
229.73	119.69
229.964	137.69
230.199	113.69
230.433	102.69
230.667	109.69
230.901	108.69
231.136	114.69
231.37	112.69
231.604	88.69
231.838	107.69
232.072	103.69
232.306	108.69
232.541	93.69
232.775	111.69
233.009	118.69
233.243	107.69
233.477	105.69
233.711	101.69
233.945	114.69
234.179	99.69
234.413	104.69
234.647	116.69
234.881	102.69
235.115	118.69
235.349	115.69
235.583	114.69
235.817	100.69
236.051	109.69
236.285	119.69
236.519	113.69
236.753	136.69
236.987	133.69
237.221	159.69
237.455	201.69
237.689	143.69
237.922	137.69
238.156	119.69
238.39	121.69
238.624	123.69
238.858	124.69
239.091	106.69
239.325	104.69
239.559	119.69
239.793	130.69
240.027	122.69
240.26	142.69
240.494	142.69
240.728	139.69
240.961	136.69
241.195	140.69
241.429	135.69
241.662	139.69
241.896	120.69
242.13	118.69
242.363	125.69
242.597	134.69
242.83	125.69
243.064	113.69
243.298	130.69
243.531	124.69
243.765	138.69
243.998	127.69
244.232	129.69
244.465	139.69
244.699	147.69
244.932	145.69
245.166	119.69
245.399	125.69
245.633	151.69
245.866	131.69
246.099	123.69
246.333	137.69
246.566	153.69
246.8	140.69
247.033	148.69
247.266	155.69
247.5	141.69
247.733	165.69
247.966	164.69
248.2	151.69
248.433	160.69
248.666	154.69
248.899	167.69
249.133	168.69
249.366	191.69
249.599	169.69
249.832	155.69
250.066	179.69
250.299	173.69
250.532	190.69
250.765	170.69
250.998	175.69
251.231	198.69
251.465	193.69
251.698	181.69
251.931	179.69
252.164	181.69
252.397	164.69
252.63	185.69
252.863	189.69
253.096	194.69
253.329	207.69
253.562	207.69
253.795	197.69
254.028	204.69
254.261	202.69
254.494	227.69
254.727	222.69
254.96	226.69
255.193	223.69
255.426	203.69
255.659	194.69
255.892	201.69
256.124	194.69
256.357	200.69
256.59	193.69
256.823	198.69
257.056	193.69
257.289	189.69
257.521	192.69
257.754	184.69
257.987	181.69
258.22	200.69
258.452	195.69
258.685	197.69
258.918	185.69
259.151	192.69
259.383	198.69
259.616	192.69
259.849	213.69
260.081	198.69
260.314	210.69
260.547	234.69
260.779	213.69
261.012	216.69
261.244	192.69
261.477	217.69
261.71	197.69
261.942	187.69
262.175	223.69
262.407	202.69
262.64	196.69
262.872	186.69
263.105	181.69
263.337	187.69
263.57	207.69
263.802	201.69
264.035	188.69
264.267	212.69
264.499	177.69
264.732	208.69
264.964	194.69
265.197	208.69
265.429	192.69
265.661	181.69
265.894	192.69
266.126	213.69
266.358	204.69
266.591	198.69
266.823	218.69
267.055	213.69
267.287	206.69
267.52	222.69
267.752	220.69
267.984	218.69
268.216	217.69
268.448	209.69
268.681	211.69
268.913	220.69
269.145	233.69
269.377	246.69
269.609	244.69
269.841	241.69
270.073	248.69
270.306	259.69
270.538	270.69
270.77	274.69
271.002	259.69
271.234	263.69
271.466	255.69
271.698	277.69
271.93	280.69
272.162	257.69
272.394	258.69
272.626	279.69
272.858	267.69
273.09	272.69
273.322	254.69
273.553	229.69
273.785	247.69
274.017	244.69
274.249	237.69
274.481	244.69
274.713	241.69
274.945	250.69
275.176	232.69
275.408	225.69
275.64	255.69
275.872	244.69
276.104	233.69
276.335	232.69
276.567	259.69
276.799	256.69
277.031	275.69
277.262	253.69
277.494	290.69
277.726	281.69
277.957	251.69
278.189	273.69
278.421	255.69
278.652	244.69
278.884	236.69
279.115	242.69
279.347	236.69
279.579	251.69
279.81	261.69
280.042	244.69
280.273	249.69
280.505	239.69
280.736	251.69
280.968	253.69
281.199	245.69
281.431	239.69
281.662	253.69
281.894	270.69
282.125	251.69
282.356	262.69
282.588	281.69
282.819	277.69
283.051	242.69
283.282	250.69
283.513	240.69
283.745	279.69
283.976	260.69
284.207	254.69
284.439	269.69
284.67	249.69
284.901	260.69
285.132	259.69
285.364	251.69
285.595	273.69
285.826	248.69
286.057	264.69
286.288	267.69
286.52	239.69
286.751	274.69
286.982	255.69
287.213	255.69
287.444	274.69
287.675	272.69
287.906	272.69
288.138	290.69
288.369	271.69
288.6	280.69
288.831	284.69
289.062	281.69
289.293	255.69
289.524	281.69
289.755	268.69
289.986	293.69
290.217	276.69
290.448	267.69
290.679	301.69
290.91	284.69
291.141	249.69
291.371	266.69
291.602	284.69
291.833	265.69
292.064	280.69
292.295	281.69
292.526	259.69
292.757	266.69
292.987	267.69
293.218	277.69
293.449	286.69
293.68	257.69
293.91	267.69
294.141	278.69
294.372	276.69
294.603	270.69
294.833	281.69
295.064	284.69
295.295	264.69
295.525	275.69
295.756	273.69
295.987	285.69
296.217	302.69
296.448	319.69
296.679	301.69
296.909	280.69
297.14	297.69
297.37	293.69
297.601	288.69
297.831	276.69
298.062	297.69
298.292	270.69
298.523	306.69
298.753	283.69
298.984	307.69
299.214	290.69
299.445	302.69
299.675	294.69
299.905	312.69
300.136	302.69
300.366	305.69
300.597	297.69
300.827	294.69
301.057	314.69
301.288	301.69
301.518	330.69
301.748	315.69
301.979	317.69
302.209	327.69
302.439	306.69
302.669	336.69
302.9	306.69
303.13	295.69
303.36	329.69
303.59	332.69
303.82	335.69
304.051	341.69
304.281	321.69
304.511	308.69
304.741	327.69
304.971	291.69
305.201	313.69
305.431	323.69
305.661	309.69
305.891	289.69
306.121	295.69
306.352	317.69
306.582	327.69
306.812	328.69
307.042	309.69
307.272	312.69
307.502	305.69
307.731	317.69
307.961	319.69
308.191	313.69
308.421	331.69
308.651	321.69
308.881	310.69
309.111	321.69
309.341	320.69
309.571	331.69
309.8	333.69
310.03	332.69
310.26	346.69
310.49	362.69
310.72	354.69
310.949	358.69
311.179	376.69
311.409	358.69
311.639	361.69
311.868	346.69
312.098	355.69
312.328	344.69
312.557	359.69
312.787	370.69
313.017	375.69
313.246	361.69
313.476	356.69
313.706	365.69
313.935	373.69
314.165	371.69
314.394	372.69
314.624	374.69
314.853	364.69
315.083	377.69
315.312	387.69
315.542	351.69
315.771	346.69
316.001	370.69
316.23	329.69
316.46	350.69
316.689	360.69
316.919	369.69
317.148	365.69
317.377	350.69
317.607	381.69
317.836	373.69
318.065	356.69
318.295	368.69
318.524	368.69
318.753	360.69
318.983	379.69
319.212	358.69
319.441	362.69
319.67	368.69
319.9	365.69
320.129	362.69
320.358	369.69
320.587	375.69
320.816	354.69
321.046	391.69
321.275	381.69
321.504	381.69
321.733	381.69
321.962	381.69
322.191	391.69
322.42	405.69
322.649	424.69
322.878	406.69
323.108	427.69
323.337	446.69
323.566	454.69
323.795	470.69
324.024	493.69
324.253	597.69
324.482	845.69
324.71	1245.69
324.939	1809.69
325.168	1544.69
325.397	813.69
325.626	573.69
325.855	486.69
326.084	464.69
326.313	447.69
326.542	448.69
326.77	468.69
326.999	558.69
327.228	759.69
327.457	1123.69
327.686	1334.69
327.914	897.69
328.143	605.69
328.372	501.69
328.6	483.69
328.829	473.69
329.058	494.69
329.287	496.69
329.515	487.69
329.744	444.69
329.972	423.69
330.201	433.69
330.43	449.69
330.658	475.69
330.887	523.69
331.115	514.69
331.344	460.69
331.572	451.69
331.801	438.69
332.03	461.69
332.258	421.69
332.486	434.69
332.715	409.69
332.943	423.69
333.172	418.69
333.4	433.69
333.629	421.69
333.857	454.69
334.085	442.69
334.314	431.69
334.542	429.69
334.771	422.69
334.999	446.69
335.227	442.69
335.455	433.69
335.684	431.69
335.912	434.69
336.14	426.69
336.369	437.69
336.597	405.69
336.825	417.69
337.053	427.69
337.281	416.69
337.51	420.69
337.738	411.69
337.966	421.69
338.194	423.69
338.422	416.69
338.65	407.69
338.878	417.69
339.106	395.69
339.334	404.69
339.562	396.69
339.79	410.69
340.018	391.69
340.246	400.69
340.474	418.69
340.702	413.69
340.93	414.69
341.158	401.69
341.386	406.69
341.614	393.69
341.842	417.69
342.07	407.69
342.298	392.69
342.526	421.69
342.754	405.69
342.981	419.69
343.209	403.69
343.437	400.69
343.665	408.69
343.893	410.69
344.12	435.69
344.348	418.69
344.576	419.69
344.804	425.69
345.031	420.69
345.259	435.69
345.487	420.69
345.714	427.69
345.942	429.69
346.17	406.69
346.397	387.69
346.625	405.69
346.853	404.69
347.08	384.69
347.308	405.69
347.535	414.69
347.763	417.69
347.99	408.69
348.218	407.69
348.445	419.69
348.673	410.69
348.9	391.69
349.128	403.69
349.355	386.69
349.583	385.69
349.81	376.69
350.037	383.69
350.265	389.69
350.492	395.69
350.72	396.69
350.947	385.69
351.174	405.69
351.402	403.69
351.629	391.69
351.856	424.69
352.083	399.69
352.311	410.69
352.538	431.69
352.765	413.69
352.992	377.69
353.22	371.69
353.447	399.69
353.674	374.69
353.901	386.69
354.128	381.69
354.355	392.69
354.583	374.69
354.81	386.69
355.037	397.69
355.264	368.69
355.491	390.69
355.718	381.69
355.945	392.69
356.172	370.69
356.399	388.69
356.626	388.69
356.853	366.69
357.08	394.69
357.307	385.69
357.534	369.69
357.761	374.69
357.988	387.69
358.215	389.69
358.441	392.69
358.668	392.69
358.895	395.69
359.122	350.69
359.349	399.69
359.576	386.69
359.802	418.69
360.029	438.69
360.256	409.69
360.483	421.69
360.709	404.69
360.936	395.69
361.163	401.69
361.39	407.69
361.616	395.69
361.843	391.69
362.07	377.69
362.296	403.69
362.523	399.69
362.749	382.69
362.976	398.69
363.203	399.69
363.429	403.69
363.656	413.69
363.882	414.69
364.109	384.69
364.335	375.69
364.562	385.69
364.788	394.69
365.015	382.69
365.241	378.69
365.468	383.69
365.694	390.69
365.92	400.69
366.147	373.69
366.373	388.69
366.599	376.69
366.826	390.69
367.052	403.69
367.278	381.69
367.505	388.69
367.731	406.69
367.957	397.69
368.184	379.69
368.41	417.69
368.636	400.69
368.862	410.69
369.089	400.69
369.315	390.69
369.541	394.69
369.767	390.69
369.993	392.69
370.219	374.69
370.445	407.69
370.672	378.69
370.898	383.69
371.124	383.69
371.35	400.69
371.576	383.69
371.802	392.69
372.028	413.69
372.254	393.69
372.48	393.69
372.706	386.69
372.932	395.69
373.158	378.69
373.384	408.69
373.61	424.69
373.835	411.69
374.061	389.69
374.287	405.69
374.513	408.69
374.739	417.69
374.965	417.69
375.191	402.69
375.416	391.69
375.642	405.69
375.868	400.69
376.094	402.69
376.319	388.69
376.545	381.69
376.771	392.69
376.997	392.69
377.222	382.69
377.448	376.69
377.674	371.69
377.899	405.69
378.125	401.69
378.35	372.69
378.576	389.69
378.802	385.69
379.027	387.69
379.253	392.69
379.478	393.69
379.704	383.69
379.929	393.69
380.155	390.69
380.38	398.69
380.606	392.69
380.831	405.69
381.057	391.69
381.282	407.69
381.507	395.69
381.733	403.69
381.958	392.69
382.184	382.69
382.409	399.69
382.634	388.69
382.86	401.69
383.085	394.69
383.31	400.69
383.535	431.69
383.761	413.69
383.986	395.69
384.211	406.69
384.436	441.69
384.662	427.69
384.887	436.69
385.112	426.69
385.337	444.69
385.562	435.69
385.787	433.69
386.013	446.69
386.238	446.69
386.463	430.69
386.688	430.69
386.913	426.69
387.138	429.69
387.363	437.69
387.588	422.69
387.813	427.69
388.038	433.69
388.263	437.69
388.488	420.69
388.713	427.69
388.938	438.69
389.163	439.69
389.387	434.69
389.612	433.69
389.837	448.69
390.062	446.69
390.287	445.69
390.512	440.69
390.736	434.69
390.961	441.69
391.186	448.69
391.411	443.69
391.636	431.69
391.86	445.69
392.085	447.69
392.31	461.69
392.534	454.69
392.759	455.69
392.984	459.69
393.208	439.69
393.433	455.69
393.658	455.69
393.882	438.69
394.107	437.69
394.331	440.69
394.556	435.69
394.78	464.69
395.005	452.69
395.229	449.69
395.454	437.69
395.678	426.69
395.903	461.69
396.127	493.69
396.352	489.69
396.576	458.69
396.801	432.69
397.025	449.69
397.249	470.69
397.474	466.69
397.698	473.69
397.922	482.69
398.147	474.69
398.371	518.69
398.595	490.69
398.82	498.69
399.044	517.69
399.268	529.69
399.492	545.69
399.717	578.69
399.941	599.69
400.165	625.69
400.389	621.69
400.613	588.69
400.837	546.69
401.062	530.69
401.286	514.69
401.51	513.69
401.734	506.69
401.958	498.69
402.182	508.69
402.406	499.69
402.63	511.69
402.854	513.69
403.078	522.69
403.302	524.69
403.526	497.69
403.75	521.69
403.974	518.69
404.198	513.69
404.422	526.69
404.645	533.69
404.869	511.69
405.093	533.69
405.317	545.69
405.541	546.69
405.765	540.69
405.988	536.69
406.212	547.69
406.436	550.69
406.66	562.69
406.883	554.69
407.107	591.69
407.331	602.69
407.555	670.69
407.778	677.69
408.002	613.69
408.226	580.69
408.449	548.69
408.673	563.69
408.896	581.69
409.12	616.69
409.344	586.69
409.567	547.69
409.791	536.69
410.014	532.69
410.238	528.69
410.461	539.69
410.685	541.69
410.908	551.69
411.132	585.69
411.355	615.69
411.578	576.69
411.802	525.69
412.025	522.69
412.249	515.69
412.472	520.69
412.695	497.69
412.919	550.69
413.142	501.69
413.365	485.69
413.589	509.69
413.812	480.69
414.035	513.69
414.258	495.69
414.482	490.69
414.705	515.69
414.928	481.69
415.151	497.69
415.374	496.69
415.597	483.69
415.821	479.69
416.044	500.69
416.267	479.69
416.49	481.69
416.713	470.69
416.936	477.69
417.159	469.69
417.382	481.69
417.605	510.69
417.828	488.69
418.051	505.69
418.274	494.69
418.497	484.69
418.72	509.69
418.943	467.69
419.166	495.69
419.389	516.69
419.611	518.69
419.834	505.69
420.057	523.69
420.28	507.69
420.503	513.69
420.726	463.69
420.948	493.69
421.171	531.69
421.394	567.69
421.617	521.69
421.839	501.69
422.062	497.69
422.285	523.69
422.507	574.69
422.73	665.69
422.953	608.69
423.175	535.69
423.398	523.69
423.621	523.69
423.843	507.69
424.066	552.69
424.288	524.69
424.511	543.69
424.733	612.69
424.956	681.69
425.178	647.69
425.401	648.69
425.623	681.69
425.846	590.69
426.068	537.69
426.291	546.69
426.513	560.69
426.735	535.69
426.958	552.69
427.18	665.69
427.402	793.69
427.625	857.69
427.847	718.69
428.069	627.69
428.292	557.69
428.514	545.69
428.736	529.69
428.958	521.69
429.181	488.69
429.403	489.69
429.625	499.69
429.847	548.69
430.069	610.69
430.292	591.69
430.514	510.69
430.736	525.69
430.958	493.69
431.18	488.69
431.402	494.69
431.624	455.69
431.846	476.69
432.068	462.69
432.29	475.69
432.512	450.69
432.734	493.69
432.956	457.69
433.178	496.69
433.4	496.69
433.622	505.69
433.844	481.69
434.066	490.69
434.287	471.69
434.509	465.69
434.731	493.69
434.953	485.69
435.175	532.69
435.397	546.69
435.618	551.69
435.84	576.69
436.062	641.69
436.284	732.69
436.505	612.69
436.727	565.69
436.949	531.69
437.17	490.69
437.392	483.69
437.614	519.69
437.835	527.69
438.057	634.69
438.278	718.69
438.5	699.69
438.721	804.69
438.943	760.69
439.165	642.69
439.386	562.69
439.608	530.69
439.829	520.69
440.05	558.69
440.272	613.69
440.493	569.69
440.715	516.69
440.936	507.69
441.158	504.69
441.379	497.69
441.6	506.69
441.822	529.69
442.043	560.69
442.264	622.69
442.486	698.69
442.707	577.69
442.928	575.69
443.149	549.69
443.371	586.69
443.592	614.69
443.813	700.69
444.034	775.69
444.255	633.69
444.476	555.69
444.698	559.69
444.919	551.69
445.14	627.69
445.361	600.69
445.582	578.69
445.803	621.69
446.024	707.69
446.245	713.69
446.466	665.69
446.687	587.69
446.908	554.69
447.129	523.69
447.35	516.69
447.571	505.69
447.792	471.69
448.013	520.69
448.234	499.69
448.455	575.69
448.675	666.69
448.896	788.69
449.117	656.69
449.338	641.69
449.559	714.69
449.779	850.69
450	655.69
450.221	532.69
450.442	512.69
450.662	465.69
450.883	491.69
451.104	490.69
451.324	484.69
451.545	459.69
451.766	445.69
451.986	442.69
452.207	427.69
452.428	471.69
452.648	439.69
452.869	456.69
453.089	437.69
453.31	470.69
453.53	449.69
453.751	441.69
453.971	443.69
454.192	457.69
454.412	462.69
454.633	442.69
454.853	426.69
455.073	433.69
455.294	459.69
455.514	536.69
455.734	503.69
455.955	450.69
456.175	417.69
456.395	416.69
456.616	425.69
456.836	441.69
457.056	419.69
457.276	439.69
457.497	440.69
457.717	429.69
457.937	426.69
458.157	429.69
458.377	441.69
458.598	458.69
458.818	494.69
459.038	561.69
459.258	589.69
459.478	513.69
459.698	494.69
459.918	497.69
460.138	493.69
460.358	482.69
460.578	503.69
460.798	520.69
461.018	508.69
461.238	491.69
461.458	482.69
461.678	467.69
461.898	497.69
462.118	478.69
462.338	500.69
462.558	533.69
462.777	504.69
462.997	541.69
463.217	541.69
463.437	559.69
463.657	544.69
463.876	551.69
464.096	521.69
464.316	540.69
464.536	535.69
464.755	533.69
464.975	542.69
465.195	559.69
465.414	578.69
465.634	541.69
465.854	488.69
466.073	505.69
466.293	484.69
466.512	463.69
466.732	458.69
466.951	481.69
467.171	447.69
467.391	463.69
467.61	463.69
467.829	481.69
468.049	481.69
468.268	462.69
468.488	453.69
468.707	459.69
468.927	453.69
469.146	470.69
469.365	431.69
469.585	440.69
469.804	454.69
470.023	466.69
470.243	468.69
470.462	468.69
470.681	494.69
470.901	493.69
471.12	466.69
471.339	475.69
471.558	469.69
471.777	463.69
471.997	453.69
472.216	446.69
472.435	466.69
472.654	459.69
472.873	445.69
473.092	455.69
473.311	449.69
473.53	454.69
473.749	473.69
473.968	513.69
474.187	591.69
474.406	612.69
474.625	533.69
474.844	483.69
475.063	496.69
475.282	482.69
475.501	472.69
475.72	478.69
475.939	474.69
476.158	479.69
476.377	475.69
476.596	484.69
476.814	474.69
477.033	479.69
477.252	518.69
477.471	509.69
477.69	541.69
477.908	506.69
478.127	541.69
478.346	532.69
478.564	542.69
478.783	541.69
479.002	545.69
479.22	531.69
479.439	575.69
479.658	565.69
479.876	552.69
480.095	579.69
480.313	599.69
480.532	606.69
480.751	576.69
480.969	577.69
481.188	582.69
481.406	586.69
481.624	555.69
481.843	557.69
482.061	552.69
482.28	563.69
482.498	543.69
482.717	555.69
482.935	555.69
483.153	544.69
483.372	560.69
483.59	537.69
483.808	553.69
484.027	553.69
484.245	576.69
484.463	553.69
484.681	572.69
484.9	567.69
485.118	576.69
485.336	555.69
485.554	578.69
485.772	562.69
485.99	554.69
486.209	591.69
486.427	555.69
486.645	609.69
486.863	599.69
487.081	587.69
487.299	587.69
487.517	592.69
487.735	577.69
487.953	577.69
488.171	585.69
488.389	595.69
488.607	576.69
488.825	612.69
489.043	606.69
489.261	588.69
489.479	584.69
489.696	609.69
489.914	608.69
490.132	624.69
490.35	620.69
490.568	623.69
490.786	623.69
491.003	626.69
491.221	613.69
491.439	641.69
491.657	659.69
491.874	643.69
492.092	638.69
492.31	640.69
492.527	644.69
492.745	667.69
492.963	673.69
493.18	671.69
493.398	674.69
493.615	658.69
493.833	685.69
494.05	688.69
494.268	665.69
494.485	669.69
494.703	666.69
494.92	649.69
495.138	680.69
495.355	667.69
495.573	666.69
495.79	699.69
496.008	711.69
496.225	710.69
496.442	708.69
496.66	709.69
496.877	723.69
497.094	716.69
497.312	725.69
497.529	706.69
497.746	739.69
497.963	733.69
498.181	745.69
498.398	768.69
498.615	791.69
498.832	805.69
499.049	832.69
499.267	839.69
499.484	881.69
499.701	891.69
499.918	928.69
500.135	984.69
500.352	985.69
500.569	1031.69
500.786	1059.69
501.003	1030.69
501.22	959.69
501.437	957.69
501.654	908.69
501.871	905.69
502.088	839.69
