Data from 1988.PennyLincolnUp.Lamp.En5.5.200Scan.071819.P2_HRD10591_17-18-21-971.txt Node
Date: Thu Jul 18 17:18:21 EDT 2019
User: cochatt
Spectrometer: HR+D1059
Trigger mode: 1
Integration Time (sec): 1.000000E-1
Scans to average: 1
Electric dark correction enabled: true
Nonlinearity correction enabled: false
Boxcar width: 0
XAxis mode: Wavelengths
Number of Pixels in Spectrum: 2048
>>>>>Begin Spectral Data<<<<<
223.165	2.5
223.4	2.5
223.635	2.5
223.869	-17.5
224.104	-21.5
224.338	-12.5
224.573	-11.5
224.808	-11.5
225.042	-15.5
225.277	-10.5
225.511	-0.5
225.746	1.5
225.98	2.5
226.215	6.5
226.449	13.5
226.683	12.5
226.918	30.5
227.152	31.5
227.387	37.5
227.621	34.5
227.856	34.5
228.09	55.5
228.324	55.5
228.559	64.5
228.793	70.5
229.027	88.5
229.262	79.5
229.496	89.5
229.73	111.5
229.964	105.5
230.199	113.5
230.433	96.5
230.667	101.5
230.901	95.5
231.136	105.5
231.37	109.5
231.604	118.5
231.838	103.5
232.072	107.5
232.306	92.5
232.541	107.5
232.775	99.5
233.009	102.5
233.243	102.5
233.477	106.5
233.711	105.5
233.945	104.5
234.179	112.5
234.413	106.5
234.647	108.5
234.881	115.5
235.115	106.5
235.349	107.5
235.583	102.5
235.817	102.5
236.051	106.5
236.285	107.5
236.519	117.5
236.753	110.5
236.987	103.5
237.221	150.5
237.455	174.5
237.689	154.5
237.922	121.5
238.156	115.5
238.39	115.5
238.624	106.5
238.858	110.5
239.091	114.5
239.325	111.5
239.559	111.5
239.793	118.5
240.027	117.5
240.26	97.5
240.494	120.5
240.728	118.5
240.961	126.5
241.195	120.5
241.429	106.5
241.662	114.5
241.896	102.5
242.13	103.5
242.363	118.5
242.597	126.5
242.83	132.5
243.064	125.5
243.298	117.5
243.531	122.5
243.765	120.5
243.998	120.5
244.232	125.5
244.465	126.5
244.699	122.5
244.932	115.5
245.166	115.5
245.399	123.5
245.633	133.5
245.866	127.5
246.099	129.5
246.333	124.5
246.566	129.5
246.8	126.5
247.033	134.5
247.266	119.5
247.5	149.5
247.733	136.5
247.966	131.5
248.2	156.5
248.433	160.5
248.666	136.5
248.899	151.5
249.133	151.5
249.366	174.5
249.599	166.5
249.832	153.5
250.066	158.5
250.299	152.5
250.532	152.5
250.765	156.5
250.998	155.5
251.231	171.5
251.465	164.5
251.698	155.5
251.931	178.5
252.164	166.5
252.397	160.5
252.63	165.5
252.863	162.5
253.096	175.5
253.329	180.5
253.562	178.5
253.795	175.5
254.028	175.5
254.261	168.5
254.494	170.5
254.727	196.5
254.96	217.5
255.193	201.5
255.426	184.5
255.659	184.5
255.892	186.5
256.124	168.5
256.357	153.5
256.59	177.5
256.823	185.5
257.056	184.5
257.289	172.5
257.521	175.5
257.754	160.5
257.987	158.5
258.22	188.5
258.452	159.5
258.685	172.5
258.918	177.5
259.151	183.5
259.383	175.5
259.616	191.5
259.849	188.5
260.081	208.5
260.314	190.5
260.547	204.5
260.779	170.5
261.012	174.5
261.244	175.5
261.477	170.5
261.71	174.5
261.942	179.5
262.175	185.5
262.407	183.5
262.64	172.5
262.872	165.5
263.105	179.5
263.337	175.5
263.57	182.5
263.802	166.5
264.035	182.5
264.267	182.5
264.499	175.5
264.732	184.5
264.964	171.5
265.197	182.5
265.429	180.5
265.661	183.5
265.894	178.5
266.126	200.5
266.358	183.5
266.591	188.5
266.823	183.5
267.055	190.5
267.287	168.5
267.52	192.5
267.752	192.5
267.984	191.5
268.216	198.5
268.448	200.5
268.681	195.5
268.913	179.5
269.145	201.5
269.377	207.5
269.609	211.5
269.841	224.5
270.073	202.5
270.306	223.5
270.538	219.5
270.77	229.5
271.002	230.5
271.234	206.5
271.466	238.5
271.698	222.5
271.93	241.5
272.162	241.5
272.394	232.5
272.626	253.5
272.858	210.5
273.09	217.5
273.322	232.5
273.553	214.5
273.785	242.5
274.017	202.5
274.249	214.5
274.481	235.5
274.713	212.5
274.945	213.5
275.176	214.5
275.408	201.5
275.64	219.5
275.872	234.5
276.104	225.5
276.335	228.5
276.567	210.5
276.799	211.5
277.031	228.5
277.262	238.5
277.494	247.5
277.726	243.5
277.957	229.5
278.189	233.5
278.421	218.5
278.652	224.5
278.884	208.5
279.115	232.5
279.347	231.5
279.579	239.5
279.81	250.5
280.042	239.5
280.273	228.5
280.505	231.5
280.736	215.5
280.968	206.5
281.199	209.5
281.431	232.5
281.662	227.5
281.894	224.5
282.125	227.5
282.356	248.5
282.588	231.5
282.819	245.5
283.051	225.5
283.282	231.5
283.513	232.5
283.745	244.5
283.976	240.5
284.207	242.5
284.439	216.5
284.67	232.5
284.901	232.5
285.132	247.5
285.364	241.5
285.595	235.5
285.826	242.5
286.057	232.5
286.288	228.5
286.52	247.5
286.751	222.5
286.982	242.5
287.213	235.5
287.444	231.5
287.675	245.5
287.906	258.5
288.138	251.5
288.369	248.5
288.6	243.5
288.831	258.5
289.062	245.5
289.293	254.5
289.524	253.5
289.755	238.5
289.986	262.5
290.217	246.5
290.448	239.5
290.679	238.5
290.91	224.5
291.141	246.5
291.371	258.5
291.602	271.5
291.833	247.5
292.064	234.5
292.295	252.5
292.526	256.5
292.757	251.5
292.987	259.5
293.218	257.5
293.449	263.5
293.68	239.5
293.91	242.5
294.141	266.5
294.372	244.5
294.603	239.5
294.833	258.5
295.064	257.5
295.295	246.5
295.525	267.5
295.756	267.5
295.987	259.5
296.217	266.5
296.448	288.5
296.679	258.5
296.909	255.5
297.14	260.5
297.37	256.5
297.601	262.5
297.831	261.5
298.062	260.5
298.292	280.5
298.523	272.5
298.753	268.5
298.984	265.5
299.214	263.5
299.445	257.5
299.675	272.5
299.905	272.5
300.136	262.5
300.366	279.5
300.597	266.5
300.827	274.5
301.057	291.5
301.288	275.5
301.518	273.5
301.748	272.5
301.979	279.5
302.209	269.5
302.439	281.5
302.669	289.5
302.9	287.5
303.13	285.5
303.36	289.5
303.59	286.5
303.82	294.5
304.051	289.5
304.281	296.5
304.511	293.5
304.741	281.5
304.971	292.5
305.201	266.5
305.431	282.5
305.661	293.5
305.891	272.5
306.121	295.5
306.352	294.5
306.582	285.5
306.812	295.5
307.042	290.5
307.272	275.5
307.502	299.5
307.731	307.5
307.961	290.5
308.191	288.5
308.421	294.5
308.651	297.5
308.881	283.5
309.111	321.5
309.341	310.5
309.571	296.5
309.8	296.5
310.03	321.5
310.26	302.5
310.49	302.5
310.72	308.5
310.949	320.5
311.179	312.5
311.409	310.5
311.639	302.5
311.868	311.5
312.098	314.5
312.328	327.5
312.557	327.5
312.787	323.5
313.017	315.5
313.246	321.5
313.476	330.5
313.706	321.5
313.935	321.5
314.165	315.5
314.394	327.5
314.624	337.5
314.853	336.5
315.083	289.5
315.312	309.5
315.542	316.5
315.771	334.5
316.001	327.5
316.23	333.5
316.46	323.5
316.689	331.5
316.919	313.5
317.148	321.5
317.377	332.5
317.607	313.5
317.836	331.5
318.065	342.5
318.295	324.5
318.524	336.5
318.753	318.5
318.983	319.5
319.212	319.5
319.441	303.5
319.67	332.5
319.9	313.5
320.129	321.5
320.358	348.5
320.587	321.5
320.816	324.5
321.046	327.5
321.275	353.5
321.504	337.5
321.733	346.5
321.962	335.5
322.191	357.5
322.42	344.5
322.649	346.5
322.878	351.5
323.108	352.5
323.337	360.5
323.566	384.5
323.795	367.5
324.024	423.5
324.253	438.5
324.482	618.5
324.71	888.5
324.939	1264.5
325.168	1092.5
325.397	583.5
325.626	448.5
325.855	385.5
326.084	381.5
326.313	383.5
326.542	360.5
326.77	405.5
326.999	438.5
327.228	580.5
327.457	804.5
327.686	960.5
327.914	664.5
328.143	457.5
328.372	424.5
328.6	391.5
328.829	371.5
329.058	424.5
329.287	436.5
329.515	388.5
329.744	384.5
329.972	395.5
330.201	395.5
330.43	387.5
330.658	402.5
330.887	402.5
331.115	408.5
331.344	398.5
331.572	403.5
331.801	398.5
332.03	402.5
332.258	379.5
332.486	366.5
332.715	377.5
332.943	355.5
333.172	363.5
333.4	391.5
333.629	396.5
333.857	391.5
334.085	373.5
334.314	389.5
334.542	410.5
334.771	399.5
334.999	386.5
335.227	374.5
335.455	383.5
335.684	395.5
335.912	400.5
336.14	379.5
336.369	383.5
336.597	378.5
336.825	384.5
337.053	392.5
337.281	348.5
337.51	394.5
337.738	368.5
337.966	383.5
338.194	379.5
338.422	379.5
338.65	359.5
338.878	392.5
339.106	370.5
339.334	383.5
339.562	383.5
339.79	379.5
340.018	371.5
340.246	375.5
340.474	352.5
340.702	360.5
340.93	379.5
341.158	370.5
341.386	371.5
341.614	386.5
341.842	371.5
342.07	361.5
342.298	355.5
342.526	371.5
342.754	376.5
342.981	368.5
343.209	364.5
343.437	370.5
343.665	374.5
343.893	382.5
344.12	402.5
344.348	387.5
344.576	371.5
344.804	388.5
345.031	380.5
345.259	396.5
345.487	368.5
345.714	384.5
345.942	369.5
346.17	362.5
346.397	350.5
346.625	361.5
346.853	350.5
347.08	357.5
347.308	370.5
347.535	357.5
347.763	351.5
347.99	359.5
348.218	346.5
348.445	350.5
348.673	371.5
348.9	362.5
349.128	368.5
349.355	361.5
349.583	318.5
349.81	339.5
350.037	354.5
350.265	334.5
350.492	337.5
350.72	350.5
350.947	346.5
351.174	366.5
351.402	344.5
351.629	373.5
351.856	356.5
352.083	371.5
352.311	348.5
352.538	370.5
352.765	360.5
352.992	345.5
353.22	354.5
353.447	357.5
353.674	379.5
353.901	357.5
354.128	352.5
354.355	353.5
354.583	354.5
354.81	363.5
355.037	353.5
355.264	344.5
355.491	343.5
355.718	326.5
355.945	351.5
356.172	347.5
356.399	352.5
356.626	351.5
356.853	359.5
357.08	355.5
357.307	339.5
357.534	335.5
357.761	342.5
357.988	348.5
358.215	343.5
358.441	343.5
358.668	364.5
358.895	365.5
359.122	352.5
359.349	347.5
359.576	336.5
359.802	355.5
360.029	346.5
360.256	378.5
360.483	386.5
360.709	373.5
360.936	366.5
361.163	355.5
361.39	366.5
361.616	362.5
361.843	357.5
362.07	362.5
362.296	364.5
362.523	359.5
362.749	362.5
362.976	354.5
363.203	356.5
363.429	357.5
363.656	329.5
363.882	354.5
364.109	354.5
364.335	353.5
364.562	342.5
364.788	340.5
365.015	331.5
365.241	344.5
365.468	360.5
365.694	352.5
365.92	354.5
366.147	352.5
366.373	353.5
366.599	359.5
366.826	344.5
367.052	354.5
367.278	358.5
367.505	347.5
367.731	370.5
367.957	366.5
368.184	364.5
368.41	364.5
368.636	355.5
368.862	369.5
369.089	342.5
369.315	360.5
369.541	353.5
369.767	344.5
369.993	355.5
370.219	357.5
370.445	355.5
370.672	371.5
370.898	376.5
371.124	374.5
371.35	343.5
371.576	366.5
371.802	378.5
372.028	368.5
372.254	378.5
372.48	371.5
372.706	354.5
372.932	363.5
373.158	362.5
373.384	380.5
373.61	390.5
373.835	360.5
374.061	363.5
374.287	393.5
374.513	374.5
374.739	359.5
374.965	382.5
375.191	370.5
375.416	376.5
375.642	364.5
375.868	364.5
376.094	359.5
376.319	356.5
376.545	380.5
376.771	358.5
376.997	347.5
377.222	342.5
377.448	356.5
377.674	369.5
377.899	354.5
378.125	369.5
378.35	384.5
378.576	371.5
378.802	374.5
379.027	357.5
379.253	359.5
379.478	350.5
379.704	352.5
379.929	354.5
380.155	379.5
380.38	345.5
380.606	377.5
380.831	363.5
381.057	380.5
381.282	352.5
381.507	372.5
381.733	372.5
381.958	390.5
382.184	377.5
382.409	386.5
382.634	386.5
382.86	387.5
383.085	390.5
383.31	366.5
383.535	389.5
383.761	378.5
383.986	394.5
384.211	391.5
384.436	404.5
384.662	402.5
384.887	416.5
385.112	393.5
385.337	417.5
385.562	400.5
385.787	430.5
386.013	416.5
386.238	428.5
386.463	409.5
386.688	411.5
386.913	395.5
387.138	404.5
387.363	417.5
387.588	419.5
387.813	422.5
388.038	409.5
388.263	410.5
388.488	410.5
388.713	410.5
388.938	414.5
389.163	407.5
389.387	406.5
389.612	396.5
389.837	394.5
390.062	408.5
390.287	392.5
390.512	405.5
390.736	410.5
390.961	403.5
391.186	400.5
391.411	407.5
391.636	406.5
391.86	408.5
392.085	432.5
392.31	417.5
392.534	423.5
392.759	401.5
392.984	427.5
393.208	411.5
393.433	442.5
393.658	435.5
393.882	411.5
394.107	435.5
394.331	411.5
394.556	404.5
394.78	401.5
395.005	436.5
395.229	402.5
395.454	404.5
395.678	415.5
395.903	426.5
396.127	447.5
396.352	439.5
396.576	435.5
396.801	448.5
397.025	448.5
397.249	431.5
397.474	442.5
397.698	454.5
397.922	444.5
398.147	455.5
398.371	439.5
398.595	443.5
398.82	464.5
399.044	452.5
399.268	485.5
399.492	514.5
399.717	514.5
399.941	547.5
400.165	578.5
400.389	589.5
400.613	511.5
400.837	491.5
401.062	504.5
401.286	462.5
401.51	479.5
401.734	449.5
401.958	483.5
402.182	478.5
402.406	466.5
402.63	472.5
402.854	479.5
403.078	449.5
403.302	463.5
403.526	500.5
403.75	467.5
403.974	491.5
404.198	482.5
404.422	468.5
404.645	475.5
404.869	477.5
405.093	483.5
405.317	496.5
405.541	501.5
405.765	490.5
405.988	490.5
406.212	473.5
406.436	487.5
406.66	530.5
406.883	502.5
407.107	537.5
407.331	549.5
407.555	613.5
407.778	610.5
408.002	562.5
408.226	530.5
408.449	535.5
408.673	524.5
408.896	527.5
409.12	554.5
409.344	544.5
409.567	496.5
409.791	502.5
410.014	478.5
410.238	482.5
410.461	482.5
410.685	474.5
410.908	492.5
411.132	500.5
411.355	529.5
411.578	523.5
411.802	484.5
412.025	478.5
412.249	470.5
412.472	490.5
412.695	470.5
412.919	482.5
413.142	468.5
413.365	451.5
413.589	447.5
413.812	455.5
414.035	446.5
414.258	457.5
414.482	446.5
414.705	463.5
414.928	448.5
415.151	451.5
415.374	434.5
415.597	454.5
415.821	474.5
416.044	440.5
416.267	477.5
416.49	447.5
416.713	465.5
416.936	450.5
417.159	443.5
417.382	448.5
417.605	432.5
417.828	441.5
418.051	494.5
418.274	455.5
418.497	451.5
418.72	456.5
418.943	458.5
419.166	442.5
419.389	489.5
419.611	517.5
419.834	484.5
420.057	458.5
420.28	448.5
420.503	442.5
420.726	434.5
420.948	435.5
421.171	485.5
421.394	499.5
421.617	474.5
421.839	447.5
422.062	457.5
422.285	482.5
422.507	515.5
422.73	569.5
422.953	542.5
423.175	519.5
423.398	498.5
423.621	470.5
423.843	485.5
424.066	452.5
424.288	486.5
424.511	498.5
424.733	539.5
424.956	588.5
425.178	539.5
425.401	570.5
425.623	589.5
425.846	530.5
426.068	474.5
426.291	472.5
426.513	481.5
426.735	497.5
426.958	514.5
427.18	565.5
427.402	673.5
427.625	726.5
427.847	620.5
428.069	544.5
428.292	512.5
428.514	470.5
428.736	458.5
428.958	459.5
429.181	440.5
429.403	433.5
429.625	450.5
429.847	475.5
430.069	523.5
430.292	531.5
430.514	472.5
430.736	454.5
430.958	455.5
431.18	460.5
431.402	444.5
431.624	436.5
431.846	432.5
432.068	432.5
432.29	421.5
432.512	431.5
432.734	460.5
432.956	416.5
433.178	440.5
433.4	446.5
433.622	460.5
433.844	437.5
434.066	437.5
434.287	420.5
434.509	412.5
434.731	450.5
434.953	440.5
435.175	458.5
435.397	479.5
435.618	482.5
435.84	518.5
436.062	570.5
436.284	638.5
436.505	542.5
436.727	498.5
436.949	441.5
437.17	458.5
437.392	448.5
437.614	439.5
437.835	480.5
438.057	539.5
438.278	603.5
438.5	609.5
438.721	682.5
438.943	662.5
439.165	543.5
439.386	506.5
439.608	485.5
439.829	484.5
440.05	470.5
440.272	498.5
440.493	496.5
440.715	453.5
440.936	457.5
441.158	468.5
441.379	457.5
441.6	449.5
441.822	465.5
442.043	491.5
442.264	559.5
442.486	594.5
442.707	524.5
442.928	476.5
443.149	501.5
443.371	528.5
443.592	533.5
443.813	588.5
444.034	646.5
444.255	542.5
444.476	520.5
444.698	504.5
444.919	505.5
445.14	602.5
445.361	546.5
445.582	536.5
445.803	549.5
446.024	614.5
446.245	607.5
446.466	568.5
446.687	500.5
446.908	475.5
447.129	454.5
447.35	438.5
447.571	465.5
447.792	443.5
448.013	446.5
448.234	440.5
448.455	476.5
448.675	593.5
448.896	665.5
449.117	555.5
449.338	528.5
449.559	601.5
449.779	710.5
450	546.5
450.221	481.5
450.442	444.5
450.662	410.5
450.883	424.5
451.104	432.5
451.324	438.5
451.545	424.5
451.766	448.5
451.986	408.5
452.207	386.5
452.428	418.5
452.648	391.5
452.869	410.5
453.089	404.5
453.31	415.5
453.53	406.5
453.751	406.5
453.971	387.5
454.192	394.5
454.412	396.5
454.633	407.5
454.853	397.5
455.073	387.5
455.294	418.5
455.514	449.5
455.734	448.5
455.955	416.5
456.175	414.5
456.395	370.5
456.616	375.5
456.836	386.5
457.056	378.5
457.276	362.5
457.497	393.5
457.717	369.5
457.937	383.5
458.157	395.5
458.377	422.5
458.598	397.5
458.818	447.5
459.038	483.5
459.258	492.5
459.478	444.5
459.698	418.5
459.918	430.5
460.138	423.5
460.358	470.5
460.578	442.5
460.798	453.5
461.018	476.5
461.238	453.5
461.458	446.5
461.678	447.5
461.898	476.5
462.118	475.5
462.338	491.5
462.558	480.5
462.777	479.5
462.997	508.5
463.217	525.5
463.437	528.5
463.657	497.5
463.876	493.5
464.096	515.5
464.316	507.5
464.536	480.5
464.755	472.5
464.975	474.5
465.195	468.5
465.414	512.5
465.634	480.5
465.854	470.5
466.073	448.5
466.293	432.5
466.512	433.5
466.732	425.5
466.951	428.5
467.171	412.5
467.391	441.5
467.61	443.5
467.829	437.5
468.049	401.5
468.268	427.5
468.488	397.5
468.707	427.5
468.927	411.5
469.146	411.5
469.365	407.5
469.585	423.5
469.804	449.5
470.023	416.5
470.243	441.5
470.462	437.5
470.681	442.5
470.901	443.5
471.12	440.5
471.339	422.5
471.558	429.5
471.777	427.5
471.997	418.5
472.216	432.5
472.435	420.5
472.654	430.5
472.873	408.5
473.092	423.5
473.311	407.5
473.53	434.5
473.749	441.5
473.968	454.5
474.187	509.5
474.406	549.5
474.625	471.5
474.844	441.5
475.063	438.5
475.282	415.5
475.501	428.5
475.72	447.5
475.939	458.5
476.158	453.5
476.377	443.5
476.596	456.5
476.814	466.5
477.033	453.5
477.252	467.5
477.471	470.5
477.69	480.5
477.908	480.5
478.127	482.5
478.346	484.5
478.564	497.5
478.783	491.5
479.002	498.5
479.22	496.5
479.439	499.5
479.658	524.5
479.876	519.5
480.095	504.5
480.313	535.5
480.532	516.5
480.751	534.5
480.969	530.5
481.188	523.5
481.406	522.5
481.624	518.5
481.843	489.5
482.061	512.5
482.28	510.5
482.498	497.5
482.717	494.5
482.935	497.5
483.153	520.5
483.372	518.5
483.59	523.5
483.808	484.5
484.027	502.5
484.245	516.5
484.463	524.5
484.681	520.5
484.9	514.5
485.118	526.5
485.336	520.5
485.554	524.5
485.772	539.5
485.99	519.5
486.209	531.5
486.427	542.5
486.645	521.5
486.863	543.5
487.081	546.5
487.299	535.5
487.517	517.5
487.735	546.5
487.953	577.5
488.171	553.5
488.389	529.5
488.607	551.5
488.825	545.5
489.043	564.5
489.261	526.5
489.479	533.5
489.696	533.5
489.914	529.5
490.132	548.5
490.35	545.5
490.568	565.5
490.786	574.5
491.003	557.5
491.221	568.5
491.439	586.5
491.657	587.5
491.874	589.5
492.092	578.5
492.31	571.5
492.527	589.5
492.745	608.5
492.963	593.5
493.18	578.5
493.398	603.5
493.615	601.5
493.833	598.5
494.05	594.5
494.268	589.5
494.485	578.5
494.703	599.5
494.92	604.5
495.138	641.5
495.355	591.5
495.573	630.5
495.79	609.5
496.008	628.5
496.225	642.5
496.442	618.5
496.66	637.5
496.877	645.5
497.094	624.5
497.312	650.5
497.529	630.5
497.746	688.5
497.963	660.5
498.181	700.5
498.398	700.5
498.615	724.5
498.832	723.5
499.049	744.5
499.267	764.5
499.484	771.5
499.701	806.5
499.918	863.5
500.135	910.5
500.352	916.5
500.569	952.5
500.786	926.5
501.003	942.5
501.22	898.5
501.437	885.5
501.654	866.5
501.871	785.5
502.088	809.5
502.305	779.5
502.522	735.5
502.739	719.5
502.956	692.5
503.172	709.5
503.389	692.5
503.606	678.5
503.823	662.5
504.04	643.5
504.256	650.5
504.473	662.5
504.69	644.5
504.907	609.5
505.123	624.5
505.34	632.5
505.557	620.5
505.773	602.5
505.99	632.5
506.207	608.5
506.423	597.5
506.64	602.5
506.856	582.5
507.073	553.5
507.289	567.5
507.506	578.5
507.722	588.5
507.939	556.5
508.155	579.5
508.372	560.5
508.588	561.5
508.805	559.5
509.021	563.5
509.238	548.5
509.454	572.5
509.67	572.5
509.887	537.5
510.103	559.5
510.319	562.5
510.536	595.5
510.752	758.5
510.968	692.5
511.184	564.5
511.401	537.5
511.617	515.5
511.833	514.5
512.049	532.5
512.265	524.5
512.481	527.5
512.698	514.5
512.914	519.5
513.13	509.5
513.346	521.5
513.562	528.5
513.778	553.5
513.994	528.5
514.21	544.5
514.426	552.5
514.642	554.5
514.858	566.5
515.074	585.5
515.29	628.5
515.506	794.5
515.721	728.5
515.937	577.5
516.153	578.5
516.369	572.5
516.585	562.5
516.801	556.5
517.016	579.5
517.232	583.5
517.448	569.5
517.664	567.5
517.879	554.5
518.095	566.5
518.311	590.5
518.527	551.5
518.742	560.5
518.958	566.5
519.173	547.5
519.389	508.5
519.605	552.5
519.82	544.5
520.036	553.5
