Data from 1988.PennyLincolnUp.Lamp.En5.5.200Scan.071819.P2_HRD10591_17-21-22-972.txt Node
Date: Thu Jul 18 17:21:22 EDT 2019
User: cochatt
Spectrometer: HR+D1059
Trigger mode: 1
Integration Time (sec): 1.000000E-1
Scans to average: 1
Electric dark correction enabled: true
Nonlinearity correction enabled: false
Boxcar width: 0
XAxis mode: Wavelengths
Number of Pixels in Spectrum: 2048
>>>>>Begin Spectral Data<<<<<
223.165	-18.19
223.4	-18.19
223.635	-18.19
223.869	-13.19
224.104	-12.19
224.338	-20.19
224.573	-13.19
224.808	-12.19
225.042	-4.19
225.277	-7.19
225.511	-11.19
225.746	4.81
225.98	3.81
226.215	10.81
226.449	10.81
226.683	16.81
226.918	21.81
227.152	42.81
227.387	40.81
227.621	48.81
227.856	42.81
228.09	48.81
228.324	41.81
228.559	59.81
228.793	64.81
229.027	105.81
229.262	114.81
229.496	135.81
229.73	134.81
229.964	165.81
230.199	139.81
230.433	115.81
230.667	111.81
230.901	117.81
231.136	119.81
231.37	131.81
231.604	120.81
231.838	113.81
232.072	108.81
232.306	109.81
232.541	112.81
232.775	117.81
233.009	124.81
233.243	124.81
233.477	115.81
233.711	107.81
233.945	127.81
234.179	119.81
234.413	127.81
234.647	127.81
234.881	122.81
235.115	113.81
235.349	120.81
235.583	123.81
235.817	130.81
236.051	132.81
236.285	148.81
236.519	114.81
236.753	141.81
236.987	158.81
237.221	203.81
237.455	248.81
237.689	204.81
237.922	150.81
238.156	139.81
238.39	152.81
238.624	129.81
238.858	140.81
239.091	123.81
239.325	121.81
239.559	120.81
239.793	145.81
240.027	138.81
240.26	153.81
240.494	169.81
240.728	160.81
240.961	159.81
241.195	152.81
241.429	145.81
241.662	137.81
241.896	137.81
242.13	137.81
242.363	136.81
242.597	163.81
242.83	143.81
243.064	145.81
243.298	147.81
243.531	161.81
243.765	142.81
243.998	152.81
244.232	157.81
244.465	140.81
244.699	149.81
244.932	147.81
245.166	155.81
245.399	152.81
245.633	157.81
245.866	155.81
246.099	151.81
246.333	160.81
246.566	150.81
246.8	165.81
247.033	152.81
247.266	183.81
247.5	172.81
247.733	183.81
247.966	177.81
248.2	178.81
248.433	188.81
248.666	191.81
248.899	210.81
249.133	226.81
249.366	221.81
249.599	213.81
249.832	190.81
250.066	203.81
250.299	189.81
250.532	188.81
250.765	207.81
250.998	228.81
251.231	258.81
251.465	233.81
251.698	212.81
251.931	199.81
252.164	195.81
252.397	197.81
252.63	216.81
252.863	231.81
253.096	221.81
253.329	246.81
253.562	222.81
253.795	240.81
254.028	229.81
254.261	224.81
254.494	229.81
254.727	275.81
254.96	291.81
255.193	285.81
255.426	281.81
255.659	245.81
255.892	236.81
256.124	226.81
256.357	219.81
256.59	233.81
256.823	217.81
257.056	220.81
257.289	220.81
257.521	229.81
257.754	215.81
257.987	224.81
258.22	229.81
258.452	218.81
258.685	219.81
258.918	212.81
259.151	227.81
259.383	222.81
259.616	226.81
259.849	228.81
260.081	241.81
260.314	255.81
260.547	290.81
260.779	259.81
261.012	249.81
261.244	247.81
261.477	237.81
261.71	221.81
261.942	228.81
262.175	241.81
262.407	231.81
262.64	225.81
262.872	234.81
263.105	235.81
263.337	233.81
263.57	213.81
263.802	232.81
264.035	229.81
264.267	226.81
264.499	232.81
264.732	241.81
264.964	221.81
265.197	256.81
265.429	229.81
265.661	230.81
265.894	230.81
266.126	216.81
266.358	224.81
266.591	220.81
266.823	245.81
267.055	227.81
267.287	241.81
267.52	230.81
267.752	242.81
267.984	226.81
268.216	239.81
268.448	248.81
268.681	241.81
268.913	265.81
269.145	286.81
269.377	284.81
269.609	295.81
269.841	279.81
270.073	294.81
270.306	308.81
270.538	330.81
270.77	329.81
271.002	332.81
271.234	306.81
271.466	315.81
271.698	326.81
271.93	340.81
272.162	337.81
272.394	325.81
272.626	315.81
272.858	319.81
273.09	285.81
273.322	294.81
273.553	308.81
273.785	286.81
274.017	267.81
274.249	281.81
274.481	299.81
274.713	281.81
274.945	297.81
275.176	273.81
275.408	275.81
275.64	282.81
275.872	282.81
276.104	287.81
276.335	292.81
276.567	306.81
276.799	289.81
277.031	330.81
277.262	346.81
277.494	339.81
277.726	322.81
277.957	312.81
278.189	305.81
278.421	287.81
278.652	291.81
278.884	292.81
279.115	282.81
279.347	305.81
279.579	289.81
279.81	294.81
280.042	276.81
280.273	291.81
280.505	298.81
280.736	290.81
280.968	293.81
281.199	295.81
281.431	293.81
281.662	274.81
281.894	307.81
282.125	319.81
282.356	319.81
282.588	332.81
282.819	332.81
283.051	305.81
283.282	291.81
283.513	284.81
283.745	305.81
283.976	297.81
284.207	312.81
284.439	285.81
284.67	305.81
284.901	313.81
285.132	297.81
285.364	301.81
285.595	297.81
285.826	292.81
286.057	304.81
286.288	296.81
286.52	306.81
286.751	291.81
286.982	306.81
287.213	291.81
287.444	280.81
287.675	308.81
287.906	324.81
288.138	320.81
288.369	315.81
288.6	313.81
288.831	329.81
289.062	324.81
289.293	314.81
289.524	318.81
289.755	317.81
289.986	324.81
290.217	313.81
290.448	301.81
290.679	306.81
290.91	301.81
291.141	313.81
291.371	308.81
291.602	294.81
291.833	311.81
292.064	316.81
292.295	296.81
292.526	321.81
292.757	312.81
292.987	332.81
293.218	309.81
293.449	322.81
293.68	313.81
293.91	332.81
294.141	296.81
294.372	297.81
294.603	297.81
294.833	319.81
295.064	315.81
295.295	329.81
295.525	309.81
295.756	302.81
295.987	352.81
296.217	355.81
296.448	368.81
296.679	331.81
296.909	330.81
297.14	335.81
297.37	333.81
297.601	305.81
297.831	311.81
298.062	348.81
298.292	337.81
298.523	328.81
298.753	347.81
298.984	317.81
299.214	332.81
299.445	343.81
299.675	326.81
299.905	353.81
300.136	355.81
300.366	324.81
300.597	348.81
300.827	358.81
301.057	355.81
301.288	367.81
301.518	360.81
301.748	359.81
301.979	351.81
302.209	368.81
302.439	364.81
302.669	348.81
302.9	355.81
303.13	349.81
303.36	368.81
303.59	375.81
303.82	370.81
304.051	384.81
304.281	367.81
304.511	353.81
304.741	361.81
304.971	353.81
305.201	353.81
305.431	373.81
305.661	377.81
305.891	362.81
306.121	355.81
306.352	362.81
306.582	379.81
306.812	375.81
307.042	368.81
307.272	378.81
307.502	344.81
307.731	355.81
307.961	373.81
308.191	353.81
308.421	376.81
308.651	367.81
308.881	374.81
309.111	384.81
309.341	367.81
309.571	398.81
309.8	394.81
310.03	397.81
310.26	390.81
310.49	395.81
310.72	438.81
310.949	433.81
311.179	435.81
311.409	418.81
311.639	400.81
311.868	397.81
312.098	413.81
312.328	416.81
312.557	439.81
312.787	450.81
313.017	446.81
313.246	437.81
313.476	411.81
313.706	404.81
313.935	413.81
314.165	423.81
314.394	463.81
314.624	436.81
314.853	404.81
315.083	431.81
315.312	421.81
315.542	429.81
315.771	386.81
316.001	410.81
316.23	416.81
316.46	412.81
316.689	410.81
316.919	427.81
317.148	437.81
317.377	421.81
317.607	431.81
317.836	435.81
318.065	396.81
318.295	403.81
318.524	383.81
318.753	410.81
318.983	414.81
319.212	426.81
319.441	429.81
319.67	442.81
319.9	417.81
320.129	428.81
320.358	440.81
320.587	450.81
320.816	433.81
321.046	450.81
321.275	429.81
321.504	427.81
321.733	457.81
321.962	435.81
322.191	474.81
322.42	468.81
322.649	501.81
322.878	502.81
323.108	493.81
323.337	538.81
323.566	555.81
323.795	589.81
324.024	665.81
324.253	793.81
324.482	1106.81
324.71	1727.81
324.939	2653.81
325.168	2315.81
325.397	1146.81
325.626	771.81
325.855	630.81
326.084	583.81
326.313	568.81
326.542	567.81
326.77	614.81
326.999	751.81
327.228	1023.81
327.457	1603.81
327.686	2014.81
327.914	1283.81
328.143	835.81
328.372	700.81
328.6	660.81
328.829	630.81
329.058	639.81
329.287	660.81
329.515	624.81
329.744	579.81
329.972	570.81
330.201	562.81
330.43	608.81
330.658	612.81
330.887	669.81
331.115	661.81
331.344	603.81
331.572	556.81
331.801	550.81
332.03	549.81
332.258	519.81
332.486	529.81
332.715	516.81
332.943	489.81
333.172	495.81
333.4	483.81
333.629	513.81
333.857	543.81
334.085	548.81
334.314	525.81
334.542	537.81
334.771	555.81
334.999	543.81
335.227	509.81
335.455	519.81
335.684	515.81
335.912	496.81
336.14	488.81
336.369	509.81
336.597	517.81
336.825	507.81
337.053	481.81
337.281	489.81
337.51	480.81
337.738	512.81
337.966	486.81
338.194	505.81
338.422	491.81
338.65	480.81
338.878	496.81
339.106	469.81
339.334	484.81
339.562	481.81
339.79	467.81
340.018	491.81
340.246	489.81
340.474	464.81
340.702	483.81
340.93	491.81
341.158	442.81
341.386	493.81
341.614	476.81
341.842	472.81
342.07	470.81
342.298	470.81
342.526	484.81
342.754	474.81
342.981	464.81
343.209	473.81
343.437	487.81
343.665	480.81
343.893	491.81
344.12	519.81
344.348	502.81
344.576	486.81
344.804	504.81
345.031	512.81
345.259	506.81
345.487	474.81
345.714	495.81
345.942	491.81
346.17	481.81
346.397	468.81
346.625	451.81
346.853	467.81
347.08	458.81
347.308	474.81
347.535	471.81
347.763	511.81
347.99	475.81
348.218	497.81
348.445	511.81
348.673	485.81
348.9	459.81
349.128	457.81
349.355	440.81
349.583	459.81
349.81	456.81
350.037	441.81
350.265	457.81
350.492	451.81
350.72	463.81
350.947	453.81
351.174	475.81
351.402	501.81
351.629	482.81
351.856	466.81
352.083	470.81
352.311	487.81
352.538	497.81
352.765	487.81
352.992	470.81
353.22	465.81
353.447	453.81
353.674	460.81
353.901	457.81
354.128	453.81
354.355	442.81
354.583	430.81
354.81	429.81
355.037	428.81
355.264	432.81
355.491	432.81
355.718	410.81
355.945	435.81
356.172	456.81
356.399	449.81
356.626	444.81
356.853	445.81
357.08	448.81
357.307	433.81
357.534	443.81
357.761	439.81
357.988	443.81
358.215	438.81
358.441	436.81
358.668	439.81
358.895	465.81
359.122	460.81
359.349	456.81
359.576	461.81
359.802	490.81
360.029	516.81
360.256	540.81
360.483	515.81
360.709	468.81
360.936	478.81
361.163	491.81
361.39	459.81
361.616	496.81
361.843	464.81
362.07	476.81
362.296	477.81
362.523	469.81
362.749	476.81
362.976	474.81
363.203	468.81
363.429	459.81
363.656	466.81
363.882	467.81
364.109	449.81
364.335	467.81
364.562	446.81
364.788	457.81
365.015	451.81
365.241	444.81
365.468	455.81
365.694	473.81
365.92	461.81
366.147	464.81
366.373	457.81
366.599	449.81
366.826	446.81
367.052	441.81
367.278	452.81
367.505	455.81
367.731	439.81
367.957	442.81
368.184	459.81
368.41	461.81
368.636	467.81
368.862	480.81
369.089	477.81
369.315	453.81
369.541	462.81
369.767	479.81
369.993	466.81
370.219	463.81
370.445	485.81
370.672	462.81
370.898	483.81
371.124	466.81
371.35	444.81
371.576	452.81
371.802	444.81
372.028	450.81
372.254	438.81
372.48	443.81
372.706	437.81
372.932	468.81
373.158	453.81
373.384	469.81
373.61	456.81
373.835	459.81
374.061	445.81
374.287	477.81
374.513	470.81
374.739	461.81
374.965	463.81
375.191	464.81
375.416	484.81
375.642	441.81
375.868	452.81
376.094	469.81
376.319	476.81
376.545	461.81
376.771	467.81
376.997	454.81
377.222	468.81
377.448	461.81
377.674	454.81
377.899	448.81
378.125	447.81
378.35	465.81
378.576	445.81
378.802	453.81
379.027	447.81
379.253	465.81
379.478	433.81
379.704	454.81
379.929	463.81
380.155	436.81
380.38	436.81
380.606	467.81
380.831	465.81
381.057	482.81
381.282	455.81
381.507	487.81
381.733	484.81
381.958	469.81
382.184	452.81
382.409	466.81
382.634	504.81
382.86	475.81
383.085	458.81
383.31	480.81
383.535	493.81
383.761	487.81
383.986	461.81
384.211	488.81
384.436	495.81
384.662	490.81
384.887	478.81
385.112	512.81
385.337	490.81
385.562	495.81
385.787	499.81
386.013	533.81
386.238	516.81
386.463	505.81
386.688	513.81
386.913	501.81
387.138	515.81
387.363	501.81
387.588	500.81
387.813	511.81
388.038	479.81
388.263	502.81
388.488	495.81
388.713	500.81
388.938	503.81
389.163	505.81
389.387	515.81
389.612	518.81
389.837	509.81
390.062	490.81
390.287	533.81
390.512	507.81
390.736	524.81
390.961	502.81
391.186	503.81
391.411	498.81
391.636	489.81
391.86	518.81
392.085	524.81
392.31	516.81
392.534	524.81
392.759	520.81
392.984	517.81
393.208	511.81
393.433	514.81
393.658	506.81
393.882	519.81
394.107	509.81
394.331	516.81
394.556	503.81
394.78	520.81
395.005	509.81
395.229	515.81
395.454	524.81
395.678	531.81
395.903	527.81
396.127	571.81
396.352	576.81
396.576	548.81
396.801	536.81
397.025	516.81
397.249	531.81
397.474	550.81
397.698	535.81
397.922	566.81
398.147	563.81
398.371	583.81
398.595	576.81
398.82	575.81
399.044	598.81
399.268	621.81
399.492	640.81
399.717	691.81
399.941	715.81
400.165	728.81
400.389	770.81
400.613	679.81
400.837	618.81
401.062	599.81
401.286	599.81
401.51	576.81
401.734	591.81
401.958	600.81
402.182	591.81
402.406	605.81
402.63	601.81
402.854	599.81
403.078	593.81
403.302	628.81
403.526	609.81
403.75	639.81
403.974	612.81
404.198	613.81
404.422	635.81
404.645	623.81
404.869	620.81
405.093	661.81
405.317	640.81
405.541	712.81
405.765	644.81
405.988	650.81
406.212	662.81
406.436	675.81
406.66	697.81
406.883	665.81
407.107	694.81
407.331	724.81
407.555	818.81
407.778	811.81
408.002	748.81
408.226	681.81
408.449	669.81
408.673	680.81
408.896	708.81
409.12	756.81
409.344	729.81
409.567	643.81
409.791	616.81
410.014	604.81
410.238	608.81
410.461	635.81
410.685	651.81
410.908	661.81
411.132	685.81
411.355	724.81
411.578	696.81
411.802	624.81
412.025	597.81
412.249	616.81
412.472	629.81
412.695	652.81
412.919	646.81
413.142	622.81
413.365	589.81
413.589	588.81
413.812	590.81
414.035	571.81
414.258	607.81
414.482	591.81
414.705	599.81
414.928	589.81
415.151	579.81
415.374	599.81
415.597	580.81
415.821	573.81
416.044	565.81
416.267	603.81
416.49	594.81
416.713	593.81
416.936	577.81
417.159	572.81
417.382	595.81
417.605	587.81
417.828	608.81
418.051	610.81
418.274	597.81
418.497	582.81
418.72	589.81
418.943	575.81
419.166	621.81
419.389	620.81
419.611	626.81
419.834	606.81
420.057	611.81
420.28	607.81
420.503	569.81
420.726	603.81
420.948	633.81
421.171	681.81
421.394	704.81
421.617	623.81
421.839	621.81
422.062	599.81
422.285	620.81
422.507	711.81
422.73	788.81
422.953	755.81
423.175	679.81
423.398	651.81
423.621	652.81
423.843	660.81
424.066	645.81
424.288	657.81
424.511	674.81
424.733	732.81
424.956	845.81
425.178	823.81
425.401	796.81
425.623	823.81
425.846	713.81
426.068	657.81
426.291	644.81
426.513	647.81
426.735	657.81
426.958	691.81
427.18	827.81
427.402	967.81
427.625	1079.81
427.847	919.81
428.069	801.81
428.292	726.81
428.514	637.81
428.736	613.81
428.958	620.81
429.181	613.81
429.403	600.81
429.625	607.81
429.847	638.81
430.069	734.81
430.292	751.81
430.514	629.81
430.736	586.81
430.958	583.81
431.18	613.81
431.402	588.81
431.624	577.81
431.846	577.81
432.068	584.81
432.29	581.81
432.512	585.81
432.734	591.81
432.956	572.81
433.178	574.81
433.4	585.81
433.622	580.81
433.844	580.81
434.066	572.81
434.287	581.81
434.509	603.81
434.731	593.81
434.953	597.81
435.175	638.81
435.397	639.81
435.618	664.81
435.84	700.81
436.062	864.81
436.284	921.81
436.505	761.81
436.727	686.81
436.949	612.81
437.17	608.81
437.392	601.81
437.614	642.81
437.835	662.81
438.057	788.81
438.278	909.81
438.5	889.81
438.721	968.81
438.943	964.81
439.165	730.81
439.386	699.81
439.608	680.81
439.829	681.81
440.05	694.81
440.272	753.81
440.493	699.81
440.715	638.81
440.936	618.81
441.158	619.81
441.379	639.81
441.6	635.81
441.822	642.81
442.043	706.81
442.264	820.81
442.486	861.81
442.707	719.81
442.928	667.81
443.149	685.81
443.371	701.81
443.592	740.81
443.813	872.81
444.034	920.81
444.255	741.81
444.476	703.81
444.698	669.81
444.919	675.81
445.14	786.81
445.361	719.81
445.582	701.81
445.803	782.81
446.024	917.81
446.245	930.81
446.466	829.81
446.687	724.81
446.908	667.81
447.129	636.81
447.35	617.81
447.571	604.81
447.792	595.81
448.013	609.81
448.234	616.81
448.455	699.81
448.675	845.81
448.896	968.81
449.117	831.81
449.338	735.81
449.559	907.81
449.779	1018.81
450	813.81
450.221	654.81
450.442	616.81
450.662	594.81
450.883	599.81
451.104	602.81
451.324	593.81
451.545	614.81
451.766	586.81
451.986	529.81
452.207	534.81
452.428	522.81
452.648	547.81
452.869	536.81
453.089	559.81
453.31	583.81
453.53	548.81
453.751	544.81
453.971	547.81
454.192	575.81
454.412	545.81
454.633	502.81
454.853	523.81
455.073	554.81
455.294	578.81
455.514	653.81
455.734	628.81
455.955	556.81
456.175	524.81
456.395	533.81
456.616	529.81
456.836	512.81
457.056	526.81
457.276	502.81
457.497	504.81
457.717	531.81
457.937	515.81
458.157	522.81
458.377	544.81
458.598	565.81
458.818	628.81
459.038	712.81
459.258	733.81
459.478	637.81
459.698	577.81
459.918	581.81
460.138	601.81
460.358	578.81
460.578	579.81
460.798	592.81
461.018	591.81
461.238	616.81
461.458	580.81
461.678	571.81
461.898	603.81
462.118	621.81
462.338	595.81
462.558	595.81
462.777	626.81
462.997	636.81
463.217	659.81
463.437	641.81
463.657	616.81
463.876	630.81
464.096	645.81
464.316	622.81
464.536	639.81
464.755	631.81
464.975	613.81
465.195	684.81
465.414	784.81
465.634	669.81
465.854	610.81
466.073	610.81
466.293	598.81
466.512	580.81
466.732	579.81
466.951	570.81
467.171	545.81
467.391	559.81
467.61	575.81
467.829	585.81
468.049	579.81
468.268	563.81
468.488	566.81
468.707	536.81
468.927	553.81
469.146	557.81
469.365	542.81
469.585	550.81
469.804	568.81
470.023	549.81
470.243	559.81
470.462	583.81
470.681	599.81
470.901	610.81
471.12	584.81
471.339	586.81
471.558	565.81
471.777	569.81
471.997	559.81
472.216	554.81
472.435	575.81
472.654	562.81
472.873	559.81
473.092	577.81
473.311	572.81
473.53	536.81
473.749	562.81
473.968	617.81
474.187	738.81
474.406	753.81
474.625	628.81
474.844	601.81
475.063	587.81
475.282	565.81
475.501	600.81
475.72	587.81
475.939	584.81
476.158	593.81
476.377	569.81
476.596	585.81
476.814	623.81
477.033	594.81
477.252	612.81
477.471	607.81
477.69	597.81
477.908	612.81
478.127	607.81
478.346	601.81
478.564	653.81
478.783	650.81
479.002	650.81
479.22	649.81
479.439	681.81
479.658	687.81
479.876	689.81
480.095	704.81
480.313	712.81
480.532	702.81
480.751	697.81
480.969	684.81
481.188	699.81
481.406	727.81
481.624	713.81
481.843	672.81
482.061	689.81
482.28	679.81
482.498	653.81
482.717	644.81
482.935	662.81
483.153	659.81
483.372	669.81
483.59	653.81
483.808	652.81
484.027	646.81
484.245	659.81
484.463	680.81
484.681	693.81
484.9	679.81
485.118	665.81
485.336	694.81
485.554	698.81
485.772	687.81
485.99	648.81
486.209	687.81
486.427	683.81
486.645	715.81
486.863	730.81
487.081	706.81
487.299	724.81
487.517	703.81
487.735	716.81
487.953	716.81
488.171	716.81
488.389	739.81
488.607	723.81
488.825	706.81
489.043	701.81
489.261	748.81
489.479	732.81
489.696	717.81
489.914	748.81
490.132	737.81
490.35	735.81
490.568	756.81
490.786	761.81
491.003	782.81
491.221	764.81
491.439	787.81
491.657	792.81
491.874	807.81
492.092	818.81
492.31	837.81
492.527	816.81
492.745	830.81
492.963	837.81
493.18	855.81
493.398	872.81
493.615	825.81
493.833	839.81
494.05	844.81
494.268	836.81
494.485	839.81
494.703	827.81
494.92	838.81
495.138	869.81
495.355	860.81
495.573	848.81
495.79	849.81
496.008	825.81
496.225	878.81
496.442	871.81
496.66	881.81
496.877	855.81
497.094	839.81
497.312	866.81
497.529	888.81
497.746	885.81
497.963	893.81
498.181	916.81
498.398	947.81
498.615	947.81
498.832	989.81
499.049	994.81
499.267	1017.81
499.484	1049.81
499.701	1065.81
499.918	1108.81
500.135	1162.81
500.352	1197.81
500.569	1203.81
500.786	1251.81
501.003	1227.81
501.22	1207.81
501.437	1111.81
501.654	1111.81
