Data from 1988.PennyLincolnUp.Lamp.En5.5.200Scan.071819.P2_HRD10591_17-18-47-976.txt Node
Date: Thu Jul 18 17:18:47 EDT 2019
User: cochatt
Spectrometer: HR+D1059
Trigger mode: 1
Integration Time (sec): 1.000000E-1
Scans to average: 1
Electric dark correction enabled: true
Nonlinearity correction enabled: false
Boxcar width: 0
XAxis mode: Wavelengths
Number of Pixels in Spectrum: 2048
>>>>>Begin Spectral Data<<<<<
223.165	-14.81
223.4	-14.81
223.635	-14.81
223.869	0.19
224.104	0.19
224.338	-19.81
224.573	-7.81
224.808	-24.81
225.042	-8.81
225.277	-7.81
225.511	6.19
225.746	1.19
225.98	0.19
226.215	8.19
226.449	0.19
226.683	16.19
226.918	24.19
227.152	27.19
227.387	41.19
227.621	39.19
227.856	52.19
228.09	39.19
228.324	41.19
228.559	44.19
228.793	71.19
229.027	84.19
229.262	107.19
229.496	95.19
229.73	126.19
229.964	132.19
230.199	116.19
230.433	116.19
230.667	106.19
230.901	117.19
231.136	96.19
231.37	106.19
231.604	119.19
231.838	105.19
232.072	112.19
232.306	97.19
232.541	109.19
232.775	105.19
233.009	103.19
233.243	111.19
233.477	105.19
233.711	115.19
233.945	116.19
234.179	105.19
234.413	115.19
234.647	120.19
234.881	112.19
235.115	120.19
235.349	95.19
235.583	120.19
235.817	115.19
236.051	108.19
236.285	118.19
236.519	115.19
236.753	136.19
236.987	135.19
237.221	160.19
237.455	221.19
237.689	179.19
237.922	134.19
238.156	129.19
238.39	131.19
238.624	120.19
238.858	131.19
239.091	119.19
239.325	123.19
239.559	119.19
239.793	136.19
240.027	126.19
240.26	140.19
240.494	143.19
240.728	139.19
240.961	135.19
241.195	117.19
241.429	137.19
241.662	129.19
241.896	127.19
242.13	120.19
242.363	145.19
242.597	123.19
242.83	124.19
243.064	140.19
243.298	121.19
243.531	143.19
243.765	147.19
243.998	148.19
244.232	146.19
244.465	116.19
244.699	131.19
244.932	132.19
245.166	125.19
245.399	156.19
245.633	136.19
245.866	126.19
246.099	139.19
246.333	140.19
246.566	141.19
246.8	135.19
247.033	135.19
247.266	152.19
247.5	140.19
247.733	157.19
247.966	164.19
248.2	161.19
248.433	172.19
248.666	170.19
248.899	182.19
249.133	185.19
249.366	197.19
249.599	176.19
249.832	164.19
250.066	164.19
250.299	180.19
250.532	156.19
250.765	177.19
250.998	192.19
251.231	219.19
251.465	201.19
251.698	186.19
251.931	172.19
252.164	188.19
252.397	181.19
252.63	189.19
252.863	180.19
253.096	196.19
253.329	229.19
253.562	204.19
253.795	203.19
254.028	197.19
254.261	205.19
254.494	202.19
254.727	227.19
254.96	255.19
255.193	236.19
255.426	219.19
255.659	225.19
255.892	204.19
256.124	201.19
256.357	187.19
256.59	181.19
256.823	196.19
257.056	182.19
257.289	181.19
257.521	196.19
257.754	190.19
257.987	182.19
258.22	207.19
258.452	197.19
258.685	191.19
258.918	197.19
259.151	190.19
259.383	209.19
259.616	192.19
259.849	195.19
260.081	220.19
260.314	216.19
260.547	223.19
260.779	231.19
261.012	223.19
261.244	213.19
261.477	216.19
261.71	213.19
261.942	229.19
262.175	208.19
262.407	202.19
262.64	218.19
262.872	211.19
263.105	194.19
263.337	212.19
263.57	181.19
263.802	218.19
264.035	220.19
264.267	211.19
264.499	202.19
264.732	210.19
264.964	210.19
265.197	208.19
265.429	205.19
265.661	214.19
265.894	210.19
266.126	188.19
266.358	193.19
266.591	209.19
266.823	206.19
267.055	208.19
267.287	231.19
267.52	224.19
267.752	237.19
267.984	205.19
268.216	220.19
268.448	225.19
268.681	215.19
268.913	231.19
269.145	235.19
269.377	270.19
269.609	271.19
269.841	243.19
270.073	262.19
270.306	264.19
270.538	292.19
270.77	280.19
271.002	267.19
271.234	276.19
271.466	270.19
271.698	288.19
271.93	287.19
272.162	295.19
272.394	292.19
272.626	279.19
272.858	267.19
273.09	266.19
273.322	268.19
273.553	242.19
273.785	246.19
274.017	256.19
274.249	235.19
274.481	240.19
274.713	225.19
274.945	261.19
275.176	258.19
275.408	235.19
275.64	247.19
275.872	262.19
276.104	255.19
276.335	262.19
276.567	247.19
276.799	267.19
277.031	272.19
277.262	286.19
277.494	293.19
277.726	272.19
277.957	272.19
278.189	273.19
278.421	255.19
278.652	261.19
278.884	259.19
279.115	268.19
279.347	273.19
279.579	262.19
279.81	273.19
280.042	267.19
280.273	248.19
280.505	271.19
280.736	263.19
280.968	254.19
281.199	252.19
281.431	254.19
281.662	250.19
281.894	269.19
282.125	261.19
282.356	275.19
282.588	291.19
282.819	269.19
283.051	269.19
283.282	268.19
283.513	265.19
283.745	267.19
283.976	275.19
284.207	252.19
284.439	260.19
284.67	259.19
284.901	269.19
285.132	257.19
285.364	279.19
285.595	275.19
285.826	264.19
286.057	257.19
286.288	249.19
286.52	269.19
286.751	276.19
286.982	268.19
287.213	259.19
287.444	279.19
287.675	277.19
287.906	290.19
288.138	293.19
288.369	282.19
288.6	302.19
288.831	279.19
289.062	285.19
289.293	281.19
289.524	283.19
289.755	273.19
289.986	274.19
290.217	299.19
290.448	287.19
290.679	281.19
290.91	295.19
291.141	284.19
291.371	270.19
291.602	290.19
291.833	282.19
292.064	283.19
292.295	281.19
292.526	274.19
292.757	284.19
292.987	273.19
293.218	281.19
293.449	275.19
293.68	288.19
293.91	274.19
294.141	275.19
294.372	261.19
294.603	274.19
294.833	300.19
295.064	282.19
295.295	277.19
295.525	295.19
295.756	297.19
295.987	291.19
296.217	310.19
296.448	320.19
296.679	293.19
296.909	289.19
297.14	283.19
297.37	298.19
297.601	287.19
297.831	303.19
298.062	289.19
298.292	295.19
298.523	289.19
298.753	299.19
298.984	275.19
299.214	311.19
299.445	301.19
299.675	286.19
299.905	311.19
300.136	315.19
300.366	288.19
300.597	284.19
300.827	311.19
301.057	309.19
301.288	298.19
301.518	287.19
301.748	305.19
301.979	303.19
302.209	315.19
302.439	310.19
302.669	315.19
302.9	340.19
303.13	310.19
303.36	299.19
303.59	317.19
303.82	338.19
304.051	313.19
304.281	319.19
304.511	319.19
304.741	307.19
304.971	318.19
305.201	295.19
305.431	341.19
305.661	317.19
305.891	299.19
306.121	308.19
306.352	320.19
306.582	313.19
306.812	341.19
307.042	316.19
307.272	314.19
307.502	306.19
307.731	322.19
307.961	329.19
308.191	326.19
308.421	319.19
308.651	326.19
308.881	325.19
309.111	325.19
309.341	334.19
309.571	345.19
309.8	340.19
310.03	341.19
310.26	346.19
310.49	363.19
310.72	367.19
310.949	360.19
311.179	390.19
311.409	357.19
311.639	361.19
311.868	344.19
312.098	356.19
312.328	348.19
312.557	387.19
312.787	405.19
313.017	421.19
313.246	375.19
313.476	370.19
313.706	369.19
313.935	380.19
314.165	377.19
314.394	397.19
314.624	373.19
314.853	389.19
315.083	351.19
315.312	360.19
315.542	367.19
315.771	358.19
316.001	352.19
316.23	347.19
316.46	377.19
316.689	379.19
316.919	361.19
317.148	381.19
317.377	381.19
317.607	368.19
317.836	356.19
318.065	369.19
318.295	381.19
318.524	354.19
318.753	375.19
318.983	375.19
319.212	357.19
319.441	375.19
319.67	383.19
319.9	377.19
320.129	384.19
320.358	396.19
320.587	374.19
320.816	379.19
321.046	379.19
321.275	392.19
321.504	393.19
321.733	401.19
321.962	390.19
322.191	425.19
322.42	413.19
322.649	447.19
322.878	455.19
323.108	434.19
323.337	471.19
323.566	479.19
323.795	489.19
324.024	533.19
324.253	630.19
324.482	913.19
324.71	1388.19
324.939	1992.19
325.168	1709.19
325.397	872.19
325.626	637.19
325.855	550.19
326.084	474.19
326.313	479.19
326.542	496.19
326.77	524.19
326.999	602.19
327.228	794.19
327.457	1211.19
327.686	1484.19
327.914	962.19
328.143	672.19
328.372	581.19
328.6	565.19
328.829	515.19
329.058	538.19
329.287	541.19
329.515	511.19
329.744	473.19
329.972	457.19
330.201	453.19
330.43	469.19
330.658	526.19
330.887	564.19
331.115	567.19
331.344	488.19
331.572	475.19
331.801	462.19
332.03	453.19
332.258	439.19
332.486	469.19
332.715	430.19
332.943	437.19
333.172	447.19
333.4	426.19
333.629	435.19
333.857	473.19
334.085	441.19
334.314	436.19
334.542	444.19
334.771	450.19
334.999	444.19
335.227	435.19
335.455	437.19
335.684	461.19
335.912	434.19
336.14	443.19
336.369	462.19
336.597	454.19
336.825	442.19
337.053	439.19
337.281	420.19
337.51	411.19
337.738	449.19
337.966	439.19
338.194	447.19
338.422	427.19
338.65	439.19
338.878	440.19
339.106	401.19
339.334	406.19
339.562	422.19
339.79	427.19
340.018	418.19
340.246	410.19
340.474	435.19
340.702	431.19
340.93	418.19
341.158	399.19
341.386	426.19
341.614	425.19
341.842	418.19
342.07	413.19
342.298	415.19
342.526	399.19
342.754	395.19
342.981	425.19
343.209	401.19
343.437	415.19
343.665	425.19
343.893	422.19
344.12	439.19
344.348	421.19
344.576	423.19
344.804	444.19
345.031	437.19
345.259	431.19
345.487	434.19
345.714	424.19
345.942	409.19
346.17	412.19
346.397	401.19
346.625	403.19
346.853	403.19
347.08	427.19
347.308	395.19
347.535	409.19
347.763	431.19
347.99	394.19
348.218	420.19
348.445	426.19
348.673	416.19
348.9	421.19
349.128	413.19
349.355	401.19
349.583	388.19
349.81	409.19
350.037	390.19
350.265	378.19
350.492	395.19
350.72	401.19
350.947	398.19
351.174	411.19
351.402	412.19
351.629	398.19
351.856	404.19
352.083	427.19
352.311	415.19
352.538	407.19
352.765	411.19
352.992	421.19
353.22	405.19
353.447	396.19
353.674	422.19
353.901	402.19
354.128	379.19
354.355	379.19
354.583	390.19
354.81	387.19
355.037	400.19
355.264	396.19
355.491	373.19
355.718	377.19
355.945	389.19
356.172	371.19
356.399	389.19
356.626	407.19
356.853	379.19
357.08	396.19
357.307	373.19
357.534	377.19
357.761	384.19
357.988	397.19
358.215	395.19
358.441	394.19
358.668	376.19
358.895	409.19
359.122	378.19
359.349	393.19
359.576	413.19
359.802	424.19
360.029	423.19
360.256	463.19
360.483	440.19
360.709	420.19
360.936	413.19
361.163	400.19
361.39	413.19
361.616	413.19
361.843	405.19
362.07	411.19
362.296	419.19
362.523	417.19
362.749	433.19
362.976	409.19
363.203	401.19
363.429	396.19
363.656	391.19
363.882	407.19
364.109	385.19
364.335	393.19
364.562	382.19
364.788	401.19
365.015	408.19
365.241	377.19
365.468	409.19
365.694	394.19
365.92	396.19
366.147	389.19
366.373	381.19
366.599	408.19
366.826	390.19
367.052	387.19
367.278	401.19
367.505	377.19
367.731	395.19
367.957	393.19
368.184	387.19
368.41	404.19
368.636	391.19
368.862	407.19
369.089	388.19
369.315	393.19
369.541	385.19
369.767	391.19
369.993	374.19
370.219	408.19
370.445	407.19
370.672	399.19
370.898	412.19
371.124	415.19
371.35	407.19
371.576	406.19
371.802	385.19
372.028	383.19
372.254	389.19
372.48	381.19
372.706	385.19
372.932	399.19
373.158	406.19
373.384	373.19
373.61	403.19
373.835	404.19
374.061	381.19
374.287	414.19
374.513	385.19
374.739	417.19
374.965	396.19
375.191	403.19
375.416	408.19
375.642	407.19
375.868	409.19
376.094	404.19
376.319	408.19
376.545	408.19
376.771	409.19
376.997	396.19
377.222	383.19
377.448	383.19
377.674	391.19
377.899	409.19
378.125	385.19
378.35	399.19
378.576	391.19
378.802	395.19
379.027	399.19
379.253	390.19
379.478	401.19
379.704	386.19
379.929	394.19
380.155	388.19
380.38	396.19
380.606	415.19
380.831	406.19
381.057	408.19
381.282	405.19
381.507	393.19
381.733	404.19
381.958	402.19
382.184	397.19
382.409	401.19
382.634	410.19
382.86	418.19
383.085	405.19
383.31	398.19
383.535	386.19
383.761	399.19
383.986	423.19
384.211	420.19
384.436	431.19
384.662	399.19
384.887	405.19
385.112	424.19
385.337	431.19
385.562	438.19
385.787	434.19
386.013	437.19
386.238	439.19
386.463	457.19
386.688	421.19
386.913	425.19
387.138	444.19
387.363	423.19
387.588	420.19
387.813	432.19
388.038	440.19
388.263	427.19
388.488	439.19
388.713	428.19
388.938	413.19
389.163	443.19
389.387	444.19
389.612	434.19
389.837	431.19
390.062	440.19
390.287	439.19
390.512	433.19
390.736	437.19
390.961	428.19
391.186	424.19
391.411	443.19
391.636	431.19
391.86	457.19
392.085	427.19
392.31	470.19
392.534	458.19
392.759	464.19
392.984	442.19
393.208	450.19
393.433	428.19
393.658	455.19
393.882	454.19
394.107	435.19
394.331	425.19
394.556	435.19
394.78	452.19
395.005	435.19
395.229	432.19
395.454	464.19
395.678	468.19
395.903	465.19
396.127	495.19
396.352	497.19
396.576	460.19
396.801	451.19
397.025	469.19
397.249	449.19
397.474	467.19
397.698	471.19
397.922	487.19
398.147	480.19
398.371	482.19
398.595	515.19
398.82	502.19
399.044	498.19
399.268	531.19
399.492	555.19
399.717	584.19
399.941	611.19
400.165	603.19
400.389	648.19
400.613	575.19
400.837	538.19
401.062	515.19
401.286	527.19
401.51	508.19
401.734	499.19
401.958	519.19
402.182	496.19
402.406	542.19
402.63	511.19
402.854	520.19
403.078	500.19
403.302	530.19
403.526	507.19
403.75	519.19
403.974	526.19
404.198	519.19
404.422	542.19
404.645	520.19
404.869	533.19
405.093	551.19
405.317	561.19
405.541	595.19
405.765	548.19
405.988	555.19
406.212	543.19
406.436	592.19
406.66	583.19
406.883	553.19
407.107	597.19
407.331	632.19
407.555	694.19
407.778	677.19
408.002	609.19
408.226	601.19
408.449	586.19
408.673	579.19
408.896	574.19
409.12	636.19
409.344	596.19
409.567	558.19
409.791	527.19
410.014	540.19
410.238	539.19
410.461	525.19
410.685	537.19
410.908	558.19
411.132	559.19
411.355	594.19
411.578	566.19
411.802	540.19
412.025	508.19
412.249	504.19
412.472	529.19
412.695	534.19
412.919	521.19
413.142	503.19
413.365	502.19
413.589	523.19
413.812	499.19
414.035	489.19
414.258	484.19
414.482	483.19
414.705	475.19
414.928	484.19
415.151	484.19
415.374	473.19
415.597	486.19
415.821	465.19
416.044	475.19
416.267	493.19
416.49	504.19
416.713	485.19
416.936	491.19
417.159	491.19
417.382	484.19
417.605	492.19
417.828	502.19
418.051	515.19
418.274	490.19
418.497	490.19
418.72	491.19
418.943	482.19
419.166	508.19
419.389	536.19
419.611	496.19
419.834	509.19
420.057	495.19
420.28	518.19
420.503	500.19
420.726	501.19
420.948	521.19
421.171	565.19
421.394	570.19
421.617	543.19
421.839	516.19
422.062	525.19
422.285	511.19
422.507	582.19
422.73	645.19
422.953	635.19
423.175	561.19
423.398	517.19
423.621	527.19
423.843	535.19
424.066	541.19
424.288	547.19
424.511	563.19
424.733	617.19
424.956	701.19
425.178	661.19
425.401	653.19
425.623	674.19
425.846	571.19
426.068	551.19
426.291	541.19
426.513	506.19
426.735	558.19
426.958	593.19
427.18	662.19
427.402	815.19
427.625	873.19
427.847	744.19
428.069	627.19
428.292	582.19
428.514	536.19
428.736	520.19
428.958	526.19
429.181	524.19
429.403	512.19
429.625	514.19
429.847	532.19
430.069	614.19
430.292	595.19
430.514	537.19
430.736	524.19
430.958	499.19
431.18	492.19
431.402	463.19
431.624	472.19
431.846	471.19
432.068	487.19
432.29	475.19
432.512	487.19
432.734	488.19
432.956	463.19
433.178	487.19
433.4	483.19
433.622	504.19
433.844	481.19
434.066	495.19
434.287	480.19
434.509	467.19
434.731	502.19
434.953	515.19
435.175	525.19
435.397	562.19
435.618	522.19
435.84	600.19
436.062	683.19
436.284	735.19
436.505	615.19
436.727	541.19
436.949	540.19
437.17	513.19
437.392	517.19
437.614	513.19
437.835	547.19
438.057	643.19
438.278	733.19
438.5	723.19
438.721	817.19
438.943	760.19
439.165	599.19
439.386	559.19
439.608	548.19
439.829	554.19
440.05	562.19
440.272	621.19
440.493	589.19
440.715	513.19
440.936	503.19
441.158	512.19
441.379	529.19
441.6	523.19
441.822	543.19
442.043	597.19
442.264	665.19
442.486	680.19
442.707	613.19
442.928	576.19
443.149	577.19
443.371	589.19
443.592	609.19
443.813	697.19
444.034	782.19
444.255	647.19
444.476	567.19
444.698	557.19
444.919	545.19
445.14	637.19
445.361	597.19
445.582	569.19
445.803	647.19
446.024	740.19
446.245	756.19
446.466	700.19
446.687	605.19
446.908	547.19
447.129	555.19
447.35	503.19
447.571	484.19
447.792	485.19
448.013	498.19
448.234	533.19
448.455	583.19
448.675	672.19
448.896	821.19
449.117	658.19
449.338	620.19
449.559	738.19
449.779	837.19
450	697.19
450.221	556.19
450.442	547.19
450.662	504.19
450.883	497.19
451.104	511.19
451.324	505.19
451.545	491.19
451.766	462.19
451.986	449.19
452.207	465.19
452.428	447.19
452.648	452.19
452.869	448.19
453.089	464.19
453.31	452.19
453.53	471.19
453.751	451.19
453.971	472.19
454.192	467.19
454.412	454.19
454.633	450.19
454.853	451.19
455.073	449.19
455.294	488.19
455.514	552.19
455.734	537.19
455.955	467.19
456.175	441.19
456.395	425.19
456.616	428.19
456.836	412.19
457.056	417.19
457.276	425.19
457.497	452.19
457.717	421.19
457.937	456.19
458.157	433.19
458.377	448.19
458.598	476.19
458.818	526.19
459.038	570.19
459.258	587.19
459.478	524.19
459.698	491.19
459.918	484.19
460.138	489.19
460.358	497.19
460.578	489.19
460.798	518.19
461.018	479.19
461.238	483.19
461.458	511.19
461.678	514.19
461.898	499.19
462.118	500.19
462.338	523.19
462.558	515.19
462.777	525.19
462.997	514.19
463.217	546.19
463.437	569.19
463.657	555.19
463.876	531.19
464.096	543.19
464.316	539.19
464.536	537.19
464.755	537.19
464.975	554.19
465.195	557.19
465.414	615.19
465.634	563.19
465.854	524.19
466.073	503.19
466.293	489.19
466.512	497.19
466.732	465.19
466.951	463.19
467.171	468.19
467.391	500.19
467.61	468.19
467.829	478.19
468.049	471.19
468.268	472.19
468.488	472.19
468.707	463.19
468.927	468.19
469.146	466.19
469.365	442.19
469.585	456.19
469.804	465.19
470.023	467.19
470.243	474.19
470.462	500.19
470.681	504.19
470.901	472.19
471.12	502.19
471.339	478.19
471.558	479.19
471.777	481.19
471.997	471.19
472.216	475.19
472.435	482.19
472.654	483.19
472.873	477.19
473.092	472.19
473.311	468.19
473.53	464.19
473.749	493.19
473.968	524.19
474.187	602.19
474.406	633.19
474.625	511.19
474.844	505.19
475.063	495.19
475.282	491.19
475.501	472.19
475.72	477.19
475.939	498.19
476.158	503.19
476.377	517.19
476.596	507.19
476.814	519.19
477.033	495.19
477.252	528.19
477.471	491.19
477.69	520.19
477.908	481.19
478.127	531.19
478.346	548.19
478.564	527.19
478.783	524.19
479.002	533.19
479.22	537.19
479.439	561.19
479.658	599.19
479.876	574.19
480.095	556.19
480.313	609.19
480.532	589.19
480.751	563.19
480.969	566.19
481.188	588.19
481.406	598.19
481.624	536.19
481.843	566.19
482.061	578.19
482.28	566.19
482.498	547.19
482.717	553.19
482.935	555.19
483.153	567.19
483.372	539.19
483.59	560.19
483.808	543.19
484.027	557.19
484.245	571.19
484.463	565.19
484.681	553.19
484.9	586.19
485.118	582.19
485.336	563.19
485.554	554.19
485.772	589.19
485.99	579.19
486.209	580.19
486.427	603.19
486.645	592.19
486.863	595.19
487.081	630.19
487.299	601.19
487.517	601.19
487.735	603.19
487.953	592.19
488.171	578.19
488.389	620.19
488.607	616.19
488.825	589.19
489.043	584.19
489.261	606.19
489.479	595.19
489.696	603.19
489.914	603.19
490.132	611.19
490.35	629.19
490.568	628.19
490.786	621.19
491.003	651.19
491.221	670.19
491.439	657.19
491.657	661.19
491.874	657.19
492.092	667.19
492.31	676.19
492.527	693.19
492.745	654.19
492.963	675.19
493.18	688.19
493.398	673.19
493.615	693.19
493.833	691.19
494.05	679.19
494.268	703.19
494.485	674.19
494.703	673.19
494.92	713.19
495.138	715.19
495.355	687.19
495.573	704.19
495.79	694.19
496.008	710.19
496.225	702.19
496.442	709.19
496.66	723.19
496.877	716.19
497.094	722.19
497.312	713.19
497.529	720.19
497.746	738.19
497.963	767.19
498.181	777.19
498.398	780.19
498.615	813.19
498.832	810.19
499.049	817.19
499.267	835.19
499.484	896.19
499.701	900.19
499.918	924.19
500.135	986.19
500.352	994.19
500.569	1000.19
500.786	1041.19
501.003	1012.19
501.22	989.19
501.437	960.19
501.654	925.19
501.871	891.19
502.088	876.19
