Data from 1988.PennyLincolnUp.Lamp.En5.5.200Scan.071819.P2_HRD10591_17-20-19-972.txt Node
Date: Thu Jul 18 17:20:19 EDT 2019
User: cochatt
Spectrometer: HR+D1059
Trigger mode: 1
Integration Time (sec): 1.000000E-1
Scans to average: 1
Electric dark correction enabled: true
Nonlinearity correction enabled: false
Boxcar width: 0
XAxis mode: Wavelengths
Number of Pixels in Spectrum: 2048
>>>>>Begin Spectral Data<<<<<
223.165	-14.88
223.4	-14.88
223.635	-14.88
223.869	-6.88
224.104	-13.88
224.338	-27.88
224.573	-26.88
224.808	-3.88
225.042	-12.88
225.277	-6.88
225.511	-2.88
225.746	9.12
225.98	9.12
226.215	11.12
226.449	8.12
226.683	19.12
226.918	33.12
227.152	27.12
227.387	35.12
227.621	45.12
227.856	41.12
228.09	61.12
228.324	59.12
228.559	62.12
228.793	75.12
229.027	105.12
229.262	125.12
229.496	123.12
229.73	159.12
229.964	166.12
230.199	134.12
230.433	125.12
230.667	116.12
230.901	127.12
231.136	121.12
231.37	127.12
231.604	116.12
231.838	109.12
232.072	109.12
232.306	122.12
232.541	125.12
232.775	124.12
233.009	107.12
233.243	109.12
233.477	116.12
233.711	119.12
233.945	120.12
234.179	109.12
234.413	123.12
234.647	127.12
234.881	132.12
235.115	128.12
235.349	133.12
235.583	135.12
235.817	139.12
236.051	131.12
236.285	129.12
236.519	141.12
236.753	143.12
236.987	147.12
237.221	179.12
237.455	261.12
237.689	218.12
237.922	153.12
238.156	143.12
238.39	128.12
238.624	134.12
238.858	117.12
239.091	137.12
239.325	119.12
239.559	122.12
239.793	140.12
240.027	127.12
240.26	156.12
240.494	160.12
240.728	159.12
240.961	165.12
241.195	156.12
241.429	161.12
241.662	156.12
241.896	159.12
242.13	150.12
242.363	124.12
242.597	135.12
242.83	143.12
243.064	141.12
243.298	133.12
243.531	143.12
243.765	135.12
243.998	128.12
244.232	150.12
244.465	147.12
244.699	149.12
244.932	144.12
245.166	156.12
245.399	153.12
245.633	160.12
245.866	148.12
246.099	148.12
246.333	168.12
246.566	151.12
246.8	157.12
247.033	171.12
247.266	165.12
247.5	177.12
247.733	168.12
247.966	180.12
248.2	161.12
248.433	173.12
248.666	166.12
248.899	194.12
249.133	211.12
249.366	200.12
249.599	203.12
249.832	188.12
250.066	187.12
250.299	188.12
250.532	185.12
250.765	197.12
250.998	239.12
251.231	235.12
251.465	231.12
251.698	202.12
251.931	219.12
252.164	202.12
252.397	214.12
252.63	224.12
252.863	225.12
253.096	231.12
253.329	237.12
253.562	237.12
253.795	241.12
254.028	209.12
254.261	215.12
254.494	233.12
254.727	270.12
254.96	293.12
255.193	281.12
255.426	273.12
255.659	265.12
255.892	238.12
256.124	237.12
256.357	240.12
256.59	226.12
256.823	221.12
257.056	217.12
257.289	233.12
257.521	216.12
257.754	228.12
257.987	209.12
258.22	226.12
258.452	212.12
258.685	223.12
258.918	219.12
259.151	203.12
259.383	217.12
259.616	237.12
259.849	259.12
260.081	259.12
260.314	272.12
260.547	277.12
260.779	266.12
261.012	253.12
261.244	234.12
261.477	244.12
261.71	230.12
261.942	259.12
262.175	256.12
262.407	221.12
262.64	209.12
262.872	237.12
263.105	221.12
263.337	218.12
263.57	241.12
263.802	215.12
264.035	213.12
264.267	228.12
264.499	243.12
264.732	234.12
264.964	219.12
265.197	231.12
265.429	225.12
265.661	235.12
265.894	245.12
266.126	231.12
266.358	217.12
266.591	228.12
266.823	237.12
267.055	257.12
267.287	246.12
267.52	251.12
267.752	259.12
267.984	246.12
268.216	243.12
268.448	246.12
268.681	248.12
268.913	260.12
269.145	274.12
269.377	291.12
269.609	291.12
269.841	278.12
270.073	259.12
270.306	316.12
270.538	339.12
270.77	337.12
271.002	324.12
271.234	319.12
271.466	332.12
271.698	323.12
271.93	350.12
272.162	325.12
272.394	340.12
272.626	340.12
272.858	305.12
273.09	295.12
273.322	293.12
273.553	267.12
273.785	307.12
274.017	283.12
274.249	281.12
274.481	278.12
274.713	285.12
274.945	284.12
275.176	276.12
275.408	273.12
275.64	272.12
275.872	285.12
276.104	308.12
276.335	275.12
276.567	293.12
276.799	306.12
277.031	324.12
277.262	329.12
277.494	356.12
277.726	320.12
277.957	324.12
278.189	296.12
278.421	275.12
278.652	305.12
278.884	263.12
279.115	285.12
279.347	288.12
279.579	274.12
279.81	279.12
280.042	293.12
280.273	292.12
280.505	275.12
280.736	280.12
280.968	271.12
281.199	277.12
281.431	292.12
281.662	284.12
281.894	304.12
282.125	292.12
282.356	303.12
282.588	313.12
282.819	330.12
283.051	310.12
283.282	289.12
283.513	327.12
283.745	291.12
283.976	307.12
284.207	305.12
284.439	307.12
284.67	312.12
284.901	289.12
285.132	305.12
285.364	293.12
285.595	299.12
285.826	309.12
286.057	291.12
286.288	294.12
286.52	281.12
286.751	307.12
286.982	283.12
287.213	291.12
287.444	299.12
287.675	294.12
287.906	317.12
288.138	329.12
288.369	345.12
288.6	330.12
288.831	329.12
289.062	315.12
289.293	346.12
289.524	321.12
289.755	311.12
289.986	313.12
290.217	311.12
290.448	313.12
290.679	301.12
290.91	293.12
291.141	314.12
291.371	333.12
291.602	312.12
291.833	310.12
292.064	286.12
292.295	316.12
292.526	302.12
292.757	332.12
292.987	303.12
293.218	313.12
293.449	299.12
293.68	321.12
293.91	326.12
294.141	320.12
294.372	320.12
294.603	316.12
294.833	312.12
295.064	316.12
295.295	319.12
295.525	324.12
295.756	326.12
295.987	343.12
296.217	374.12
296.448	359.12
296.679	353.12
296.909	323.12
297.14	314.12
297.37	330.12
297.601	338.12
297.831	299.12
298.062	341.12
298.292	315.12
298.523	343.12
298.753	326.12
298.984	326.12
299.214	320.12
299.445	347.12
299.675	345.12
299.905	346.12
300.136	360.12
300.366	343.12
300.597	339.12
300.827	352.12
301.057	359.12
301.288	373.12
301.518	359.12
301.748	361.12
301.979	369.12
302.209	361.12
302.439	369.12
302.669	344.12
302.9	359.12
303.13	356.12
303.36	371.12
303.59	344.12
303.82	371.12
304.051	370.12
304.281	367.12
304.511	368.12
304.741	362.12
304.971	372.12
305.201	355.12
305.431	354.12
305.661	361.12
305.891	357.12
306.121	358.12
306.352	366.12
306.582	381.12
306.812	357.12
307.042	367.12
307.272	340.12
307.502	363.12
307.731	364.12
307.961	375.12
308.191	357.12
308.421	368.12
308.651	375.12
308.881	372.12
309.111	363.12
309.341	391.12
309.571	406.12
309.8	395.12
310.03	382.12
310.26	421.12
310.49	403.12
310.72	426.12
310.949	444.12
311.179	442.12
311.409	401.12
311.639	424.12
311.868	396.12
312.098	424.12
312.328	415.12
312.557	438.12
312.787	464.12
313.017	459.12
313.246	434.12
313.476	409.12
313.706	391.12
313.935	427.12
314.165	434.12
314.394	437.12
314.624	456.12
314.853	411.12
315.083	441.12
315.312	439.12
315.542	403.12
315.771	416.12
316.001	424.12
316.23	422.12
316.46	420.12
316.689	420.12
316.919	420.12
317.148	424.12
317.377	423.12
317.607	417.12
317.836	428.12
318.065	416.12
318.295	420.12
318.524	408.12
318.753	418.12
318.983	420.12
319.212	424.12
319.441	420.12
319.67	425.12
319.9	419.12
320.129	426.12
320.358	424.12
320.587	431.12
320.816	445.12
321.046	443.12
321.275	443.12
321.504	441.12
321.733	460.12
321.962	458.12
322.191	469.12
322.42	481.12
322.649	488.12
322.878	523.12
323.108	533.12
323.337	544.12
323.566	563.12
323.795	610.12
324.024	664.12
324.253	763.12
324.482	1113.12
324.71	1755.12
324.939	2653.12
325.168	2257.12
325.397	1125.12
325.626	753.12
325.855	626.12
326.084	587.12
326.313	575.12
326.542	585.12
326.77	626.12
326.999	765.12
327.228	1017.12
327.457	1579.12
327.686	1949.12
327.914	1329.12
328.143	813.12
328.372	697.12
328.6	674.12
328.829	611.12
329.058	634.12
329.287	667.12
329.515	616.12
329.744	573.12
329.972	542.12
330.201	555.12
330.43	599.12
330.658	647.12
330.887	697.12
331.115	673.12
331.344	596.12
331.572	555.12
331.801	564.12
332.03	531.12
332.258	541.12
332.486	509.12
332.715	477.12
332.943	483.12
333.172	531.12
333.4	516.12
333.629	501.12
333.857	539.12
334.085	526.12
334.314	524.12
334.542	511.12
334.771	555.12
334.999	523.12
335.227	527.12
335.455	498.12
335.684	497.12
335.912	495.12
336.14	484.12
336.369	498.12
336.597	497.12
336.825	523.12
337.053	516.12
337.281	484.12
337.51	494.12
337.738	502.12
337.966	488.12
338.194	509.12
338.422	493.12
338.65	489.12
338.878	488.12
339.106	480.12
339.334	500.12
339.562	488.12
339.79	481.12
340.018	477.12
340.246	478.12
340.474	476.12
340.702	476.12
340.93	480.12
341.158	495.12
341.386	485.12
341.614	483.12
341.842	469.12
342.07	481.12
342.298	462.12
342.526	486.12
342.754	467.12
342.981	471.12
343.209	468.12
343.437	468.12
343.665	466.12
343.893	484.12
344.12	521.12
344.348	482.12
344.576	520.12
344.804	482.12
345.031	509.12
345.259	529.12
345.487	504.12
345.714	501.12
345.942	481.12
346.17	458.12
346.397	475.12
346.625	477.12
346.853	486.12
347.08	474.12
347.308	462.12
347.535	482.12
347.763	486.12
347.99	480.12
348.218	488.12
348.445	494.12
348.673	477.12
348.9	489.12
349.128	479.12
349.355	459.12
349.583	460.12
349.81	434.12
350.037	459.12
350.265	451.12
350.492	450.12
350.72	464.12
350.947	466.12
351.174	468.12
351.402	507.12
351.629	480.12
351.856	484.12
352.083	476.12
352.311	484.12
352.538	479.12
352.765	496.12
352.992	500.12
353.22	454.12
353.447	475.12
353.674	456.12
353.901	461.12
354.128	441.12
354.355	424.12
354.583	453.12
354.81	450.12
355.037	430.12
355.264	437.12
355.491	437.12
355.718	456.12
355.945	461.12
356.172	432.12
356.399	433.12
356.626	439.12
356.853	420.12
357.08	455.12
357.307	428.12
357.534	434.12
357.761	448.12
357.988	453.12
358.215	429.12
358.441	456.12
358.668	448.12
358.895	438.12
359.122	457.12
359.349	464.12
359.576	485.12
359.802	496.12
360.029	529.12
360.256	539.12
360.483	522.12
360.709	514.12
360.936	484.12
361.163	459.12
361.39	474.12
361.616	489.12
361.843	473.12
362.07	475.12
362.296	488.12
362.523	463.12
362.749	469.12
362.976	473.12
363.203	490.12
363.429	464.12
363.656	487.12
363.882	456.12
364.109	457.12
364.335	447.12
364.562	456.12
364.788	486.12
365.015	456.12
365.241	474.12
365.468	463.12
365.694	464.12
365.92	454.12
366.147	480.12
366.373	466.12
366.599	458.12
366.826	478.12
367.052	449.12
367.278	456.12
367.505	460.12
367.731	440.12
367.957	443.12
368.184	471.12
368.41	474.12
368.636	496.12
368.862	484.12
369.089	465.12
369.315	466.12
369.541	461.12
369.767	459.12
369.993	472.12
370.219	472.12
370.445	440.12
370.672	441.12
370.898	469.12
371.124	461.12
371.35	448.12
371.576	456.12
371.802	448.12
372.028	451.12
372.254	447.12
372.48	468.12
372.706	464.12
372.932	445.12
373.158	460.12
373.384	455.12
373.61	468.12
373.835	443.12
374.061	455.12
374.287	456.12
374.513	471.12
374.739	471.12
374.965	472.12
375.191	471.12
375.416	473.12
375.642	480.12
375.868	464.12
376.094	471.12
376.319	454.12
376.545	455.12
376.771	444.12
376.997	417.12
377.222	460.12
377.448	476.12
377.674	465.12
377.899	453.12
378.125	457.12
378.35	463.12
378.576	458.12
378.802	467.12
379.027	447.12
379.253	450.12
379.478	434.12
379.704	441.12
379.929	476.12
380.155	472.12
380.38	458.12
380.606	463.12
380.831	474.12
381.057	480.12
381.282	450.12
381.507	476.12
381.733	486.12
381.958	457.12
382.184	462.12
382.409	466.12
382.634	476.12
382.86	465.12
383.085	483.12
383.31	443.12
383.535	479.12
383.761	490.12
383.986	484.12
384.211	474.12
384.436	491.12
384.662	505.12
384.887	493.12
385.112	492.12
385.337	502.12
385.562	483.12
385.787	501.12
386.013	497.12
386.238	492.12
386.463	507.12
386.688	500.12
386.913	505.12
387.138	504.12
387.363	495.12
387.588	501.12
387.813	495.12
388.038	499.12
388.263	508.12
388.488	510.12
388.713	507.12
388.938	511.12
389.163	509.12
389.387	511.12
389.612	531.12
389.837	502.12
390.062	517.12
390.287	507.12
390.512	506.12
390.736	497.12
390.961	500.12
391.186	502.12
391.411	532.12
391.636	554.12
391.86	541.12
392.085	540.12
392.31	541.12
392.534	516.12
392.759	511.12
392.984	530.12
393.208	525.12
393.433	519.12
393.658	513.12
393.882	523.12
394.107	507.12
394.331	529.12
394.556	521.12
394.78	511.12
395.005	526.12
395.229	517.12
395.454	551.12
395.678	546.12
395.903	566.12
396.127	561.12
396.352	561.12
396.576	536.12
396.801	545.12
397.025	528.12
397.249	545.12
397.474	573.12
397.698	564.12
397.922	585.12
398.147	578.12
398.371	596.12
398.595	583.12
398.82	567.12
399.044	597.12
399.268	616.12
399.492	657.12
399.717	688.12
399.941	717.12
400.165	720.12
400.389	756.12
400.613	686.12
400.837	645.12
401.062	619.12
401.286	605.12
401.51	596.12
401.734	613.12
401.958	612.12
402.182	630.12
402.406	635.12
402.63	616.12
402.854	605.12
403.078	621.12
403.302	605.12
403.526	609.12
403.75	611.12
403.974	625.12
404.198	610.12
404.422	607.12
404.645	625.12
404.869	620.12
405.093	644.12
405.317	671.12
405.541	704.12
405.765	638.12
405.988	645.12
406.212	675.12
406.436	672.12
406.66	685.12
406.883	661.12
407.107	708.12
407.331	746.12
407.555	843.12
407.778	840.12
408.002	767.12
408.226	708.12
408.449	685.12
408.673	688.12
408.896	705.12
409.12	776.12
409.344	753.12
409.567	639.12
409.791	651.12
410.014	635.12
410.238	617.12
410.461	615.12
410.685	617.12
410.908	658.12
411.132	657.12
411.355	723.12
411.578	687.12
411.802	631.12
412.025	627.12
412.249	622.12
412.472	619.12
412.695	631.12
412.919	637.12
413.142	614.12
413.365	601.12
413.589	599.12
413.812	613.12
414.035	578.12
414.258	593.12
414.482	599.12
414.705	605.12
414.928	577.12
415.151	585.12
415.374	592.12
415.597	588.12
415.821	586.12
416.044	585.12
416.267	589.12
416.49	568.12
416.713	566.12
416.936	588.12
417.159	585.12
417.382	595.12
417.605	598.12
417.828	609.12
418.051	610.12
418.274	610.12
418.497	594.12
418.72	595.12
418.943	594.12
419.166	601.12
419.389	636.12
419.611	610.12
419.834	606.12
420.057	612.12
420.28	642.12
420.503	603.12
420.726	593.12
420.948	615.12
421.171	684.12
421.394	699.12
421.617	653.12
421.839	614.12
422.062	611.12
422.285	631.12
422.507	725.12
422.73	795.12
422.953	787.12
423.175	652.12
423.398	659.12
423.621	653.12
423.843	662.12
424.066	675.12
424.288	667.12
424.511	677.12
424.733	727.12
424.956	855.12
425.178	778.12
425.401	803.12
425.623	842.12
425.846	704.12
426.068	661.12
426.291	657.12
426.513	675.12
426.735	674.12
426.958	724.12
427.18	823.12
427.402	972.12
427.625	1086.12
427.847	927.12
428.069	784.12
428.292	709.12
428.514	657.12
428.736	632.12
428.958	636.12
429.181	604.12
429.403	602.12
429.625	633.12
429.847	667.12
430.069	769.12
430.292	724.12
430.514	651.12
430.736	627.12
430.958	607.12
431.18	605.12
431.402	579.12
431.624	568.12
431.846	573.12
432.068	569.12
432.29	589.12
432.512	575.12
432.734	575.12
432.956	589.12
433.178	601.12
433.4	596.12
433.622	587.12
433.844	591.12
434.066	575.12
434.287	601.12
434.509	608.12
434.731	595.12
434.953	615.12
435.175	623.12
435.397	663.12
435.618	683.12
435.84	690.12
436.062	844.12
436.284	916.12
436.505	759.12
436.727	708.12
436.949	618.12
437.17	605.12
437.392	597.12
437.614	623.12
437.835	664.12
438.057	793.12
438.278	919.12
438.5	907.12
438.721	1003.12
438.943	963.12
439.165	758.12
439.386	679.12
439.608	663.12
439.829	682.12
440.05	700.12
440.272	763.12
440.493	716.12
440.715	652.12
440.936	640.12
441.158	608.12
441.379	623.12
441.6	635.12
441.822	675.12
442.043	734.12
442.264	817.12
442.486	869.12
442.707	751.12
442.928	673.12
443.149	676.12
443.371	735.12
443.592	758.12
443.813	878.12
444.034	977.12
444.255	802.12
444.476	709.12
444.698	678.12
444.919	675.12
445.14	804.12
445.361	725.12
445.582	723.12
445.803	771.12
446.024	921.12
446.245	914.12
446.466	854.12
446.687	716.12
446.908	683.12
447.129	645.12
447.35	593.12
447.571	618.12
447.792	604.12
448.013	623.12
448.234	651.12
448.455	687.12
448.675	842.12
448.896	962.12
449.117	808.12
449.338	765.12
449.559	915.12
449.779	1009.12
450	797.12
450.221	661.12
450.442	647.12
450.662	605.12
450.883	661.12
451.104	649.12
451.324	601.12
451.545	584.12
451.766	550.12
451.986	545.12
452.207	547.12
452.428	528.12
452.648	548.12
452.869	547.12
453.089	576.12
453.31	578.12
453.53	572.12
453.751	541.12
453.971	541.12
454.192	578.12
454.412	559.12
454.633	569.12
454.853	552.12
455.073	553.12
455.294	578.12
455.514	631.12
455.734	649.12
455.955	547.12
456.175	544.12
456.395	503.12
456.616	492.12
456.836	537.12
457.056	539.12
457.276	485.12
457.497	503.12
457.717	529.12
457.937	536.12
458.157	535.12
458.377	530.12
458.598	552.12
458.818	652.12
459.038	739.12
459.258	744.12
459.478	651.12
459.698	608.12
459.918	600.12
460.138	578.12
460.358	593.12
460.578	598.12
460.798	590.12
461.018	604.12
461.238	626.12
461.458	601.12
461.678	585.12
461.898	607.12
462.118	596.12
462.338	606.12
462.558	629.12
462.777	622.12
462.997	650.12
463.217	643.12
463.437	659.12
463.657	646.12
463.876	637.12
464.096	641.12
464.316	625.12
464.536	645.12
464.755	645.12
464.975	637.12
465.195	699.12
465.414	769.12
465.634	678.12
465.854	637.12
466.073	601.12
466.293	605.12
466.512	587.12
466.732	575.12
466.951	583.12
467.171	594.12
467.391	561.12
467.61	605.12
467.829	579.12
468.049	544.12
468.268	561.12
468.488	556.12
468.707	582.12
468.927	566.12
469.146	548.12
469.365	551.12
469.585	557.12
469.804	551.12
470.023	574.12
470.243	560.12
470.462	600.12
470.681	603.12
470.901	600.12
471.12	578.12
471.339	588.12
471.558	595.12
471.777	563.12
471.997	548.12
472.216	570.12
472.435	587.12
472.654	561.12
472.873	561.12
473.092	545.12
473.311	552.12
473.53	572.12
473.749	593.12
473.968	619.12
474.187	756.12
474.406	783.12
474.625	633.12
474.844	593.12
475.063	592.12
475.282	557.12
475.501	570.12
475.72	580.12
475.939	585.12
476.158	572.12
476.377	581.12
476.596	614.12
476.814	605.12
477.033	578.12
477.252	617.12
477.471	611.12
477.69	599.12
477.908	625.12
478.127	619.12
478.346	609.12
478.564	634.12
478.783	645.12
479.002	652.12
479.22	659.12
479.439	682.12
479.658	681.12
479.876	692.12
480.095	683.12
480.313	711.12
480.532	726.12
480.751	676.12
480.969	687.12
481.188	709.12
481.406	729.12
481.624	687.12
481.843	669.12
482.061	654.12
482.28	659.12
482.498	678.12
482.717	660.12
482.935	670.12
483.153	693.12
483.372	652.12
483.59	657.12
483.808	667.12
484.027	657.12
484.245	696.12
484.463	699.12
484.681	698.12
484.9	688.12
485.118	676.12
485.336	684.12
485.554	693.12
485.772	709.12
485.99	691.12
486.209	688.12
486.427	697.12
486.645	687.12
486.863	756.12
487.081	746.12
487.299	727.12
487.517	732.12
487.735	713.12
487.953	713.12
488.171	720.12
488.389	739.12
488.607	746.12
488.825	732.12
489.043	691.12
489.261	738.12
489.479	727.12
489.696	745.12
489.914	746.12
490.132	746.12
490.35	756.12
490.568	745.12
490.786	791.12
491.003	794.12
491.221	778.12
491.439	802.12
491.657	812.12
491.874	829.12
492.092	810.12
492.31	817.12
492.527	818.12
492.745	812.12
492.963	822.12
493.18	833.12
493.398	847.12
493.615	843.12
493.833	832.12
494.05	844.12
494.268	848.12
494.485	852.12
494.703	858.12
494.92	855.12
495.138	875.12
495.355	862.12
495.573	875.12
495.79	823.12
496.008	874.12
496.225	871.12
496.442	864.12
496.66	874.12
496.877	887.12
497.094	867.12
497.312	873.12
497.529	928.12
497.746	907.12
497.963	933.12
498.181	972.12
498.398	953.12
498.615	954.12
498.832	979.12
499.049	966.12
499.267	1036.12
499.484	1061.12
499.701	1071.12
499.918	1123.12
500.135	1174.12
500.352	1245.12
500.569	1236.12
500.786	1255.12
501.003	1255.12
501.22	1156.12
501.437	1149.12
501.654	1119.12
