Data from 1988.PennyLincolnUp.Lamp.En5.5.200Scan.071819.P2_HRD10591_17-18-40-972.txt Node
Date: Thu Jul 18 17:18:40 EDT 2019
User: cochatt
Spectrometer: HR+D1059
Trigger mode: 1
Integration Time (sec): 1.000000E-1
Scans to average: 1
Electric dark correction enabled: true
Nonlinearity correction enabled: false
Boxcar width: 0
XAxis mode: Wavelengths
Number of Pixels in Spectrum: 2048
>>>>>Begin Spectral Data<<<<<
223.165	-14.69
223.4	-14.69
223.635	-14.69
223.869	-11.69
224.104	-14.69
224.338	-20.69
224.573	-10.69
224.808	3.31
225.042	-11.69
225.277	8.31
225.511	-16.69
225.746	-14.69
225.98	8.31
226.215	13.31
226.449	10.31
226.683	22.31
226.918	27.31
227.152	22.31
227.387	36.31
227.621	39.31
227.856	34.31
228.09	53.31
228.324	53.31
228.559	58.31
228.793	61.31
229.027	84.31
229.262	109.31
229.496	105.31
229.73	125.31
229.964	137.31
230.199	124.31
230.433	115.31
230.667	102.31
230.901	111.31
231.136	99.31
231.37	100.31
231.604	114.31
231.838	116.31
232.072	115.31
232.306	124.31
232.541	122.31
232.775	100.31
233.009	87.31
233.243	110.31
233.477	107.31
233.711	124.31
233.945	113.31
234.179	109.31
234.413	123.31
234.647	107.31
234.881	129.31
235.115	125.31
235.349	115.31
235.583	121.31
235.817	115.31
236.051	126.31
236.285	131.31
236.519	129.31
236.753	133.31
236.987	138.31
237.221	179.31
237.455	216.31
237.689	181.31
237.922	135.31
238.156	127.31
238.39	109.31
238.624	102.31
238.858	121.31
239.091	115.31
239.325	117.31
239.559	116.31
239.793	129.31
240.027	139.31
240.26	139.31
240.494	173.31
240.728	145.31
240.961	143.31
241.195	141.31
241.429	129.31
241.662	126.31
241.896	121.31
242.13	121.31
242.363	126.31
242.597	124.31
242.83	130.31
243.064	129.31
243.298	139.31
243.531	140.31
243.765	128.31
243.998	126.31
244.232	134.31
244.465	127.31
244.699	131.31
244.932	149.31
245.166	142.31
245.399	132.31
245.633	146.31
245.866	148.31
246.099	141.31
246.333	147.31
246.566	141.31
246.8	138.31
247.033	159.31
247.266	174.31
247.5	161.31
247.733	163.31
247.966	153.31
248.2	167.31
248.433	162.31
248.666	162.31
248.899	162.31
249.133	178.31
249.366	166.31
249.599	200.31
249.832	173.31
250.066	172.31
250.299	177.31
250.532	163.31
250.765	188.31
250.998	215.31
251.231	218.31
251.465	205.31
251.698	188.31
251.931	198.31
252.164	189.31
252.397	190.31
252.63	190.31
252.863	182.31
253.096	206.31
253.329	214.31
253.562	201.31
253.795	213.31
254.028	216.31
254.261	217.31
254.494	208.31
254.727	237.31
254.96	248.31
255.193	249.31
255.426	216.31
255.659	222.31
255.892	206.31
256.124	196.31
256.357	204.31
256.59	200.31
256.823	189.31
257.056	193.31
257.289	202.31
257.521	195.31
257.754	200.31
257.987	198.31
258.22	205.31
258.452	198.31
258.685	211.31
258.918	215.31
259.151	195.31
259.383	219.31
259.616	199.31
259.849	204.31
260.081	211.31
260.314	243.31
260.547	232.31
260.779	231.31
261.012	213.31
261.244	225.31
261.477	218.31
261.71	208.31
261.942	219.31
262.175	237.31
262.407	217.31
262.64	187.31
262.872	212.31
263.105	212.31
263.337	197.31
263.57	198.31
263.802	198.31
264.035	203.31
264.267	221.31
264.499	189.31
264.732	213.31
264.964	191.31
265.197	216.31
265.429	213.31
265.661	193.31
265.894	203.31
266.126	206.31
266.358	198.31
266.591	207.31
266.823	216.31
267.055	227.31
267.287	235.31
267.52	223.31
267.752	208.31
267.984	216.31
268.216	223.31
268.448	228.31
268.681	213.31
268.913	225.31
269.145	259.31
269.377	263.31
269.609	270.31
269.841	263.31
270.073	254.31
270.306	268.31
270.538	285.31
270.77	295.31
271.002	282.31
271.234	270.31
271.466	282.31
271.698	279.31
271.93	291.31
272.162	293.31
272.394	269.31
272.626	279.31
272.858	282.31
273.09	255.31
273.322	238.31
273.553	247.31
273.785	268.31
274.017	250.31
274.249	242.31
274.481	247.31
274.713	253.31
274.945	277.31
275.176	256.31
275.408	252.31
275.64	246.31
275.872	252.31
276.104	228.31
276.335	262.31
276.567	273.31
276.799	261.31
277.031	289.31
277.262	302.31
277.494	307.31
277.726	282.31
277.957	257.31
278.189	282.31
278.421	270.31
278.652	247.31
278.884	255.31
279.115	266.31
279.347	247.31
279.579	270.31
279.81	270.31
280.042	256.31
280.273	282.31
280.505	258.31
280.736	242.31
280.968	245.31
281.199	275.31
281.431	245.31
281.662	267.31
281.894	278.31
282.125	249.31
282.356	276.31
282.588	285.31
282.819	287.31
283.051	283.31
283.282	270.31
283.513	259.31
283.745	264.31
283.976	255.31
284.207	290.31
284.439	253.31
284.67	272.31
284.901	263.31
285.132	266.31
285.364	280.31
285.595	260.31
285.826	267.31
286.057	277.31
286.288	274.31
286.52	286.31
286.751	262.31
286.982	245.31
287.213	276.31
287.444	292.31
287.675	289.31
287.906	271.31
288.138	300.31
288.369	302.31
288.6	314.31
288.831	277.31
289.062	291.31
289.293	284.31
289.524	282.31
289.755	283.31
289.986	302.31
290.217	299.31
290.448	283.31
290.679	275.31
290.91	281.31
291.141	283.31
291.371	294.31
291.602	298.31
291.833	275.31
292.064	278.31
292.295	273.31
292.526	294.31
292.757	295.31
292.987	266.31
293.218	284.31
293.449	293.31
293.68	281.31
293.91	281.31
294.141	281.31
294.372	294.31
294.603	283.31
294.833	283.31
295.064	295.31
295.295	287.31
295.525	294.31
295.756	291.31
295.987	303.31
296.217	313.31
296.448	328.31
296.679	318.31
296.909	292.31
297.14	301.31
297.37	296.31
297.601	301.31
297.831	308.31
298.062	299.31
298.292	295.31
298.523	308.31
298.753	308.31
298.984	290.31
299.214	290.31
299.445	303.31
299.675	289.31
299.905	314.31
300.136	296.31
300.366	310.31
300.597	312.31
300.827	308.31
301.057	312.31
301.288	326.31
301.518	339.31
301.748	342.31
301.979	324.31
302.209	330.31
302.439	314.31
302.669	323.31
302.9	326.31
303.13	336.31
303.36	331.31
303.59	338.31
303.82	329.31
304.051	334.31
304.281	339.31
304.511	323.31
304.741	335.31
304.971	329.31
305.201	321.31
305.431	334.31
305.661	334.31
305.891	325.31
306.121	346.31
306.352	326.31
306.582	324.31
306.812	319.31
307.042	343.31
307.272	328.31
307.502	323.31
307.731	334.31
307.961	328.31
308.191	313.31
308.421	320.31
308.651	334.31
308.881	329.31
309.111	333.31
309.341	333.31
309.571	339.31
309.8	338.31
310.03	344.31
310.26	349.31
310.49	368.31
310.72	369.31
310.949	373.31
311.179	396.31
311.409	356.31
311.639	373.31
311.868	377.31
312.098	378.31
312.328	373.31
312.557	379.31
312.787	390.31
313.017	398.31
313.246	369.31
313.476	379.31
313.706	371.31
313.935	375.31
314.165	376.31
314.394	383.31
314.624	373.31
314.853	364.31
315.083	389.31
315.312	366.31
315.542	363.31
315.771	369.31
316.001	362.31
316.23	379.31
316.46	378.31
316.689	349.31
316.919	385.31
317.148	378.31
317.377	389.31
317.607	383.31
317.836	385.31
318.065	374.31
318.295	388.31
318.524	391.31
318.753	372.31
318.983	368.31
319.212	370.31
319.441	394.31
319.67	395.31
319.9	373.31
320.129	375.31
320.358	382.31
320.587	378.31
320.816	377.31
321.046	375.31
321.275	385.31
321.504	394.31
321.733	397.31
321.962	403.31
322.191	427.31
322.42	428.31
322.649	426.31
322.878	443.31
323.108	447.31
323.337	466.31
323.566	497.31
323.795	518.31
324.024	574.31
324.253	633.31
324.482	898.31
324.71	1367.31
324.939	2004.31
325.168	1722.31
325.397	863.31
325.626	611.31
325.855	503.31
326.084	500.31
326.313	486.31
326.542	502.31
326.77	521.31
326.999	623.31
327.228	781.31
327.457	1222.31
327.686	1505.31
327.914	980.31
328.143	650.31
328.372	567.31
328.6	536.31
328.829	495.31
329.058	524.31
329.287	527.31
329.515	498.31
329.744	462.31
329.972	444.31
330.201	486.31
330.43	484.31
330.658	518.31
330.887	562.31
331.115	570.31
331.344	464.31
331.572	477.31
331.801	476.31
332.03	476.31
332.258	455.31
332.486	453.31
332.715	453.31
332.943	454.31
333.172	435.31
333.4	456.31
333.629	438.31
333.857	453.31
334.085	459.31
334.314	457.31
334.542	451.31
334.771	451.31
334.999	450.31
335.227	457.31
335.455	436.31
335.684	441.31
335.912	443.31
336.14	447.31
336.369	423.31
336.597	455.31
336.825	449.31
337.053	455.31
337.281	434.31
337.51	427.31
337.738	444.31
337.966	430.31
338.194	441.31
338.422	446.31
338.65	420.31
338.878	425.31
339.106	448.31
339.334	424.31
339.562	436.31
339.79	417.31
340.018	419.31
340.246	428.31
340.474	409.31
340.702	429.31
340.93	438.31
341.158	415.31
341.386	391.31
341.614	400.31
341.842	435.31
342.07	405.31
342.298	415.31
342.526	413.31
342.754	402.31
342.981	420.31
343.209	391.31
343.437	424.31
343.665	437.31
343.893	449.31
344.12	439.31
344.348	437.31
344.576	438.31
344.804	426.31
345.031	448.31
345.259	447.31
345.487	437.31
345.714	417.31
345.942	437.31
346.17	419.31
346.397	427.31
346.625	439.31
346.853	426.31
347.08	419.31
347.308	429.31
347.535	438.31
347.763	457.31
347.99	414.31
348.218	419.31
348.445	421.31
348.673	432.31
348.9	414.31
349.128	409.31
349.355	419.31
349.583	407.31
349.81	411.31
350.037	411.31
350.265	396.31
350.492	394.31
350.72	395.31
350.947	406.31
351.174	417.31
351.402	417.31
351.629	426.31
351.856	405.31
352.083	393.31
352.311	449.31
352.538	437.31
352.765	428.31
352.992	433.31
353.22	425.31
353.447	414.31
353.674	403.31
353.901	396.31
354.128	413.31
354.355	385.31
354.583	401.31
354.81	405.31
355.037	390.31
355.264	392.31
355.491	392.31
355.718	390.31
355.945	397.31
356.172	411.31
356.399	405.31
356.626	382.31
356.853	400.31
357.08	381.31
357.307	389.31
357.534	398.31
357.761	405.31
357.988	422.31
358.215	395.31
358.441	395.31
358.668	394.31
358.895	397.31
359.122	401.31
359.349	398.31
359.576	436.31
359.802	433.31
360.029	442.31
360.256	455.31
360.483	434.31
360.709	414.31
360.936	430.31
361.163	422.31
361.39	404.31
361.616	417.31
361.843	414.31
362.07	418.31
362.296	414.31
362.523	407.31
362.749	434.31
362.976	399.31
363.203	413.31
363.429	383.31
363.656	394.31
363.882	387.31
364.109	406.31
364.335	393.31
364.562	410.31
364.788	407.31
365.015	401.31
365.241	410.31
365.468	407.31
365.694	396.31
365.92	409.31
366.147	395.31
366.373	402.31
366.599	401.31
366.826	407.31
367.052	406.31
367.278	397.31
367.505	420.31
367.731	402.31
367.957	411.31
368.184	413.31
368.41	396.31
368.636	407.31
368.862	435.31
369.089	409.31
369.315	411.31
369.541	396.31
369.767	400.31
369.993	390.31
370.219	389.31
370.445	386.31
370.672	398.31
370.898	407.31
371.124	390.31
371.35	400.31
371.576	414.31
371.802	394.31
372.028	417.31
372.254	414.31
372.48	403.31
372.706	414.31
372.932	413.31
373.158	411.31
373.384	416.31
373.61	423.31
373.835	390.31
374.061	405.31
374.287	404.31
374.513	418.31
374.739	427.31
374.965	395.31
375.191	413.31
375.416	395.31
375.642	421.31
375.868	411.31
376.094	409.31
376.319	411.31
376.545	407.31
376.771	408.31
376.997	407.31
377.222	388.31
377.448	419.31
377.674	404.31
377.899	394.31
378.125	399.31
378.35	396.31
378.576	386.31
378.802	388.31
379.027	381.31
379.253	366.31
379.478	398.31
379.704	417.31
379.929	398.31
380.155	403.31
380.38	420.31
380.606	387.31
380.831	391.31
381.057	427.31
381.282	418.31
381.507	424.31
381.733	414.31
381.958	405.31
382.184	404.31
382.409	407.31
382.634	421.31
382.86	408.31
383.085	410.31
383.31	408.31
383.535	445.31
383.761	421.31
383.986	410.31
384.211	414.31
384.436	431.31
384.662	410.31
384.887	430.31
385.112	429.31
385.337	440.31
385.562	427.31
385.787	431.31
386.013	438.31
386.238	462.31
386.463	442.31
386.688	467.31
386.913	453.31
387.138	433.31
387.363	439.31
387.588	451.31
387.813	447.31
388.038	440.31
388.263	445.31
388.488	425.31
388.713	457.31
388.938	446.31
389.163	442.31
389.387	433.31
389.612	442.31
389.837	432.31
390.062	453.31
390.287	447.31
390.512	439.31
390.736	463.31
390.961	448.31
391.186	445.31
391.411	448.31
391.636	435.31
391.86	457.31
392.085	453.31
392.31	478.31
392.534	449.31
392.759	445.31
392.984	460.31
393.208	453.31
393.433	446.31
393.658	470.31
393.882	443.31
394.107	450.31
394.331	457.31
394.556	438.31
394.78	451.31
395.005	456.31
395.229	454.31
395.454	443.31
395.678	479.31
395.903	461.31
396.127	476.31
396.352	471.31
396.576	494.31
396.801	482.31
397.025	481.31
397.249	474.31
397.474	460.31
397.698	473.31
397.922	495.31
398.147	511.31
398.371	499.31
398.595	489.31
398.82	502.31
399.044	518.31
399.268	546.31
399.492	565.31
399.717	604.31
399.941	642.31
400.165	623.31
400.389	609.31
400.613	561.31
400.837	548.31
401.062	526.31
401.286	525.31
401.51	525.31
401.734	498.31
401.958	499.31
402.182	501.31
402.406	515.31
402.63	518.31
402.854	528.31
403.078	513.31
403.302	535.31
403.526	539.31
403.75	543.31
403.974	534.31
404.198	524.31
404.422	518.31
404.645	531.31
404.869	531.31
405.093	583.31
405.317	573.31
405.541	590.31
405.765	547.31
405.988	548.31
406.212	539.31
406.436	546.31
406.66	601.31
406.883	570.31
407.107	576.31
407.331	619.31
407.555	696.31
407.778	700.31
408.002	632.31
408.226	609.31
408.449	589.31
408.673	584.31
408.896	590.31
409.12	641.31
409.344	614.31
409.567	555.31
409.791	561.31
410.014	546.31
410.238	528.31
410.461	546.31
410.685	544.31
410.908	532.31
411.132	587.31
411.355	616.31
411.578	590.31
411.802	563.31
412.025	525.31
412.249	517.31
412.472	532.31
412.695	536.31
412.919	522.31
413.142	491.31
413.365	493.31
413.589	524.31
413.812	517.31
414.035	510.31
414.258	484.31
414.482	512.31
414.705	513.31
414.928	509.31
415.151	504.31
415.374	504.31
415.597	483.31
415.821	487.31
416.044	502.31
416.267	478.31
416.49	486.31
416.713	469.31
416.936	505.31
417.159	478.31
417.382	501.31
417.605	517.31
417.828	514.31
418.051	523.31
418.274	519.31
418.497	506.31
418.72	503.31
418.943	497.31
419.166	539.31
419.389	522.31
419.611	534.31
419.834	528.31
420.057	545.31
420.28	502.31
420.503	515.31
420.726	515.31
420.948	516.31
421.171	542.31
421.394	582.31
421.617	555.31
421.839	523.31
422.062	519.31
422.285	537.31
422.507	593.31
422.73	686.31
422.953	641.31
423.175	589.31
423.398	553.31
423.621	529.31
423.843	546.31
424.066	577.31
424.288	532.31
424.511	582.31
424.733	637.31
424.956	686.31
425.178	669.31
425.401	661.31
425.623	696.31
425.846	573.31
426.068	546.31
426.291	560.31
426.513	566.31
426.735	547.31
426.958	609.31
427.18	667.31
427.402	831.31
427.625	899.31
427.847	763.31
428.069	647.31
428.292	587.31
428.514	555.31
428.736	527.31
428.958	532.31
429.181	519.31
429.403	495.31
429.625	532.31
429.847	571.31
430.069	606.31
430.292	623.31
430.514	535.31
430.736	504.31
430.958	514.31
431.18	489.31
431.402	494.31
431.624	485.31
431.846	497.31
432.068	470.31
432.29	510.31
432.512	495.31
432.734	472.31
432.956	488.31
433.178	509.31
433.4	505.31
433.622	495.31
433.844	493.31
434.066	508.31
434.287	484.31
434.509	490.31
434.731	506.31
434.953	532.31
435.175	504.31
435.397	535.31
435.618	556.31
435.84	590.31
436.062	694.31
436.284	754.31
436.505	627.31
436.727	554.31
436.949	538.31
437.17	515.31
437.392	525.31
437.614	537.31
437.835	555.31
438.057	628.31
438.278	738.31
438.5	722.31
438.721	808.31
438.943	789.31
439.165	620.31
439.386	577.31
439.608	547.31
439.829	569.31
440.05	569.31
440.272	619.31
440.493	597.31
440.715	547.31
440.936	516.31
441.158	537.31
441.379	535.31
441.6	536.31
441.822	530.31
442.043	598.31
442.264	666.31
442.486	710.31
442.707	615.31
442.928	597.31
443.149	578.31
443.371	603.31
443.592	625.31
443.813	715.31
444.034	769.31
444.255	659.31
444.476	583.31
444.698	553.31
444.919	569.31
445.14	638.31
445.361	598.31
445.582	620.31
445.803	666.31
446.024	718.31
446.245	777.31
446.466	686.31
446.687	579.31
446.908	570.31
447.129	534.31
447.35	533.31
447.571	494.31
447.792	523.31
448.013	505.31
448.234	542.31
448.455	593.31
448.675	695.31
448.896	799.31
449.117	701.31
449.338	639.31
449.559	738.31
449.779	847.31
450	643.31
450.221	569.31
450.442	520.31
450.662	498.31
450.883	498.31
451.104	517.31
451.324	482.31
451.545	476.31
451.766	485.31
451.986	460.31
452.207	463.31
452.428	454.31
452.648	472.31
452.869	460.31
453.089	465.31
453.31	481.31
453.53	487.31
453.751	448.31
453.971	455.31
454.192	485.31
454.412	477.31
454.633	453.31
454.853	463.31
455.073	467.31
455.294	485.31
455.514	547.31
455.734	535.31
455.955	464.31
456.175	438.31
456.395	426.31
456.616	431.31
456.836	447.31
457.056	449.31
457.276	409.31
457.497	458.31
457.717	443.31
457.937	444.31
458.157	473.31
458.377	478.31
458.598	473.31
458.818	511.31
459.038	554.31
459.258	598.31
459.478	528.31
459.698	525.31
459.918	517.31
460.138	472.31
460.358	507.31
460.578	488.31
460.798	515.31
461.018	503.31
461.238	509.31
461.458	479.31
461.678	497.31
461.898	513.31
462.118	538.31
462.338	529.31
462.558	519.31
462.777	537.31
462.997	555.31
463.217	568.31
463.437	574.31
463.657	551.31
463.876	557.31
464.096	541.31
464.316	553.31
464.536	557.31
464.755	542.31
464.975	532.31
465.195	578.31
465.414	634.31
465.634	565.31
465.854	525.31
466.073	521.31
466.293	499.31
466.512	479.31
466.732	468.31
466.951	471.31
467.171	474.31
467.391	470.31
467.61	500.31
467.829	500.31
468.049	492.31
468.268	466.31
468.488	465.31
468.707	473.31
468.927	465.31
469.146	462.31
469.365	466.31
469.585	484.31
469.804	483.31
470.023	487.31
470.243	479.31
470.462	473.31
470.681	497.31
470.901	517.31
471.12	496.31
471.339	498.31
471.558	470.31
471.777	483.31
471.997	472.31
472.216	474.31
472.435	470.31
472.654	467.31
472.873	478.31
473.092	475.31
473.311	470.31
473.53	452.31
473.749	504.31
473.968	531.31
474.187	598.31
474.406	636.31
474.625	559.31
474.844	531.31
475.063	509.31
475.282	489.31
475.501	487.31
475.72	510.31
475.939	486.31
476.158	499.31
476.377	473.31
476.596	504.31
476.814	493.31
477.033	500.31
477.252	502.31
477.471	518.31
477.69	519.31
477.908	527.31
478.127	546.31
478.346	519.31
478.564	552.31
478.783	530.31
479.002	548.31
479.22	558.31
479.439	546.31
479.658	546.31
479.876	569.31
480.095	561.31
480.313	615.31
480.532	598.31
480.751	581.31
480.969	601.31
481.188	585.31
481.406	593.31
481.624	579.31
481.843	567.31
482.061	585.31
482.28	567.31
482.498	551.31
482.717	569.31
482.935	562.31
483.153	543.31
483.372	558.31
483.59	563.31
483.808	586.31
484.027	565.31
484.245	590.31
484.463	574.31
484.681	559.31
484.9	583.31
485.118	590.31
485.336	594.31
485.554	587.31
485.772	604.31
485.99	595.31
486.209	597.31
486.427	623.31
486.645	610.31
486.863	611.31
487.081	611.31
487.299	589.31
487.517	622.31
487.735	588.31
487.953	601.31
488.171	595.31
488.389	621.31
488.607	639.31
488.825	609.31
489.043	609.31
489.261	629.31
489.479	630.31
489.696	636.31
489.914	634.31
490.132	622.31
490.35	642.31
490.568	647.31
490.786	642.31
491.003	650.31
491.221	648.31
491.439	655.31
491.657	661.31
491.874	651.31
492.092	680.31
492.31	682.31
492.527	670.31
492.745	675.31
492.963	683.31
493.18	685.31
493.398	721.31
493.615	689.31
493.833	686.31
494.05	681.31
494.268	706.31
494.485	713.31
494.703	689.31
494.92	724.31
495.138	690.31
495.355	711.31
495.573	715.31
495.79	712.31
496.008	721.31
496.225	727.31
496.442	709.31
496.66	703.31
496.877	701.31
497.094	735.31
497.312	743.31
497.529	733.31
497.746	742.31
497.963	755.31
498.181	777.31
498.398	803.31
498.615	821.31
498.832	821.31
499.049	854.31
499.267	861.31
499.484	878.31
499.701	931.31
499.918	949.31
500.135	985.31
500.352	996.31
500.569	1006.31
500.786	1037.31
501.003	1029.31
501.22	1027.31
501.437	964.31
501.654	949.31
501.871	978.31
