Data from 1988.PennyLincolnUp.Lamp.En5.5.200Scan.071819.P2_HRD10591_17-18-38-971.txt Node
Date: Thu Jul 18 17:18:38 EDT 2019
User: cochatt
Spectrometer: HR+D1059
Trigger mode: 1
Integration Time (sec): 1.000000E-1
Scans to average: 1
Electric dark correction enabled: true
Nonlinearity correction enabled: false
Boxcar width: 0
XAxis mode: Wavelengths
Number of Pixels in Spectrum: 2048
>>>>>Begin Spectral Data<<<<<
223.165	-12.56
223.4	-12.56
223.635	-12.56
223.869	-7.56
224.104	-26.56
224.338	-16.56
224.573	-22.56
224.808	-11.56
225.042	-9.56
225.277	-14.56
225.511	-12.56
225.746	-1.56
225.98	11.44
226.215	17.44
226.449	21.44
226.683	16.44
226.918	34.44
227.152	34.44
227.387	47.44
227.621	55.44
227.856	43.44
228.09	49.44
228.324	70.44
228.559	53.44
228.793	78.44
229.027	86.44
229.262	106.44
229.496	105.44
229.73	131.44
229.964	149.44
230.199	130.44
230.433	109.44
230.667	113.44
230.901	103.44
231.136	112.44
231.37	117.44
231.604	110.44
231.838	119.44
232.072	124.44
232.306	116.44
232.541	123.44
232.775	119.44
233.009	113.44
233.243	109.44
233.477	115.44
233.711	121.44
233.945	130.44
234.179	111.44
234.413	119.44
234.647	118.44
234.881	123.44
235.115	111.44
235.349	107.44
235.583	125.44
235.817	119.44
236.051	126.44
236.285	126.44
236.519	131.44
236.753	120.44
236.987	145.44
237.221	177.44
237.455	214.44
237.689	168.44
237.922	148.44
238.156	129.44
238.39	142.44
238.624	126.44
238.858	134.44
239.091	134.44
239.325	142.44
239.559	129.44
239.793	129.44
240.027	129.44
240.26	138.44
240.494	153.44
240.728	147.44
240.961	155.44
241.195	141.44
241.429	160.44
241.662	143.44
241.896	147.44
242.13	137.44
242.363	142.44
242.597	131.44
242.83	133.44
243.064	137.44
243.298	130.44
243.531	127.44
243.765	127.44
243.998	139.44
244.232	135.44
244.465	144.44
244.699	134.44
244.932	134.44
245.166	138.44
245.399	144.44
245.633	150.44
245.866	141.44
246.099	128.44
246.333	134.44
246.566	149.44
246.8	154.44
247.033	137.44
247.266	150.44
247.5	155.44
247.733	163.44
247.966	183.44
248.2	161.44
248.433	166.44
248.666	170.44
248.899	177.44
249.133	190.44
249.366	193.44
249.599	185.44
249.832	172.44
250.066	161.44
250.299	174.44
250.532	183.44
250.765	202.44
250.998	185.44
251.231	184.44
251.465	198.44
251.698	197.44
251.931	172.44
252.164	189.44
252.397	182.44
252.63	182.44
252.863	201.44
253.096	195.44
253.329	206.44
253.562	208.44
253.795	196.44
254.028	218.44
254.261	185.44
254.494	210.44
254.727	226.44
254.96	259.44
255.193	255.44
255.426	240.44
255.659	223.44
255.892	207.44
256.124	200.44
256.357	201.44
256.59	202.44
256.823	193.44
257.056	200.44
257.289	189.44
257.521	188.44
257.754	189.44
257.987	207.44
258.22	199.44
258.452	215.44
258.685	194.44
258.918	202.44
259.151	204.44
259.383	211.44
259.616	206.44
259.849	210.44
260.081	218.44
260.314	219.44
260.547	253.44
260.779	234.44
261.012	226.44
261.244	201.44
261.477	215.44
261.71	197.44
261.942	218.44
262.175	207.44
262.407	211.44
262.64	202.44
262.872	208.44
263.105	217.44
263.337	210.44
263.57	204.44
263.802	197.44
264.035	202.44
264.267	208.44
264.499	218.44
264.732	216.44
264.964	210.44
265.197	211.44
265.429	217.44
265.661	209.44
265.894	214.44
266.126	206.44
266.358	206.44
266.591	209.44
266.823	209.44
267.055	213.44
267.287	225.44
267.52	225.44
267.752	211.44
267.984	218.44
268.216	214.44
268.448	231.44
268.681	220.44
268.913	244.44
269.145	241.44
269.377	263.44
269.609	256.44
269.841	272.44
270.073	249.44
270.306	280.44
270.538	287.44
270.77	282.44
271.002	278.44
271.234	265.44
271.466	266.44
271.698	274.44
271.93	298.44
272.162	292.44
272.394	297.44
272.626	283.44
272.858	266.44
273.09	259.44
273.322	262.44
273.553	254.44
273.785	261.44
274.017	240.44
274.249	255.44
274.481	259.44
274.713	246.44
274.945	251.44
275.176	272.44
275.408	256.44
275.64	263.44
275.872	263.44
276.104	259.44
276.335	255.44
276.567	270.44
276.799	268.44
277.031	285.44
277.262	282.44
277.494	293.44
277.726	270.44
277.957	277.44
278.189	282.44
278.421	280.44
278.652	260.44
278.884	261.44
279.115	253.44
279.347	254.44
279.579	267.44
279.81	273.44
280.042	262.44
280.273	264.44
280.505	256.44
280.736	253.44
280.968	250.44
281.199	267.44
281.431	249.44
281.662	249.44
281.894	264.44
282.125	253.44
282.356	273.44
282.588	282.44
282.819	301.44
283.051	290.44
283.282	258.44
283.513	274.44
283.745	276.44
283.976	284.44
284.207	268.44
284.439	271.44
284.67	255.44
284.901	258.44
285.132	264.44
285.364	247.44
285.595	285.44
285.826	295.44
286.057	282.44
286.288	287.44
286.52	273.44
286.751	268.44
286.982	266.44
287.213	263.44
287.444	282.44
287.675	273.44
287.906	294.44
288.138	293.44
288.369	295.44
288.6	296.44
288.831	293.44
289.062	261.44
289.293	296.44
289.524	295.44
289.755	289.44
289.986	292.44
290.217	296.44
290.448	301.44
290.679	269.44
290.91	302.44
291.141	302.44
291.371	290.44
291.602	297.44
291.833	271.44
292.064	293.44
292.295	297.44
292.526	297.44
292.757	297.44
292.987	295.44
293.218	280.44
293.449	279.44
293.68	276.44
293.91	295.44
294.141	295.44
294.372	293.44
294.603	284.44
294.833	289.44
295.064	287.44
295.295	295.44
295.525	296.44
295.756	296.44
295.987	301.44
296.217	321.44
296.448	300.44
296.679	309.44
296.909	287.44
297.14	282.44
297.37	297.44
297.601	311.44
297.831	297.44
298.062	307.44
298.292	332.44
298.523	300.44
298.753	305.44
298.984	317.44
299.214	321.44
299.445	306.44
299.675	284.44
299.905	283.44
300.136	307.44
300.366	324.44
300.597	314.44
300.827	322.44
301.057	316.44
301.288	330.44
301.518	317.44
301.748	301.44
301.979	321.44
302.209	335.44
302.439	320.44
302.669	315.44
302.9	328.44
303.13	318.44
303.36	305.44
303.59	327.44
303.82	339.44
304.051	325.44
304.281	336.44
304.511	328.44
304.741	306.44
304.971	300.44
305.201	317.44
305.431	317.44
305.661	326.44
305.891	339.44
306.121	320.44
306.352	334.44
306.582	335.44
306.812	306.44
307.042	330.44
307.272	327.44
307.502	321.44
307.731	350.44
307.961	321.44
308.191	324.44
308.421	354.44
308.651	347.44
308.881	351.44
309.111	339.44
309.341	353.44
309.571	342.44
309.8	336.44
310.03	340.44
310.26	361.44
310.49	363.44
310.72	393.44
310.949	387.44
311.179	367.44
311.409	358.44
311.639	348.44
311.868	377.44
312.098	357.44
312.328	373.44
312.557	358.44
312.787	399.44
313.017	409.44
313.246	387.44
313.476	362.44
313.706	379.44
313.935	381.44
314.165	379.44
314.394	385.44
314.624	379.44
314.853	386.44
315.083	384.44
315.312	365.44
315.542	385.44
315.771	381.44
316.001	381.44
316.23	371.44
316.46	347.44
316.689	370.44
316.919	379.44
317.148	361.44
317.377	390.44
317.607	391.44
317.836	369.44
318.065	365.44
318.295	371.44
318.524	364.44
318.753	382.44
318.983	365.44
319.212	383.44
319.441	385.44
319.67	382.44
319.9	379.44
320.129	371.44
320.358	389.44
320.587	368.44
320.816	395.44
321.046	393.44
321.275	395.44
321.504	393.44
321.733	395.44
321.962	406.44
322.191	400.44
322.42	395.44
322.649	423.44
322.878	443.44
323.108	431.44
323.337	470.44
323.566	488.44
323.795	497.44
324.024	527.44
324.253	640.44
324.482	848.44
324.71	1337.44
324.939	1953.44
325.168	1679.44
325.397	859.44
325.626	618.44
325.855	513.44
326.084	495.44
326.313	478.44
326.542	462.44
326.77	519.44
326.999	586.44
327.228	808.44
327.457	1179.44
327.686	1453.44
327.914	983.44
328.143	636.44
328.372	569.44
328.6	545.44
328.829	504.44
329.058	522.44
329.287	550.44
329.515	517.44
329.744	471.44
329.972	476.44
330.201	471.44
330.43	491.44
330.658	511.44
330.887	562.44
331.115	549.44
331.344	515.44
331.572	456.44
331.801	451.44
332.03	495.44
332.258	438.44
332.486	424.44
332.715	434.44
332.943	435.44
333.172	467.44
333.4	478.44
333.629	446.44
333.857	458.44
334.085	451.44
334.314	447.44
334.542	462.44
334.771	455.44
334.999	472.44
335.227	455.44
335.455	442.44
335.684	435.44
335.912	430.44
336.14	407.44
336.369	453.44
336.597	438.44
336.825	442.44
337.053	459.44
337.281	428.44
337.51	432.44
337.738	446.44
337.966	438.44
338.194	435.44
338.422	443.44
338.65	434.44
338.878	428.44
339.106	416.44
339.334	413.44
339.562	445.44
339.79	418.44
340.018	431.44
340.246	433.44
340.474	438.44
340.702	420.44
340.93	426.44
341.158	417.44
341.386	426.44
341.614	440.44
341.842	435.44
342.07	418.44
342.298	434.44
342.526	420.44
342.754	398.44
342.981	391.44
343.209	399.44
343.437	425.44
343.665	432.44
343.893	423.44
344.12	462.44
344.348	445.44
344.576	431.44
344.804	424.44
345.031	426.44
345.259	447.44
345.487	439.44
345.714	457.44
345.942	446.44
346.17	444.44
346.397	417.44
346.625	427.44
346.853	407.44
347.08	415.44
347.308	409.44
347.535	418.44
347.763	425.44
347.99	417.44
348.218	424.44
348.445	416.44
348.673	419.44
348.9	414.44
349.128	406.44
349.355	414.44
349.583	413.44
349.81	415.44
350.037	391.44
350.265	417.44
350.492	407.44
350.72	412.44
350.947	395.44
351.174	411.44
351.402	414.44
351.629	419.44
351.856	417.44
352.083	414.44
352.311	436.44
352.538	421.44
352.765	409.44
352.992	429.44
353.22	409.44
353.447	417.44
353.674	390.44
353.901	398.44
354.128	382.44
354.355	396.44
354.583	398.44
354.81	401.44
355.037	387.44
355.264	388.44
355.491	391.44
355.718	386.44
355.945	377.44
356.172	395.44
356.399	385.44
356.626	380.44
356.853	389.44
357.08	392.44
357.307	405.44
357.534	387.44
357.761	383.44
357.988	393.44
358.215	392.44
358.441	382.44
358.668	393.44
358.895	383.44
359.122	403.44
359.349	391.44
359.576	402.44
359.802	413.44
360.029	426.44
360.256	462.44
360.483	444.44
360.709	415.44
360.936	409.44
361.163	392.44
361.39	397.44
361.616	425.44
361.843	408.44
362.07	424.44
362.296	435.44
362.523	407.44
362.749	418.44
362.976	405.44
363.203	416.44
363.429	400.44
363.656	391.44
363.882	414.44
364.109	413.44
364.335	393.44
364.562	395.44
364.788	422.44
365.015	401.44
365.241	411.44
365.468	396.44
365.694	395.44
365.92	415.44
366.147	426.44
366.373	398.44
366.599	403.44
366.826	424.44
367.052	388.44
367.278	404.44
367.505	396.44
367.731	389.44
367.957	390.44
368.184	392.44
368.41	401.44
368.636	428.44
368.862	414.44
369.089	400.44
369.315	411.44
369.541	398.44
369.767	405.44
369.993	430.44
370.219	407.44
370.445	401.44
370.672	386.44
370.898	413.44
371.124	401.44
371.35	402.44
371.576	389.44
371.802	392.44
372.028	389.44
372.254	410.44
372.48	403.44
372.706	417.44
372.932	385.44
373.158	402.44
373.384	401.44
373.61	412.44
373.835	401.44
374.061	416.44
374.287	394.44
374.513	405.44
374.739	429.44
374.965	414.44
375.191	421.44
375.416	410.44
375.642	412.44
375.868	394.44
376.094	413.44
376.319	428.44
376.545	409.44
376.771	408.44
376.997	380.44
377.222	398.44
377.448	387.44
377.674	416.44
377.899	375.44
378.125	406.44
378.35	396.44
378.576	391.44
378.802	404.44
379.027	403.44
379.253	405.44
379.478	384.44
379.704	395.44
379.929	421.44
380.155	401.44
380.38	399.44
380.606	409.44
380.831	399.44
381.057	421.44
381.282	415.44
381.507	410.44
381.733	414.44
381.958	422.44
382.184	408.44
382.409	411.44
382.634	441.44
382.86	427.44
383.085	410.44
383.31	429.44
383.535	425.44
383.761	426.44
383.986	418.44
384.211	406.44
384.436	436.44
384.662	410.44
384.887	430.44
385.112	421.44
385.337	441.44
385.562	453.44
385.787	425.44
386.013	432.44
386.238	444.44
386.463	444.44
386.688	449.44
386.913	459.44
387.138	423.44
387.363	437.44
387.588	444.44
387.813	445.44
388.038	442.44
388.263	466.44
388.488	440.44
388.713	449.44
388.938	445.44
389.163	428.44
389.387	452.44
389.612	446.44
389.837	443.44
390.062	451.44
390.287	451.44
390.512	432.44
390.736	426.44
390.961	437.44
391.186	439.44
391.411	442.44
391.636	459.44
391.86	443.44
392.085	453.44
392.31	437.44
392.534	450.44
392.759	468.44
392.984	458.44
393.208	455.44
393.433	468.44
393.658	476.44
393.882	438.44
394.107	446.44
394.331	432.44
394.556	456.44
394.78	467.44
395.005	446.44
395.229	447.44
395.454	476.44
395.678	459.44
395.903	461.44
396.127	457.44
396.352	501.44
396.576	485.44
396.801	475.44
397.025	475.44
397.249	442.44
397.474	472.44
397.698	471.44
397.922	486.44
398.147	512.44
398.371	507.44
398.595	518.44
398.82	485.44
399.044	509.44
399.268	522.44
399.492	546.44
399.717	589.44
399.941	607.44
400.165	635.44
400.389	632.44
400.613	565.44
400.837	547.44
401.062	511.44
401.286	542.44
401.51	509.44
401.734	514.44
401.958	516.44
402.182	504.44
402.406	524.44
402.63	522.44
402.854	530.44
403.078	512.44
403.302	518.44
403.526	515.44
403.75	520.44
403.974	519.44
404.198	506.44
404.422	498.44
404.645	527.44
404.869	512.44
405.093	532.44
405.317	558.44
405.541	570.44
405.765	556.44
405.988	539.44
406.212	558.44
406.436	584.44
406.66	576.44
406.883	573.44
407.107	593.44
407.331	605.44
407.555	700.44
407.778	707.44
408.002	638.44
408.226	582.44
408.449	577.44
408.673	579.44
408.896	592.44
409.12	629.44
409.344	599.44
409.567	568.44
409.791	564.44
410.014	530.44
410.238	522.44
410.461	501.44
410.685	543.44
410.908	547.44
411.132	577.44
411.355	616.44
411.578	598.44
411.802	535.44
412.025	519.44
412.249	528.44
412.472	529.44
412.695	535.44
412.919	540.44
413.142	520.44
413.365	499.44
413.589	514.44
413.812	486.44
414.035	481.44
414.258	492.44
414.482	506.44
414.705	512.44
414.928	493.44
415.151	505.44
415.374	510.44
415.597	496.44
415.821	507.44
416.044	495.44
416.267	488.44
416.49	471.44
416.713	475.44
416.936	478.44
417.159	480.44
417.382	519.44
417.605	505.44
417.828	501.44
418.051	527.44
418.274	499.44
418.497	505.44
418.72	505.44
418.943	510.44
419.166	524.44
419.389	544.44
419.611	545.44
419.834	531.44
420.057	507.44
420.28	507.44
420.503	484.44
420.726	511.44
420.948	529.44
421.171	574.44
421.394	598.44
421.617	561.44
421.839	531.44
422.062	530.44
422.285	548.44
422.507	596.44
422.73	687.44
422.953	645.44
423.175	565.44
423.398	535.44
423.621	523.44
423.843	545.44
424.066	558.44
424.288	540.44
424.511	571.44
424.733	622.44
424.956	682.44
425.178	642.44
425.401	658.44
425.623	696.44
425.846	602.44
426.068	559.44
426.291	553.44
426.513	567.44
426.735	560.44
426.958	581.44
427.18	689.44
427.402	795.44
427.625	889.44
427.847	749.44
428.069	632.44
428.292	570.44
428.514	545.44
428.736	531.44
428.958	530.44
429.181	525.44
429.403	515.44
429.625	493.44
429.847	526.44
430.069	615.44
430.292	613.44
430.514	538.44
430.736	527.44
430.958	508.44
431.18	476.44
431.402	504.44
431.624	485.44
431.846	494.44
432.068	473.44
432.29	491.44
432.512	488.44
432.734	498.44
432.956	476.44
433.178	486.44
433.4	493.44
433.622	501.44
433.844	466.44
434.066	480.44
434.287	489.44
434.509	487.44
434.731	501.44
434.953	523.44
435.175	542.44
435.397	552.44
435.618	555.44
435.84	573.44
436.062	662.44
436.284	741.44
436.505	621.44
436.727	569.44
436.949	538.44
437.17	511.44
437.392	483.44
437.614	521.44
437.835	549.44
438.057	656.44
438.278	725.44
438.5	734.44
438.721	832.44
438.943	813.44
439.165	607.44
439.386	557.44
439.608	569.44
439.829	567.44
440.05	576.44
440.272	629.44
440.493	595.44
440.715	560.44
440.936	519.44
441.158	520.44
441.379	537.44
441.6	526.44
441.822	565.44
442.043	590.44
442.264	644.44
442.486	697.44
442.707	599.44
442.928	556.44
443.149	582.44
443.371	594.44
443.592	625.44
443.813	711.44
444.034	805.44
444.255	632.44
444.476	574.44
444.698	554.44
444.919	539.44
445.14	640.44
445.361	604.44
445.582	586.44
445.803	644.44
446.024	729.44
446.245	765.44
446.466	694.44
446.687	611.44
446.908	544.44
447.129	522.44
447.35	514.44
447.571	525.44
447.792	511.44
448.013	504.44
448.234	523.44
448.455	574.44
448.675	690.44
448.896	823.44
449.117	672.44
449.338	644.44
449.559	726.44
449.779	881.44
450	674.44
450.221	555.44
450.442	519.44
450.662	535.44
450.883	493.44
451.104	504.44
451.324	513.44
451.545	492.44
451.766	471.44
451.986	481.44
452.207	463.44
452.428	457.44
452.648	466.44
452.869	470.44
453.089	454.44
453.31	484.44
453.53	454.44
453.751	451.44
453.971	457.44
454.192	494.44
454.412	479.44
454.633	470.44
454.853	461.44
455.073	472.44
455.294	484.44
455.514	528.44
455.734	553.44
455.955	471.44
456.175	423.44
456.395	441.44
456.616	425.44
456.836	429.44
457.056	422.44
457.276	435.44
457.497	443.44
457.717	445.44
457.937	446.44
458.157	432.44
458.377	443.44
458.598	480.44
458.818	523.44
459.038	575.44
459.258	603.44
459.478	541.44
459.698	499.44
459.918	498.44
460.138	491.44
460.358	497.44
460.578	519.44
460.798	517.44
461.018	501.44
461.238	498.44
461.458	523.44
461.678	512.44
461.898	507.44
462.118	519.44
462.338	505.44
462.558	520.44
462.777	531.44
462.997	525.44
463.217	562.44
463.437	566.44
463.657	549.44
463.876	528.44
464.096	574.44
464.316	521.44
464.536	561.44
464.755	545.44
464.975	536.44
465.195	558.44
465.414	618.44
465.634	572.44
465.854	538.44
466.073	521.44
466.293	504.44
466.512	485.44
466.732	478.44
466.951	486.44
467.171	501.44
467.391	494.44
467.61	491.44
467.829	494.44
468.049	487.44
468.268	470.44
468.488	483.44
468.707	471.44
468.927	431.44
469.146	462.44
469.365	451.44
469.585	451.44
469.804	485.44
470.023	469.44
470.243	503.44
470.462	471.44
470.681	498.44
470.901	493.44
471.12	484.44
471.339	461.44
471.558	478.44
471.777	486.44
471.997	472.44
472.216	496.44
472.435	470.44
472.654	456.44
472.873	481.44
473.092	486.44
473.311	472.44
473.53	497.44
473.749	491.44
473.968	543.44
474.187	624.44
474.406	649.44
474.625	535.44
474.844	507.44
475.063	471.44
475.282	501.44
475.501	512.44
475.72	493.44
475.939	511.44
476.158	505.44
476.377	496.44
476.596	491.44
476.814	507.44
477.033	503.44
477.252	521.44
477.471	531.44
477.69	515.44
477.908	528.44
478.127	539.44
478.346	520.44
478.564	546.44
478.783	569.44
479.002	532.44
479.22	556.44
479.439	571.44
479.658	555.44
479.876	575.44
480.095	589.44
480.313	592.44
480.532	614.44
480.751	606.44
480.969	585.44
481.188	594.44
481.406	603.44
481.624	601.44
481.843	573.44
482.061	554.44
482.28	557.44
482.498	575.44
482.717	557.44
482.935	588.44
483.153	582.44
483.372	573.44
483.59	546.44
483.808	565.44
484.027	562.44
484.245	582.44
484.463	570.44
484.681	587.44
484.9	585.44
485.118	589.44
485.336	577.44
485.554	591.44
485.772	591.44
485.99	574.44
486.209	589.44
486.427	595.44
486.645	608.44
486.863	618.44
487.081	599.44
487.299	606.44
487.517	613.44
487.735	600.44
487.953	602.44
488.171	601.44
488.389	604.44
488.607	594.44
488.825	616.44
489.043	599.44
489.261	613.44
489.479	598.44
489.696	623.44
489.914	627.44
490.132	630.44
490.35	631.44
490.568	632.44
490.786	631.44
491.003	624.44
491.221	669.44
491.439	665.44
491.657	670.44
491.874	635.44
492.092	670.44
492.31	690.44
492.527	660.44
492.745	669.44
492.963	686.44
493.18	702.44
493.398	683.44
493.615	687.44
493.833	722.44
494.05	700.44
494.268	680.44
494.485	691.44
494.703	670.44
494.92	672.44
495.138	693.44
495.355	731.44
495.573	721.44
495.79	693.44
496.008	716.44
496.225	702.44
496.442	710.44
496.66	748.44
496.877	729.44
497.094	718.44
497.312	747.44
497.529	757.44
497.746	758.44
497.963	755.44
498.181	797.44
498.398	781.44
498.615	804.44
498.832	812.44
499.049	823.44
499.267	870.44
499.484	864.44
499.701	907.44
499.918	936.44
500.135	1020.44
500.352	1001.44
500.569	1017.44
500.786	1032.44
501.003	1011.44
501.22	983.44
501.437	948.44
501.654	943.44
501.871	935.44
