Data from 1988.PennyLincolnUp.Lamp.En5.5.200Scan.071819.P2_HRD10591_17-18-42-971.txt Node
Date: Thu Jul 18 17:18:42 EDT 2019
User: cochatt
Spectrometer: HR+D1059
Trigger mode: 1
Integration Time (sec): 1.000000E-1
Scans to average: 1
Electric dark correction enabled: true
Nonlinearity correction enabled: false
Boxcar width: 0
XAxis mode: Wavelengths
Number of Pixels in Spectrum: 2048
>>>>>Begin Spectral Data<<<<<
223.165	-6.19
223.4	-6.19
223.635	-6.19
223.869	2.81
224.104	-13.19
224.338	-24.19
224.573	-25.19
224.808	-20.19
225.042	-20.19
225.277	-5.19
225.511	-18.19
225.746	-6.19
225.98	14.81
226.215	14.81
226.449	31.81
226.683	26.81
226.918	16.81
227.152	30.81
227.387	43.81
227.621	38.81
227.856	55.81
228.09	41.81
228.324	58.81
228.559	53.81
228.793	72.81
229.027	103.81
229.262	88.81
229.496	122.81
229.73	119.81
229.964	157.81
230.199	123.81
230.433	118.81
230.667	122.81
230.901	110.81
231.136	113.81
231.37	109.81
231.604	118.81
231.838	124.81
232.072	112.81
232.306	119.81
232.541	119.81
232.775	126.81
233.009	109.81
233.243	118.81
233.477	134.81
233.711	110.81
233.945	112.81
234.179	116.81
234.413	104.81
234.647	123.81
234.881	102.81
235.115	121.81
235.349	120.81
235.583	108.81
235.817	121.81
236.051	120.81
236.285	126.81
236.519	107.81
236.753	131.81
236.987	150.81
237.221	165.81
237.455	215.81
237.689	176.81
237.922	130.81
238.156	126.81
238.39	125.81
238.624	127.81
238.858	124.81
239.091	126.81
239.325	113.81
239.559	122.81
239.793	110.81
240.027	132.81
240.26	136.81
240.494	159.81
240.728	132.81
240.961	132.81
241.195	136.81
241.429	135.81
241.662	135.81
241.896	141.81
242.13	142.81
242.363	119.81
242.597	126.81
242.83	138.81
243.064	133.81
243.298	126.81
243.531	139.81
243.765	136.81
243.998	132.81
244.232	141.81
244.465	135.81
244.699	141.81
244.932	134.81
245.166	150.81
245.399	142.81
245.633	127.81
245.866	140.81
246.099	148.81
246.333	144.81
246.566	152.81
246.8	149.81
247.033	149.81
247.266	143.81
247.5	154.81
247.733	158.81
247.966	147.81
248.2	151.81
248.433	150.81
248.666	172.81
248.899	178.81
249.133	207.81
249.366	188.81
249.599	175.81
249.832	160.81
250.066	164.81
250.299	194.81
250.532	183.81
250.765	197.81
250.998	212.81
251.231	196.81
251.465	186.81
251.698	183.81
251.931	205.81
252.164	191.81
252.397	184.81
252.63	190.81
252.863	187.81
253.096	199.81
253.329	208.81
253.562	207.81
253.795	203.81
254.028	208.81
254.261	206.81
254.494	206.81
254.727	234.81
254.96	248.81
255.193	248.81
255.426	227.81
255.659	220.81
255.892	206.81
256.124	208.81
256.357	214.81
256.59	212.81
256.823	196.81
257.056	194.81
257.289	200.81
257.521	203.81
257.754	200.81
257.987	191.81
258.22	206.81
258.452	189.81
258.685	209.81
258.918	200.81
259.151	181.81
259.383	209.81
259.616	197.81
259.849	221.81
260.081	208.81
260.314	233.81
260.547	237.81
260.779	242.81
261.012	219.81
261.244	215.81
261.477	210.81
261.71	216.81
261.942	230.81
262.175	231.81
262.407	219.81
262.64	220.81
262.872	204.81
263.105	196.81
263.337	205.81
263.57	219.81
263.802	226.81
264.035	207.81
264.267	190.81
264.499	207.81
264.732	207.81
264.964	194.81
265.197	207.81
265.429	200.81
265.661	220.81
265.894	208.81
266.126	196.81
266.358	217.81
266.591	206.81
266.823	207.81
267.055	210.81
267.287	197.81
267.52	214.81
267.752	208.81
267.984	229.81
268.216	223.81
268.448	213.81
268.681	222.81
268.913	231.81
269.145	247.81
269.377	261.81
269.609	263.81
269.841	246.81
270.073	267.81
270.306	290.81
270.538	286.81
270.77	285.81
271.002	273.81
271.234	280.81
271.466	281.81
271.698	268.81
271.93	293.81
272.162	303.81
272.394	284.81
272.626	278.81
272.858	267.81
273.09	264.81
273.322	253.81
273.553	261.81
273.785	263.81
274.017	256.81
274.249	275.81
274.481	276.81
274.713	246.81
274.945	269.81
275.176	267.81
275.408	265.81
275.64	251.81
275.872	249.81
276.104	261.81
276.335	253.81
276.567	281.81
276.799	276.81
277.031	286.81
277.262	279.81
277.494	308.81
277.726	296.81
277.957	286.81
278.189	274.81
278.421	262.81
278.652	274.81
278.884	257.81
279.115	267.81
279.347	272.81
279.579	269.81
279.81	247.81
280.042	262.81
280.273	257.81
280.505	258.81
280.736	258.81
280.968	282.81
281.199	283.81
281.431	270.81
281.662	258.81
281.894	271.81
282.125	268.81
282.356	249.81
282.588	303.81
282.819	304.81
283.051	274.81
283.282	279.81
283.513	293.81
283.745	277.81
283.976	260.81
284.207	274.81
284.439	277.81
284.67	285.81
284.901	282.81
285.132	277.81
285.364	286.81
285.595	269.81
285.826	250.81
286.057	261.81
286.288	262.81
286.52	282.81
286.751	279.81
286.982	267.81
287.213	264.81
287.444	286.81
287.675	277.81
287.906	279.81
288.138	297.81
288.369	283.81
288.6	314.81
288.831	309.81
289.062	305.81
289.293	294.81
289.524	278.81
289.755	297.81
289.986	290.81
290.217	276.81
290.448	275.81
290.679	276.81
290.91	285.81
291.141	282.81
291.371	293.81
291.602	292.81
291.833	272.81
292.064	301.81
292.295	272.81
292.526	269.81
292.757	294.81
292.987	289.81
293.218	272.81
293.449	292.81
293.68	288.81
293.91	292.81
294.141	293.81
294.372	280.81
294.603	286.81
294.833	308.81
295.064	298.81
295.295	284.81
295.525	281.81
295.756	297.81
295.987	308.81
296.217	316.81
296.448	320.81
296.679	312.81
296.909	301.81
297.14	293.81
297.37	292.81
297.601	291.81
297.831	311.81
298.062	315.81
298.292	299.81
298.523	311.81
298.753	307.81
298.984	312.81
299.214	300.81
299.445	298.81
299.675	309.81
299.905	305.81
300.136	319.81
300.366	306.81
300.597	314.81
300.827	325.81
301.057	327.81
301.288	340.81
301.518	336.81
301.748	330.81
301.979	321.81
302.209	322.81
302.439	339.81
302.669	336.81
302.9	318.81
303.13	326.81
303.36	316.81
303.59	327.81
303.82	314.81
304.051	315.81
304.281	324.81
304.511	332.81
304.741	329.81
304.971	326.81
305.201	328.81
305.431	333.81
305.661	318.81
305.891	322.81
306.121	343.81
306.352	329.81
306.582	346.81
306.812	341.81
307.042	330.81
307.272	333.81
307.502	335.81
307.731	363.81
307.961	346.81
308.191	330.81
308.421	335.81
308.651	336.81
308.881	327.81
309.111	349.81
309.341	349.81
309.571	348.81
309.8	343.81
310.03	352.81
310.26	362.81
310.49	368.81
310.72	363.81
310.949	399.81
311.179	390.81
311.409	364.81
311.639	366.81
311.868	365.81
312.098	365.81
312.328	389.81
312.557	406.81
312.787	395.81
313.017	415.81
313.246	393.81
313.476	367.81
313.706	381.81
313.935	402.81
314.165	392.81
314.394	394.81
314.624	390.81
314.853	371.81
315.083	368.81
315.312	378.81
315.542	392.81
315.771	371.81
316.001	369.81
316.23	358.81
316.46	380.81
316.689	394.81
316.919	374.81
317.148	401.81
317.377	379.81
317.607	395.81
317.836	384.81
318.065	385.81
318.295	386.81
318.524	364.81
318.753	372.81
318.983	373.81
319.212	376.81
319.441	380.81
319.67	385.81
319.9	384.81
320.129	396.81
320.358	382.81
320.587	388.81
320.816	409.81
321.046	392.81
321.275	408.81
321.504	412.81
321.733	395.81
321.962	408.81
322.191	420.81
322.42	434.81
322.649	441.81
322.878	452.81
323.108	458.81
323.337	469.81
323.566	466.81
323.795	503.81
324.024	543.81
324.253	616.81
324.482	897.81
324.71	1348.81
324.939	1954.81
325.168	1704.81
325.397	878.81
325.626	623.81
325.855	523.81
326.084	517.81
326.313	500.81
326.542	478.81
326.77	523.81
326.999	611.81
327.228	813.81
327.457	1199.81
327.686	1454.81
327.914	968.81
328.143	676.81
328.372	555.81
328.6	550.81
328.829	534.81
329.058	551.81
329.287	533.81
329.515	491.81
329.744	485.81
329.972	492.81
330.201	500.81
330.43	515.81
330.658	522.81
330.887	573.81
331.115	537.81
331.344	491.81
331.572	486.81
331.801	502.81
332.03	462.81
332.258	452.81
332.486	436.81
332.715	441.81
332.943	462.81
333.172	461.81
333.4	465.81
333.629	462.81
333.857	458.81
334.085	472.81
334.314	451.81
334.542	456.81
334.771	466.81
334.999	476.81
335.227	442.81
335.455	459.81
335.684	448.81
335.912	450.81
336.14	443.81
336.369	454.81
336.597	453.81
336.825	442.81
337.053	431.81
337.281	439.81
337.51	429.81
337.738	436.81
337.966	440.81
338.194	440.81
338.422	448.81
338.65	442.81
338.878	453.81
339.106	440.81
339.334	456.81
339.562	411.81
339.79	422.81
340.018	440.81
340.246	425.81
340.474	427.81
340.702	447.81
340.93	427.81
341.158	426.81
341.386	426.81
341.614	445.81
341.842	434.81
342.07	436.81
342.298	425.81
342.526	419.81
342.754	416.81
342.981	408.81
343.209	423.81
343.437	424.81
343.665	434.81
343.893	451.81
344.12	436.81
344.348	456.81
344.576	452.81
344.804	444.81
345.031	420.81
345.259	447.81
345.487	467.81
345.714	439.81
345.942	415.81
346.17	432.81
346.397	458.81
346.625	416.81
346.853	414.81
347.08	405.81
347.308	424.81
347.535	426.81
347.763	431.81
347.99	426.81
348.218	444.81
348.445	422.81
348.673	422.81
348.9	414.81
349.128	423.81
349.355	386.81
349.583	408.81
349.81	424.81
350.037	421.81
350.265	382.81
350.492	409.81
350.72	388.81
350.947	405.81
351.174	426.81
351.402	420.81
351.629	421.81
351.856	404.81
352.083	457.81
352.311	434.81
352.538	423.81
352.765	438.81
352.992	414.81
353.22	418.81
353.447	426.81
353.674	436.81
353.901	410.81
354.128	412.81
354.355	384.81
354.583	396.81
354.81	407.81
355.037	417.81
355.264	400.81
355.491	404.81
355.718	392.81
355.945	398.81
356.172	390.81
356.399	401.81
356.626	404.81
356.853	380.81
357.08	403.81
357.307	394.81
357.534	401.81
357.761	394.81
357.988	388.81
358.215	412.81
358.441	392.81
358.668	384.81
358.895	417.81
359.122	390.81
359.349	414.81
359.576	410.81
359.802	431.81
360.029	432.81
360.256	441.81
360.483	447.81
360.709	417.81
360.936	392.81
361.163	427.81
361.39	418.81
361.616	414.81
361.843	413.81
362.07	395.81
362.296	414.81
362.523	419.81
362.749	412.81
362.976	417.81
363.203	414.81
363.429	412.81
363.656	388.81
363.882	409.81
364.109	418.81
364.335	427.81
364.562	405.81
364.788	413.81
365.015	407.81
365.241	411.81
365.468	408.81
365.694	411.81
365.92	408.81
366.147	387.81
366.373	405.81
366.599	385.81
366.826	410.81
367.052	367.81
367.278	400.81
367.505	390.81
367.731	418.81
367.957	416.81
368.184	396.81
368.41	391.81
368.636	422.81
368.862	427.81
369.089	391.81
369.315	405.81
369.541	413.81
369.767	405.81
369.993	398.81
370.219	416.81
370.445	395.81
370.672	425.81
370.898	403.81
371.124	406.81
371.35	404.81
371.576	398.81
371.802	404.81
372.028	422.81
372.254	419.81
372.48	414.81
372.706	384.81
372.932	409.81
373.158	412.81
373.384	408.81
373.61	422.81
373.835	416.81
374.061	396.81
374.287	410.81
374.513	410.81
374.739	419.81
374.965	420.81
375.191	411.81
375.416	424.81
375.642	419.81
375.868	419.81
376.094	404.81
376.319	412.81
376.545	395.81
376.771	405.81
376.997	392.81
377.222	405.81
377.448	416.81
377.674	394.81
377.899	410.81
378.125	404.81
378.35	408.81
378.576	408.81
378.802	396.81
379.027	384.81
379.253	411.81
379.478	398.81
379.704	406.81
379.929	394.81
380.155	412.81
380.38	431.81
380.606	406.81
380.831	420.81
381.057	399.81
381.282	400.81
381.507	393.81
381.733	407.81
381.958	407.81
382.184	416.81
382.409	414.81
382.634	430.81
382.86	406.81
383.085	440.81
383.31	434.81
383.535	438.81
383.761	428.81
383.986	440.81
384.211	434.81
384.436	435.81
384.662	427.81
384.887	424.81
385.112	428.81
385.337	411.81
385.562	445.81
385.787	423.81
386.013	473.81
386.238	477.81
386.463	472.81
386.688	458.81
386.913	455.81
387.138	469.81
387.363	434.81
387.588	448.81
387.813	444.81
388.038	460.81
388.263	427.81
388.488	444.81
388.713	455.81
388.938	449.81
389.163	462.81
389.387	452.81
389.612	478.81
389.837	450.81
390.062	439.81
390.287	432.81
390.512	438.81
390.736	446.81
390.961	445.81
391.186	423.81
391.411	461.81
391.636	454.81
391.86	435.81
392.085	475.81
392.31	478.81
392.534	454.81
392.759	463.81
392.984	456.81
393.208	455.81
393.433	471.81
393.658	472.81
393.882	449.81
394.107	450.81
394.331	460.81
394.556	456.81
394.78	452.81
395.005	462.81
395.229	455.81
395.454	478.81
395.678	474.81
395.903	476.81
396.127	472.81
396.352	489.81
396.576	473.81
396.801	475.81
397.025	456.81
397.249	466.81
397.474	471.81
397.698	447.81
397.922	507.81
398.147	515.81
398.371	518.81
398.595	512.81
398.82	515.81
399.044	524.81
399.268	557.81
399.492	583.81
399.717	574.81
399.941	634.81
400.165	630.81
400.389	637.81
400.613	585.81
400.837	548.81
401.062	535.81
401.286	529.81
401.51	515.81
401.734	522.81
401.958	513.81
402.182	517.81
402.406	527.81
402.63	521.81
402.854	503.81
403.078	544.81
403.302	546.81
403.526	538.81
403.75	522.81
403.974	552.81
404.198	530.81
404.422	548.81
404.645	538.81
404.869	541.81
405.093	563.81
405.317	578.81
405.541	589.81
405.765	553.81
405.988	543.81
406.212	568.81
406.436	589.81
406.66	579.81
406.883	594.81
407.107	580.81
407.331	635.81
407.555	689.81
407.778	705.81
408.002	649.81
408.226	612.81
408.449	599.81
408.673	595.81
408.896	626.81
409.12	655.81
409.344	616.81
409.567	563.81
409.791	546.81
410.014	545.81
410.238	541.81
410.461	544.81
410.685	547.81
410.908	539.81
411.132	567.81
411.355	588.81
411.578	587.81
411.802	554.81
412.025	548.81
412.249	536.81
412.472	521.81
412.695	525.81
412.919	535.81
413.142	532.81
413.365	512.81
413.589	502.81
413.812	502.81
414.035	512.81
414.258	509.81
414.482	517.81
414.705	518.81
414.928	512.81
415.151	516.81
415.374	492.81
415.597	503.81
415.821	504.81
416.044	486.81
416.267	522.81
416.49	512.81
416.713	509.81
416.936	483.81
417.159	496.81
417.382	501.81
417.605	514.81
417.828	518.81
418.051	535.81
418.274	521.81
418.497	490.81
418.72	509.81
418.943	494.81
419.166	541.81
419.389	554.81
419.611	537.81
419.834	549.81
420.057	529.81
420.28	519.81
420.503	533.81
420.726	494.81
420.948	524.81
421.171	568.81
421.394	574.81
421.617	534.81
421.839	536.81
422.062	512.81
422.285	554.81
422.507	582.81
422.73	644.81
422.953	667.81
423.175	564.81
423.398	554.81
423.621	560.81
423.843	556.81
424.066	557.81
424.288	543.81
424.511	588.81
424.733	656.81
424.956	716.81
425.178	675.81
425.401	678.81
425.623	701.81
425.846	589.81
426.068	580.81
426.291	550.81
426.513	554.81
426.735	566.81
426.958	630.81
427.18	686.81
427.402	811.81
427.625	880.81
427.847	760.81
428.069	649.81
428.292	594.81
428.514	543.81
428.736	546.81
428.958	552.81
429.181	482.81
429.403	532.81
429.625	538.81
429.847	537.81
430.069	612.81
430.292	610.81
430.514	535.81
430.736	514.81
430.958	506.81
431.18	519.81
431.402	499.81
431.624	482.81
431.846	487.81
432.068	461.81
432.29	481.81
432.512	504.81
432.734	514.81
432.956	507.81
433.178	524.81
433.4	499.81
433.622	502.81
433.844	484.81
434.066	488.81
434.287	497.81
434.509	503.81
434.731	514.81
434.953	531.81
435.175	556.81
435.397	542.81
435.618	552.81
435.84	575.81
436.062	677.81
436.284	737.81
436.505	622.81
436.727	546.81
436.949	521.81
437.17	528.81
437.392	535.81
437.614	528.81
437.835	548.81
438.057	619.81
438.278	750.81
438.5	724.81
438.721	815.81
438.943	781.81
439.165	622.81
439.386	554.81
439.608	561.81
439.829	571.81
440.05	609.81
440.272	638.81
440.493	610.81
440.715	549.81
440.936	531.81
441.158	536.81
441.379	518.81
441.6	536.81
441.822	588.81
442.043	605.81
442.264	673.81
442.486	714.81
442.707	624.81
442.928	573.81
443.149	559.81
443.371	607.81
443.592	630.81
443.813	737.81
444.034	792.81
444.255	652.81
444.476	588.81
444.698	566.81
444.919	570.81
445.14	645.81
445.361	633.81
445.582	604.81
445.803	647.81
446.024	754.81
446.245	764.81
446.466	684.81
446.687	603.81
446.908	558.81
447.129	548.81
447.35	526.81
447.571	531.81
447.792	515.81
448.013	527.81
448.234	530.81
448.455	579.81
448.675	690.81
448.896	816.81
449.117	695.81
449.338	640.81
449.559	758.81
449.779	882.81
450	693.81
450.221	594.81
450.442	531.81
450.662	512.81
450.883	543.81
451.104	511.81
451.324	511.81
451.545	504.81
451.766	490.81
451.986	453.81
452.207	461.81
452.428	469.81
452.648	465.81
452.869	468.81
453.089	475.81
453.31	481.81
453.53	475.81
453.751	468.81
453.971	493.81
454.192	460.81
454.412	490.81
454.633	469.81
454.853	452.81
455.073	452.81
455.294	488.81
455.514	551.81
455.734	523.81
455.955	468.81
456.175	426.81
456.395	438.81
456.616	451.81
456.836	457.81
457.056	430.81
457.276	438.81
457.497	439.81
457.717	443.81
457.937	434.81
458.157	459.81
458.377	458.81
458.598	470.81
458.818	514.81
459.038	595.81
459.258	612.81
459.478	547.81
459.698	499.81
459.918	518.81
460.138	510.81
460.358	509.81
460.578	503.81
460.798	490.81
461.018	509.81
461.238	526.81
461.458	525.81
461.678	520.81
461.898	490.81
462.118	494.81
462.338	531.81
462.558	525.81
462.777	539.81
462.997	548.81
463.217	566.81
463.437	562.81
463.657	546.81
463.876	554.81
464.096	550.81
464.316	557.81
464.536	554.81
464.755	539.81
464.975	544.81
465.195	570.81
465.414	616.81
465.634	570.81
465.854	539.81
466.073	507.81
466.293	519.81
466.512	474.81
466.732	485.81
466.951	476.81
467.171	489.81
467.391	467.81
467.61	512.81
467.829	505.81
468.049	480.81
468.268	472.81
468.488	457.81
468.707	462.81
468.927	478.81
469.146	449.81
469.365	485.81
469.585	493.81
469.804	487.81
470.023	495.81
470.243	478.81
470.462	470.81
470.681	503.81
470.901	512.81
471.12	525.81
471.339	495.81
471.558	475.81
471.777	488.81
471.997	464.81
472.216	482.81
472.435	482.81
472.654	482.81
472.873	476.81
473.092	462.81
473.311	489.81
473.53	494.81
473.749	487.81
473.968	526.81
474.187	611.81
474.406	622.81
474.625	531.81
474.844	525.81
475.063	489.81
475.282	483.81
475.501	493.81
475.72	510.81
475.939	504.81
476.158	525.81
476.377	512.81
476.596	502.81
476.814	518.81
477.033	522.81
477.252	514.81
477.471	529.81
477.69	548.81
477.908	542.81
478.127	530.81
478.346	547.81
478.564	530.81
478.783	564.81
479.002	562.81
479.22	568.81
479.439	597.81
479.658	598.81
479.876	585.81
480.095	602.81
480.313	607.81
480.532	609.81
480.751	598.81
480.969	590.81
481.188	608.81
481.406	600.81
481.624	576.81
481.843	582.81
482.061	570.81
482.28	589.81
482.498	574.81
482.717	582.81
482.935	551.81
483.153	591.81
483.372	571.81
483.59	607.81
483.808	571.81
484.027	559.81
484.245	584.81
484.463	595.81
484.681	606.81
484.9	595.81
485.118	576.81
485.336	601.81
485.554	571.81
485.772	621.81
485.99	588.81
486.209	592.81
486.427	581.81
486.645	578.81
486.863	614.81
487.081	602.81
487.299	591.81
487.517	604.81
487.735	614.81
487.953	606.81
488.171	608.81
488.389	601.81
488.607	603.81
488.825	630.81
489.043	623.81
489.261	626.81
489.479	619.81
489.696	623.81
489.914	626.81
490.132	621.81
490.35	660.81
490.568	653.81
490.786	655.81
491.003	646.81
491.221	650.81
491.439	668.81
491.657	676.81
491.874	677.81
492.092	659.81
492.31	677.81
492.527	676.81
492.745	706.81
492.963	669.81
493.18	702.81
493.398	697.81
493.615	714.81
493.833	704.81
494.05	693.81
494.268	695.81
494.485	709.81
494.703	699.81
494.92	727.81
495.138	701.81
495.355	703.81
495.573	710.81
495.79	744.81
496.008	724.81
496.225	735.81
496.442	735.81
496.66	728.81
496.877	738.81
497.094	739.81
497.312	761.81
497.529	740.81
497.746	772.81
497.963	768.81
498.181	789.81
498.398	797.81
498.615	812.81
498.832	820.81
499.049	851.81
499.267	879.81
499.484	894.81
499.701	910.81
499.918	958.81
500.135	975.81
500.352	1048.81
500.569	1047.81
500.786	1052.81
501.003	1029.81
501.22	997.81
501.437	950.81
501.654	932.81
501.871	941.81
