Data from 1988.PennyLincolnUp.Lamp.En5.5.200Scan.071819.P2_HRD10591_17-18-32-971.txt Node
Date: Thu Jul 18 17:18:32 EDT 2019
User: cochatt
Spectrometer: HR+D1059
Trigger mode: 1
Integration Time (sec): 1.000000E-1
Scans to average: 1
Electric dark correction enabled: true
Nonlinearity correction enabled: false
Boxcar width: 0
XAxis mode: Wavelengths
Number of Pixels in Spectrum: 2048
>>>>>Begin Spectral Data<<<<<
223.165	-24.19
223.4	-24.19
223.635	-24.19
223.869	-21.19
224.104	-29.19
224.338	-1.19
224.573	-11.19
224.808	-21.19
225.042	-14.19
225.277	-6.19
225.511	-0.19
225.746	4.81
225.98	15.81
226.215	9.81
226.449	16.81
226.683	26.81
226.918	27.81
227.152	26.81
227.387	28.81
227.621	22.81
227.856	45.81
228.09	47.81
228.324	65.81
228.559	67.81
228.793	69.81
229.027	77.81
229.262	91.81
229.496	105.81
229.73	127.81
229.964	131.81
230.199	120.81
230.433	108.81
230.667	113.81
230.901	106.81
231.136	103.81
231.37	91.81
231.604	110.81
231.838	88.81
232.072	109.81
232.306	97.81
232.541	117.81
232.775	112.81
233.009	121.81
233.243	114.81
233.477	106.81
233.711	96.81
233.945	109.81
234.179	116.81
234.413	117.81
234.647	115.81
234.881	104.81
235.115	114.81
235.349	117.81
235.583	119.81
235.817	114.81
236.051	109.81
236.285	121.81
236.519	108.81
236.753	116.81
236.987	133.81
237.221	157.81
237.455	196.81
237.689	153.81
237.922	145.81
238.156	110.81
238.39	115.81
238.624	114.81
238.858	114.81
239.091	120.81
239.325	113.81
239.559	113.81
239.793	122.81
240.027	130.81
240.26	131.81
240.494	140.81
240.728	134.81
240.961	129.81
241.195	135.81
241.429	111.81
241.662	122.81
241.896	125.81
242.13	117.81
242.363	132.81
242.597	120.81
242.83	133.81
243.064	142.81
243.298	132.81
243.531	119.81
243.765	130.81
243.998	128.81
244.232	134.81
244.465	124.81
244.699	143.81
244.932	137.81
245.166	129.81
245.399	131.81
245.633	134.81
245.866	127.81
246.099	120.81
246.333	125.81
246.566	140.81
246.8	135.81
247.033	144.81
247.266	140.81
247.5	132.81
247.733	158.81
247.966	143.81
248.2	160.81
248.433	141.81
248.666	158.81
248.899	173.81
249.133	179.81
249.366	178.81
249.599	169.81
249.832	165.81
250.066	158.81
250.299	156.81
250.532	184.81
250.765	185.81
250.998	194.81
251.231	184.81
251.465	173.81
251.698	184.81
251.931	189.81
252.164	176.81
252.397	169.81
252.63	192.81
252.863	195.81
253.096	189.81
253.329	202.81
253.562	195.81
253.795	206.81
254.028	192.81
254.261	194.81
254.494	192.81
254.727	219.81
254.96	230.81
255.193	210.81
255.426	213.81
255.659	206.81
255.892	175.81
256.124	198.81
256.357	193.81
256.59	205.81
256.823	196.81
257.056	179.81
257.289	183.81
257.521	183.81
257.754	203.81
257.987	199.81
258.22	190.81
258.452	195.81
258.685	196.81
258.918	190.81
259.151	193.81
259.383	197.81
259.616	194.81
259.849	195.81
260.081	197.81
260.314	231.81
260.547	224.81
260.779	202.81
261.012	212.81
261.244	197.81
261.477	207.81
261.71	217.81
261.942	199.81
262.175	204.81
262.407	201.81
262.64	191.81
262.872	201.81
263.105	191.81
263.337	193.81
263.57	181.81
263.802	192.81
264.035	184.81
264.267	205.81
264.499	191.81
264.732	191.81
264.964	203.81
265.197	197.81
265.429	191.81
265.661	192.81
265.894	186.81
266.126	190.81
266.358	194.81
266.591	208.81
266.823	203.81
267.055	210.81
267.287	207.81
267.52	202.81
267.752	200.81
267.984	194.81
268.216	209.81
268.448	212.81
268.681	218.81
268.913	200.81
269.145	230.81
269.377	271.81
269.609	235.81
269.841	239.81
270.073	242.81
270.306	249.81
270.538	257.81
270.77	275.81
271.002	259.81
271.234	269.81
271.466	263.81
271.698	266.81
271.93	273.81
272.162	269.81
272.394	283.81
272.626	265.81
272.858	243.81
273.09	243.81
273.322	260.81
273.553	259.81
273.785	237.81
274.017	231.81
274.249	222.81
274.481	222.81
274.713	232.81
274.945	246.81
275.176	237.81
275.408	247.81
275.64	239.81
275.872	225.81
276.104	230.81
276.335	248.81
276.567	242.81
276.799	264.81
277.031	253.81
277.262	251.81
277.494	265.81
277.726	276.81
277.957	259.81
278.189	251.81
278.421	242.81
278.652	262.81
278.884	259.81
279.115	234.81
279.347	243.81
279.579	254.81
279.81	253.81
280.042	247.81
280.273	254.81
280.505	240.81
280.736	243.81
280.968	242.81
281.199	255.81
281.431	256.81
281.662	250.81
281.894	231.81
282.125	252.81
282.356	270.81
282.588	261.81
282.819	271.81
283.051	261.81
283.282	257.81
283.513	244.81
283.745	254.81
283.976	271.81
284.207	271.81
284.439	265.81
284.67	255.81
284.901	273.81
285.132	262.81
285.364	256.81
285.595	266.81
285.826	273.81
286.057	267.81
286.288	250.81
286.52	270.81
286.751	249.81
286.982	271.81
287.213	249.81
287.444	267.81
287.675	280.81
287.906	283.81
288.138	277.81
288.369	288.81
288.6	271.81
288.831	284.81
289.062	283.81
289.293	265.81
289.524	269.81
289.755	263.81
289.986	265.81
290.217	264.81
290.448	259.81
290.679	277.81
290.91	268.81
291.141	268.81
291.371	260.81
291.602	254.81
291.833	265.81
292.064	287.81
292.295	269.81
292.526	261.81
292.757	278.81
292.987	267.81
293.218	263.81
293.449	270.81
293.68	268.81
293.91	259.81
294.141	273.81
294.372	266.81
294.603	273.81
294.833	264.81
295.064	300.81
295.295	263.81
295.525	272.81
295.756	271.81
295.987	301.81
296.217	304.81
296.448	305.81
296.679	285.81
296.909	277.81
297.14	287.81
297.37	294.81
297.601	274.81
297.831	287.81
298.062	296.81
298.292	282.81
298.523	290.81
298.753	274.81
298.984	282.81
299.214	282.81
299.445	278.81
299.675	287.81
299.905	297.81
300.136	281.81
300.366	282.81
300.597	294.81
300.827	305.81
301.057	307.81
301.288	302.81
301.518	308.81
301.748	289.81
301.979	309.81
302.209	307.81
302.439	301.81
302.669	291.81
302.9	311.81
303.13	303.81
303.36	295.81
303.59	296.81
303.82	323.81
304.051	309.81
304.281	324.81
304.511	305.81
304.741	301.81
304.971	321.81
305.201	303.81
305.431	318.81
305.661	320.81
305.891	320.81
306.121	323.81
306.352	322.81
306.582	312.81
306.812	309.81
307.042	312.81
307.272	305.81
307.502	306.81
307.731	340.81
307.961	314.81
308.191	303.81
308.421	318.81
308.651	315.81
308.881	313.81
309.111	307.81
309.341	329.81
309.571	342.81
309.8	330.81
310.03	346.81
310.26	340.81
310.49	349.81
310.72	368.81
310.949	346.81
311.179	369.81
311.409	336.81
311.639	355.81
311.868	346.81
312.098	361.81
312.328	362.81
312.557	354.81
312.787	350.81
313.017	349.81
313.246	370.81
313.476	351.81
313.706	362.81
313.935	369.81
314.165	353.81
314.394	359.81
314.624	351.81
314.853	356.81
315.083	375.81
315.312	337.81
315.542	377.81
315.771	351.81
316.001	333.81
316.23	354.81
316.46	349.81
316.689	346.81
316.919	373.81
317.148	377.81
317.377	359.81
317.607	361.81
317.836	357.81
318.065	370.81
318.295	355.81
318.524	352.81
318.753	353.81
318.983	351.81
319.212	354.81
319.441	356.81
319.67	365.81
319.9	361.81
320.129	345.81
320.358	361.81
320.587	345.81
320.816	368.81
321.046	381.81
321.275	373.81
321.504	368.81
321.733	369.81
321.962	389.81
322.191	391.81
322.42	390.81
322.649	417.81
322.878	413.81
323.108	430.81
323.337	424.81
323.566	450.81
323.795	474.81
324.024	486.81
324.253	564.81
324.482	789.81
324.71	1183.81
324.939	1762.81
325.168	1526.81
325.397	781.81
325.626	547.81
325.855	497.81
326.084	440.81
326.313	442.81
326.542	424.81
326.77	476.81
326.999	554.81
327.228	730.81
327.457	1082.81
327.686	1330.81
327.914	887.81
328.143	581.81
328.372	518.81
328.6	488.81
328.829	474.81
329.058	496.81
329.287	463.81
329.515	437.81
329.744	442.81
329.972	445.81
330.201	433.81
330.43	433.81
330.658	471.81
330.887	495.81
331.115	501.81
331.344	451.81
331.572	431.81
331.801	426.81
332.03	424.81
332.258	427.81
332.486	409.81
332.715	410.81
332.943	414.81
333.172	417.81
333.4	423.81
333.629	433.81
333.857	421.81
334.085	415.81
334.314	438.81
334.542	417.81
334.771	426.81
334.999	435.81
335.227	439.81
335.455	424.81
335.684	437.81
335.912	414.81
336.14	418.81
336.369	394.81
336.597	410.81
336.825	409.81
337.053	411.81
337.281	410.81
337.51	417.81
337.738	401.81
337.966	398.81
338.194	427.81
338.422	403.81
338.65	410.81
338.878	396.81
339.106	388.81
339.334	417.81
339.562	431.81
339.79	411.81
340.018	403.81
340.246	415.81
340.474	397.81
340.702	398.81
340.93	414.81
341.158	414.81
341.386	417.81
341.614	408.81
341.842	399.81
342.07	401.81
342.298	401.81
342.526	405.81
342.754	406.81
342.981	393.81
343.209	398.81
343.437	393.81
343.665	406.81
343.893	404.81
344.12	437.81
344.348	403.81
344.576	411.81
344.804	432.81
345.031	434.81
345.259	401.81
345.487	413.81
345.714	408.81
345.942	393.81
346.17	401.81
346.397	392.81
346.625	418.81
346.853	399.81
347.08	401.81
347.308	395.81
347.535	421.81
347.763	404.81
347.99	391.81
348.218	394.81
348.445	379.81
348.673	407.81
348.9	385.81
349.128	373.81
349.355	367.81
349.583	396.81
349.81	373.81
350.037	370.81
350.265	398.81
350.492	377.81
350.72	379.81
350.947	394.81
351.174	397.81
351.402	409.81
351.629	410.81
351.856	374.81
352.083	393.81
352.311	417.81
352.538	395.81
352.765	391.81
352.992	391.81
353.22	386.81
353.447	353.81
353.674	383.81
353.901	401.81
354.128	381.81
354.355	388.81
354.583	367.81
354.81	347.81
355.037	367.81
355.264	370.81
355.491	385.81
355.718	377.81
355.945	368.81
356.172	374.81
356.399	353.81
356.626	374.81
356.853	369.81
357.08	368.81
357.307	376.81
357.534	377.81
357.761	386.81
357.988	366.81
358.215	384.81
358.441	373.81
358.668	360.81
358.895	391.81
359.122	378.81
359.349	393.81
359.576	366.81
359.802	397.81
360.029	422.81
360.256	433.81
360.483	424.81
360.709	395.81
360.936	385.81
361.163	391.81
361.39	380.81
361.616	387.81
361.843	395.81
362.07	406.81
362.296	381.81
362.523	378.81
362.749	387.81
362.976	383.81
363.203	375.81
363.429	383.81
363.656	359.81
363.882	370.81
364.109	387.81
364.335	378.81
364.562	366.81
364.788	378.81
365.015	386.81
365.241	405.81
365.468	396.81
365.694	386.81
365.92	372.81
366.147	369.81
366.373	380.81
366.599	380.81
366.826	374.81
367.052	369.81
367.278	352.81
367.505	373.81
367.731	389.81
367.957	385.81
368.184	359.81
368.41	377.81
368.636	407.81
368.862	387.81
369.089	382.81
369.315	370.81
369.541	382.81
369.767	396.81
369.993	370.81
370.219	383.81
370.445	382.81
370.672	385.81
370.898	373.81
371.124	368.81
371.35	366.81
371.576	398.81
371.802	376.81
372.028	365.81
372.254	376.81
372.48	393.81
372.706	391.81
372.932	392.81
373.158	367.81
373.384	402.81
373.61	390.81
373.835	394.81
374.061	393.81
374.287	375.81
374.513	393.81
374.739	401.81
374.965	391.81
375.191	393.81
375.416	394.81
375.642	396.81
375.868	394.81
376.094	378.81
376.319	393.81
376.545	391.81
376.771	386.81
376.997	393.81
377.222	386.81
377.448	380.81
377.674	407.81
377.899	385.81
378.125	382.81
378.35	373.81
378.576	380.81
378.802	369.81
379.027	382.81
379.253	377.81
379.478	377.81
379.704	391.81
379.929	371.81
380.155	374.81
380.38	395.81
380.606	376.81
380.831	390.81
381.057	389.81
381.282	383.81
381.507	403.81
381.733	389.81
381.958	398.81
382.184	397.81
382.409	405.81
382.634	382.81
382.86	385.81
383.085	383.81
383.31	395.81
383.535	393.81
383.761	401.81
383.986	398.81
384.211	417.81
384.436	409.81
384.662	407.81
384.887	405.81
385.112	421.81
385.337	412.81
385.562	441.81
385.787	422.81
386.013	429.81
386.238	438.81
386.463	438.81
386.688	438.81
386.913	418.81
387.138	424.81
387.363	416.81
387.588	425.81
387.813	440.81
388.038	430.81
388.263	419.81
388.488	426.81
388.713	433.81
388.938	421.81
389.163	417.81
389.387	426.81
389.612	425.81
389.837	437.81
390.062	432.81
390.287	423.81
390.512	420.81
390.736	427.81
390.961	422.81
391.186	430.81
391.411	438.81
391.636	425.81
391.86	428.81
392.085	454.81
392.31	432.81
392.534	432.81
392.759	444.81
392.984	445.81
393.208	449.81
393.433	435.81
393.658	442.81
393.882	434.81
394.107	437.81
394.331	430.81
394.556	442.81
394.78	439.81
395.005	443.81
395.229	452.81
395.454	437.81
395.678	454.81
395.903	465.81
396.127	467.81
396.352	449.81
396.576	467.81
396.801	447.81
397.025	450.81
397.249	455.81
397.474	454.81
397.698	477.81
397.922	463.81
398.147	474.81
398.371	491.81
398.595	477.81
398.82	470.81
399.044	498.81
399.268	491.81
399.492	527.81
399.717	568.81
399.941	570.81
400.165	606.81
400.389	611.81
400.613	579.81
400.837	537.81
401.062	494.81
401.286	487.81
401.51	494.81
401.734	487.81
401.958	484.81
402.182	481.81
402.406	523.81
402.63	493.81
402.854	501.81
403.078	508.81
403.302	523.81
403.526	510.81
403.75	505.81
403.974	511.81
404.198	497.81
404.422	507.81
404.645	513.81
404.869	509.81
405.093	536.81
405.317	544.81
405.541	556.81
405.765	539.81
405.988	524.81
406.212	544.81
406.436	545.81
406.66	558.81
406.883	566.81
407.107	564.81
407.331	613.81
407.555	650.81
407.778	653.81
408.002	600.81
408.226	559.81
408.449	549.81
408.673	541.81
408.896	555.81
409.12	600.81
409.344	573.81
409.567	538.81
409.791	527.81
410.014	543.81
410.238	509.81
410.461	508.81
410.685	490.81
410.908	533.81
411.132	545.81
411.355	582.81
411.578	555.81
411.802	517.81
412.025	494.81
412.249	494.81
412.472	497.81
412.695	524.81
412.919	494.81
413.142	498.81
413.365	482.81
413.589	515.81
413.812	489.81
414.035	490.81
414.258	484.81
414.482	478.81
414.705	470.81
414.928	477.81
415.151	472.81
415.374	470.81
415.597	442.81
415.821	441.81
416.044	482.81
416.267	457.81
416.49	474.81
416.713	497.81
416.936	467.81
417.159	486.81
417.382	481.81
417.605	473.81
417.828	494.81
418.051	510.81
418.274	486.81
418.497	496.81
418.72	490.81
418.943	487.81
419.166	516.81
419.389	522.81
419.611	521.81
419.834	497.81
420.057	519.81
420.28	483.81
420.503	474.81
420.726	490.81
420.948	495.81
421.171	553.81
421.394	554.81
421.617	517.81
421.839	495.81
422.062	494.81
422.285	518.81
422.507	562.81
422.73	649.81
422.953	587.81
423.175	533.81
423.398	516.81
423.621	509.81
423.843	516.81
424.066	537.81
424.288	527.81
424.511	546.81
424.733	600.81
424.956	653.81
425.178	619.81
425.401	629.81
425.623	627.81
425.846	566.81
426.068	520.81
426.291	522.81
426.513	528.81
426.735	545.81
426.958	572.81
427.18	620.81
427.402	745.81
427.625	830.81
427.847	691.81
428.069	588.81
428.292	578.81
428.514	526.81
428.736	501.81
428.958	501.81
429.181	466.81
429.403	481.81
429.625	480.81
429.847	538.81
430.069	584.81
430.292	608.81
430.514	487.81
430.736	479.81
430.958	475.81
431.18	481.81
431.402	481.81
431.624	445.81
431.846	470.81
432.068	451.81
432.29	458.81
432.512	470.81
432.734	486.81
432.956	463.81
433.178	469.81
433.4	468.81
433.622	461.81
433.844	457.81
434.066	455.81
434.287	486.81
434.509	463.81
434.731	470.81
434.953	491.81
435.175	520.81
435.397	517.81
435.618	520.81
435.84	554.81
436.062	664.81
436.284	725.81
436.505	590.81
436.727	531.81
436.949	518.81
437.17	492.81
437.392	483.81
437.614	518.81
437.835	535.81
438.057	593.81
438.278	702.81
438.5	705.81
438.721	764.81
438.943	741.81
439.165	590.81
439.386	545.81
439.608	520.81
439.829	524.81
440.05	536.81
440.272	592.81
440.493	571.81
440.715	511.81
440.936	507.81
441.158	485.81
441.379	519.81
441.6	513.81
441.822	528.81
442.043	571.81
442.264	645.81
442.486	671.81
442.707	568.81
442.928	514.81
443.149	513.81
443.371	566.81
443.592	608.81
443.813	662.81
444.034	743.81
444.255	627.81
444.476	577.81
444.698	554.81
444.919	529.81
445.14	617.81
445.361	569.81
445.582	559.81
445.803	609.81
446.024	705.81
446.245	712.81
446.466	658.81
446.687	544.81
446.908	513.81
447.129	494.81
447.35	487.81
447.571	483.81
447.792	494.81
448.013	504.81
448.234	489.81
448.455	551.81
448.675	665.81
448.896	763.81
449.117	644.81
449.338	631.81
449.559	719.81
449.779	799.81
450	641.81
450.221	520.81
450.442	486.81
450.662	482.81
450.883	495.81
451.104	500.81
451.324	473.81
451.545	468.81
451.766	450.81
451.986	448.81
452.207	451.81
452.428	444.81
452.648	419.81
452.869	448.81
453.089	442.81
453.31	440.81
453.53	459.81
453.751	413.81
453.971	446.81
454.192	453.81
454.412	435.81
454.633	415.81
454.853	431.81
455.073	432.81
455.294	457.81
455.514	514.81
455.734	506.81
455.955	432.81
456.175	421.81
456.395	424.81
456.616	425.81
456.836	419.81
457.056	419.81
457.276	404.81
457.497	429.81
457.717	417.81
457.937	434.81
458.157	413.81
458.377	440.81
458.598	447.81
458.818	493.81
459.038	549.81
459.258	567.81
459.478	507.81
459.698	465.81
459.918	469.81
460.138	480.81
460.358	482.81
460.578	491.81
460.798	482.81
461.018	488.81
461.238	468.81
461.458	490.81
461.678	466.81
461.898	507.81
462.118	480.81
462.338	511.81
462.558	498.81
462.777	532.81
462.997	538.81
463.217	538.81
463.437	537.81
463.657	531.81
463.876	516.81
464.096	523.81
464.316	512.81
464.536	494.81
464.755	551.81
464.975	521.81
465.195	516.81
465.414	568.81
465.634	515.81
465.854	495.81
466.073	482.81
466.293	469.81
466.512	482.81
466.732	484.81
466.951	438.81
467.171	457.81
467.391	448.81
467.61	455.81
467.829	453.81
468.049	430.81
468.268	474.81
468.488	449.81
468.707	459.81
468.927	432.81
469.146	424.81
469.365	439.81
469.585	441.81
469.804	442.81
470.023	454.81
470.243	468.81
470.462	443.81
470.681	479.81
470.901	471.81
471.12	461.81
471.339	450.81
471.558	453.81
471.777	483.81
471.997	450.81
472.216	441.81
472.435	467.81
472.654	455.81
472.873	453.81
473.092	447.81
473.311	451.81
473.53	446.81
473.749	459.81
473.968	512.81
474.187	580.81
474.406	585.81
474.625	521.81
474.844	454.81
475.063	454.81
475.282	478.81
475.501	466.81
475.72	473.81
475.939	471.81
476.158	487.81
476.377	486.81
476.596	480.81
476.814	506.81
477.033	497.81
477.252	505.81
477.471	500.81
477.69	479.81
477.908	501.81
478.127	513.81
478.346	503.81
478.564	515.81
478.783	533.81
479.002	531.81
479.22	528.81
479.439	534.81
479.658	535.81
479.876	555.81
480.095	575.81
480.313	589.81
480.532	560.81
480.751	587.81
480.969	558.81
481.188	565.81
481.406	568.81
481.624	558.81
481.843	544.81
482.061	547.81
482.28	522.81
482.498	539.81
482.717	546.81
482.935	544.81
483.153	527.81
483.372	545.81
483.59	549.81
483.808	511.81
484.027	552.81
484.245	548.81
484.463	562.81
484.681	559.81
484.9	558.81
485.118	551.81
485.336	565.81
485.554	554.81
485.772	566.81
485.99	565.81
486.209	568.81
486.427	550.81
486.645	559.81
486.863	583.81
487.081	574.81
487.299	598.81
487.517	591.81
487.735	584.81
487.953	593.81
488.171	563.81
488.389	586.81
488.607	592.81
488.825	586.81
489.043	605.81
489.261	586.81
489.479	591.81
489.696	573.81
489.914	587.81
490.132	602.81
490.35	587.81
490.568	604.81
490.786	612.81
491.003	628.81
491.221	630.81
491.439	643.81
491.657	651.81
491.874	656.81
492.092	667.81
492.31	634.81
492.527	639.81
492.745	619.81
492.963	631.81
493.18	625.81
493.398	660.81
493.615	660.81
493.833	670.81
494.05	688.81
494.268	667.81
494.485	669.81
494.703	649.81
494.92	692.81
495.138	665.81
495.355	687.81
495.573	665.81
495.79	690.81
496.008	685.81
496.225	696.81
496.442	697.81
496.66	695.81
496.877	704.81
497.094	706.81
497.312	708.81
497.529	703.81
497.746	691.81
497.963	734.81
498.181	760.81
498.398	725.81
498.615	777.81
498.832	773.81
499.049	776.81
499.267	845.81
499.484	825.81
499.701	874.81
499.918	920.81
500.135	933.81
500.352	987.81
500.569	1000.81
500.786	1023.81
501.003	987.81
501.22	957.81
501.437	929.81
501.654	889.81
501.871	862.81
502.088	865.81
