Data from 1988.PennyLincolnUp.Lamp.En5.5.200Scan.071819.P2_HRD10591_17-19-19-972.txt Node
Date: Thu Jul 18 17:19:19 EDT 2019
User: cochatt
Spectrometer: HR+D1059
Trigger mode: 1
Integration Time (sec): 1.000000E-1
Scans to average: 1
Electric dark correction enabled: true
Nonlinearity correction enabled: false
Boxcar width: 0
XAxis mode: Wavelengths
Number of Pixels in Spectrum: 2048
>>>>>Begin Spectral Data<<<<<
223.165	-19.69
223.4	-19.69
223.635	-19.69
223.869	-6.69
224.104	-8.69
224.338	-0.69
224.573	-17.69
224.808	-25.69
225.042	-13.69
225.277	-8.69
225.511	-4.69
225.746	3.31
225.98	2.31
226.215	23.31
226.449	11.31
226.683	24.31
226.918	14.31
227.152	27.31
227.387	40.31
227.621	45.31
227.856	40.31
228.09	50.31
228.324	48.31
228.559	57.31
228.793	69.31
229.027	103.31
229.262	118.31
229.496	101.31
229.73	131.31
229.964	166.31
230.199	133.31
230.433	120.31
230.667	123.31
230.901	113.31
231.136	98.31
231.37	124.31
231.604	119.31
231.838	111.31
232.072	113.31
232.306	114.31
232.541	108.31
232.775	129.31
233.009	109.31
233.243	128.31
233.477	125.31
233.711	111.31
233.945	117.31
234.179	125.31
234.413	108.31
234.647	131.31
234.881	127.31
235.115	125.31
235.349	123.31
235.583	127.31
235.817	118.31
236.051	126.31
236.285	120.31
236.519	117.31
236.753	136.31
236.987	150.31
237.221	174.31
237.455	231.31
237.689	193.31
237.922	140.31
238.156	141.31
238.39	135.31
238.624	124.31
238.858	133.31
239.091	133.31
239.325	129.31
239.559	127.31
239.793	137.31
240.027	148.31
240.26	137.31
240.494	171.31
240.728	153.31
240.961	148.31
241.195	141.31
241.429	149.31
241.662	137.31
241.896	136.31
242.13	143.31
242.363	129.31
242.597	141.31
242.83	139.31
243.064	132.31
243.298	145.31
243.531	149.31
243.765	158.31
243.998	131.31
244.232	133.31
244.465	158.31
244.699	147.31
244.932	148.31
245.166	129.31
245.399	152.31
245.633	146.31
245.866	144.31
246.099	145.31
246.333	145.31
246.566	140.31
246.8	164.31
247.033	152.31
247.266	150.31
247.5	152.31
247.733	167.31
247.966	167.31
248.2	174.31
248.433	157.31
248.666	175.31
248.899	191.31
249.133	190.31
249.366	207.31
249.599	202.31
249.832	183.31
250.066	167.31
250.299	170.31
250.532	175.31
250.765	187.31
250.998	223.31
251.231	238.31
251.465	211.31
251.698	203.31
251.931	204.31
252.164	201.31
252.397	195.31
252.63	208.31
252.863	209.31
253.096	239.31
253.329	241.31
253.562	218.31
253.795	211.31
254.028	204.31
254.261	206.31
254.494	214.31
254.727	246.31
254.96	279.31
255.193	283.31
255.426	228.31
255.659	219.31
255.892	218.31
256.124	224.31
256.357	222.31
256.59	201.31
256.823	213.31
257.056	227.31
257.289	223.31
257.521	217.31
257.754	210.31
257.987	197.31
258.22	207.31
258.452	215.31
258.685	209.31
258.918	208.31
259.151	215.31
259.383	195.31
259.616	221.31
259.849	230.31
260.081	227.31
260.314	253.31
260.547	228.31
260.779	245.31
261.012	233.31
261.244	251.31
261.477	228.31
261.71	210.31
261.942	220.31
262.175	237.31
262.407	251.31
262.64	225.31
262.872	213.31
263.105	213.31
263.337	233.31
263.57	223.31
263.802	224.31
264.035	218.31
264.267	220.31
264.499	225.31
264.732	213.31
264.964	227.31
265.197	239.31
265.429	236.31
265.661	238.31
265.894	217.31
266.126	226.31
266.358	223.31
266.591	214.31
266.823	230.31
267.055	249.31
267.287	240.31
267.52	239.31
267.752	228.31
267.984	231.31
268.216	231.31
268.448	211.31
268.681	229.31
268.913	240.31
269.145	248.31
269.377	269.31
269.609	261.31
269.841	270.31
270.073	269.31
270.306	283.31
270.538	311.31
270.77	284.31
271.002	318.31
271.234	283.31
271.466	289.31
271.698	307.31
271.93	308.31
272.162	321.31
272.394	308.31
272.626	284.31
272.858	287.31
273.09	280.31
273.322	279.31
273.553	243.31
273.785	264.31
274.017	263.31
274.249	267.31
274.481	256.31
274.713	265.31
274.945	280.31
275.176	269.31
275.408	273.31
275.64	261.31
275.872	264.31
276.104	272.31
276.335	271.31
276.567	288.31
276.799	273.31
277.031	316.31
277.262	318.31
277.494	335.31
277.726	283.31
277.957	283.31
278.189	269.31
278.421	271.31
278.652	260.31
278.884	299.31
279.115	281.31
279.347	276.31
279.579	266.31
279.81	287.31
280.042	274.31
280.273	266.31
280.505	266.31
280.736	271.31
280.968	263.31
281.199	277.31
281.431	277.31
281.662	272.31
281.894	268.31
282.125	283.31
282.356	300.31
282.588	304.31
282.819	330.31
283.051	297.31
283.282	302.31
283.513	287.31
283.745	276.31
283.976	273.31
284.207	290.31
284.439	287.31
284.67	295.31
284.901	290.31
285.132	309.31
285.364	289.31
285.595	300.31
285.826	282.31
286.057	280.31
286.288	288.31
286.52	272.31
286.751	271.31
286.982	292.31
287.213	294.31
287.444	296.31
287.675	298.31
287.906	297.31
288.138	305.31
288.369	312.31
288.6	302.31
288.831	311.31
289.062	300.31
289.293	291.31
289.524	299.31
289.755	292.31
289.986	303.31
290.217	287.31
290.448	298.31
290.679	303.31
290.91	292.31
291.141	295.31
291.371	299.31
291.602	306.31
291.833	271.31
292.064	273.31
292.295	303.31
292.526	297.31
292.757	307.31
292.987	317.31
293.218	293.31
293.449	302.31
293.68	310.31
293.91	269.31
294.141	312.31
294.372	299.31
294.603	309.31
294.833	308.31
295.064	297.31
295.295	314.31
295.525	301.31
295.756	289.31
295.987	296.31
296.217	329.31
296.448	329.31
296.679	321.31
296.909	318.31
297.14	304.31
297.37	287.31
297.601	320.31
297.831	305.31
298.062	317.31
298.292	323.31
298.523	316.31
298.753	311.31
298.984	309.31
299.214	329.31
299.445	311.31
299.675	314.31
299.905	339.31
300.136	335.31
300.366	326.31
300.597	336.31
300.827	350.31
301.057	344.31
301.288	318.31
301.518	329.31
301.748	323.31
301.979	340.31
302.209	351.31
302.439	330.31
302.669	350.31
302.9	332.31
303.13	332.31
303.36	341.31
303.59	355.31
303.82	348.31
304.051	349.31
304.281	353.31
304.511	320.31
304.741	319.31
304.971	319.31
305.201	342.31
305.431	340.31
305.661	353.31
305.891	351.31
306.121	334.31
306.352	344.31
306.582	352.31
306.812	360.31
307.042	343.31
307.272	346.31
307.502	348.31
307.731	342.31
307.961	358.31
308.191	350.31
308.421	356.31
308.651	349.31
308.881	367.31
309.111	356.31
309.341	352.31
309.571	361.31
309.8	381.31
310.03	381.31
310.26	388.31
310.49	383.31
310.72	374.31
310.949	410.31
311.179	420.31
311.409	407.31
311.639	389.31
311.868	393.31
312.098	404.31
312.328	390.31
312.557	404.31
312.787	425.31
313.017	406.31
313.246	419.31
313.476	395.31
313.706	383.31
313.935	410.31
314.165	407.31
314.394	409.31
314.624	402.31
314.853	400.31
315.083	371.31
315.312	391.31
315.542	376.31
315.771	397.31
316.001	405.31
316.23	388.31
316.46	379.31
316.689	401.31
316.919	393.31
317.148	397.31
317.377	396.31
317.607	411.31
317.836	395.31
318.065	395.31
318.295	411.31
318.524	402.31
318.753	405.31
318.983	385.31
319.212	394.31
319.441	391.31
319.67	417.31
319.9	407.31
320.129	394.31
320.358	395.31
320.587	389.31
320.816	394.31
321.046	413.31
321.275	415.31
321.504	417.31
321.733	430.31
321.962	431.31
322.191	448.31
322.42	445.31
322.649	456.31
322.878	455.31
323.108	475.31
323.337	499.31
323.566	525.31
323.795	565.31
324.024	593.31
324.253	736.31
324.482	1041.31
324.71	1597.31
324.939	2255.31
325.168	1981.31
325.397	1007.31
325.626	696.31
325.855	593.31
326.084	546.31
326.313	533.31
326.542	533.31
326.77	585.31
326.999	670.31
327.228	901.31
327.457	1353.31
327.686	1694.31
327.914	1101.31
328.143	727.31
328.372	647.31
328.6	604.31
328.829	555.31
329.058	611.31
329.287	585.31
329.515	549.31
329.744	519.31
329.972	503.31
330.201	505.31
330.43	544.31
330.658	567.31
330.887	616.31
331.115	606.31
331.344	541.31
331.572	490.31
331.801	513.31
332.03	486.31
332.258	481.31
332.486	478.31
332.715	484.31
332.943	462.31
333.172	461.31
333.4	463.31
333.629	456.31
333.857	481.31
334.085	482.31
334.314	483.31
334.542	477.31
334.771	487.31
334.999	465.31
335.227	497.31
335.455	482.31
335.684	449.31
335.912	486.31
336.14	456.31
336.369	469.31
336.597	494.31
336.825	488.31
337.053	462.31
337.281	449.31
337.51	469.31
337.738	459.31
337.966	459.31
338.194	474.31
338.422	471.31
338.65	454.31
338.878	454.31
339.106	459.31
339.334	472.31
339.562	434.31
339.79	459.31
340.018	440.31
340.246	447.31
340.474	448.31
340.702	459.31
340.93	426.31
341.158	442.31
341.386	445.31
341.614	456.31
341.842	457.31
342.07	454.31
342.298	467.31
342.526	431.31
342.754	432.31
342.981	436.31
343.209	441.31
343.437	434.31
343.665	444.31
343.893	447.31
344.12	471.31
344.348	465.31
344.576	445.31
344.804	471.31
345.031	472.31
345.259	469.31
345.487	460.31
345.714	461.31
345.942	431.31
346.17	452.31
346.397	443.31
346.625	442.31
346.853	435.31
347.08	426.31
347.308	433.31
347.535	459.31
347.763	446.31
347.99	429.31
348.218	451.31
348.445	457.31
348.673	445.31
348.9	431.31
349.128	434.31
349.355	403.31
349.583	424.31
349.81	427.31
350.037	410.31
350.265	432.31
350.492	390.31
350.72	428.31
350.947	436.31
351.174	435.31
351.402	431.31
351.629	411.31
351.856	433.31
352.083	448.31
352.311	462.31
352.538	463.31
352.765	452.31
352.992	449.31
353.22	447.31
353.447	435.31
353.674	426.31
353.901	415.31
354.128	424.31
354.355	413.31
354.583	404.31
354.81	425.31
355.037	402.31
355.264	415.31
355.491	402.31
355.718	400.31
355.945	396.31
356.172	408.31
356.399	398.31
356.626	409.31
356.853	429.31
357.08	395.31
357.307	413.31
357.534	380.31
357.761	397.31
357.988	419.31
358.215	396.31
358.441	424.31
358.668	414.31
358.895	413.31
359.122	420.31
359.349	438.31
359.576	442.31
359.802	452.31
360.029	472.31
360.256	494.31
360.483	477.31
360.709	443.31
360.936	423.31
361.163	454.31
361.39	454.31
361.616	427.31
361.843	437.31
362.07	446.31
362.296	427.31
362.523	447.31
362.749	432.31
362.976	439.31
363.203	433.31
363.429	411.31
363.656	408.31
363.882	428.31
364.109	406.31
364.335	425.31
364.562	415.31
364.788	416.31
365.015	410.31
365.241	424.31
365.468	426.31
365.694	429.31
365.92	408.31
366.147	412.31
366.373	413.31
366.599	416.31
366.826	420.31
367.052	406.31
367.278	416.31
367.505	399.31
367.731	436.31
367.957	422.31
368.184	425.31
368.41	421.31
368.636	436.31
368.862	433.31
369.089	439.31
369.315	439.31
369.541	404.31
369.767	428.31
369.993	410.31
370.219	435.31
370.445	402.31
370.672	404.31
370.898	409.31
371.124	407.31
371.35	427.31
371.576	408.31
371.802	416.31
372.028	428.31
372.254	423.31
372.48	414.31
372.706	428.31
372.932	416.31
373.158	439.31
373.384	445.31
373.61	433.31
373.835	435.31
374.061	423.31
374.287	424.31
374.513	429.31
374.739	444.31
374.965	444.31
375.191	416.31
375.416	427.31
375.642	421.31
375.868	419.31
376.094	396.31
376.319	414.31
376.545	429.31
376.771	427.31
376.997	429.31
377.222	419.31
377.448	430.31
377.674	400.31
377.899	410.31
378.125	427.31
378.35	415.31
378.576	404.31
378.802	378.31
379.027	398.31
379.253	417.31
379.478	425.31
379.704	420.31
379.929	427.31
380.155	425.31
380.38	427.31
380.606	404.31
380.831	412.31
381.057	430.31
381.282	423.31
381.507	424.31
381.733	422.31
381.958	416.31
382.184	432.31
382.409	410.31
382.634	431.31
382.86	418.31
383.085	416.31
383.31	423.31
383.535	444.31
383.761	437.31
383.986	453.31
384.211	410.31
384.436	445.31
384.662	459.31
384.887	440.31
385.112	437.31
385.337	432.31
385.562	424.31
385.787	444.31
386.013	477.31
386.238	455.31
386.463	469.31
386.688	473.31
386.913	447.31
387.138	437.31
387.363	459.31
387.588	436.31
387.813	479.31
388.038	454.31
388.263	447.31
388.488	472.31
388.713	469.31
388.938	464.31
389.163	461.31
389.387	436.31
389.612	458.31
389.837	465.31
390.062	460.31
390.287	463.31
390.512	451.31
390.736	454.31
390.961	459.31
391.186	471.31
391.411	493.31
391.636	467.31
391.86	481.31
392.085	479.31
392.31	480.31
392.534	482.31
392.759	466.31
392.984	471.31
393.208	468.31
393.433	478.31
393.658	486.31
393.882	464.31
394.107	465.31
394.331	456.31
394.556	476.31
394.78	488.31
395.005	473.31
395.229	461.31
395.454	472.31
395.678	479.31
395.903	495.31
396.127	495.31
396.352	507.31
396.576	496.31
396.801	483.31
397.025	479.31
397.249	500.31
397.474	490.31
397.698	515.31
397.922	516.31
398.147	520.31
398.371	527.31
398.595	515.31
398.82	519.31
399.044	554.31
399.268	576.31
399.492	565.31
399.717	603.31
399.941	637.31
400.165	646.31
400.389	664.31
400.613	613.31
400.837	576.31
401.062	545.31
401.286	529.31
401.51	541.31
401.734	525.31
401.958	536.31
402.182	538.31
402.406	552.31
402.63	543.31
402.854	539.31
403.078	552.31
403.302	551.31
403.526	559.31
403.75	543.31
403.974	536.31
404.198	526.31
404.422	543.31
404.645	542.31
404.869	542.31
405.093	558.31
405.317	617.31
405.541	609.31
405.765	607.31
405.988	571.31
406.212	580.31
406.436	583.31
406.66	606.31
406.883	582.31
407.107	630.31
407.331	662.31
407.555	719.31
407.778	731.31
408.002	645.31
408.226	615.31
408.449	612.31
408.673	587.31
408.896	639.31
409.12	671.31
409.344	637.31
409.567	592.31
409.791	549.31
410.014	541.31
410.238	535.31
410.461	552.31
410.685	576.31
410.908	575.31
411.132	588.31
411.355	655.31
411.578	599.31
411.802	559.31
412.025	529.31
412.249	574.31
412.472	567.31
412.695	573.31
412.919	543.31
413.142	532.31
413.365	529.31
413.589	521.31
413.812	524.31
414.035	518.31
414.258	535.31
414.482	526.31
414.705	513.31
414.928	500.31
415.151	521.31
415.374	514.31
415.597	507.31
415.821	512.31
416.044	507.31
416.267	528.31
416.49	515.31
416.713	543.31
416.936	507.31
417.159	523.31
417.382	522.31
417.605	505.31
417.828	529.31
418.051	547.31
418.274	538.31
418.497	539.31
418.72	523.31
418.943	502.31
419.166	523.31
419.389	564.31
419.611	537.31
419.834	554.31
420.057	545.31
420.28	554.31
420.503	539.31
420.726	528.31
420.948	539.31
421.171	589.31
421.394	614.31
421.617	561.31
421.839	541.31
422.062	560.31
422.285	569.31
422.507	613.31
422.73	650.31
422.953	671.31
423.175	599.31
423.398	573.31
423.621	545.31
423.843	590.31
424.066	577.31
424.288	570.31
424.511	597.31
424.733	647.31
424.956	731.31
425.178	711.31
425.401	705.31
425.623	709.31
425.846	651.31
426.068	582.31
426.291	579.31
426.513	580.31
426.735	587.31
426.958	595.31
427.18	697.31
427.402	869.31
427.625	926.31
427.847	823.31
428.069	665.31
428.292	597.31
428.514	560.31
428.736	560.31
428.958	539.31
429.181	535.31
429.403	523.31
429.625	545.31
429.847	590.31
430.069	654.31
430.292	655.31
430.514	556.31
430.736	533.31
430.958	540.31
431.18	514.31
431.402	518.31
431.624	489.31
431.846	477.31
432.068	501.31
432.29	515.31
432.512	503.31
432.734	508.31
432.956	516.31
433.178	507.31
433.4	538.31
433.622	540.31
433.844	489.31
434.066	518.31
434.287	496.31
434.509	528.31
434.731	538.31
434.953	529.31
435.175	544.31
435.397	564.31
435.618	588.31
435.84	613.31
436.062	721.31
436.284	797.31
436.505	649.31
436.727	599.31
436.949	567.31
437.17	529.31
437.392	534.31
437.614	558.31
437.835	571.31
438.057	695.31
438.278	798.31
438.5	785.31
438.721	861.31
438.943	815.31
439.165	635.31
439.386	591.31
439.608	608.31
439.829	593.31
440.05	607.31
440.272	677.31
440.493	621.31
440.715	569.31
440.936	562.31
441.158	524.31
441.379	564.31
441.6	580.31
441.822	568.31
442.043	630.31
442.264	706.31
442.486	729.31
442.707	652.31
442.928	608.31
443.149	590.31
443.371	606.31
443.592	677.31
443.813	797.31
444.034	812.31
444.255	688.31
444.476	627.31
444.698	585.31
444.919	609.31
445.14	693.31
445.361	627.31
445.582	617.31
445.803	687.31
446.024	780.31
446.245	801.31
446.466	749.31
446.687	633.31
446.908	602.31
447.129	544.31
447.35	517.31
447.571	533.31
447.792	522.31
448.013	536.31
448.234	547.31
448.455	599.31
448.675	744.31
448.896	843.31
449.117	729.31
449.338	701.31
449.559	770.31
449.779	880.31
450	707.31
450.221	567.31
450.442	556.31
450.662	539.31
450.883	545.31
451.104	548.31
451.324	541.31
451.545	513.31
451.766	507.31
451.986	474.31
452.207	473.31
452.428	477.31
452.648	479.31
452.869	485.31
453.089	500.31
453.31	512.31
453.53	488.31
453.751	482.31
453.971	476.31
454.192	499.31
454.412	502.31
454.633	488.31
454.853	496.31
455.073	492.31
455.294	476.31
455.514	561.31
455.734	571.31
455.955	504.31
456.175	448.31
456.395	449.31
456.616	446.31
456.836	456.31
457.056	448.31
457.276	428.31
457.497	473.31
457.717	468.31
457.937	464.31
458.157	468.31
458.377	481.31
458.598	470.31
458.818	557.31
459.038	637.31
459.258	641.31
459.478	545.31
459.698	529.31
459.918	502.31
460.138	519.31
460.358	515.31
460.578	524.31
460.798	520.31
461.018	520.31
461.238	542.31
461.458	504.31
461.678	546.31
461.898	526.31
462.118	543.31
462.338	539.31
462.558	528.31
462.777	540.31
462.997	557.31
463.217	585.31
463.437	574.31
463.657	560.31
463.876	578.31
464.096	553.31
464.316	565.31
464.536	563.31
464.755	551.31
464.975	552.31
465.195	627.31
465.414	691.31
465.634	603.31
465.854	565.31
466.073	538.31
466.293	517.31
466.512	520.31
466.732	516.31
466.951	509.31
467.171	508.31
467.391	494.31
467.61	527.31
467.829	502.31
468.049	512.31
468.268	477.31
468.488	485.31
468.707	487.31
468.927	516.31
469.146	496.31
469.365	471.31
469.585	485.31
469.804	507.31
470.023	505.31
470.243	510.31
470.462	515.31
470.681	548.31
470.901	526.31
471.12	533.31
471.339	502.31
471.558	490.31
471.777	495.31
471.997	493.31
472.216	477.31
472.435	493.31
472.654	497.31
472.873	483.31
473.092	487.31
473.311	487.31
473.53	500.31
473.749	545.31
473.968	557.31
474.187	646.31
474.406	677.31
474.625	571.31
474.844	543.31
475.063	521.31
475.282	512.31
475.501	512.31
475.72	496.31
475.939	519.31
476.158	503.31
476.377	512.31
476.596	521.31
476.814	518.31
477.033	530.31
477.252	560.31
477.471	535.31
477.69	559.31
477.908	540.31
478.127	565.31
478.346	556.31
478.564	553.31
478.783	543.31
479.002	565.31
479.22	603.31
479.439	593.31
479.658	587.31
479.876	612.31
480.095	611.31
480.313	628.31
480.532	627.31
480.751	601.31
480.969	596.31
481.188	627.31
481.406	605.31
481.624	613.31
481.843	592.31
482.061	571.31
482.28	559.31
482.498	574.31
482.717	566.31
482.935	589.31
483.153	585.31
483.372	579.31
483.59	598.31
483.808	589.31
484.027	590.31
484.245	591.31
484.463	595.31
484.681	591.31
484.9	606.31
485.118	630.31
485.336	612.31
485.554	601.31
485.772	609.31
485.99	607.31
486.209	618.31
486.427	618.31
486.645	616.31
486.863	633.31
487.081	651.31
487.299	642.31
487.517	634.31
487.735	631.31
487.953	625.31
488.171	636.31
488.389	620.31
488.607	645.31
488.825	618.31
489.043	642.31
489.261	624.31
489.479	620.31
489.696	624.31
489.914	621.31
490.132	650.31
490.35	626.31
490.568	663.31
490.786	658.31
491.003	692.31
491.221	687.31
491.439	688.31
491.657	674.31
491.874	703.31
492.092	734.31
492.31	727.31
492.527	720.31
492.745	692.31
492.963	714.31
493.18	707.31
493.398	749.31
493.615	743.31
493.833	742.31
494.05	748.31
494.268	717.31
494.485	711.31
494.703	737.31
494.92	735.31
495.138	736.31
495.355	728.31
495.573	749.31
495.79	752.31
496.008	746.31
496.225	769.31
496.442	737.31
496.66	747.31
496.877	740.31
497.094	771.31
497.312	775.31
497.529	766.31
497.746	773.31
497.963	793.31
498.181	808.31
498.398	850.31
498.615	870.31
498.832	869.31
499.049	875.31
499.267	909.31
499.484	903.31
499.701	943.31
499.918	964.31
500.135	1001.31
500.352	1079.31
500.569	1062.31
500.786	1073.31
501.003	1081.31
501.22	1018.31
501.437	986.31
501.654	971.31
501.871	961.31
