Data from 1988.PennyLincolnUp.Lamp.En5.5.200Scan.071819.P2_HRD10591_17-20-39-972.txt Node
Date: Thu Jul 18 17:20:39 EDT 2019
User: cochatt
Spectrometer: HR+D1059
Trigger mode: 1
Integration Time (sec): 1.000000E-1
Scans to average: 1
Electric dark correction enabled: true
Nonlinearity correction enabled: false
Boxcar width: 0
XAxis mode: Wavelengths
Number of Pixels in Spectrum: 2048
>>>>>Begin Spectral Data<<<<<
223.165	-17
223.4	-17
223.635	-17
223.869	-23
224.104	-20
224.338	-18
224.573	-30
224.808	-9
225.042	12
225.277	3
225.511	7
225.746	5
225.98	1
226.215	16
226.449	17
226.683	13
226.918	17
227.152	26
227.387	31
227.621	35
227.856	43
228.09	39
228.324	43
228.559	51
228.793	73
229.027	103
229.262	118
229.496	120
229.73	129
229.964	172
230.199	142
230.433	115
230.667	121
230.901	116
231.136	119
231.37	119
231.604	120
231.838	126
232.072	107
232.306	115
232.541	100
232.775	114
233.009	119
233.243	108
233.477	111
233.711	117
233.945	132
234.179	124
234.413	119
234.647	120
234.881	125
235.115	103
235.349	117
235.583	111
235.817	122
236.051	130
236.285	122
236.519	127
236.753	142
236.987	150
237.221	176
237.455	270
237.689	199
237.922	158
238.156	143
238.39	126
238.624	123
238.858	128
239.091	124
239.325	116
239.559	128
239.793	131
240.027	156
240.26	163
240.494	175
240.728	155
240.961	165
241.195	159
241.429	136
241.662	129
241.896	142
242.13	126
242.363	149
242.597	137
242.83	158
243.064	131
243.298	141
243.531	150
243.765	148
243.998	142
244.232	152
244.465	145
244.699	153
244.932	156
245.166	157
245.399	148
245.633	140
245.866	163
246.099	154
246.333	151
246.566	162
246.8	181
247.033	160
247.266	151
247.5	171
247.733	176
247.966	180
248.2	195
248.433	176
248.666	180
248.899	192
249.133	193
249.366	216
249.599	210
249.832	184
250.066	183
250.299	185
250.532	193
250.765	214
250.998	224
251.231	248
251.465	228
251.698	228
251.931	215
252.164	213
252.397	200
252.63	208
252.863	240
253.096	226
253.329	239
253.562	223
253.795	229
254.028	223
254.261	239
254.494	234
254.727	278
254.96	302
255.193	284
255.426	264
255.659	269
255.892	228
256.124	217
256.357	230
256.59	227
256.823	214
257.056	245
257.289	193
257.521	229
257.754	221
257.987	212
258.22	213
258.452	216
258.685	213
258.918	205
259.151	223
259.383	223
259.616	221
259.849	262
260.081	249
260.314	258
260.547	244
260.779	260
261.012	239
261.244	253
261.477	238
261.71	235
261.942	242
262.175	254
262.407	257
262.64	241
262.872	225
263.105	221
263.337	219
263.57	238
263.802	224
264.035	213
264.267	212
264.499	209
264.732	223
264.964	207
265.197	208
265.429	223
265.661	225
265.894	227
266.126	238
266.358	223
266.591	222
266.823	241
267.055	248
267.287	243
267.52	245
267.752	221
267.984	237
268.216	235
268.448	243
268.681	242
268.913	243
269.145	270
269.377	292
269.609	293
269.841	277
270.073	289
270.306	299
270.538	305
270.77	333
271.002	326
271.234	311
271.466	302
271.698	323
271.93	328
272.162	317
272.394	339
272.626	318
272.858	316
273.09	307
273.322	303
273.553	293
273.785	299
274.017	277
274.249	276
274.481	281
274.713	264
274.945	279
275.176	262
275.408	279
275.64	284
275.872	292
276.104	284
276.335	275
276.567	287
276.799	300
277.031	315
277.262	338
277.494	342
277.726	312
277.957	311
278.189	286
278.421	283
278.652	292
278.884	309
279.115	268
279.347	276
279.579	288
279.81	285
280.042	292
280.273	279
280.505	293
280.736	302
280.968	280
281.199	288
281.431	286
281.662	287
281.894	277
282.125	294
282.356	301
282.588	325
282.819	348
283.051	303
283.282	277
283.513	285
283.745	302
283.976	302
284.207	277
284.439	278
284.67	285
284.901	299
285.132	279
285.364	283
285.595	295
285.826	293
286.057	311
286.288	282
286.52	303
286.751	314
286.982	307
287.213	300
287.444	309
287.675	307
287.906	326
288.138	329
288.369	344
288.6	332
288.831	323
289.062	297
289.293	316
289.524	295
289.755	288
289.986	307
290.217	302
290.448	316
290.679	297
290.91	312
291.141	325
291.371	305
291.602	310
291.833	303
292.064	303
292.295	315
292.526	299
292.757	299
292.987	296
293.218	309
293.449	322
293.68	321
293.91	297
294.141	320
294.372	301
294.603	321
294.833	312
295.064	315
295.295	305
295.525	322
295.756	328
295.987	324
296.217	349
296.448	349
296.679	339
296.909	325
297.14	328
297.37	340
297.601	329
297.831	322
298.062	332
298.292	320
298.523	328
298.753	323
298.984	324
299.214	336
299.445	315
299.675	338
299.905	333
300.136	344
300.366	334
300.597	343
300.827	339
301.057	330
301.288	366
301.518	343
301.748	352
301.979	352
302.209	358
302.439	325
302.669	348
302.9	346
303.13	343
303.36	352
303.59	370
303.82	365
304.051	375
304.281	367
304.511	349
304.741	339
304.971	340
305.201	364
305.431	359
305.661	342
305.891	370
306.121	353
306.352	339
306.582	367
306.812	381
307.042	368
307.272	368
307.502	356
307.731	368
307.961	373
308.191	366
308.421	371
308.651	361
308.881	374
309.111	382
309.341	382
309.571	399
309.8	392
310.03	399
310.26	396
310.49	384
310.72	418
310.949	424
311.179	443
311.409	427
311.639	416
311.868	397
312.098	424
312.328	421
312.557	439
312.787	467
313.017	444
313.246	413
313.476	417
313.706	433
313.935	440
314.165	421
314.394	434
314.624	448
314.853	416
315.083	413
315.312	404
315.542	407
315.771	406
316.001	406
316.23	391
316.46	405
316.689	417
316.919	414
317.148	431
317.377	428
317.607	418
317.836	413
318.065	420
318.295	432
318.524	422
318.753	414
318.983	415
319.212	432
319.441	418
319.67	433
319.9	429
320.129	424
320.358	411
320.587	414
320.816	439
321.046	460
321.275	460
321.504	451
321.733	432
321.962	458
322.191	471
322.42	477
322.649	481
322.878	477
323.108	508
323.337	523
323.566	560
323.795	602
324.024	627
324.253	765
324.482	1087
324.71	1696
324.939	2499
325.168	2206
325.397	1105
325.626	752
325.855	628
326.084	567
326.313	585
326.542	545
326.77	614
326.999	712
327.228	1020
327.457	1518
327.686	1898
327.914	1248
328.143	817
328.372	704
328.6	645
328.829	600
329.058	619
329.287	633
329.515	590
329.744	544
329.972	537
330.201	558
330.43	601
330.658	623
330.887	661
331.115	663
331.344	601
331.572	554
331.801	547
332.03	534
332.258	526
332.486	492
332.715	466
332.943	488
333.172	511
333.4	505
333.629	529
333.857	511
334.085	543
334.314	500
334.542	506
334.771	519
334.999	504
335.227	521
335.455	495
335.684	477
335.912	484
336.14	504
336.369	475
336.597	531
336.825	503
337.053	480
337.281	473
337.51	500
337.738	479
337.966	476
338.194	493
338.422	489
338.65	491
338.878	468
339.106	461
339.334	489
339.562	480
339.79	472
340.018	476
340.246	507
340.474	471
340.702	483
340.93	495
341.158	477
341.386	457
341.614	463
341.842	475
342.07	468
342.298	469
342.526	466
342.754	473
342.981	460
343.209	461
343.437	475
343.665	476
343.893	479
344.12	502
344.348	465
344.576	493
344.804	499
345.031	509
345.259	517
345.487	502
345.714	484
345.942	465
346.17	470
346.397	477
346.625	480
346.853	461
347.08	477
347.308	452
347.535	482
347.763	474
347.99	489
348.218	478
348.445	508
348.673	499
348.9	461
349.128	447
349.355	480
349.583	430
349.81	429
350.037	451
350.265	458
350.492	470
350.72	463
350.947	462
351.174	465
351.402	482
351.629	485
351.856	465
352.083	469
352.311	477
352.538	493
352.765	497
352.992	477
353.22	478
353.447	494
353.674	454
353.901	450
354.128	448
354.355	423
354.583	447
354.81	459
355.037	445
355.264	440
355.491	448
355.718	445
355.945	428
356.172	445
356.399	438
356.626	432
356.853	447
357.08	443
357.307	448
357.534	427
357.761	433
357.988	466
358.215	440
358.441	439
358.668	424
358.895	420
359.122	434
359.349	460
359.576	470
359.802	480
360.029	508
360.256	540
360.483	526
360.709	468
360.936	461
361.163	484
361.39	465
361.616	473
361.843	489
362.07	468
362.296	469
362.523	493
362.749	443
362.976	439
363.203	451
363.429	446
363.656	441
363.882	447
364.109	457
364.335	461
364.562	449
364.788	438
365.015	446
365.241	463
365.468	466
365.694	456
365.92	466
366.147	471
366.373	452
366.599	432
366.826	447
367.052	441
367.278	468
367.505	445
367.731	439
367.957	457
368.184	460
368.41	472
368.636	445
368.862	444
369.089	447
369.315	441
369.541	460
369.767	435
369.993	455
370.219	457
370.445	461
370.672	441
370.898	433
371.124	445
371.35	450
371.576	452
371.802	424
372.028	447
372.254	457
372.48	452
372.706	457
372.932	462
373.158	436
373.384	471
373.61	445
373.835	452
374.061	440
374.287	467
374.513	464
374.739	460
374.965	488
375.191	453
375.416	465
375.642	468
375.868	455
376.094	449
376.319	450
376.545	457
376.771	464
376.997	451
377.222	453
377.448	460
377.674	429
377.899	440
378.125	453
378.35	470
378.576	432
378.802	460
379.027	453
379.253	439
379.478	435
379.704	463
379.929	452
380.155	463
380.38	459
380.606	459
380.831	466
381.057	464
381.282	463
381.507	443
381.733	466
381.958	448
382.184	457
382.409	449
382.634	477
382.86	469
383.085	461
383.31	469
383.535	466
383.761	462
383.986	469
384.211	495
384.436	461
384.662	480
384.887	489
385.112	471
385.337	516
385.562	484
385.787	507
386.013	516
386.238	514
386.463	501
386.688	515
386.913	519
387.138	493
387.363	498
387.588	492
387.813	511
388.038	494
388.263	486
388.488	524
388.713	504
388.938	499
389.163	515
389.387	511
389.612	504
389.837	481
390.062	493
390.287	525
390.512	511
390.736	498
390.961	496
391.186	507
391.411	516
391.636	536
391.86	515
392.085	529
392.31	552
392.534	524
392.759	505
392.984	529
393.208	507
393.433	497
393.658	528
393.882	498
394.107	496
394.331	519
394.556	508
394.78	496
395.005	522
395.229	531
395.454	540
395.678	526
395.903	555
396.127	573
396.352	561
396.576	550
396.801	517
397.025	519
397.249	552
397.474	556
397.698	537
397.922	574
398.147	579
398.371	579
398.595	582
398.82	573
399.044	621
399.268	624
399.492	655
399.717	683
399.941	708
400.165	728
400.389	761
400.613	678
400.837	641
401.062	609
401.286	616
401.51	597
401.734	590
401.958	589
402.182	591
402.406	608
402.63	592
402.854	580
403.078	603
403.302	627
403.526	597
403.75	625
403.974	639
404.198	623
404.422	613
404.645	619
404.869	627
405.093	648
405.317	696
405.541	689
405.765	671
405.988	643
406.212	657
406.436	666
406.66	667
406.883	680
407.107	674
407.331	764
407.555	833
407.778	801
408.002	753
408.226	716
408.449	692
408.673	656
408.896	680
409.12	740
409.344	716
409.567	667
409.791	653
410.014	615
410.238	605
410.461	639
410.685	629
410.908	659
411.132	691
411.355	695
411.578	735
411.802	640
412.025	616
412.249	623
412.472	631
412.695	638
412.919	643
413.142	589
413.365	597
413.589	577
413.812	596
414.035	566
414.258	579
414.482	585
414.705	602
414.928	591
415.151	591
415.374	571
415.597	595
415.821	564
416.044	579
416.267	578
416.49	569
416.713	596
416.936	574
417.159	610
417.382	606
417.605	591
417.828	555
418.051	597
418.274	588
418.497	593
418.72	588
418.943	589
419.166	622
419.389	622
419.611	597
419.834	599
420.057	604
420.28	569
420.503	566
420.726	595
420.948	596
421.171	669
421.394	716
421.617	630
421.839	616
422.062	600
422.285	600
422.507	679
422.73	768
422.953	775
423.175	671
423.398	629
423.621	645
423.843	650
424.066	625
424.288	653
424.511	664
424.733	746
424.956	829
425.178	821
425.401	805
425.623	835
425.846	695
426.068	669
426.291	656
426.513	639
426.735	679
426.958	727
427.18	814
427.402	948
427.625	1070
427.847	910
428.069	752
428.292	704
428.514	663
428.736	635
428.958	612
429.181	644
429.403	598
429.625	604
429.847	630
430.069	744
430.292	748
430.514	615
430.736	597
430.958	598
431.18	572
431.402	581
431.624	573
431.846	590
432.068	559
432.29	571
432.512	576
432.734	585
432.956	591
433.178	588
433.4	597
433.622	583
433.844	572
434.066	566
434.287	575
434.509	576
434.731	604
434.953	606
435.175	624
435.397	646
435.618	621
435.84	696
436.062	813
436.284	919
436.505	762
436.727	675
436.949	632
437.17	601
437.392	581
437.614	621
437.835	657
438.057	764
438.278	895
438.5	888
438.721	975
438.943	917
439.165	775
439.386	685
439.608	677
439.829	681
440.05	699
440.272	740
440.493	693
440.715	661
440.936	644
441.158	627
441.379	627
441.6	630
441.822	636
442.043	689
442.264	816
442.486	845
442.707	740
442.928	690
443.149	680
443.371	700
443.592	765
443.813	870
444.034	953
444.255	775
444.476	706
444.698	665
444.919	664
445.14	796
445.361	758
445.582	703
445.803	765
446.024	878
446.245	925
446.466	850
446.687	732
446.908	641
447.129	649
447.35	644
447.571	653
447.792	577
448.013	598
448.234	619
448.455	722
448.675	838
448.896	976
449.117	803
449.338	772
449.559	887
449.779	1022
450	809
450.221	683
450.442	601
450.662	597
450.883	604
451.104	599
451.324	589
451.545	580
451.766	559
451.986	573
452.207	526
452.428	525
452.648	536
452.869	553
453.089	567
453.31	566
453.53	560
453.751	534
453.971	561
454.192	561
454.412	573
454.633	535
454.853	539
455.073	544
455.294	542
455.514	671
455.734	637
455.955	537
456.175	509
456.395	515
456.616	527
456.836	506
457.056	517
457.276	513
457.497	513
457.717	502
457.937	521
458.157	521
458.377	532
458.598	563
458.818	608
459.038	715
459.258	733
459.478	629
459.698	579
459.918	593
460.138	585
460.358	599
460.578	592
460.798	583
461.018	568
461.238	583
461.458	568
461.678	577
461.898	583
462.118	579
462.338	598
462.558	626
462.777	620
462.997	629
463.217	649
463.437	659
463.657	627
463.876	633
464.096	635
464.316	642
464.536	647
464.755	631
464.975	616
465.195	673
465.414	759
465.634	677
465.854	642
466.073	614
466.293	568
466.512	557
466.732	563
466.951	569
467.171	561
467.391	544
467.61	559
467.829	593
468.049	567
468.268	543
468.488	555
468.707	547
468.927	544
469.146	528
469.365	521
469.585	547
469.804	561
470.023	593
470.243	531
470.462	556
470.681	604
470.901	603
471.12	563
471.339	583
471.558	586
471.777	547
471.997	543
472.216	531
472.435	566
472.654	525
472.873	555
473.092	541
473.311	575
473.53	559
473.749	563
473.968	622
474.187	725
474.406	757
474.625	637
474.844	550
475.063	557
475.282	581
475.501	582
475.72	592
475.939	588
476.158	594
476.377	589
476.596	566
476.814	590
477.033	597
477.252	605
477.471	588
477.69	597
477.908	605
478.127	623
478.346	627
478.564	628
478.783	607
479.002	653
479.22	645
479.439	685
479.658	697
479.876	687
480.095	707
480.313	758
480.532	718
480.751	696
480.969	692
481.188	702
481.406	692
481.624	663
481.843	678
482.061	669
482.28	669
482.498	652
482.717	649
482.935	667
483.153	649
483.372	676
483.59	643
483.808	670
484.027	663
484.245	661
484.463	658
484.681	692
484.9	687
485.118	707
485.336	675
485.554	697
485.772	689
485.99	686
486.209	706
486.427	720
486.645	705
486.863	729
487.081	738
487.299	703
487.517	703
487.735	732
487.953	726
488.171	714
488.389	727
488.607	715
488.825	736
489.043	696
489.261	711
489.479	730
489.696	732
489.914	724
490.132	759
490.35	739
490.568	738
490.786	746
491.003	791
491.221	792
491.439	803
491.657	781
491.874	797
492.092	788
492.31	815
492.527	806
492.745	803
492.963	821
493.18	839
493.398	836
493.615	826
493.833	817
494.05	833
494.268	856
494.485	848
494.703	825
494.92	837
495.138	867
495.355	853
495.573	854
495.79	864
496.008	857
496.225	867
496.442	863
496.66	879
496.877	873
497.094	883
497.312	868
497.529	883
497.746	895
497.963	913
498.181	918
498.398	931
498.615	951
498.832	991
499.049	995
499.267	998
499.484	1093
499.701	1107
499.918	1114
500.135	1174
500.352	1247
500.569	1249
500.786	1242
501.003	1197
501.22	1216
501.437	1149
501.654	1103
501.871	1114
502.088	1073
502.305	998
502.522	989
502.739	975
502.956	947
503.172	949
503.389	905
503.606	914
503.823	900
504.04	897
504.256	863
504.473	875
504.69	864
504.907	838
505.123	833
505.34	831
505.557	829
505.773	827
505.99	798
506.207	808
506.423	837
506.64	819
506.856	783
507.073	789
507.289	789
507.506	796
507.722	774
507.939	840
508.155	808
508.372	796
508.588	785
508.805	777
509.021	769
509.238	792
509.454	822
509.67	799
509.887	773
510.103	768
510.319	803
510.536	917
510.752	1424
510.968	1185
511.184	790
511.401	789
511.617	735
511.833	726
512.049	707
512.265	733
512.481	714
512.698	709
512.914	734
513.13	759
513.346	722
513.562	710
513.778	728
513.994	752
514.21	736
514.426	816
514.642	833
514.858	848
515.074	907
515.29	1030
515.506	1496
515.721	1249
515.937	902
516.153	840
516.369	774
516.585	775
516.801	767
517.016	765
517.232	788
517.448	789
517.664	767
517.879	782
518.095	756
518.311	782
518.527	742
518.742	771
518.958	754
519.173	728
519.389	747
519.605	750
519.82	721
520.036	755
520.251	756
520.467	838
520.682	798
520.898	784
521.113	813
521.329	887
521.544	974
521.76	1213
521.975	1915
522.19	1901
522.406	1095
522.621	861
522.836	751
523.052	727
523.267	712
523.482	695
523.698	680
523.913	683
524.128	687
524.343	668
524.559	654
524.774	669
524.989	661
525.204	655
525.419	661
525.634	630
525.849	629
526.064	632
526.28	629
526.495	614
526.71	627
526.925	601
527.14	611
527.355	598
527.57	622
527.785	571
527.999	599
528.214	588
528.429	598
528.644	627
528.859	607
529.074	594
529.289	620
529.503	711
529.718	717
529.933	648
530.148	633
530.363	618
530.577	590
530.792	604
531.007	611
531.221	585
531.436	583
531.651	602
531.865	585
532.08	597
532.295	590
532.509	583
532.724	595
532.938	582
533.153	591
533.367	563
533.582	575
533.796	580
534.011	592
534.225	593
534.44	556
534.654	577
534.868	581
535.083	561
535.297	549
535.511	593
535.726	593
535.94	576
536.154	587
536.369	559
536.583	555
536.797	567
537.011	562
537.225	575
537.44	547
537.654	582
537.868	557
538.082	557
538.296	560
538.51	559
538.724	543
538.938	558
539.153	546
539.367	564
539.581	552
539.795	527
540.009	543
540.222	549
540.436	538
540.65	564
540.864	572
541.078	551
541.292	573
541.506	567
541.72	533
541.934	539
542.147	556
542.361	551
542.575	537
542.789	542
543.002	543
543.216	557
543.43	571
543.644	564
543.857	544
544.071	515
544.285	521
544.498	542
544.712	526
544.925	532
545.139	536
545.352	531
545.566	498
545.779	523
545.993	534
546.206	542
546.42	531
546.633	509
546.847	541
547.06	514
547.274	516
547.487	524
547.7	548
547.914	536
548.127	516
548.34	523
548.554	505
548.767	507
548.98	500
549.193	511
549.407	527
549.62	523
549.833	514
550.046	517
550.259	515
550.473	533
550.686	509
550.899	511
551.112	524
551.325	503
551.538	502
551.751	509
551.964	517
552.177	520
552.39	503
552.603	518
552.816	536
553.029	547
553.242	533
553.455	516
553.667	539
553.88	529
554.093	527
554.306	533
554.519	541
554.732	525
554.944	538
555.157	504
555.37	507
555.583	525
555.795	522
556.008	483
556.221	491
556.433	501
556.646	501
556.859	495
557.071	480
557.284	475
557.496	491
557.709	475
557.921	456
558.134	448
558.346	474
558.559	493
558.771	485
558.984	479
559.196	441
559.409	466
559.621	462
559.833	456
560.046	465
560.258	433
560.47	457
560.683	473
560.895	459
561.107	455
561.32	462
561.532	456
561.744	477
561.956	482
562.168	460
562.381	468
562.593	464
562.805	460
563.017	484
563.229	468
