Data from 1988.PennyLincolnUp.Lamp.En5.5.200Scan.071819.P2_HRD10591_17-18-34-976.txt Node
Date: Thu Jul 18 17:18:34 EDT 2019
User: cochatt
Spectrometer: HR+D1059
Trigger mode: 1
Integration Time (sec): 1.000000E-1
Scans to average: 1
Electric dark correction enabled: true
Nonlinearity correction enabled: false
Boxcar width: 0
XAxis mode: Wavelengths
Number of Pixels in Spectrum: 2048
>>>>>Begin Spectral Data<<<<<
223.165	-12.81
223.4	-12.81
223.635	-12.81
223.869	-16.81
224.104	-11.81
224.338	-12.81
224.573	-13.81
224.808	-16.81
225.042	-2.81
225.277	-4.81
225.511	-2.81
225.746	7.19
225.98	3.19
226.215	9.19
226.449	19.19
226.683	13.19
226.918	12.19
227.152	31.19
227.387	28.19
227.621	34.19
227.856	51.19
228.09	45.19
228.324	47.19
228.559	57.19
228.793	75.19
229.027	90.19
229.262	108.19
229.496	120.19
229.73	125.19
229.964	143.19
230.199	121.19
230.433	114.19
230.667	101.19
230.901	107.19
231.136	107.19
231.37	122.19
231.604	122.19
231.838	109.19
232.072	108.19
232.306	99.19
232.541	97.19
232.775	115.19
233.009	109.19
233.243	107.19
233.477	111.19
233.711	120.19
233.945	117.19
234.179	115.19
234.413	106.19
234.647	115.19
234.881	115.19
235.115	122.19
235.349	121.19
235.583	124.19
235.817	103.19
236.051	119.19
236.285	121.19
236.519	122.19
236.753	117.19
236.987	130.19
237.221	183.19
237.455	204.19
237.689	165.19
237.922	149.19
238.156	108.19
238.39	110.19
238.624	115.19
238.858	121.19
239.091	135.19
239.325	131.19
239.559	113.19
239.793	116.19
240.027	125.19
240.26	141.19
240.494	145.19
240.728	135.19
240.961	141.19
241.195	132.19
241.429	153.19
241.662	134.19
241.896	109.19
242.13	134.19
242.363	137.19
242.597	130.19
242.83	126.19
243.064	129.19
243.298	127.19
243.531	130.19
243.765	129.19
243.998	131.19
244.232	125.19
244.465	154.19
244.699	152.19
244.932	138.19
245.166	149.19
245.399	141.19
245.633	132.19
245.866	140.19
246.099	129.19
246.333	127.19
246.566	141.19
246.8	142.19
247.033	150.19
247.266	146.19
247.5	143.19
247.733	141.19
247.966	146.19
248.2	161.19
248.433	158.19
248.666	154.19
248.899	165.19
249.133	186.19
249.366	187.19
249.599	190.19
249.832	177.19
250.066	158.19
250.299	155.19
250.532	149.19
250.765	174.19
250.998	197.19
251.231	211.19
251.465	188.19
251.698	188.19
251.931	191.19
252.164	185.19
252.397	185.19
252.63	183.19
252.863	193.19
253.096	193.19
253.329	211.19
253.562	202.19
253.795	202.19
254.028	210.19
254.261	212.19
254.494	201.19
254.727	227.19
254.96	252.19
255.193	244.19
255.426	229.19
255.659	207.19
255.892	217.19
256.124	205.19
256.357	199.19
256.59	189.19
256.823	198.19
257.056	207.19
257.289	210.19
257.521	191.19
257.754	191.19
257.987	210.19
258.22	208.19
258.452	170.19
258.685	185.19
258.918	202.19
259.151	203.19
259.383	212.19
259.616	206.19
259.849	209.19
260.081	213.19
260.314	233.19
260.547	210.19
260.779	230.19
261.012	197.19
261.244	222.19
261.477	212.19
261.71	199.19
261.942	201.19
262.175	206.19
262.407	215.19
262.64	210.19
262.872	184.19
263.105	217.19
263.337	214.19
263.57	193.19
263.802	207.19
264.035	203.19
264.267	213.19
264.499	201.19
264.732	191.19
264.964	196.19
265.197	192.19
265.429	194.19
265.661	201.19
265.894	222.19
266.126	227.19
266.358	190.19
266.591	207.19
266.823	204.19
267.055	211.19
267.287	221.19
267.52	213.19
267.752	219.19
267.984	205.19
268.216	231.19
268.448	211.19
268.681	211.19
268.913	232.19
269.145	211.19
269.377	249.19
269.609	261.19
269.841	255.19
270.073	258.19
270.306	269.19
270.538	267.19
270.77	277.19
271.002	273.19
271.234	267.19
271.466	275.19
271.698	266.19
271.93	295.19
272.162	284.19
272.394	289.19
272.626	275.19
272.858	262.19
273.09	259.19
273.322	259.19
273.553	243.19
273.785	263.19
274.017	242.19
274.249	243.19
274.481	243.19
274.713	241.19
274.945	263.19
275.176	259.19
275.408	268.19
275.64	247.19
275.872	251.19
276.104	244.19
276.335	231.19
276.567	251.19
276.799	279.19
277.031	276.19
277.262	288.19
277.494	299.19
277.726	284.19
277.957	279.19
278.189	261.19
278.421	275.19
278.652	279.19
278.884	254.19
279.115	245.19
279.347	262.19
279.579	277.19
279.81	251.19
280.042	264.19
280.273	254.19
280.505	241.19
280.736	245.19
280.968	241.19
281.199	257.19
281.431	258.19
281.662	262.19
281.894	261.19
282.125	262.19
282.356	271.19
282.588	284.19
282.819	279.19
283.051	266.19
283.282	267.19
283.513	274.19
283.745	268.19
283.976	279.19
284.207	271.19
284.439	272.19
284.67	288.19
284.901	286.19
285.132	266.19
285.364	284.19
285.595	275.19
285.826	277.19
286.057	252.19
286.288	251.19
286.52	266.19
286.751	278.19
286.982	301.19
287.213	271.19
287.444	270.19
287.675	292.19
287.906	278.19
288.138	297.19
288.369	309.19
288.6	296.19
288.831	292.19
289.062	281.19
289.293	290.19
289.524	279.19
289.755	275.19
289.986	289.19
290.217	277.19
290.448	271.19
290.679	271.19
290.91	274.19
291.141	280.19
291.371	293.19
291.602	295.19
291.833	284.19
292.064	280.19
292.295	293.19
292.526	294.19
292.757	284.19
292.987	276.19
293.218	289.19
293.449	297.19
293.68	291.19
293.91	278.19
294.141	295.19
294.372	282.19
294.603	273.19
294.833	273.19
295.064	283.19
295.295	309.19
295.525	279.19
295.756	285.19
295.987	271.19
296.217	300.19
296.448	314.19
296.679	278.19
296.909	282.19
297.14	284.19
297.37	271.19
297.601	294.19
297.831	303.19
298.062	321.19
298.292	296.19
298.523	310.19
298.753	297.19
298.984	297.19
299.214	297.19
299.445	299.19
299.675	286.19
299.905	301.19
300.136	294.19
300.366	308.19
300.597	317.19
300.827	311.19
301.057	313.19
301.288	317.19
301.518	321.19
301.748	317.19
301.979	326.19
302.209	320.19
302.439	324.19
302.669	330.19
302.9	319.19
303.13	308.19
303.36	324.19
303.59	317.19
303.82	332.19
304.051	317.19
304.281	339.19
304.511	326.19
304.741	339.19
304.971	317.19
305.201	318.19
305.431	312.19
305.661	324.19
305.891	321.19
306.121	342.19
306.352	316.19
306.582	330.19
306.812	334.19
307.042	330.19
307.272	343.19
307.502	335.19
307.731	340.19
307.961	333.19
308.191	324.19
308.421	344.19
308.651	329.19
308.881	334.19
309.111	341.19
309.341	354.19
309.571	347.19
309.8	367.19
310.03	353.19
310.26	346.19
310.49	354.19
310.72	337.19
310.949	357.19
311.179	364.19
311.409	357.19
311.639	357.19
311.868	373.19
312.098	377.19
312.328	382.19
312.557	391.19
312.787	385.19
313.017	378.19
313.246	391.19
313.476	363.19
313.706	373.19
313.935	374.19
314.165	377.19
314.394	391.19
314.624	377.19
314.853	358.19
315.083	368.19
315.312	359.19
315.542	373.19
315.771	361.19
316.001	368.19
316.23	362.19
316.46	381.19
316.689	379.19
316.919	374.19
317.148	366.19
317.377	392.19
317.607	380.19
317.836	358.19
318.065	378.19
318.295	383.19
318.524	367.19
318.753	364.19
318.983	378.19
319.212	354.19
319.441	360.19
319.67	381.19
319.9	363.19
320.129	354.19
320.358	383.19
320.587	377.19
320.816	373.19
321.046	377.19
321.275	407.19
321.504	409.19
321.733	376.19
321.962	382.19
322.191	400.19
322.42	406.19
322.649	428.19
322.878	419.19
323.108	419.19
323.337	450.19
323.566	451.19
323.795	491.19
324.024	518.19
324.253	607.19
324.482	836.19
324.71	1343.19
324.939	1861.19
325.168	1628.19
325.397	856.19
325.626	580.19
325.855	511.19
326.084	473.19
326.313	478.19
326.542	474.19
326.77	499.19
326.999	603.19
327.228	780.19
327.457	1166.19
327.686	1377.19
327.914	932.19
328.143	629.19
328.372	540.19
328.6	497.19
328.829	505.19
329.058	522.19
329.287	533.19
329.515	493.19
329.744	449.19
329.972	451.19
330.201	450.19
330.43	459.19
330.658	515.19
330.887	538.19
331.115	535.19
331.344	485.19
331.572	465.19
331.801	457.19
332.03	457.19
332.258	454.19
332.486	441.19
332.715	425.19
332.943	435.19
333.172	430.19
333.4	459.19
333.629	430.19
333.857	446.19
334.085	471.19
334.314	476.19
334.542	435.19
334.771	454.19
334.999	452.19
335.227	444.19
335.455	446.19
335.684	435.19
335.912	451.19
336.14	430.19
336.369	419.19
336.597	424.19
336.825	453.19
337.053	442.19
337.281	414.19
337.51	440.19
337.738	439.19
337.966	436.19
338.194	435.19
338.422	422.19
338.65	425.19
338.878	428.19
339.106	434.19
339.334	435.19
339.562	447.19
339.79	444.19
340.018	446.19
340.246	444.19
340.474	423.19
340.702	421.19
340.93	426.19
341.158	425.19
341.386	418.19
341.614	419.19
341.842	433.19
342.07	421.19
342.298	441.19
342.526	424.19
342.754	395.19
342.981	421.19
343.209	406.19
343.437	405.19
343.665	408.19
343.893	429.19
344.12	450.19
344.348	427.19
344.576	438.19
344.804	443.19
345.031	436.19
345.259	437.19
345.487	451.19
345.714	430.19
345.942	413.19
346.17	413.19
346.397	396.19
346.625	408.19
346.853	405.19
347.08	395.19
347.308	404.19
347.535	413.19
347.763	405.19
347.99	397.19
348.218	408.19
348.445	406.19
348.673	447.19
348.9	413.19
349.128	402.19
349.355	418.19
349.583	398.19
349.81	414.19
350.037	402.19
350.265	416.19
350.492	391.19
350.72	401.19
350.947	405.19
351.174	395.19
351.402	416.19
351.629	412.19
351.856	402.19
352.083	418.19
352.311	425.19
352.538	412.19
352.765	413.19
352.992	402.19
353.22	415.19
353.447	396.19
353.674	378.19
353.901	404.19
354.128	393.19
354.355	391.19
354.583	386.19
354.81	374.19
355.037	390.19
355.264	379.19
355.491	376.19
355.718	395.19
355.945	380.19
356.172	381.19
356.399	379.19
356.626	373.19
356.853	395.19
357.08	388.19
357.307	399.19
357.534	405.19
357.761	397.19
357.988	391.19
358.215	384.19
358.441	394.19
358.668	392.19
358.895	394.19
359.122	388.19
359.349	393.19
359.576	417.19
359.802	424.19
360.029	434.19
360.256	457.19
360.483	447.19
360.709	414.19
360.936	401.19
361.163	392.19
361.39	409.19
361.616	392.19
361.843	409.19
362.07	399.19
362.296	411.19
362.523	388.19
362.749	403.19
362.976	401.19
363.203	395.19
363.429	412.19
363.656	407.19
363.882	394.19
364.109	419.19
364.335	389.19
364.562	393.19
364.788	385.19
365.015	399.19
365.241	391.19
365.468	391.19
365.694	395.19
365.92	413.19
366.147	413.19
366.373	379.19
366.599	388.19
366.826	383.19
367.052	391.19
367.278	402.19
367.505	379.19
367.731	399.19
367.957	398.19
368.184	391.19
368.41	409.19
368.636	422.19
368.862	407.19
369.089	382.19
369.315	382.19
369.541	390.19
369.767	391.19
369.993	384.19
370.219	405.19
370.445	380.19
370.672	397.19
370.898	382.19
371.124	396.19
371.35	395.19
371.576	389.19
371.802	402.19
372.028	399.19
372.254	405.19
372.48	410.19
372.706	408.19
372.932	403.19
373.158	421.19
373.384	382.19
373.61	389.19
373.835	406.19
374.061	400.19
374.287	398.19
374.513	420.19
374.739	427.19
374.965	415.19
375.191	447.19
375.416	419.19
375.642	399.19
375.868	400.19
376.094	398.19
376.319	379.19
376.545	399.19
376.771	392.19
376.997	395.19
377.222	393.19
377.448	407.19
377.674	406.19
377.899	398.19
378.125	374.19
378.35	387.19
378.576	405.19
378.802	386.19
379.027	400.19
379.253	387.19
379.478	405.19
379.704	411.19
379.929	384.19
380.155	412.19
380.38	402.19
380.606	409.19
380.831	391.19
381.057	410.19
381.282	408.19
381.507	414.19
381.733	388.19
381.958	406.19
382.184	398.19
382.409	391.19
382.634	402.19
382.86	412.19
383.085	408.19
383.31	394.19
383.535	416.19
383.761	411.19
383.986	439.19
384.211	423.19
384.436	444.19
384.662	425.19
384.887	429.19
385.112	434.19
385.337	455.19
385.562	441.19
385.787	425.19
386.013	458.19
386.238	460.19
386.463	441.19
386.688	425.19
386.913	430.19
387.138	446.19
387.363	447.19
387.588	442.19
387.813	447.19
388.038	436.19
388.263	458.19
388.488	440.19
388.713	464.19
388.938	448.19
389.163	459.19
389.387	462.19
389.612	425.19
389.837	450.19
390.062	435.19
390.287	455.19
390.512	416.19
390.736	435.19
390.961	448.19
391.186	420.19
391.411	449.19
391.636	457.19
391.86	451.19
392.085	452.19
392.31	466.19
392.534	452.19
392.759	443.19
392.984	435.19
393.208	445.19
393.433	447.19
393.658	472.19
393.882	467.19
394.107	449.19
394.331	449.19
394.556	457.19
394.78	452.19
395.005	449.19
395.229	449.19
395.454	468.19
395.678	463.19
395.903	458.19
396.127	461.19
396.352	490.19
396.576	456.19
396.801	460.19
397.025	470.19
397.249	474.19
397.474	478.19
397.698	492.19
397.922	477.19
398.147	499.19
398.371	468.19
398.595	489.19
398.82	509.19
399.044	524.19
399.268	532.19
399.492	558.19
399.717	598.19
399.941	589.19
400.165	631.19
400.389	617.19
400.613	590.19
400.837	565.19
401.062	526.19
401.286	511.19
401.51	504.19
401.734	510.19
401.958	518.19
402.182	515.19
402.406	521.19
402.63	511.19
402.854	516.19
403.078	519.19
403.302	536.19
403.526	535.19
403.75	521.19
403.974	504.19
404.198	505.19
404.422	529.19
404.645	542.19
404.869	533.19
405.093	533.19
405.317	553.19
405.541	589.19
405.765	548.19
405.988	533.19
406.212	570.19
406.436	545.19
406.66	602.19
406.883	585.19
407.107	592.19
407.331	637.19
407.555	678.19
407.778	684.19
408.002	631.19
408.226	591.19
408.449	560.19
408.673	576.19
408.896	599.19
409.12	664.19
409.344	612.19
409.567	563.19
409.791	542.19
410.014	529.19
410.238	537.19
410.461	530.19
410.685	518.19
410.908	548.19
411.132	570.19
411.355	613.19
411.578	577.19
411.802	543.19
412.025	540.19
412.249	523.19
412.472	523.19
412.695	526.19
412.919	525.19
413.142	491.19
413.365	497.19
413.589	511.19
413.812	507.19
414.035	518.19
414.258	509.19
414.482	502.19
414.705	503.19
414.928	503.19
415.151	525.19
415.374	485.19
415.597	498.19
415.821	482.19
416.044	488.19
416.267	504.19
416.49	470.19
416.713	507.19
416.936	513.19
417.159	498.19
417.382	498.19
417.605	492.19
417.828	499.19
418.051	514.19
418.274	527.19
418.497	495.19
418.72	493.19
418.943	488.19
419.166	520.19
419.389	543.19
419.611	527.19
419.834	535.19
420.057	511.19
420.28	497.19
420.503	505.19
420.726	514.19
420.948	506.19
421.171	568.19
421.394	582.19
421.617	533.19
421.839	523.19
422.062	527.19
422.285	515.19
422.507	583.19
422.73	636.19
422.953	619.19
423.175	569.19
423.398	526.19
423.621	531.19
423.843	551.19
424.066	549.19
424.288	544.19
424.511	564.19
424.733	614.19
424.956	685.19
425.178	677.19
425.401	672.19
425.623	695.19
425.846	589.19
426.068	569.19
426.291	558.19
426.513	540.19
426.735	547.19
426.958	577.19
427.18	676.19
427.402	799.19
427.625	889.19
427.847	728.19
428.069	657.19
428.292	586.19
428.514	557.19
428.736	509.19
428.958	525.19
429.181	523.19
429.403	503.19
429.625	510.19
429.847	558.19
430.069	615.19
430.292	601.19
430.514	537.19
430.736	530.19
430.958	495.19
431.18	505.19
431.402	503.19
431.624	499.19
431.846	494.19
432.068	476.19
432.29	477.19
432.512	484.19
432.734	485.19
432.956	511.19
433.178	497.19
433.4	479.19
433.622	489.19
433.844	481.19
434.066	495.19
434.287	507.19
434.509	489.19
434.731	498.19
434.953	516.19
435.175	509.19
435.397	539.19
435.618	554.19
435.84	584.19
436.062	667.19
436.284	738.19
436.505	621.19
436.727	559.19
436.949	526.19
437.17	517.19
437.392	505.19
437.614	529.19
437.835	559.19
438.057	637.19
438.278	722.19
438.5	730.19
438.721	823.19
438.943	791.19
439.165	625.19
439.386	549.19
439.608	553.19
439.829	526.19
440.05	590.19
440.272	627.19
440.493	583.19
440.715	542.19
440.936	535.19
441.158	508.19
441.379	521.19
441.6	532.19
441.822	525.19
442.043	572.19
442.264	638.19
442.486	683.19
442.707	618.19
442.928	553.19
443.149	570.19
443.371	584.19
443.592	637.19
443.813	716.19
444.034	781.19
444.255	641.19
444.476	564.19
444.698	571.19
444.919	556.19
445.14	629.19
445.361	605.19
445.582	587.19
445.803	644.19
446.024	724.19
446.245	749.19
446.466	692.19
446.687	585.19
446.908	542.19
447.129	532.19
447.35	527.19
447.571	493.19
447.792	498.19
448.013	505.19
448.234	518.19
448.455	557.19
448.675	645.19
448.896	798.19
449.117	678.19
449.338	645.19
449.559	744.19
449.779	843.19
450	655.19
450.221	545.19
450.442	507.19
450.662	512.19
450.883	521.19
451.104	523.19
451.324	489.19
451.545	461.19
451.766	479.19
451.986	470.19
452.207	454.19
452.428	460.19
452.648	456.19
452.869	449.19
453.089	469.19
453.31	451.19
453.53	477.19
453.751	446.19
453.971	462.19
454.192	455.19
454.412	462.19
454.633	446.19
454.853	454.19
455.073	438.19
455.294	475.19
455.514	521.19
455.734	531.19
455.955	457.19
456.175	447.19
456.395	429.19
456.616	449.19
456.836	453.19
457.056	421.19
457.276	427.19
457.497	458.19
457.717	439.19
457.937	441.19
458.157	455.19
458.377	465.19
458.598	477.19
458.818	515.19
459.038	567.19
459.258	577.19
459.478	546.19
459.698	505.19
459.918	481.19
460.138	504.19
460.358	512.19
460.578	493.19
460.798	487.19
461.018	508.19
461.238	513.19
461.458	517.19
461.678	510.19
461.898	505.19
462.118	510.19
462.338	536.19
462.558	533.19
462.777	518.19
462.997	564.19
463.217	554.19
463.437	556.19
463.657	550.19
463.876	522.19
464.096	547.19
464.316	548.19
464.536	532.19
464.755	540.19
464.975	553.19
465.195	561.19
465.414	591.19
465.634	542.19
465.854	525.19
466.073	521.19
466.293	486.19
466.512	489.19
466.732	457.19
466.951	461.19
467.171	482.19
467.391	467.19
467.61	487.19
467.829	496.19
468.049	481.19
468.268	467.19
468.488	475.19
468.707	470.19
468.927	457.19
469.146	455.19
469.365	463.19
469.585	457.19
469.804	477.19
470.023	467.19
470.243	473.19
470.462	476.19
470.681	505.19
470.901	479.19
471.12	491.19
471.339	487.19
471.558	500.19
471.777	514.19
471.997	470.19
472.216	484.19
472.435	473.19
472.654	451.19
472.873	473.19
473.092	473.19
473.311	470.19
473.53	474.19
473.749	481.19
473.968	539.19
474.187	614.19
474.406	635.19
474.625	538.19
474.844	525.19
475.063	486.19
475.282	497.19
475.501	481.19
475.72	488.19
475.939	499.19
476.158	473.19
476.377	512.19
476.596	502.19
476.814	509.19
477.033	510.19
477.252	515.19
477.471	511.19
477.69	518.19
477.908	517.19
478.127	562.19
478.346	521.19
478.564	533.19
478.783	538.19
479.002	558.19
479.22	556.19
479.439	569.19
479.658	575.19
479.876	583.19
480.095	574.19
480.313	612.19
480.532	609.19
480.751	584.19
480.969	585.19
481.188	595.19
481.406	593.19
481.624	570.19
481.843	569.19
482.061	563.19
482.28	554.19
482.498	573.19
482.717	566.19
482.935	567.19
483.153	575.19
483.372	542.19
483.59	557.19
483.808	570.19
484.027	582.19
484.245	538.19
484.463	577.19
484.681	579.19
484.9	568.19
485.118	569.19
485.336	589.19
485.554	573.19
485.772	598.19
485.99	584.19
486.209	586.19
486.427	596.19
486.645	586.19
486.863	615.19
487.081	651.19
487.299	599.19
487.517	583.19
487.735	603.19
487.953	586.19
488.171	606.19
488.389	587.19
488.607	608.19
488.825	598.19
489.043	603.19
489.261	621.19
489.479	605.19
489.696	588.19
489.914	585.19
490.132	627.19
490.35	629.19
490.568	641.19
490.786	632.19
491.003	635.19
491.221	660.19
491.439	661.19
491.657	677.19
491.874	666.19
492.092	690.19
492.31	665.19
492.527	673.19
492.745	671.19
492.963	689.19
493.18	671.19
493.398	686.19
493.615	679.19
493.833	681.19
494.05	698.19
494.268	691.19
494.485	675.19
494.703	707.19
494.92	708.19
495.138	706.19
495.355	718.19
495.573	685.19
495.79	698.19
496.008	716.19
496.225	708.19
496.442	729.19
496.66	705.19
496.877	716.19
497.094	709.19
497.312	745.19
497.529	731.19
497.746	731.19
497.963	762.19
498.181	773.19
498.398	771.19
498.615	811.19
498.832	818.19
499.049	855.19
499.267	847.19
499.484	866.19
499.701	935.19
499.918	943.19
500.135	980.19
500.352	1029.19
500.569	1019.19
500.786	1026.19
501.003	1031.19
501.22	992.19
501.437	971.19
501.654	945.19
501.871	919.19
