Data from 1988.PennyLincolnUp.Lamp.En5.5.200Scan.071819.P2_HRD10591_17-19-34-972.txt Node
Date: Thu Jul 18 17:19:34 EDT 2019
User: cochatt
Spectrometer: HR+D1059
Trigger mode: 1
Integration Time (sec): 1.000000E-1
Scans to average: 1
Electric dark correction enabled: true
Nonlinearity correction enabled: false
Boxcar width: 0
XAxis mode: Wavelengths
Number of Pixels in Spectrum: 2048
>>>>>Begin Spectral Data<<<<<
223.165	-5.38
223.4	-5.38
223.635	-5.38
223.869	-25.38
224.104	-31.38
224.338	-31.38
224.573	-27.38
224.808	-6.38
225.042	0.62
225.277	5.62
225.511	-2.38
225.746	6.62
225.98	17.62
226.215	8.62
226.449	19.62
226.683	21.62
226.918	17.62
227.152	31.62
227.387	44.62
227.621	44.62
227.856	46.62
228.09	51.62
228.324	58.62
228.559	57.62
228.793	55.62
229.027	100.62
229.262	100.62
229.496	119.62
229.73	139.62
229.964	165.62
230.199	147.62
230.433	115.62
230.667	116.62
230.901	123.62
231.136	104.62
231.37	112.62
231.604	116.62
231.838	119.62
232.072	105.62
232.306	117.62
232.541	118.62
232.775	112.62
233.009	119.62
233.243	117.62
233.477	137.62
233.711	128.62
233.945	118.62
234.179	127.62
234.413	111.62
234.647	140.62
234.881	115.62
235.115	137.62
235.349	126.62
235.583	133.62
235.817	140.62
236.051	129.62
236.285	135.62
236.519	151.62
236.753	128.62
236.987	161.62
237.221	192.62
237.455	239.62
237.689	199.62
237.922	144.62
238.156	129.62
238.39	138.62
238.624	125.62
238.858	141.62
239.091	138.62
239.325	126.62
239.559	129.62
239.793	145.62
240.027	134.62
240.26	153.62
240.494	157.62
240.728	166.62
240.961	149.62
241.195	155.62
241.429	142.62
241.662	139.62
241.896	141.62
242.13	144.62
242.363	145.62
242.597	138.62
242.83	128.62
243.064	137.62
243.298	155.62
243.531	139.62
243.765	140.62
243.998	153.62
244.232	149.62
244.465	148.62
244.699	147.62
244.932	147.62
245.166	140.62
245.399	144.62
245.633	154.62
245.866	149.62
246.099	159.62
246.333	163.62
246.566	164.62
246.8	163.62
247.033	159.62
247.266	159.62
247.5	166.62
247.733	177.62
247.966	181.62
248.2	182.62
248.433	182.62
248.666	188.62
248.899	202.62
249.133	213.62
249.366	224.62
249.599	205.62
249.832	185.62
250.066	179.62
250.299	175.62
250.532	206.62
250.765	194.62
250.998	212.62
251.231	227.62
251.465	220.62
251.698	202.62
251.931	200.62
252.164	200.62
252.397	204.62
252.63	208.62
252.863	214.62
253.096	227.62
253.329	220.62
253.562	219.62
253.795	220.62
254.028	227.62
254.261	197.62
254.494	239.62
254.727	271.62
254.96	282.62
255.193	273.62
255.426	249.62
255.659	253.62
255.892	225.62
256.124	219.62
256.357	217.62
256.59	237.62
256.823	203.62
257.056	201.62
257.289	224.62
257.521	229.62
257.754	211.62
257.987	218.62
258.22	216.62
258.452	213.62
258.685	219.62
258.918	221.62
259.151	215.62
259.383	232.62
259.616	234.62
259.849	245.62
260.081	240.62
260.314	243.62
260.547	265.62
260.779	248.62
261.012	228.62
261.244	238.62
261.477	251.62
261.71	223.62
261.942	219.62
262.175	242.62
262.407	239.62
262.64	225.62
262.872	244.62
263.105	224.62
263.337	231.62
263.57	222.62
263.802	217.62
264.035	214.62
264.267	232.62
264.499	218.62
264.732	227.62
264.964	215.62
265.197	222.62
265.429	236.62
265.661	220.62
265.894	245.62
266.126	224.62
266.358	240.62
266.591	239.62
266.823	216.62
267.055	237.62
267.287	235.62
267.52	245.62
267.752	253.62
267.984	228.62
268.216	233.62
268.448	240.62
268.681	217.62
268.913	268.62
269.145	264.62
269.377	280.62
269.609	293.62
269.841	284.62
270.073	287.62
270.306	294.62
270.538	324.62
270.77	327.62
271.002	314.62
271.234	303.62
271.466	309.62
271.698	319.62
271.93	335.62
272.162	311.62
272.394	325.62
272.626	312.62
272.858	300.62
273.09	287.62
273.322	283.62
273.553	264.62
273.785	285.62
274.017	264.62
274.249	268.62
274.481	262.62
274.713	287.62
274.945	294.62
275.176	302.62
275.408	276.62
275.64	269.62
275.872	275.62
276.104	276.62
276.335	280.62
276.567	297.62
276.799	311.62
277.031	277.62
277.262	325.62
277.494	328.62
277.726	321.62
277.957	288.62
278.189	294.62
278.421	284.62
278.652	273.62
278.884	280.62
279.115	284.62
279.347	270.62
279.579	271.62
279.81	259.62
280.042	291.62
280.273	284.62
280.505	267.62
280.736	313.62
280.968	279.62
281.199	289.62
281.431	272.62
281.662	268.62
281.894	293.62
282.125	291.62
282.356	303.62
282.588	330.62
282.819	321.62
283.051	288.62
283.282	273.62
283.513	296.62
283.745	298.62
283.976	283.62
284.207	293.62
284.439	310.62
284.67	297.62
284.901	304.62
285.132	290.62
285.364	297.62
285.595	307.62
285.826	283.62
286.057	288.62
286.288	294.62
286.52	306.62
286.751	307.62
286.982	295.62
287.213	280.62
287.444	310.62
287.675	296.62
287.906	308.62
288.138	309.62
288.369	312.62
288.6	317.62
288.831	295.62
289.062	307.62
289.293	302.62
289.524	302.62
289.755	310.62
289.986	305.62
290.217	305.62
290.448	313.62
290.679	299.62
290.91	285.62
291.141	310.62
291.371	303.62
291.602	296.62
291.833	296.62
292.064	316.62
292.295	307.62
292.526	319.62
292.757	303.62
292.987	305.62
293.218	299.62
293.449	305.62
293.68	304.62
293.91	326.62
294.141	331.62
294.372	304.62
294.603	311.62
294.833	312.62
295.064	312.62
295.295	310.62
295.525	311.62
295.756	314.62
295.987	313.62
296.217	348.62
296.448	323.62
296.679	315.62
296.909	293.62
297.14	317.62
297.37	336.62
297.601	322.62
297.831	331.62
298.062	330.62
298.292	317.62
298.523	327.62
298.753	317.62
298.984	323.62
299.214	323.62
299.445	315.62
299.675	317.62
299.905	356.62
300.136	324.62
300.366	339.62
300.597	344.62
300.827	319.62
301.057	328.62
301.288	350.62
301.518	346.62
301.748	351.62
301.979	352.62
302.209	331.62
302.439	343.62
302.669	349.62
302.9	349.62
303.13	349.62
303.36	342.62
303.59	353.62
303.82	355.62
304.051	354.62
304.281	358.62
304.511	328.62
304.741	341.62
304.971	339.62
305.201	335.62
305.431	343.62
305.661	347.62
305.891	361.62
306.121	351.62
306.352	355.62
306.582	370.62
306.812	360.62
307.042	360.62
307.272	349.62
307.502	355.62
307.731	364.62
307.961	370.62
308.191	349.62
308.421	350.62
308.651	355.62
308.881	357.62
309.111	344.62
309.341	367.62
309.571	378.62
309.8	383.62
310.03	383.62
310.26	378.62
310.49	411.62
310.72	399.62
310.949	400.62
311.179	415.62
311.409	407.62
311.639	392.62
311.868	392.62
312.098	396.62
312.328	405.62
312.557	429.62
312.787	440.62
313.017	435.62
313.246	398.62
313.476	395.62
313.706	400.62
313.935	408.62
314.165	409.62
314.394	420.62
314.624	423.62
314.853	405.62
315.083	424.62
315.312	397.62
315.542	415.62
315.771	432.62
316.001	399.62
316.23	392.62
316.46	401.62
316.689	403.62
316.919	402.62
317.148	408.62
317.377	417.62
317.607	414.62
317.836	400.62
318.065	407.62
318.295	395.62
318.524	406.62
318.753	413.62
318.983	418.62
319.212	399.62
319.441	418.62
319.67	411.62
319.9	408.62
320.129	411.62
320.358	418.62
320.587	397.62
320.816	422.62
321.046	428.62
321.275	415.62
321.504	447.62
321.733	423.62
321.962	427.62
322.191	480.62
322.42	439.62
322.649	469.62
322.878	488.62
323.108	480.62
323.337	499.62
323.566	531.62
323.795	575.62
324.024	618.62
324.253	746.62
324.482	1027.62
324.71	1579.62
324.939	2316.62
325.168	2024.62
325.397	1068.62
325.626	705.62
325.855	587.62
326.084	543.62
326.313	527.62
326.542	534.62
326.77	592.62
326.999	683.62
327.228	919.62
327.457	1436.62
327.686	1760.62
327.914	1171.62
328.143	759.62
328.372	652.62
328.6	587.62
328.829	611.62
329.058	614.62
329.287	600.62
329.515	555.62
329.744	535.62
329.972	544.62
330.201	533.62
330.43	566.62
330.658	578.62
330.887	636.62
331.115	641.62
331.344	568.62
331.572	524.62
331.801	512.62
332.03	516.62
332.258	530.62
332.486	500.62
332.715	488.62
332.943	510.62
333.172	496.62
333.4	500.62
333.629	506.62
333.857	515.62
334.085	519.62
334.314	507.62
334.542	482.62
334.771	508.62
334.999	507.62
335.227	496.62
335.455	503.62
335.684	499.62
335.912	475.62
336.14	470.62
336.369	492.62
336.597	481.62
336.825	504.62
337.053	497.62
337.281	490.62
337.51	494.62
337.738	463.62
337.966	461.62
338.194	476.62
338.422	496.62
338.65	470.62
338.878	459.62
339.106	469.62
339.334	497.62
339.562	475.62
339.79	465.62
340.018	459.62
340.246	477.62
340.474	473.62
340.702	473.62
340.93	454.62
341.158	471.62
341.386	466.62
341.614	490.62
341.842	484.62
342.07	465.62
342.298	461.62
342.526	454.62
342.754	442.62
342.981	430.62
343.209	465.62
343.437	473.62
343.665	464.62
343.893	481.62
344.12	473.62
344.348	474.62
344.576	490.62
344.804	485.62
345.031	489.62
345.259	484.62
345.487	470.62
345.714	452.62
345.942	491.62
346.17	458.62
346.397	432.62
346.625	468.62
346.853	467.62
347.08	447.62
347.308	456.62
347.535	464.62
347.763	483.62
347.99	473.62
348.218	455.62
348.445	497.62
348.673	484.62
348.9	466.62
349.128	464.62
349.355	449.62
349.583	437.62
349.81	428.62
350.037	420.62
350.265	439.62
350.492	432.62
350.72	435.62
350.947	437.62
351.174	463.62
351.402	480.62
351.629	455.62
351.856	447.62
352.083	460.62
352.311	475.62
352.538	472.62
352.765	489.62
352.992	465.62
353.22	464.62
353.447	441.62
353.674	459.62
353.901	441.62
354.128	441.62
354.355	438.62
354.583	436.62
354.81	429.62
355.037	439.62
355.264	427.62
355.491	426.62
355.718	437.62
355.945	396.62
356.172	430.62
356.399	442.62
356.626	422.62
356.853	431.62
357.08	421.62
357.307	431.62
357.534	441.62
357.761	433.62
357.988	439.62
358.215	435.62
358.441	422.62
358.668	413.62
358.895	439.62
359.122	433.62
359.349	464.62
359.576	477.62
359.802	500.62
360.029	497.62
360.256	523.62
360.483	490.62
360.709	464.62
360.936	471.62
361.163	436.62
361.39	461.62
361.616	458.62
361.843	452.62
362.07	460.62
362.296	459.62
362.523	455.62
362.749	464.62
362.976	466.62
363.203	439.62
363.429	443.62
363.656	444.62
363.882	439.62
364.109	455.62
364.335	457.62
364.562	454.62
364.788	447.62
365.015	438.62
365.241	444.62
365.468	462.62
365.694	457.62
365.92	461.62
366.147	460.62
366.373	454.62
366.599	437.62
366.826	441.62
367.052	425.62
367.278	427.62
367.505	455.62
367.731	423.62
367.957	445.62
368.184	432.62
368.41	477.62
368.636	458.62
368.862	455.62
369.089	446.62
369.315	451.62
369.541	439.62
369.767	443.62
369.993	445.62
370.219	452.62
370.445	425.62
370.672	438.62
370.898	439.62
371.124	458.62
371.35	461.62
371.576	431.62
371.802	439.62
372.028	446.62
372.254	436.62
372.48	435.62
372.706	447.62
372.932	442.62
373.158	418.62
373.384	449.62
373.61	436.62
373.835	469.62
374.061	460.62
374.287	422.62
374.513	434.62
374.739	460.62
374.965	453.62
375.191	472.62
375.416	456.62
375.642	471.62
375.868	445.62
376.094	463.62
376.319	464.62
376.545	459.62
376.771	455.62
376.997	428.62
377.222	449.62
377.448	450.62
377.674	433.62
377.899	459.62
378.125	431.62
378.35	425.62
378.576	443.62
378.802	415.62
379.027	427.62
379.253	453.62
379.478	429.62
379.704	444.62
379.929	439.62
380.155	459.62
380.38	437.62
380.606	445.62
380.831	453.62
381.057	444.62
381.282	453.62
381.507	460.62
381.733	447.62
381.958	456.62
382.184	451.62
382.409	471.62
382.634	464.62
382.86	453.62
383.085	464.62
383.31	445.62
383.535	468.62
383.761	455.62
383.986	462.62
384.211	481.62
384.436	477.62
384.662	473.62
384.887	477.62
385.112	485.62
385.337	489.62
385.562	481.62
385.787	476.62
386.013	508.62
386.238	507.62
386.463	499.62
386.688	505.62
386.913	492.62
387.138	493.62
387.363	500.62
387.588	485.62
387.813	508.62
388.038	481.62
388.263	492.62
388.488	497.62
388.713	477.62
388.938	477.62
389.163	500.62
389.387	507.62
389.612	486.62
389.837	473.62
390.062	502.62
390.287	497.62
390.512	493.62
390.736	510.62
390.961	499.62
391.186	484.62
391.411	512.62
391.636	491.62
391.86	504.62
392.085	521.62
392.31	513.62
392.534	519.62
392.759	523.62
392.984	516.62
393.208	517.62
393.433	507.62
393.658	528.62
393.882	513.62
394.107	484.62
394.331	495.62
394.556	511.62
394.78	494.62
395.005	495.62
395.229	511.62
395.454	528.62
395.678	528.62
395.903	511.62
396.127	540.62
396.352	540.62
396.576	521.62
396.801	511.62
397.025	530.62
397.249	544.62
397.474	516.62
397.698	560.62
397.922	555.62
398.147	561.62
398.371	570.62
398.595	573.62
398.82	574.62
399.044	581.62
399.268	597.62
399.492	632.62
399.717	664.62
399.941	678.62
400.165	712.62
400.389	730.62
400.613	675.62
400.837	608.62
401.062	581.62
401.286	592.62
401.51	579.62
401.734	556.62
401.958	590.62
402.182	592.62
402.406	609.62
402.63	592.62
402.854	585.62
403.078	587.62
403.302	577.62
403.526	601.62
403.75	585.62
403.974	585.62
404.198	591.62
404.422	607.62
404.645	619.62
404.869	603.62
405.093	633.62
405.317	648.62
405.541	673.62
405.765	642.62
405.988	615.62
406.212	635.62
406.436	641.62
406.66	676.62
406.883	636.62
407.107	678.62
407.331	706.62
407.555	776.62
407.778	795.62
408.002	707.62
408.226	678.62
408.449	660.62
408.673	661.62
408.896	707.62
409.12	728.62
409.344	688.62
409.567	644.62
409.791	644.62
410.014	591.62
410.238	600.62
410.461	607.62
410.685	609.62
410.908	617.62
411.132	655.62
411.355	688.62
411.578	656.62
411.802	631.62
412.025	612.62
412.249	583.62
412.472	595.62
412.695	604.62
412.919	593.62
413.142	572.62
413.365	579.62
413.589	590.62
413.812	573.62
414.035	572.62
414.258	567.62
414.482	569.62
414.705	542.62
414.928	559.62
415.151	573.62
415.374	560.62
415.597	563.62
415.821	548.62
416.044	550.62
416.267	559.62
416.49	555.62
416.713	565.62
416.936	553.62
417.159	544.62
417.382	576.62
417.605	571.62
417.828	581.62
418.051	585.62
418.274	589.62
418.497	600.62
418.72	590.62
418.943	580.62
419.166	581.62
419.389	590.62
419.611	599.62
419.834	574.62
420.057	596.62
420.28	573.62
420.503	582.62
420.726	567.62
420.948	603.62
421.171	660.62
421.394	699.62
421.617	611.62
421.839	589.62
422.062	597.62
422.285	599.62
422.507	658.62
422.73	751.62
422.953	725.62
423.175	652.62
423.398	661.62
423.621	600.62
423.843	633.62
424.066	631.62
424.288	639.62
424.511	641.62
424.733	710.62
424.956	798.62
425.178	765.62
425.401	769.62
425.623	822.62
425.846	704.62
426.068	649.62
426.291	654.62
426.513	629.62
426.735	661.62
426.958	675.62
427.18	758.62
427.402	932.62
427.625	988.62
427.847	856.62
428.069	755.62
428.292	689.62
428.514	621.62
428.736	594.62
428.958	621.62
429.181	586.62
429.403	573.62
429.625	598.62
429.847	639.62
430.069	695.62
430.292	689.62
430.514	606.62
430.736	583.62
430.958	607.62
431.18	565.62
431.402	556.62
431.624	561.62
431.846	569.62
432.068	567.62
432.29	554.62
432.512	565.62
432.734	569.62
432.956	555.62
433.178	573.62
433.4	565.62
433.622	579.62
433.844	554.62
434.066	552.62
434.287	567.62
434.509	569.62
434.731	553.62
434.953	577.62
435.175	589.62
435.397	627.62
435.618	662.62
435.84	678.62
436.062	785.62
436.284	845.62
436.505	705.62
436.727	656.62
436.949	598.62
437.17	572.62
437.392	589.62
437.614	611.62
437.835	642.62
438.057	739.62
438.278	853.62
438.5	839.62
438.721	955.62
438.943	903.62
439.165	724.62
439.386	644.62
439.608	644.62
439.829	641.62
440.05	682.62
440.272	697.62
440.493	675.62
440.715	633.62
440.936	599.62
441.158	579.62
441.379	594.62
441.6	615.62
441.822	649.62
442.043	681.62
442.264	762.62
442.486	809.62
442.707	704.62
442.928	647.62
443.149	647.62
443.371	703.62
443.592	727.62
443.813	838.62
444.034	895.62
444.255	746.62
444.476	672.62
444.698	664.62
444.919	647.62
445.14	731.62
445.361	707.62
445.582	693.62
445.803	762.62
446.024	800.62
446.245	853.62
446.466	791.62
446.687	678.62
446.908	647.62
447.129	611.62
447.35	582.62
447.571	589.62
447.792	573.62
448.013	571.62
448.234	600.62
448.455	644.62
448.675	769.62
448.896	927.62
449.117	766.62
449.338	724.62
449.559	847.62
449.779	965.62
450	764.62
450.221	637.62
450.442	571.62
450.662	569.62
450.883	583.62
451.104	614.62
451.324	573.62
451.545	567.62
451.766	525.62
451.986	521.62
452.207	536.62
452.428	541.62
452.648	531.62
452.869	530.62
453.089	525.62
453.31	568.62
453.53	525.62
453.751	519.62
453.971	522.62
454.192	534.62
454.412	541.62
454.633	537.62
454.853	545.62
455.073	517.62
455.294	555.62
455.514	635.62
455.734	611.62
455.955	527.62
456.175	482.62
456.395	495.62
456.616	502.62
456.836	518.62
457.056	504.62
457.276	513.62
457.497	495.62
457.717	499.62
457.937	513.62
458.157	495.62
458.377	537.62
458.598	529.62
458.818	607.62
459.038	689.62
459.258	699.62
459.478	603.62
459.698	554.62
459.918	569.62
460.138	566.62
460.358	564.62
460.578	561.62
460.798	587.62
461.018	569.62
461.238	586.62
461.458	564.62
461.678	577.62
461.898	583.62
462.118	549.62
462.338	579.62
462.558	594.62
462.777	587.62
462.997	620.62
463.217	621.62
463.437	649.62
463.657	617.62
463.876	629.62
464.096	612.62
464.316	625.62
464.536	624.62
464.755	617.62
464.975	632.62
465.195	665.62
465.414	730.62
465.634	661.62
465.854	614.62
466.073	582.62
466.293	557.62
466.512	541.62
466.732	534.62
466.951	534.62
467.171	537.62
467.391	551.62
467.61	549.62
467.829	584.62
468.049	571.62
468.268	541.62
468.488	533.62
468.707	521.62
468.927	525.62
469.146	520.62
469.365	517.62
469.585	527.62
469.804	559.62
470.023	576.62
470.243	550.62
470.462	569.62
470.681	558.62
470.901	570.62
471.12	552.62
471.339	535.62
471.558	542.62
471.777	538.62
471.997	546.62
472.216	523.62
472.435	550.62
472.654	543.62
472.873	536.62
473.092	531.62
473.311	540.62
473.53	546.62
473.749	550.62
473.968	576.62
474.187	715.62
474.406	731.62
474.625	630.62
474.844	559.62
475.063	557.62
475.282	551.62
475.501	553.62
475.72	576.62
475.939	555.62
476.158	547.62
476.377	567.62
476.596	568.62
476.814	590.62
477.033	577.62
477.252	591.62
477.471	578.62
477.69	591.62
477.908	585.62
478.127	595.62
478.346	604.62
478.564	614.62
478.783	587.62
479.002	608.62
479.22	624.62
479.439	650.62
479.658	635.62
479.876	683.62
480.095	678.62
480.313	681.62
480.532	700.62
480.751	665.62
480.969	685.62
481.188	681.62
481.406	688.62
481.624	678.62
481.843	652.62
482.061	643.62
482.28	639.62
482.498	630.62
482.717	652.62
482.935	624.62
483.153	643.62
483.372	669.62
483.59	643.62
483.808	645.62
484.027	617.62
484.245	655.62
484.463	643.62
484.681	672.62
484.9	651.62
485.118	639.62
485.336	680.62
485.554	676.62
485.772	665.62
485.99	704.62
486.209	656.62
486.427	679.62
486.645	689.62
486.863	714.62
487.081	706.62
487.299	686.62
487.517	681.62
487.735	673.62
487.953	688.62
488.171	715.62
488.389	711.62
488.607	680.62
488.825	703.62
489.043	701.62
489.261	715.62
489.479	689.62
489.696	717.62
489.914	694.62
490.132	724.62
490.35	724.62
490.568	730.62
490.786	707.62
491.003	744.62
491.221	747.62
491.439	772.62
491.657	766.62
491.874	773.62
492.092	773.62
492.31	776.62
492.527	771.62
492.745	778.62
492.963	759.62
493.18	815.62
493.398	809.62
493.615	822.62
493.833	814.62
494.05	802.62
494.268	794.62
494.485	841.62
494.703	800.62
494.92	807.62
495.138	797.62
495.355	801.62
495.573	804.62
495.79	819.62
496.008	835.62
496.225	822.62
496.442	825.62
496.66	833.62
496.877	827.62
497.094	845.62
497.312	845.62
497.529	867.62
497.746	866.62
497.963	878.62
498.181	895.62
498.398	909.62
498.615	931.62
498.832	963.62
499.049	958.62
499.267	979.62
499.484	995.62
499.701	1048.62
499.918	1075.62
500.135	1129.62
500.352	1180.62
500.569	1208.62
500.786	1196.62
501.003	1169.62
501.22	1171.62
501.437	1097.62
501.654	1040.62
501.871	1055.62
