Data from 1988.PennyLincolnUp.Lamp.En5.5.200Scan.071819.P2_HRD10591_17-19-00-971.txt Node
Date: Thu Jul 18 17:19:00 EDT 2019
User: cochatt
Spectrometer: HR+D1059
Trigger mode: 1
Integration Time (sec): 1.000000E-1
Scans to average: 1
Electric dark correction enabled: true
Nonlinearity correction enabled: false
Boxcar width: 0
XAxis mode: Wavelengths
Number of Pixels in Spectrum: 2048
>>>>>Begin Spectral Data<<<<<
223.165	-16.44
223.4	-16.44
223.635	-16.44
223.869	-7.44
224.104	-21.44
224.338	-7.44
224.573	-10.44
224.808	-9.44
225.042	-9.44
225.277	-11.44
225.511	-20.44
225.746	14.56
225.98	9.56
226.215	-0.44
226.449	15.56
226.683	22.56
226.918	20.56
227.152	31.56
227.387	30.56
227.621	42.56
227.856	43.56
228.09	43.56
228.324	55.56
228.559	69.56
228.793	66.56
229.027	91.56
229.262	95.56
229.496	104.56
229.73	131.56
229.964	152.56
230.199	142.56
230.433	119.56
230.667	108.56
230.901	108.56
231.136	105.56
231.37	111.56
231.604	115.56
231.838	121.56
232.072	110.56
232.306	106.56
232.541	111.56
232.775	108.56
233.009	114.56
233.243	97.56
233.477	108.56
233.711	107.56
233.945	119.56
234.179	98.56
234.413	132.56
234.647	112.56
234.881	108.56
235.115	133.56
235.349	130.56
235.583	120.56
235.817	117.56
236.051	127.56
236.285	128.56
236.519	118.56
236.753	126.56
236.987	127.56
237.221	176.56
237.455	227.56
237.689	180.56
237.922	138.56
238.156	138.56
238.39	139.56
238.624	136.56
238.858	107.56
239.091	118.56
239.325	122.56
239.559	111.56
239.793	128.56
240.027	128.56
240.26	134.56
240.494	155.56
240.728	154.56
240.961	144.56
241.195	144.56
241.429	131.56
241.662	138.56
241.896	124.56
242.13	131.56
242.363	134.56
242.597	143.56
242.83	150.56
243.064	149.56
243.298	148.56
243.531	138.56
243.765	128.56
243.998	152.56
244.232	141.56
244.465	150.56
244.699	150.56
244.932	151.56
245.166	146.56
245.399	146.56
245.633	129.56
245.866	142.56
246.099	136.56
246.333	151.56
246.566	148.56
246.8	160.56
247.033	163.56
247.266	157.56
247.5	154.56
247.733	167.56
247.966	150.56
248.2	150.56
248.433	176.56
248.666	173.56
248.899	187.56
249.133	175.56
249.366	207.56
249.599	201.56
249.832	165.56
250.066	185.56
250.299	175.56
250.532	167.56
250.765	196.56
250.998	204.56
251.231	209.56
251.465	196.56
251.698	203.56
251.931	200.56
252.164	189.56
252.397	203.56
252.63	202.56
252.863	199.56
253.096	199.56
253.329	211.56
253.562	199.56
253.795	213.56
254.028	202.56
254.261	191.56
254.494	226.56
254.727	246.56
254.96	270.56
255.193	248.56
255.426	223.56
255.659	228.56
255.892	230.56
256.124	215.56
256.357	192.56
256.59	208.56
256.823	203.56
257.056	205.56
257.289	195.56
257.521	213.56
257.754	208.56
257.987	199.56
258.22	211.56
258.452	192.56
258.685	211.56
258.918	202.56
259.151	193.56
259.383	209.56
259.616	206.56
259.849	225.56
260.081	222.56
260.314	227.56
260.547	262.56
260.779	246.56
261.012	219.56
261.244	238.56
261.477	218.56
261.71	206.56
261.942	211.56
262.175	236.56
262.407	214.56
262.64	207.56
262.872	208.56
263.105	201.56
263.337	191.56
263.57	208.56
263.802	216.56
264.035	206.56
264.267	196.56
264.499	205.56
264.732	217.56
264.964	205.56
265.197	231.56
265.429	236.56
265.661	213.56
265.894	216.56
266.126	204.56
266.358	223.56
266.591	207.56
266.823	219.56
267.055	229.56
267.287	231.56
267.52	216.56
267.752	214.56
267.984	214.56
268.216	220.56
268.448	223.56
268.681	230.56
268.913	232.56
269.145	247.56
269.377	263.56
269.609	254.56
269.841	248.56
270.073	266.56
270.306	271.56
270.538	288.56
270.77	282.56
271.002	290.56
271.234	288.56
271.466	290.56
271.698	312.56
271.93	285.56
272.162	299.56
272.394	304.56
272.626	289.56
272.858	280.56
273.09	261.56
273.322	269.56
273.553	266.56
273.785	244.56
274.017	242.56
274.249	259.56
274.481	250.56
274.713	262.56
274.945	269.56
275.176	249.56
275.408	265.56
275.64	260.56
275.872	268.56
276.104	270.56
276.335	268.56
276.567	285.56
276.799	296.56
277.031	295.56
277.262	307.56
277.494	309.56
277.726	291.56
277.957	292.56
278.189	265.56
278.421	271.56
278.652	251.56
278.884	254.56
279.115	254.56
279.347	267.56
279.579	252.56
279.81	283.56
280.042	258.56
280.273	260.56
280.505	279.56
280.736	275.56
280.968	278.56
281.199	283.56
281.431	268.56
281.662	266.56
281.894	267.56
282.125	270.56
282.356	278.56
282.588	306.56
282.819	288.56
283.051	287.56
283.282	258.56
283.513	260.56
283.745	286.56
283.976	273.56
284.207	287.56
284.439	271.56
284.67	267.56
284.901	279.56
285.132	274.56
285.364	274.56
285.595	277.56
285.826	281.56
286.057	275.56
286.288	266.56
286.52	275.56
286.751	262.56
286.982	265.56
287.213	262.56
287.444	273.56
287.675	291.56
287.906	302.56
288.138	274.56
288.369	303.56
288.6	299.56
288.831	322.56
289.062	284.56
289.293	284.56
289.524	283.56
289.755	292.56
289.986	279.56
290.217	282.56
290.448	298.56
290.679	286.56
290.91	270.56
291.141	287.56
291.371	290.56
291.602	283.56
291.833	270.56
292.064	286.56
292.295	283.56
292.526	306.56
292.757	295.56
292.987	284.56
293.218	291.56
293.449	274.56
293.68	280.56
293.91	306.56
294.141	286.56
294.372	296.56
294.603	289.56
294.833	280.56
295.064	286.56
295.295	283.56
295.525	272.56
295.756	293.56
295.987	301.56
296.217	314.56
296.448	325.56
296.679	290.56
296.909	278.56
297.14	299.56
297.37	311.56
297.601	303.56
297.831	317.56
298.062	293.56
298.292	296.56
298.523	301.56
298.753	313.56
298.984	302.56
299.214	290.56
299.445	326.56
299.675	316.56
299.905	326.56
300.136	320.56
300.366	315.56
300.597	304.56
300.827	296.56
301.057	331.56
301.288	311.56
301.518	334.56
301.748	320.56
301.979	334.56
302.209	314.56
302.439	334.56
302.669	340.56
302.9	318.56
303.13	308.56
303.36	325.56
303.59	328.56
303.82	340.56
304.051	335.56
304.281	345.56
304.511	319.56
304.741	327.56
304.971	312.56
305.201	331.56
305.431	340.56
305.661	341.56
305.891	326.56
306.121	328.56
306.352	356.56
306.582	348.56
306.812	340.56
307.042	326.56
307.272	335.56
307.502	336.56
307.731	350.56
307.961	339.56
308.191	344.56
308.421	341.56
308.651	345.56
308.881	348.56
309.111	344.56
309.341	357.56
309.571	340.56
309.8	360.56
310.03	361.56
310.26	360.56
310.49	369.56
310.72	396.56
310.949	394.56
311.179	404.56
311.409	380.56
311.639	379.56
311.868	374.56
312.098	342.56
312.328	385.56
312.557	383.56
312.787	411.56
313.017	418.56
313.246	390.56
313.476	364.56
313.706	365.56
313.935	372.56
314.165	404.56
314.394	402.56
314.624	404.56
314.853	382.56
315.083	383.56
315.312	395.56
315.542	375.56
315.771	358.56
316.001	359.56
316.23	375.56
316.46	384.56
316.689	374.56
316.919	393.56
317.148	406.56
317.377	386.56
317.607	398.56
317.836	392.56
318.065	372.56
318.295	380.56
318.524	367.56
318.753	367.56
318.983	383.56
319.212	375.56
319.441	391.56
319.67	392.56
319.9	385.56
320.129	404.56
320.358	390.56
320.587	391.56
320.816	399.56
321.046	426.56
321.275	396.56
321.504	405.56
321.733	412.56
321.962	409.56
322.191	421.56
322.42	430.56
322.649	417.56
322.878	444.56
323.108	470.56
323.337	461.56
323.566	522.56
323.795	537.56
324.024	580.56
324.253	676.56
324.482	977.56
324.71	1506.56
324.939	2123.56
325.168	1856.56
325.397	963.56
325.626	658.56
325.855	556.56
326.084	532.56
326.313	508.56
326.542	521.56
326.77	564.56
326.999	634.56
327.228	838.56
327.457	1333.56
327.686	1588.56
327.914	1038.56
328.143	720.56
328.372	618.56
328.6	566.56
328.829	546.56
329.058	546.56
329.287	580.56
329.515	566.56
329.744	501.56
329.972	501.56
330.201	490.56
330.43	532.56
330.658	549.56
330.887	608.56
331.115	584.56
331.344	525.56
331.572	486.56
331.801	504.56
332.03	501.56
332.258	469.56
332.486	453.56
332.715	448.56
332.943	455.56
333.172	462.56
333.4	462.56
333.629	451.56
333.857	468.56
334.085	455.56
334.314	443.56
334.542	457.56
334.771	460.56
334.999	464.56
335.227	469.56
335.455	431.56
335.684	450.56
335.912	464.56
336.14	435.56
336.369	435.56
336.597	442.56
336.825	453.56
337.053	440.56
337.281	424.56
337.51	451.56
337.738	444.56
337.966	448.56
338.194	442.56
338.422	439.56
338.65	442.56
338.878	424.56
339.106	438.56
339.334	421.56
339.562	418.56
339.79	426.56
340.018	435.56
340.246	434.56
340.474	448.56
340.702	440.56
340.93	425.56
341.158	434.56
341.386	431.56
341.614	444.56
341.842	436.56
342.07	422.56
342.298	430.56
342.526	427.56
342.754	413.56
342.981	414.56
343.209	432.56
343.437	431.56
343.665	442.56
343.893	440.56
344.12	444.56
344.348	446.56
344.576	442.56
344.804	451.56
345.031	450.56
345.259	446.56
345.487	450.56
345.714	432.56
345.942	423.56
346.17	421.56
346.397	422.56
346.625	430.56
346.853	427.56
347.08	427.56
347.308	421.56
347.535	416.56
347.763	434.56
347.99	419.56
348.218	415.56
348.445	441.56
348.673	441.56
348.9	431.56
349.128	398.56
349.355	399.56
349.583	427.56
349.81	420.56
350.037	408.56
350.265	399.56
350.492	404.56
350.72	419.56
350.947	414.56
351.174	401.56
351.402	431.56
351.629	427.56
351.856	432.56
352.083	428.56
352.311	448.56
352.538	429.56
352.765	422.56
352.992	413.56
353.22	443.56
353.447	430.56
353.674	429.56
353.901	406.56
354.128	394.56
354.355	395.56
354.583	398.56
354.81	402.56
355.037	409.56
355.264	395.56
355.491	395.56
355.718	401.56
355.945	402.56
356.172	383.56
356.399	397.56
356.626	402.56
356.853	392.56
357.08	399.56
357.307	392.56
357.534	381.56
357.761	392.56
357.988	388.56
358.215	390.56
358.441	399.56
358.668	408.56
358.895	409.56
359.122	415.56
359.349	398.56
359.576	412.56
359.802	448.56
360.029	454.56
360.256	463.56
360.483	456.56
360.709	431.56
360.936	432.56
361.163	422.56
361.39	426.56
361.616	411.56
361.843	424.56
362.07	430.56
362.296	431.56
362.523	426.56
362.749	424.56
362.976	411.56
363.203	423.56
363.429	412.56
363.656	402.56
363.882	412.56
364.109	392.56
364.335	412.56
364.562	394.56
364.788	402.56
365.015	410.56
365.241	392.56
365.468	425.56
365.694	422.56
365.92	405.56
366.147	404.56
366.373	381.56
366.599	397.56
366.826	409.56
367.052	394.56
367.278	391.56
367.505	414.56
367.731	394.56
367.957	394.56
368.184	400.56
368.41	401.56
368.636	419.56
368.862	413.56
369.089	410.56
369.315	415.56
369.541	397.56
369.767	416.56
369.993	415.56
370.219	407.56
370.445	419.56
370.672	403.56
370.898	379.56
371.124	392.56
371.35	418.56
371.576	401.56
371.802	404.56
372.028	391.56
372.254	402.56
372.48	392.56
372.706	401.56
372.932	421.56
373.158	416.56
373.384	410.56
373.61	385.56
373.835	428.56
374.061	400.56
374.287	406.56
374.513	418.56
374.739	398.56
374.965	397.56
375.191	419.56
375.416	410.56
375.642	421.56
375.868	421.56
376.094	397.56
376.319	387.56
376.545	390.56
376.771	404.56
376.997	398.56
377.222	403.56
377.448	391.56
377.674	400.56
377.899	397.56
378.125	408.56
378.35	424.56
378.576	397.56
378.802	394.56
379.027	398.56
379.253	392.56
379.478	387.56
379.704	378.56
379.929	394.56
380.155	400.56
380.38	414.56
380.606	410.56
380.831	406.56
381.057	404.56
381.282	399.56
381.507	397.56
381.733	402.56
381.958	384.56
382.184	408.56
382.409	426.56
382.634	418.56
382.86	395.56
383.085	414.56
383.31	419.56
383.535	426.56
383.761	412.56
383.986	422.56
384.211	434.56
384.436	429.56
384.662	434.56
384.887	422.56
385.112	423.56
385.337	427.56
385.562	440.56
385.787	414.56
386.013	445.56
386.238	468.56
386.463	438.56
386.688	440.56
386.913	436.56
387.138	455.56
387.363	464.56
387.588	459.56
387.813	458.56
388.038	450.56
388.263	453.56
388.488	459.56
388.713	458.56
388.938	433.56
389.163	440.56
389.387	451.56
389.612	413.56
389.837	436.56
390.062	446.56
390.287	443.56
390.512	440.56
390.736	449.56
390.961	444.56
391.186	436.56
391.411	450.56
391.636	465.56
391.86	475.56
392.085	462.56
392.31	457.56
392.534	435.56
392.759	482.56
392.984	456.56
393.208	460.56
393.433	469.56
393.658	453.56
393.882	457.56
394.107	442.56
394.331	458.56
394.556	454.56
394.78	440.56
395.005	471.56
395.229	476.56
395.454	489.56
395.678	483.56
395.903	473.56
396.127	484.56
396.352	512.56
396.576	470.56
396.801	468.56
397.025	476.56
397.249	493.56
397.474	478.56
397.698	487.56
397.922	505.56
398.147	518.56
398.371	505.56
398.595	519.56
398.82	520.56
399.044	521.56
399.268	541.56
399.492	566.56
399.717	609.56
399.941	597.56
400.165	632.56
400.389	629.56
400.613	589.56
400.837	527.56
401.062	527.56
401.286	519.56
401.51	527.56
401.734	506.56
401.958	523.56
402.182	517.56
402.406	510.56
402.63	523.56
402.854	515.56
403.078	528.56
403.302	527.56
403.526	524.56
403.75	519.56
403.974	527.56
404.198	522.56
404.422	528.56
404.645	552.56
404.869	532.56
405.093	553.56
405.317	589.56
405.541	609.56
405.765	542.56
405.988	549.56
406.212	550.56
406.436	567.56
406.66	615.56
406.883	586.56
407.107	620.56
407.331	636.56
407.555	694.56
407.778	712.56
408.002	626.56
408.226	600.56
408.449	599.56
408.673	584.56
408.896	634.56
409.12	636.56
409.344	635.56
409.567	575.56
409.791	536.56
410.014	532.56
410.238	529.56
410.461	536.56
410.685	524.56
410.908	531.56
411.132	578.56
411.355	613.56
411.578	599.56
411.802	557.56
412.025	503.56
412.249	512.56
412.472	512.56
412.695	515.56
412.919	534.56
413.142	502.56
413.365	519.56
413.589	502.56
413.812	487.56
414.035	512.56
414.258	503.56
414.482	502.56
414.705	502.56
414.928	508.56
415.151	494.56
415.374	502.56
415.597	495.56
415.821	512.56
416.044	491.56
416.267	512.56
416.49	500.56
416.713	486.56
416.936	491.56
417.159	515.56
417.382	501.56
417.605	512.56
417.828	506.56
418.051	512.56
418.274	511.56
418.497	505.56
418.72	503.56
418.943	492.56
419.166	526.56
419.389	518.56
419.611	535.56
419.834	522.56
420.057	527.56
420.28	521.56
420.503	510.56
420.726	528.56
420.948	545.56
421.171	576.56
421.394	598.56
421.617	550.56
421.839	519.56
422.062	519.56
422.285	523.56
422.507	570.56
422.73	667.56
422.953	639.56
423.175	559.56
423.398	556.56
423.621	547.56
423.843	547.56
424.066	570.56
424.288	561.56
424.511	585.56
424.733	606.56
424.956	695.56
425.178	694.56
425.401	691.56
425.623	727.56
425.846	612.56
426.068	576.56
426.291	550.56
426.513	571.56
426.735	564.56
426.958	608.56
427.18	705.56
427.402	792.56
427.625	913.56
427.847	782.56
428.069	633.56
428.292	570.56
428.514	550.56
428.736	549.56
428.958	539.56
429.181	539.56
429.403	523.56
429.625	534.56
429.847	572.56
430.069	606.56
430.292	632.56
430.514	533.56
430.736	544.56
430.958	492.56
431.18	495.56
431.402	491.56
431.624	479.56
431.846	486.56
432.068	474.56
432.29	484.56
432.512	485.56
432.734	491.56
432.956	511.56
433.178	526.56
433.4	499.56
433.622	504.56
433.844	505.56
434.066	490.56
434.287	494.56
434.509	494.56
434.731	507.56
434.953	506.56
435.175	526.56
435.397	552.56
435.618	560.56
435.84	622.56
436.062	704.56
436.284	754.56
436.505	632.56
436.727	590.56
436.949	547.56
437.17	516.56
437.392	514.56
437.614	539.56
437.835	552.56
438.057	680.56
438.278	762.56
438.5	765.56
438.721	834.56
438.943	807.56
439.165	639.56
439.386	581.56
439.608	543.56
439.829	580.56
440.05	618.56
440.272	628.56
440.493	608.56
440.715	555.56
440.936	544.56
441.158	529.56
441.379	514.56
441.6	538.56
441.822	582.56
442.043	594.56
442.264	670.56
442.486	721.56
442.707	610.56
442.928	610.56
443.149	576.56
443.371	586.56
443.592	654.56
443.813	722.56
444.034	796.56
444.255	651.56
444.476	595.56
444.698	587.56
444.919	573.56
445.14	660.56
445.361	624.56
445.582	628.56
445.803	670.56
446.024	759.56
446.245	767.56
446.466	709.56
446.687	621.56
446.908	574.56
447.129	543.56
447.35	528.56
447.571	527.56
447.792	509.56
448.013	511.56
448.234	541.56
448.455	596.56
448.675	700.56
448.896	822.56
449.117	678.56
449.338	631.56
449.559	790.56
449.779	867.56
450	704.56
450.221	590.56
450.442	520.56
450.662	521.56
450.883	528.56
451.104	528.56
451.324	543.56
451.545	496.56
451.766	503.56
451.986	481.56
452.207	461.56
452.428	458.56
452.648	472.56
452.869	470.56
453.089	455.56
453.31	487.56
453.53	477.56
453.751	456.56
453.971	484.56
454.192	491.56
454.412	482.56
454.633	468.56
454.853	467.56
455.073	475.56
455.294	487.56
455.514	533.56
455.734	511.56
455.955	484.56
456.175	445.56
456.395	457.56
456.616	450.56
456.836	439.56
457.056	442.56
457.276	427.56
457.497	455.56
457.717	438.56
457.937	446.56
458.157	458.56
458.377	475.56
458.598	487.56
458.818	516.56
459.038	616.56
459.258	626.56
459.478	547.56
459.698	505.56
459.918	502.56
460.138	507.56
460.358	502.56
460.578	529.56
460.798	519.56
461.018	520.56
461.238	500.56
461.458	522.56
461.678	519.56
461.898	496.56
462.118	518.56
462.338	529.56
462.558	546.56
462.777	520.56
462.997	546.56
463.217	559.56
463.437	564.56
463.657	572.56
463.876	532.56
464.096	550.56
464.316	518.56
464.536	552.56
464.755	544.56
464.975	554.56
465.195	581.56
465.414	642.56
465.634	572.56
465.854	545.56
466.073	523.56
466.293	507.56
466.512	504.56
466.732	489.56
466.951	474.56
467.171	490.56
467.391	506.56
467.61	498.56
467.829	482.56
468.049	482.56
468.268	479.56
468.488	460.56
468.707	502.56
468.927	456.56
469.146	451.56
469.365	485.56
469.585	474.56
469.804	462.56
470.023	480.56
470.243	499.56
470.462	508.56
470.681	502.56
470.901	514.56
471.12	483.56
471.339	502.56
471.558	500.56
471.777	495.56
471.997	493.56
472.216	490.56
472.435	472.56
472.654	462.56
472.873	481.56
473.092	493.56
473.311	498.56
473.53	467.56
473.749	489.56
473.968	533.56
474.187	644.56
474.406	632.56
474.625	547.56
474.844	502.56
475.063	502.56
475.282	493.56
475.501	499.56
475.72	490.56
475.939	502.56
476.158	496.56
476.377	504.56
476.596	509.56
476.814	521.56
477.033	526.56
477.252	543.56
477.471	524.56
477.69	538.56
477.908	541.56
478.127	533.56
478.346	546.56
478.564	538.56
478.783	510.56
479.002	561.56
479.22	552.56
479.439	571.56
479.658	590.56
479.876	590.56
480.095	581.56
480.313	628.56
480.532	600.56
480.751	584.56
480.969	588.56
481.188	605.56
481.406	598.56
481.624	594.56
481.843	582.56
482.061	568.56
482.28	566.56
482.498	580.56
482.717	567.56
482.935	589.56
483.153	564.56
483.372	559.56
483.59	557.56
483.808	578.56
484.027	575.56
484.245	580.56
484.463	586.56
484.681	600.56
484.9	585.56
485.118	589.56
485.336	597.56
485.554	605.56
485.772	582.56
485.99	598.56
486.209	600.56
486.427	594.56
486.645	611.56
486.863	605.56
487.081	625.56
487.299	628.56
487.517	615.56
487.735	602.56
487.953	613.56
488.171	633.56
488.389	600.56
488.607	642.56
488.825	603.56
489.043	593.56
489.261	620.56
489.479	612.56
489.696	618.56
489.914	631.56
490.132	606.56
490.35	619.56
490.568	638.56
490.786	630.56
491.003	649.56
491.221	670.56
491.439	666.56
491.657	668.56
491.874	656.56
492.092	682.56
492.31	693.56
492.527	696.56
492.745	691.56
492.963	676.56
493.18	680.56
493.398	674.56
493.615	716.56
493.833	709.56
494.05	703.56
494.268	709.56
494.485	687.56
494.703	706.56
494.92	718.56
495.138	717.56
495.355	737.56
495.573	701.56
495.79	695.56
496.008	702.56
496.225	703.56
496.442	707.56
496.66	739.56
496.877	735.56
497.094	728.56
497.312	733.56
497.529	756.56
497.746	772.56
497.963	783.56
498.181	785.56
498.398	794.56
498.615	810.56
498.832	848.56
499.049	824.56
499.267	865.56
499.484	896.56
499.701	910.56
499.918	937.56
500.135	984.56
500.352	1018.56
500.569	1016.56
500.786	1054.56
501.003	1028.56
501.22	984.56
501.437	973.56
501.654	957.56
501.871	942.56
