Data from 1988.PennyLincolnUp.Lamp.En5.5.200Scan.071819.P2_HRD10591_17-19-01-971.txt Node
Date: Thu Jul 18 17:19:01 EDT 2019
User: cochatt
Spectrometer: HR+D1059
Trigger mode: 1
Integration Time (sec): 1.000000E-1
Scans to average: 1
Electric dark correction enabled: true
Nonlinearity correction enabled: false
Boxcar width: 0
XAxis mode: Wavelengths
Number of Pixels in Spectrum: 2048
>>>>>Begin Spectral Data<<<<<
223.165	-15.88
223.4	-15.88
223.635	-15.88
223.869	-27.88
224.104	-26.88
224.338	-13.88
224.573	9.12
224.808	-10.88
225.042	6.12
225.277	-4.88
225.511	3.12
225.746	6.12
225.98	1.12
226.215	15.12
226.449	11.12
226.683	19.12
226.918	13.12
227.152	16.12
227.387	16.12
227.621	44.12
227.856	48.12
228.09	40.12
228.324	50.12
228.559	49.12
228.793	63.12
229.027	86.12
229.262	102.12
229.496	99.12
229.73	138.12
229.964	132.12
230.199	120.12
230.433	115.12
230.667	120.12
230.901	105.12
231.136	108.12
231.37	113.12
231.604	101.12
231.838	116.12
232.072	114.12
232.306	108.12
232.541	97.12
232.775	107.12
233.009	118.12
233.243	96.12
233.477	107.12
233.711	119.12
233.945	102.12
234.179	103.12
234.413	108.12
234.647	111.12
234.881	121.12
235.115	112.12
235.349	115.12
235.583	100.12
235.817	108.12
236.051	111.12
236.285	136.12
236.519	118.12
236.753	130.12
236.987	127.12
237.221	172.12
237.455	217.12
237.689	168.12
237.922	134.12
238.156	134.12
238.39	134.12
238.624	132.12
238.858	125.12
239.091	132.12
239.325	111.12
239.559	122.12
239.793	116.12
240.027	141.12
240.26	146.12
240.494	137.12
240.728	146.12
240.961	138.12
241.195	135.12
241.429	128.12
241.662	125.12
241.896	132.12
242.13	135.12
242.363	127.12
242.597	120.12
242.83	124.12
243.064	130.12
243.298	136.12
243.531	135.12
243.765	138.12
243.998	141.12
244.232	138.12
244.465	141.12
244.699	138.12
244.932	144.12
245.166	135.12
245.399	140.12
245.633	157.12
245.866	144.12
246.099	155.12
246.333	135.12
246.566	135.12
246.8	135.12
247.033	161.12
247.266	144.12
247.5	154.12
247.733	159.12
247.966	147.12
248.2	174.12
248.433	164.12
248.666	156.12
248.899	172.12
249.133	183.12
249.366	185.12
249.599	183.12
249.832	178.12
250.066	175.12
250.299	170.12
250.532	182.12
250.765	178.12
250.998	202.12
251.231	220.12
251.465	195.12
251.698	171.12
251.931	171.12
252.164	172.12
252.397	166.12
252.63	193.12
252.863	181.12
253.096	197.12
253.329	208.12
253.562	216.12
253.795	197.12
254.028	211.12
254.261	183.12
254.494	222.12
254.727	219.12
254.96	253.12
255.193	244.12
255.426	222.12
255.659	211.12
255.892	218.12
256.124	184.12
256.357	192.12
256.59	201.12
256.823	196.12
257.056	183.12
257.289	188.12
257.521	199.12
257.754	188.12
257.987	188.12
258.22	187.12
258.452	200.12
258.685	200.12
258.918	194.12
259.151	208.12
259.383	205.12
259.616	192.12
259.849	222.12
260.081	230.12
260.314	256.12
260.547	228.12
260.779	239.12
261.012	230.12
261.244	212.12
261.477	208.12
261.71	218.12
261.942	199.12
262.175	205.12
262.407	223.12
262.64	190.12
262.872	203.12
263.105	210.12
263.337	201.12
263.57	208.12
263.802	207.12
264.035	220.12
264.267	215.12
264.499	202.12
264.732	208.12
264.964	202.12
265.197	212.12
265.429	203.12
265.661	196.12
265.894	201.12
266.126	210.12
266.358	211.12
266.591	216.12
266.823	199.12
267.055	210.12
267.287	210.12
267.52	222.12
267.752	215.12
267.984	210.12
268.216	225.12
268.448	218.12
268.681	230.12
268.913	228.12
269.145	241.12
269.377	267.12
269.609	248.12
269.841	256.12
270.073	248.12
270.306	261.12
270.538	269.12
270.77	295.12
271.002	283.12
271.234	294.12
271.466	284.12
271.698	294.12
271.93	278.12
272.162	304.12
272.394	320.12
272.626	297.12
272.858	267.12
273.09	274.12
273.322	258.12
273.553	244.12
273.785	260.12
274.017	238.12
274.249	254.12
274.481	243.12
274.713	254.12
274.945	248.12
275.176	256.12
275.408	256.12
275.64	258.12
275.872	256.12
276.104	256.12
276.335	270.12
276.567	260.12
276.799	268.12
277.031	296.12
277.262	279.12
277.494	283.12
277.726	285.12
277.957	278.12
278.189	266.12
278.421	256.12
278.652	267.12
278.884	253.12
279.115	274.12
279.347	254.12
279.579	261.12
279.81	244.12
280.042	266.12
280.273	259.12
280.505	243.12
280.736	253.12
280.968	257.12
281.199	262.12
281.431	271.12
281.662	250.12
281.894	262.12
282.125	268.12
282.356	287.12
282.588	294.12
282.819	293.12
283.051	286.12
283.282	265.12
283.513	264.12
283.745	276.12
283.976	270.12
284.207	276.12
284.439	283.12
284.67	282.12
284.901	270.12
285.132	283.12
285.364	254.12
285.595	280.12
285.826	270.12
286.057	256.12
286.288	275.12
286.52	283.12
286.751	271.12
286.982	283.12
287.213	263.12
287.444	270.12
287.675	276.12
287.906	269.12
288.138	288.12
288.369	296.12
288.6	298.12
288.831	288.12
289.062	287.12
289.293	282.12
289.524	303.12
289.755	284.12
289.986	275.12
290.217	295.12
290.448	281.12
290.679	284.12
290.91	288.12
291.141	280.12
291.371	281.12
291.602	271.12
291.833	288.12
292.064	282.12
292.295	302.12
292.526	282.12
292.757	270.12
292.987	291.12
293.218	297.12
293.449	296.12
293.68	297.12
293.91	292.12
294.141	287.12
294.372	277.12
294.603	280.12
294.833	288.12
295.064	291.12
295.295	286.12
295.525	292.12
295.756	290.12
295.987	322.12
296.217	297.12
296.448	312.12
296.679	300.12
296.909	304.12
297.14	301.12
297.37	290.12
297.601	323.12
297.831	289.12
298.062	296.12
298.292	318.12
298.523	313.12
298.753	320.12
298.984	300.12
299.214	305.12
299.445	292.12
299.675	311.12
299.905	307.12
300.136	311.12
300.366	335.12
300.597	314.12
300.827	300.12
301.057	332.12
301.288	330.12
301.518	338.12
301.748	315.12
301.979	328.12
302.209	304.12
302.439	336.12
302.669	311.12
302.9	315.12
303.13	314.12
303.36	324.12
303.59	338.12
303.82	337.12
304.051	320.12
304.281	329.12
304.511	321.12
304.741	330.12
304.971	303.12
305.201	342.12
305.431	315.12
305.661	342.12
305.891	319.12
306.121	328.12
306.352	330.12
306.582	329.12
306.812	333.12
307.042	337.12
307.272	330.12
307.502	328.12
307.731	330.12
307.961	340.12
308.191	330.12
308.421	340.12
308.651	329.12
308.881	329.12
309.111	338.12
309.341	357.12
309.571	337.12
309.8	355.12
310.03	362.12
310.26	374.12
310.49	366.12
310.72	361.12
310.949	388.12
311.179	368.12
311.409	386.12
311.639	396.12
311.868	357.12
312.098	380.12
312.328	385.12
312.557	384.12
312.787	376.12
313.017	408.12
313.246	375.12
313.476	380.12
313.706	379.12
313.935	392.12
314.165	388.12
314.394	405.12
314.624	408.12
314.853	395.12
315.083	383.12
315.312	375.12
315.542	356.12
315.771	388.12
316.001	369.12
316.23	355.12
316.46	362.12
316.689	374.12
316.919	368.12
317.148	392.12
317.377	381.12
317.607	371.12
317.836	375.12
318.065	398.12
318.295	367.12
318.524	377.12
318.753	382.12
318.983	382.12
319.212	379.12
319.441	383.12
319.67	397.12
319.9	386.12
320.129	380.12
320.358	370.12
320.587	394.12
320.816	406.12
321.046	402.12
321.275	410.12
321.504	417.12
321.733	406.12
321.962	430.12
322.191	416.12
322.42	418.12
322.649	421.12
322.878	455.12
323.108	459.12
323.337	482.12
323.566	496.12
323.795	502.12
324.024	566.12
324.253	683.12
324.482	942.12
324.71	1472.12
324.939	2102.12
325.168	1863.12
325.397	996.12
325.626	664.12
325.855	550.12
326.084	506.12
326.313	497.12
326.542	490.12
326.77	539.12
326.999	642.12
327.228	882.12
327.457	1296.12
327.686	1554.12
327.914	1052.12
328.143	698.12
328.372	622.12
328.6	574.12
328.829	550.12
329.058	554.12
329.287	558.12
329.515	534.12
329.744	493.12
329.972	474.12
330.201	477.12
330.43	499.12
330.658	532.12
330.887	569.12
331.115	566.12
331.344	504.12
331.572	458.12
331.801	509.12
332.03	498.12
332.258	472.12
332.486	459.12
332.715	448.12
332.943	443.12
333.172	451.12
333.4	453.12
333.629	471.12
333.857	486.12
334.085	460.12
334.314	469.12
334.542	456.12
334.771	461.12
334.999	451.12
335.227	457.12
335.455	440.12
335.684	462.12
335.912	438.12
336.14	431.12
336.369	447.12
336.597	466.12
336.825	456.12
337.053	451.12
337.281	440.12
337.51	430.12
337.738	427.12
337.966	436.12
338.194	445.12
338.422	435.12
338.65	421.12
338.878	451.12
339.106	440.12
339.334	438.12
339.562	420.12
339.79	408.12
340.018	419.12
340.246	432.12
340.474	428.12
340.702	437.12
340.93	446.12
341.158	430.12
341.386	408.12
341.614	422.12
341.842	434.12
342.07	427.12
342.298	425.12
342.526	431.12
342.754	409.12
342.981	396.12
343.209	399.12
343.437	436.12
343.665	425.12
343.893	458.12
344.12	454.12
344.348	458.12
344.576	449.12
344.804	452.12
345.031	456.12
345.259	450.12
345.487	441.12
345.714	423.12
345.942	430.12
346.17	427.12
346.397	415.12
346.625	433.12
346.853	421.12
347.08	421.12
347.308	427.12
347.535	436.12
347.763	444.12
347.99	416.12
348.218	423.12
348.445	438.12
348.673	407.12
348.9	424.12
349.128	416.12
349.355	407.12
349.583	397.12
349.81	422.12
350.037	387.12
350.265	409.12
350.492	411.12
350.72	409.12
350.947	427.12
351.174	432.12
351.402	413.12
351.629	442.12
351.856	409.12
352.083	433.12
352.311	439.12
352.538	444.12
352.765	423.12
352.992	398.12
353.22	415.12
353.447	430.12
353.674	420.12
353.901	409.12
354.128	406.12
354.355	406.12
354.583	400.12
354.81	385.12
355.037	384.12
355.264	400.12
355.491	400.12
355.718	394.12
355.945	382.12
356.172	387.12
356.399	374.12
356.626	363.12
356.853	374.12
357.08	401.12
357.307	390.12
357.534	386.12
357.761	405.12
357.988	396.12
358.215	381.12
358.441	382.12
358.668	387.12
358.895	398.12
359.122	384.12
359.349	397.12
359.576	413.12
359.802	408.12
360.029	457.12
360.256	479.12
360.483	438.12
360.709	414.12
360.936	407.12
361.163	417.12
361.39	426.12
361.616	418.12
361.843	406.12
362.07	415.12
362.296	402.12
362.523	418.12
362.749	424.12
362.976	394.12
363.203	395.12
363.429	392.12
363.656	419.12
363.882	404.12
364.109	410.12
364.335	405.12
364.562	378.12
364.788	395.12
365.015	401.12
365.241	378.12
365.468	399.12
365.694	416.12
365.92	408.12
366.147	383.12
366.373	396.12
366.599	383.12
366.826	402.12
367.052	383.12
367.278	389.12
367.505	379.12
367.731	400.12
367.957	396.12
368.184	400.12
368.41	389.12
368.636	421.12
368.862	418.12
369.089	396.12
369.315	395.12
369.541	397.12
369.767	384.12
369.993	410.12
370.219	404.12
370.445	404.12
370.672	404.12
370.898	401.12
371.124	417.12
371.35	414.12
371.576	404.12
371.802	375.12
372.028	386.12
372.254	385.12
372.48	405.12
372.706	395.12
372.932	422.12
373.158	399.12
373.384	403.12
373.61	426.12
373.835	404.12
374.061	393.12
374.287	408.12
374.513	390.12
374.739	423.12
374.965	427.12
375.191	407.12
375.416	403.12
375.642	382.12
375.868	407.12
376.094	414.12
376.319	400.12
376.545	393.12
376.771	414.12
376.997	401.12
377.222	399.12
377.448	385.12
377.674	402.12
377.899	404.12
378.125	383.12
378.35	410.12
378.576	385.12
378.802	411.12
379.027	409.12
379.253	397.12
379.478	391.12
379.704	405.12
379.929	413.12
380.155	424.12
380.38	417.12
380.606	408.12
380.831	421.12
381.057	409.12
381.282	414.12
381.507	417.12
381.733	391.12
381.958	403.12
382.184	406.12
382.409	431.12
382.634	413.12
382.86	403.12
383.085	423.12
383.31	433.12
383.535	414.12
383.761	404.12
383.986	420.12
384.211	424.12
384.436	416.12
384.662	428.12
384.887	436.12
385.112	423.12
385.337	441.12
385.562	424.12
385.787	427.12
386.013	449.12
386.238	448.12
386.463	443.12
386.688	445.12
386.913	435.12
387.138	445.12
387.363	436.12
387.588	471.12
387.813	440.12
388.038	432.12
388.263	438.12
388.488	446.12
388.713	451.12
388.938	447.12
389.163	425.12
389.387	432.12
389.612	438.12
389.837	445.12
390.062	440.12
390.287	444.12
390.512	433.12
390.736	431.12
390.961	419.12
391.186	438.12
391.411	455.12
391.636	459.12
391.86	449.12
392.085	461.12
392.31	454.12
392.534	476.12
392.759	457.12
392.984	442.12
393.208	430.12
393.433	455.12
393.658	451.12
393.882	451.12
394.107	457.12
394.331	430.12
394.556	450.12
394.78	447.12
395.005	454.12
395.229	448.12
395.454	467.12
395.678	448.12
395.903	476.12
396.127	514.12
396.352	504.12
396.576	468.12
396.801	470.12
397.025	479.12
397.249	461.12
397.474	479.12
397.698	488.12
397.922	471.12
398.147	489.12
398.371	510.12
398.595	495.12
398.82	504.12
399.044	503.12
399.268	514.12
399.492	565.12
399.717	607.12
399.941	628.12
400.165	634.12
400.389	628.12
400.613	581.12
400.837	552.12
401.062	533.12
401.286	511.12
401.51	491.12
401.734	507.12
401.958	501.12
402.182	517.12
402.406	538.12
402.63	520.12
402.854	559.12
403.078	529.12
403.302	532.12
403.526	543.12
403.75	512.12
403.974	505.12
404.198	538.12
404.422	529.12
404.645	532.12
404.869	534.12
405.093	538.12
405.317	574.12
405.541	577.12
405.765	587.12
405.988	532.12
406.212	562.12
406.436	560.12
406.66	591.12
406.883	574.12
407.107	619.12
407.331	628.12
407.555	691.12
407.778	714.12
408.002	645.12
408.226	592.12
408.449	601.12
408.673	592.12
408.896	617.12
409.12	644.12
409.344	622.12
409.567	569.12
409.791	569.12
410.014	527.12
410.238	530.12
410.461	537.12
410.685	533.12
410.908	549.12
411.132	588.12
411.355	615.12
411.578	594.12
411.802	538.12
412.025	520.12
412.249	524.12
412.472	545.12
412.695	540.12
412.919	537.12
413.142	505.12
413.365	502.12
413.589	513.12
413.812	491.12
414.035	498.12
414.258	510.12
414.482	490.12
414.705	485.12
414.928	484.12
415.151	484.12
415.374	509.12
415.597	518.12
415.821	489.12
416.044	479.12
416.267	497.12
416.49	489.12
416.713	479.12
416.936	500.12
417.159	480.12
417.382	514.12
417.605	515.12
417.828	512.12
418.051	507.12
418.274	516.12
418.497	490.12
418.72	498.12
418.943	490.12
419.166	507.12
419.389	536.12
419.611	528.12
419.834	498.12
420.057	524.12
420.28	540.12
420.503	512.12
420.726	497.12
420.948	532.12
421.171	563.12
421.394	585.12
421.617	531.12
421.839	522.12
422.062	510.12
422.285	521.12
422.507	580.12
422.73	656.12
422.953	619.12
423.175	552.12
423.398	553.12
423.621	531.12
423.843	559.12
424.066	567.12
424.288	566.12
424.511	582.12
424.733	634.12
424.956	695.12
425.178	696.12
425.401	658.12
425.623	699.12
425.846	645.12
426.068	569.12
426.291	566.12
426.513	578.12
426.735	542.12
426.958	606.12
427.18	681.12
427.402	806.12
427.625	920.12
427.847	772.12
428.069	678.12
428.292	593.12
428.514	541.12
428.736	542.12
428.958	540.12
429.181	545.12
429.403	530.12
429.625	544.12
429.847	550.12
430.069	622.12
430.292	616.12
430.514	524.12
430.736	532.12
430.958	519.12
431.18	506.12
431.402	494.12
431.624	472.12
431.846	480.12
432.068	464.12
432.29	492.12
432.512	489.12
432.734	502.12
432.956	496.12
433.178	511.12
433.4	506.12
433.622	495.12
433.844	514.12
434.066	475.12
434.287	499.12
434.509	488.12
434.731	488.12
434.953	518.12
435.175	532.12
435.397	554.12
435.618	555.12
435.84	585.12
436.062	678.12
436.284	781.12
436.505	634.12
436.727	582.12
436.949	530.12
437.17	501.12
437.392	522.12
437.614	542.12
437.835	563.12
438.057	659.12
438.278	751.12
438.5	764.12
438.721	840.12
438.943	792.12
439.165	629.12
439.386	570.12
439.608	560.12
439.829	586.12
440.05	585.12
440.272	636.12
440.493	605.12
440.715	552.12
440.936	533.12
441.158	520.12
441.379	521.12
441.6	537.12
441.822	551.12
442.043	628.12
442.264	697.12
442.486	727.12
442.707	610.12
442.928	582.12
443.149	584.12
443.371	606.12
443.592	642.12
443.813	739.12
444.034	776.12
444.255	656.12
444.476	550.12
444.698	566.12
444.919	555.12
445.14	635.12
445.361	619.12
445.582	622.12
445.803	654.12
446.024	746.12
446.245	748.12
446.466	678.12
446.687	596.12
446.908	559.12
447.129	537.12
447.35	538.12
447.571	531.12
447.792	518.12
448.013	528.12
448.234	544.12
448.455	579.12
448.675	691.12
448.896	840.12
449.117	696.12
449.338	639.12
449.559	768.12
449.779	841.12
450	657.12
450.221	568.12
450.442	528.12
450.662	517.12
450.883	516.12
451.104	527.12
451.324	502.12
451.545	491.12
451.766	491.12
451.986	474.12
452.207	470.12
452.428	474.12
452.648	466.12
452.869	457.12
453.089	479.12
453.31	484.12
453.53	455.12
453.751	456.12
453.971	463.12
454.192	468.12
454.412	457.12
454.633	470.12
454.853	457.12
455.073	461.12
455.294	477.12
455.514	538.12
455.734	528.12
455.955	458.12
456.175	443.12
456.395	430.12
456.616	440.12
456.836	431.12
457.056	454.12
457.276	427.12
457.497	435.12
457.717	470.12
457.937	461.12
458.157	446.12
458.377	457.12
458.598	477.12
458.818	532.12
459.038	578.12
459.258	614.12
459.478	525.12
459.698	525.12
459.918	505.12
460.138	496.12
460.358	488.12
460.578	517.12
460.798	477.12
461.018	531.12
461.238	518.12
461.458	516.12
461.678	495.12
461.898	503.12
462.118	502.12
462.338	506.12
462.558	507.12
462.777	537.12
462.997	521.12
463.217	532.12
463.437	551.12
463.657	548.12
463.876	543.12
464.096	532.12
464.316	564.12
464.536	542.12
464.755	561.12
464.975	559.12
465.195	589.12
465.414	658.12
465.634	572.12
465.854	560.12
466.073	508.12
466.293	506.12
466.512	482.12
466.732	493.12
466.951	491.12
467.171	482.12
467.391	481.12
467.61	491.12
467.829	498.12
468.049	518.12
468.268	482.12
468.488	445.12
468.707	455.12
468.927	442.12
469.146	464.12
469.365	446.12
469.585	490.12
469.804	494.12
470.023	484.12
470.243	503.12
470.462	495.12
470.681	506.12
470.901	499.12
471.12	495.12
471.339	513.12
471.558	492.12
471.777	490.12
471.997	468.12
472.216	479.12
472.435	485.12
472.654	472.12
472.873	471.12
473.092	456.12
473.311	469.12
473.53	467.12
473.749	510.12
473.968	537.12
474.187	609.12
474.406	634.12
474.625	531.12
474.844	495.12
475.063	504.12
475.282	487.12
475.501	482.12
475.72	486.12
475.939	503.12
476.158	500.12
476.377	509.12
476.596	516.12
476.814	514.12
477.033	512.12
477.252	514.12
477.471	517.12
477.69	527.12
477.908	537.12
478.127	533.12
478.346	518.12
478.564	542.12
478.783	554.12
479.002	575.12
479.22	534.12
479.439	574.12
479.658	584.12
479.876	573.12
480.095	587.12
480.313	622.12
480.532	608.12
480.751	584.12
480.969	575.12
481.188	586.12
481.406	619.12
481.624	570.12
481.843	565.12
482.061	553.12
482.28	575.12
482.498	575.12
482.717	555.12
482.935	562.12
483.153	558.12
483.372	591.12
483.59	569.12
483.808	586.12
484.027	586.12
484.245	568.12
484.463	573.12
484.681	583.12
484.9	578.12
485.118	588.12
485.336	570.12
485.554	588.12
485.772	596.12
485.99	589.12
486.209	588.12
486.427	596.12
486.645	613.12
486.863	617.12
487.081	628.12
487.299	617.12
487.517	626.12
487.735	615.12
487.953	598.12
488.171	629.12
488.389	631.12
488.607	601.12
488.825	606.12
489.043	613.12
489.261	613.12
489.479	629.12
489.696	632.12
489.914	617.12
490.132	615.12
490.35	639.12
490.568	631.12
490.786	647.12
491.003	640.12
491.221	662.12
491.439	667.12
491.657	666.12
491.874	688.12
492.092	684.12
492.31	698.12
492.527	694.12
492.745	668.12
492.963	704.12
493.18	712.12
493.398	719.12
493.615	706.12
493.833	690.12
494.05	698.12
494.268	703.12
494.485	704.12
494.703	703.12
494.92	708.12
495.138	702.12
495.355	702.12
495.573	714.12
495.79	715.12
496.008	713.12
496.225	707.12
496.442	676.12
496.66	717.12
496.877	716.12
497.094	728.12
497.312	734.12
497.529	730.12
497.746	747.12
497.963	774.12
498.181	778.12
498.398	805.12
498.615	824.12
498.832	847.12
499.049	864.12
499.267	856.12
499.484	885.12
499.701	916.12
499.918	931.12
500.135	1001.12
500.352	1037.12
500.569	1022.12
500.786	1035.12
501.003	1006.12
501.22	997.12
501.437	966.12
501.654	892.12
501.871	899.12
