Data from 1988.PennyLincolnUp.Lamp.En5.5.200Scan.071819.P2_HRD10591_17-20-11-972.txt Node
Date: Thu Jul 18 17:20:11 EDT 2019
User: cochatt
Spectrometer: HR+D1059
Trigger mode: 1
Integration Time (sec): 1.000000E-1
Scans to average: 1
Electric dark correction enabled: true
Nonlinearity correction enabled: false
Boxcar width: 0
XAxis mode: Wavelengths
Number of Pixels in Spectrum: 2048
>>>>>Begin Spectral Data<<<<<
223.165	-19.12
223.4	-19.12
223.635	-19.12
223.869	1.88
224.104	-12.12
224.338	-20.12
224.573	-10.12
224.808	-18.12
225.042	-4.12
225.277	3.88
225.511	-14.12
225.746	7.88
225.98	4.88
226.215	10.88
226.449	12.88
226.683	2.88
226.918	21.88
227.152	30.88
227.387	30.88
227.621	30.88
227.856	39.88
228.09	27.88
228.324	43.88
228.559	41.88
228.793	69.88
229.027	101.88
229.262	121.88
229.496	115.88
229.73	133.88
229.964	162.88
230.199	133.88
230.433	120.88
230.667	129.88
230.901	104.88
231.136	109.88
231.37	113.88
231.604	107.88
231.838	119.88
232.072	109.88
232.306	100.88
232.541	115.88
232.775	113.88
233.009	119.88
233.243	106.88
233.477	117.88
233.711	109.88
233.945	118.88
234.179	100.88
234.413	127.88
234.647	115.88
234.881	121.88
235.115	110.88
235.349	125.88
235.583	113.88
235.817	121.88
236.051	132.88
236.285	124.88
236.519	123.88
236.753	129.88
236.987	156.88
237.221	192.88
237.455	259.88
237.689	201.88
237.922	161.88
238.156	135.88
238.39	141.88
238.624	129.88
238.858	123.88
239.091	111.88
239.325	124.88
239.559	136.88
239.793	128.88
240.027	139.88
240.26	155.88
240.494	162.88
240.728	176.88
240.961	149.88
241.195	171.88
241.429	151.88
241.662	143.88
241.896	127.88
242.13	148.88
242.363	139.88
242.597	147.88
242.83	145.88
243.064	138.88
243.298	159.88
243.531	144.88
243.765	142.88
243.998	154.88
244.232	159.88
244.465	155.88
244.699	152.88
244.932	159.88
245.166	147.88
245.399	148.88
245.633	153.88
245.866	145.88
246.099	156.88
246.333	155.88
246.566	155.88
246.8	169.88
247.033	147.88
247.266	160.88
247.5	178.88
247.733	172.88
247.966	164.88
248.2	161.88
248.433	189.88
248.666	179.88
248.899	195.88
249.133	203.88
249.366	214.88
249.599	230.88
249.832	193.88
250.066	202.88
250.299	183.88
250.532	214.88
250.765	227.88
250.998	232.88
251.231	232.88
251.465	210.88
251.698	209.88
251.931	207.88
252.164	208.88
252.397	187.88
252.63	198.88
252.863	194.88
253.096	210.88
253.329	211.88
253.562	230.88
253.795	218.88
254.028	229.88
254.261	221.88
254.494	234.88
254.727	263.88
254.96	303.88
255.193	295.88
255.426	257.88
255.659	242.88
255.892	239.88
256.124	234.88
256.357	213.88
256.59	213.88
256.823	205.88
257.056	211.88
257.289	220.88
257.521	216.88
257.754	223.88
257.987	205.88
258.22	227.88
258.452	210.88
258.685	211.88
258.918	237.88
259.151	239.88
259.383	239.88
259.616	223.88
259.849	225.88
260.081	248.88
260.314	277.88
260.547	272.88
260.779	276.88
261.012	251.88
261.244	232.88
261.477	225.88
261.71	251.88
261.942	251.88
262.175	256.88
262.407	239.88
262.64	221.88
262.872	236.88
263.105	218.88
263.337	233.88
263.57	233.88
263.802	215.88
264.035	235.88
264.267	228.88
264.499	224.88
264.732	228.88
264.964	221.88
265.197	262.88
265.429	239.88
265.661	219.88
265.894	219.88
266.126	219.88
266.358	222.88
266.591	236.88
266.823	226.88
267.055	242.88
267.287	249.88
267.52	259.88
267.752	250.88
267.984	251.88
268.216	262.88
268.448	251.88
268.681	256.88
268.913	255.88
269.145	249.88
269.377	315.88
269.609	274.88
269.841	285.88
270.073	303.88
270.306	323.88
270.538	328.88
270.77	340.88
271.002	303.88
271.234	297.88
271.466	305.88
271.698	318.88
271.93	334.88
272.162	337.88
272.394	324.88
272.626	314.88
272.858	324.88
273.09	299.88
273.322	280.88
273.553	287.88
273.785	290.88
274.017	280.88
274.249	271.88
274.481	283.88
274.713	266.88
274.945	284.88
275.176	263.88
275.408	279.88
275.64	277.88
275.872	269.88
276.104	290.88
276.335	283.88
276.567	280.88
276.799	299.88
277.031	316.88
277.262	321.88
277.494	334.88
277.726	328.88
277.957	297.88
278.189	287.88
278.421	303.88
278.652	281.88
278.884	290.88
279.115	264.88
279.347	297.88
279.579	288.88
279.81	279.88
280.042	253.88
280.273	274.88
280.505	284.88
280.736	284.88
280.968	294.88
281.199	273.88
281.431	271.88
281.662	269.88
281.894	275.88
282.125	301.88
282.356	298.88
282.588	321.88
282.819	319.88
283.051	304.88
283.282	294.88
283.513	286.88
283.745	291.88
283.976	310.88
284.207	289.88
284.439	298.88
284.67	297.88
284.901	303.88
285.132	292.88
285.364	277.88
285.595	298.88
285.826	288.88
286.057	310.88
286.288	300.88
286.52	294.88
286.751	306.88
286.982	291.88
287.213	312.88
287.444	311.88
287.675	305.88
287.906	299.88
288.138	307.88
288.369	307.88
288.6	335.88
288.831	322.88
289.062	306.88
289.293	319.88
289.524	299.88
289.755	312.88
289.986	328.88
290.217	307.88
290.448	300.88
290.679	307.88
290.91	293.88
291.141	307.88
291.371	299.88
291.602	327.88
291.833	307.88
292.064	302.88
292.295	317.88
292.526	311.88
292.757	301.88
292.987	301.88
293.218	310.88
293.449	306.88
293.68	310.88
293.91	310.88
294.141	342.88
294.372	307.88
294.603	323.88
294.833	317.88
295.064	310.88
295.295	329.88
295.525	323.88
295.756	319.88
295.987	327.88
296.217	351.88
296.448	353.88
296.679	345.88
296.909	312.88
297.14	337.88
297.37	327.88
297.601	319.88
297.831	328.88
298.062	325.88
298.292	320.88
298.523	340.88
298.753	324.88
298.984	327.88
299.214	335.88
299.445	326.88
299.675	342.88
299.905	321.88
300.136	348.88
300.366	344.88
300.597	345.88
300.827	348.88
301.057	327.88
301.288	367.88
301.518	341.88
301.748	342.88
301.979	347.88
302.209	351.88
302.439	341.88
302.669	345.88
302.9	353.88
303.13	346.88
303.36	357.88
303.59	360.88
303.82	376.88
304.051	381.88
304.281	337.88
304.511	369.88
304.741	342.88
304.971	355.88
305.201	362.88
305.431	367.88
305.661	368.88
305.891	340.88
306.121	344.88
306.352	361.88
306.582	378.88
306.812	338.88
307.042	356.88
307.272	354.88
307.502	358.88
307.731	352.88
307.961	353.88
308.191	355.88
308.421	355.88
308.651	360.88
308.881	367.88
309.111	364.88
309.341	365.88
309.571	387.88
309.8	394.88
310.03	404.88
310.26	422.88
310.49	407.88
310.72	390.88
310.949	444.88
311.179	441.88
311.409	416.88
311.639	415.88
311.868	423.88
312.098	416.88
312.328	394.88
312.557	424.88
312.787	449.88
313.017	464.88
313.246	426.88
313.476	397.88
313.706	409.88
313.935	415.88
314.165	422.88
314.394	428.88
314.624	435.88
314.853	413.88
315.083	403.88
315.312	398.88
315.542	414.88
315.771	363.88
316.001	401.88
316.23	416.88
316.46	401.88
316.689	418.88
316.919	448.88
317.148	417.88
317.377	445.88
317.607	420.88
317.836	415.88
318.065	418.88
318.295	408.88
318.524	388.88
318.753	402.88
318.983	398.88
319.212	440.88
319.441	413.88
319.67	431.88
319.9	423.88
320.129	402.88
320.358	410.88
320.587	454.88
320.816	434.88
321.046	443.88
321.275	440.88
321.504	435.88
321.733	467.88
321.962	480.88
322.191	467.88
322.42	467.88
322.649	500.88
322.878	497.88
323.108	502.88
323.337	531.88
323.566	546.88
323.795	584.88
324.024	643.88
324.253	751.88
324.482	1074.88
324.71	1694.88
324.939	2477.88
325.168	2128.88
325.397	1071.88
325.626	756.88
325.855	624.88
326.084	587.88
326.313	555.88
326.542	561.88
326.77	617.88
326.999	703.88
327.228	1007.88
327.457	1504.88
327.686	1827.88
327.914	1245.88
328.143	805.88
328.372	681.88
328.6	660.88
328.829	628.88
329.058	646.88
329.287	648.88
329.515	617.88
329.744	572.88
329.972	563.88
330.201	557.88
330.43	583.88
330.658	598.88
330.887	676.88
331.115	663.88
331.344	565.88
331.572	562.88
331.801	538.88
332.03	534.88
332.258	511.88
332.486	473.88
332.715	468.88
332.943	488.88
333.172	490.88
333.4	488.88
333.629	515.88
333.857	521.88
334.085	520.88
334.314	513.88
334.542	495.88
334.771	539.88
334.999	541.88
335.227	509.88
335.455	528.88
335.684	496.88
335.912	496.88
336.14	485.88
336.369	499.88
336.597	479.88
336.825	502.88
337.053	497.88
337.281	479.88
337.51	497.88
337.738	491.88
337.966	503.88
338.194	515.88
338.422	473.88
338.65	499.88
338.878	488.88
339.106	477.88
339.334	466.88
339.562	471.88
339.79	459.88
340.018	476.88
340.246	481.88
340.474	494.88
340.702	474.88
340.93	479.88
341.158	473.88
341.386	478.88
341.614	482.88
341.842	490.88
342.07	483.88
342.298	470.88
342.526	472.88
342.754	470.88
342.981	474.88
343.209	460.88
343.437	466.88
343.665	474.88
343.893	480.88
344.12	482.88
344.348	504.88
344.576	501.88
344.804	495.88
345.031	489.88
345.259	511.88
345.487	489.88
345.714	463.88
345.942	472.88
346.17	474.88
346.397	473.88
346.625	458.88
346.853	472.88
347.08	452.88
347.308	463.88
347.535	477.88
347.763	488.88
347.99	483.88
348.218	473.88
348.445	480.88
348.673	480.88
348.9	503.88
349.128	483.88
349.355	447.88
349.583	472.88
349.81	451.88
350.037	459.88
350.265	454.88
350.492	467.88
350.72	458.88
350.947	439.88
351.174	458.88
351.402	482.88
351.629	459.88
351.856	465.88
352.083	491.88
352.311	476.88
352.538	459.88
352.765	482.88
352.992	474.88
353.22	481.88
353.447	479.88
353.674	452.88
353.901	449.88
354.128	453.88
354.355	445.88
354.583	427.88
354.81	448.88
355.037	441.88
355.264	447.88
355.491	427.88
355.718	434.88
355.945	447.88
356.172	439.88
356.399	455.88
356.626	425.88
356.853	439.88
357.08	419.88
357.307	435.88
357.534	436.88
357.761	460.88
357.988	445.88
358.215	456.88
358.441	411.88
358.668	436.88
358.895	471.88
359.122	463.88
359.349	472.88
359.576	483.88
359.802	499.88
360.029	504.88
360.256	552.88
360.483	481.88
360.709	484.88
360.936	482.88
361.163	501.88
361.39	500.88
361.616	485.88
361.843	456.88
362.07	473.88
362.296	473.88
362.523	481.88
362.749	468.88
362.976	449.88
363.203	453.88
363.429	447.88
363.656	463.88
363.882	440.88
364.109	461.88
364.335	458.88
364.562	451.88
364.788	471.88
365.015	473.88
365.241	469.88
365.468	436.88
365.694	468.88
365.92	474.88
366.147	441.88
366.373	456.88
366.599	445.88
366.826	458.88
367.052	448.88
367.278	455.88
367.505	453.88
367.731	456.88
367.957	463.88
368.184	457.88
368.41	471.88
368.636	466.88
368.862	475.88
369.089	449.88
369.315	442.88
369.541	454.88
369.767	432.88
369.993	443.88
370.219	451.88
370.445	457.88
370.672	464.88
370.898	447.88
371.124	466.88
371.35	456.88
371.576	456.88
371.802	459.88
372.028	444.88
372.254	456.88
372.48	436.88
372.706	456.88
372.932	449.88
373.158	464.88
373.384	452.88
373.61	451.88
373.835	456.88
374.061	455.88
374.287	478.88
374.513	457.88
374.739	439.88
374.965	461.88
375.191	470.88
375.416	475.88
375.642	447.88
375.868	455.88
376.094	463.88
376.319	443.88
376.545	445.88
376.771	449.88
376.997	438.88
377.222	448.88
377.448	459.88
377.674	441.88
377.899	443.88
378.125	423.88
378.35	453.88
378.576	442.88
378.802	453.88
379.027	443.88
379.253	434.88
379.478	442.88
379.704	443.88
379.929	451.88
380.155	469.88
380.38	470.88
380.606	458.88
380.831	457.88
381.057	465.88
381.282	455.88
381.507	461.88
381.733	473.88
381.958	467.88
382.184	451.88
382.409	459.88
382.634	469.88
382.86	469.88
383.085	475.88
383.31	459.88
383.535	470.88
383.761	467.88
383.986	480.88
384.211	468.88
384.436	493.88
384.662	491.88
384.887	480.88
385.112	495.88
385.337	487.88
385.562	490.88
385.787	489.88
386.013	515.88
386.238	514.88
386.463	478.88
386.688	487.88
386.913	491.88
387.138	510.88
387.363	501.88
387.588	489.88
387.813	477.88
388.038	510.88
388.263	499.88
388.488	501.88
388.713	499.88
388.938	495.88
389.163	502.88
389.387	516.88
389.612	494.88
389.837	508.88
390.062	509.88
390.287	504.88
390.512	501.88
390.736	503.88
390.961	513.88
391.186	516.88
391.411	522.88
391.636	521.88
391.86	539.88
392.085	503.88
392.31	527.88
392.534	544.88
392.759	501.88
392.984	515.88
393.208	501.88
393.433	519.88
393.658	523.88
393.882	501.88
394.107	500.88
394.331	497.88
394.556	503.88
394.78	511.88
395.005	529.88
395.229	522.88
395.454	530.88
395.678	520.88
395.903	569.88
396.127	573.88
396.352	587.88
396.576	545.88
396.801	535.88
397.025	540.88
397.249	518.88
397.474	533.88
397.698	528.88
397.922	559.88
398.147	583.88
398.371	573.88
398.595	575.88
398.82	557.88
399.044	606.88
399.268	586.88
399.492	638.88
399.717	693.88
399.941	715.88
400.165	723.88
400.389	737.88
400.613	655.88
400.837	609.88
401.062	621.88
401.286	610.88
401.51	581.88
401.734	583.88
401.958	584.88
402.182	571.88
402.406	600.88
402.63	593.88
402.854	605.88
403.078	600.88
403.302	623.88
403.526	603.88
403.75	610.88
403.974	605.88
404.198	594.88
404.422	609.88
404.645	625.88
404.869	605.88
405.093	630.88
405.317	664.88
405.541	691.88
405.765	637.88
405.988	634.88
406.212	624.88
406.436	657.88
406.66	682.88
406.883	671.88
407.107	699.88
407.331	758.88
407.555	813.88
407.778	808.88
408.002	730.88
408.226	690.88
408.449	681.88
408.673	654.88
408.896	693.88
409.12	769.88
409.344	711.88
409.567	651.88
409.791	629.88
410.014	639.88
410.238	633.88
410.461	624.88
410.685	639.88
410.908	633.88
411.132	657.88
411.355	736.88
411.578	677.88
411.802	635.88
412.025	595.88
412.249	584.88
412.472	623.88
412.695	627.88
412.919	640.88
413.142	595.88
413.365	568.88
413.589	582.88
413.812	579.88
414.035	585.88
414.258	567.88
414.482	587.88
414.705	570.88
414.928	598.88
415.151	565.88
415.374	591.88
415.597	545.88
415.821	561.88
416.044	559.88
416.267	570.88
416.49	566.88
416.713	553.88
416.936	581.88
417.159	569.88
417.382	582.88
417.605	577.88
417.828	587.88
418.051	626.88
418.274	613.88
418.497	582.88
418.72	560.88
418.943	563.88
419.166	594.88
419.389	637.88
419.611	612.88
419.834	591.88
420.057	589.88
420.28	606.88
420.503	571.88
420.726	566.88
420.948	609.88
421.171	647.88
421.394	687.88
421.617	625.88
421.839	607.88
422.062	579.88
422.285	611.88
422.507	684.88
422.73	767.88
422.953	759.88
423.175	658.88
423.398	645.88
423.621	645.88
423.843	649.88
424.066	661.88
424.288	643.88
424.511	653.88
424.733	726.88
424.956	821.88
425.178	817.88
425.401	795.88
425.623	825.88
425.846	691.88
426.068	677.88
426.291	651.88
426.513	662.88
426.735	669.88
426.958	720.88
427.18	808.88
427.402	938.88
427.625	1051.88
427.847	918.88
428.069	782.88
428.292	701.88
428.514	657.88
428.736	631.88
428.958	635.88
429.181	618.88
429.403	587.88
429.625	609.88
429.847	665.88
430.069	707.88
430.292	725.88
430.514	627.88
430.736	606.88
430.958	601.88
431.18	584.88
431.402	561.88
431.624	567.88
431.846	576.88
432.068	587.88
432.29	561.88
432.512	576.88
432.734	590.88
432.956	591.88
433.178	568.88
433.4	610.88
433.622	551.88
433.844	559.88
434.066	566.88
434.287	574.88
434.509	588.88
434.731	594.88
434.953	575.88
435.175	613.88
435.397	654.88
435.618	665.88
435.84	726.88
436.062	839.88
436.284	892.88
436.505	746.88
436.727	656.88
436.949	632.88
437.17	601.88
437.392	603.88
437.614	610.88
437.835	650.88
438.057	767.88
438.278	906.88
438.5	895.88
438.721	973.88
438.943	938.88
439.165	728.88
439.386	720.88
439.608	671.88
439.829	645.88
440.05	674.88
440.272	763.88
440.493	703.88
440.715	673.88
440.936	611.88
441.158	601.88
441.379	614.88
441.6	618.88
441.822	659.88
442.043	700.88
442.264	833.88
442.486	879.88
442.707	721.88
442.928	674.88
443.149	684.88
443.371	685.88
443.592	745.88
443.813	849.88
444.034	941.88
444.255	781.88
444.476	703.88
444.698	691.88
444.919	650.88
445.14	784.88
445.361	725.88
445.582	711.88
445.803	769.88
446.024	907.88
446.245	915.88
446.466	837.88
446.687	689.88
446.908	647.88
447.129	629.88
447.35	611.88
447.571	620.88
447.792	590.88
448.013	619.88
448.234	610.88
448.455	670.88
448.675	837.88
448.896	958.88
449.117	832.88
449.338	746.88
449.559	895.88
449.779	993.88
450	822.88
450.221	651.88
450.442	608.88
450.662	603.88
450.883	605.88
451.104	623.88
451.324	598.88
451.545	567.88
451.766	557.88
451.986	541.88
452.207	539.88
452.428	549.88
452.648	543.88
452.869	544.88
453.089	544.88
453.31	571.88
453.53	551.88
453.751	538.88
453.971	539.88
454.192	546.88
454.412	555.88
454.633	547.88
454.853	529.88
455.073	543.88
455.294	564.88
455.514	627.88
455.734	611.88
455.955	539.88
456.175	521.88
456.395	514.88
456.616	503.88
456.836	516.88
457.056	513.88
457.276	486.88
457.497	505.88
457.717	518.88
457.937	517.88
458.157	525.88
458.377	523.88
458.598	553.88
458.818	620.88
459.038	708.88
459.258	710.88
459.478	611.88
459.698	579.88
459.918	561.88
460.138	577.88
460.358	580.88
460.578	580.88
460.798	596.88
461.018	606.88
461.238	598.88
461.458	597.88
461.678	568.88
461.898	588.88
462.118	597.88
462.338	600.88
462.558	611.88
462.777	597.88
462.997	622.88
463.217	632.88
463.437	653.88
463.657	611.88
463.876	628.88
464.096	617.88
464.316	624.88
464.536	605.88
464.755	613.88
464.975	632.88
465.195	673.88
465.414	741.88
465.634	663.88
465.854	637.88
466.073	608.88
466.293	569.88
466.512	578.88
466.732	557.88
466.951	569.88
467.171	543.88
467.391	548.88
467.61	573.88
467.829	569.88
468.049	570.88
468.268	540.88
468.488	560.88
468.707	551.88
468.927	544.88
469.146	536.88
469.365	527.88
469.585	544.88
469.804	518.88
470.023	571.88
470.243	564.88
470.462	593.88
470.681	603.88
470.901	599.88
471.12	575.88
471.339	548.88
471.558	557.88
471.777	572.88
471.997	566.88
472.216	555.88
472.435	549.88
472.654	556.88
472.873	537.88
473.092	534.88
473.311	547.88
473.53	552.88
473.749	570.88
473.968	612.88
474.187	736.88
474.406	755.88
474.625	647.88
474.844	579.88
475.063	565.88
475.282	560.88
475.501	559.88
475.72	570.88
475.939	575.88
476.158	579.88
476.377	585.88
476.596	571.88
476.814	589.88
477.033	580.88
477.252	591.88
477.471	597.88
477.69	608.88
477.908	604.88
478.127	598.88
478.346	621.88
478.564	601.88
478.783	627.88
479.002	629.88
479.22	660.88
479.439	669.88
479.658	688.88
479.876	661.88
480.095	676.88
480.313	714.88
480.532	703.88
480.751	659.88
480.969	677.88
481.188	694.88
481.406	700.88
481.624	676.88
481.843	660.88
482.061	660.88
482.28	659.88
482.498	657.88
482.717	623.88
482.935	663.88
483.153	634.88
483.372	641.88
483.59	660.88
483.808	660.88
484.027	674.88
484.245	657.88
484.463	657.88
484.681	692.88
484.9	655.88
485.118	671.88
485.336	682.88
485.554	672.88
485.772	668.88
485.99	666.88
486.209	700.88
486.427	697.88
486.645	719.88
486.863	713.88
487.081	717.88
487.299	709.88
487.517	712.88
487.735	697.88
487.953	689.88
488.171	715.88
488.389	708.88
488.607	732.88
488.825	707.88
489.043	721.88
489.261	724.88
489.479	705.88
489.696	716.88
489.914	720.88
490.132	744.88
490.35	737.88
490.568	723.88
490.786	746.88
491.003	762.88
491.221	796.88
491.439	792.88
491.657	795.88
491.874	784.88
492.092	801.88
492.31	794.88
492.527	818.88
492.745	822.88
492.963	813.88
493.18	825.88
493.398	827.88
493.615	812.88
493.833	849.88
494.05	833.88
494.268	843.88
494.485	837.88
494.703	820.88
494.92	843.88
495.138	827.88
495.355	855.88
495.573	851.88
495.79	824.88
496.008	844.88
496.225	868.88
496.442	853.88
496.66	837.88
496.877	837.88
497.094	863.88
497.312	869.88
497.529	892.88
497.746	876.88
497.963	876.88
498.181	911.88
498.398	927.88
498.615	962.88
498.832	980.88
499.049	998.88
499.267	1008.88
499.484	1046.88
499.701	1105.88
499.918	1094.88
500.135	1166.88
500.352	1194.88
500.569	1236.88
500.786	1243.88
501.003	1241.88
501.22	1165.88
501.437	1141.88
501.654	1139.88
