Data from 1988.PennyLincolnUp.Lamp.En5.5.200Scan.071819.P2_HRD10591_17-19-40-976.txt Node
Date: Thu Jul 18 17:19:40 EDT 2019
User: cochatt
Spectrometer: HR+D1059
Trigger mode: 1
Integration Time (sec): 1.000000E-1
Scans to average: 1
Electric dark correction enabled: true
Nonlinearity correction enabled: false
Boxcar width: 0
XAxis mode: Wavelengths
Number of Pixels in Spectrum: 2048
>>>>>Begin Spectral Data<<<<<
223.165	-24.19
223.4	-24.19
223.635	-24.19
223.869	-19.19
224.104	-22.19
224.338	-16.19
224.573	-11.19
224.808	-13.19
225.042	-13.19
225.277	-6.19
225.511	-1.19
225.746	13.81
225.98	21.81
226.215	3.81
226.449	14.81
226.683	18.81
226.918	24.81
227.152	28.81
227.387	28.81
227.621	35.81
227.856	42.81
228.09	40.81
228.324	46.81
228.559	59.81
228.793	72.81
229.027	107.81
229.262	108.81
229.496	117.81
229.73	123.81
229.964	152.81
230.199	128.81
230.433	124.81
230.667	123.81
230.901	108.81
231.136	99.81
231.37	126.81
231.604	106.81
231.838	118.81
232.072	114.81
232.306	123.81
232.541	124.81
232.775	118.81
233.009	124.81
233.243	131.81
233.477	121.81
233.711	117.81
233.945	108.81
234.179	120.81
234.413	108.81
234.647	133.81
234.881	109.81
235.115	112.81
235.349	128.81
235.583	117.81
235.817	120.81
236.051	146.81
236.285	118.81
236.519	125.81
236.753	141.81
236.987	170.81
237.221	187.81
237.455	276.81
237.689	193.81
237.922	146.81
238.156	140.81
238.39	136.81
238.624	126.81
238.858	137.81
239.091	122.81
239.325	136.81
239.559	139.81
239.793	125.81
240.027	148.81
240.26	149.81
240.494	164.81
240.728	162.81
240.961	163.81
241.195	156.81
241.429	148.81
241.662	140.81
241.896	123.81
242.13	141.81
242.363	139.81
242.597	137.81
242.83	160.81
243.064	150.81
243.298	149.81
243.531	153.81
243.765	136.81
243.998	153.81
244.232	152.81
244.465	140.81
244.699	140.81
244.932	153.81
245.166	152.81
245.399	156.81
245.633	152.81
245.866	146.81
246.099	157.81
246.333	155.81
246.566	161.81
246.8	169.81
247.033	145.81
247.266	161.81
247.5	154.81
247.733	193.81
247.966	186.81
248.2	184.81
248.433	166.81
248.666	180.81
248.899	186.81
249.133	197.81
249.366	234.81
249.599	200.81
249.832	204.81
250.066	185.81
250.299	204.81
250.532	187.81
250.765	212.81
250.998	235.81
251.231	222.81
251.465	209.81
251.698	231.81
251.931	206.81
252.164	217.81
252.397	207.81
252.63	219.81
252.863	230.81
253.096	220.81
253.329	229.81
253.562	236.81
253.795	235.81
254.028	226.81
254.261	244.81
254.494	239.81
254.727	248.81
254.96	292.81
255.193	276.81
255.426	246.81
255.659	225.81
255.892	235.81
256.124	235.81
256.357	242.81
256.59	212.81
256.823	212.81
257.056	221.81
257.289	220.81
257.521	211.81
257.754	213.81
257.987	208.81
258.22	227.81
258.452	217.81
258.685	223.81
258.918	214.81
259.151	232.81
259.383	205.81
259.616	224.81
259.849	236.81
260.081	251.81
260.314	271.81
260.547	284.81
260.779	249.81
261.012	237.81
261.244	223.81
261.477	235.81
261.71	254.81
261.942	227.81
262.175	250.81
262.407	246.81
262.64	222.81
262.872	212.81
263.105	220.81
263.337	233.81
263.57	229.81
263.802	227.81
264.035	224.81
264.267	223.81
264.499	207.81
264.732	221.81
264.964	216.81
265.197	211.81
265.429	216.81
265.661	222.81
265.894	222.81
266.126	211.81
266.358	236.81
266.591	224.81
266.823	232.81
267.055	230.81
267.287	258.81
267.52	221.81
267.752	239.81
267.984	231.81
268.216	236.81
268.448	223.81
268.681	237.81
268.913	254.81
269.145	264.81
269.377	284.81
269.609	274.81
269.841	300.81
270.073	292.81
270.306	315.81
270.538	318.81
270.77	328.81
271.002	312.81
271.234	297.81
271.466	298.81
271.698	305.81
271.93	339.81
272.162	331.81
272.394	337.81
272.626	304.81
272.858	299.81
273.09	284.81
273.322	274.81
273.553	273.81
273.785	286.81
274.017	259.81
274.249	277.81
274.481	284.81
274.713	308.81
274.945	302.81
275.176	284.81
275.408	254.81
275.64	269.81
275.872	280.81
276.104	289.81
276.335	288.81
276.567	279.81
276.799	296.81
277.031	317.81
277.262	342.81
277.494	313.81
277.726	330.81
277.957	309.81
278.189	307.81
278.421	288.81
278.652	288.81
278.884	272.81
279.115	292.81
279.347	285.81
279.579	289.81
279.81	286.81
280.042	281.81
280.273	295.81
280.505	284.81
280.736	282.81
280.968	284.81
281.199	293.81
281.431	281.81
281.662	259.81
281.894	294.81
282.125	297.81
282.356	291.81
282.588	310.81
282.819	328.81
283.051	282.81
283.282	296.81
283.513	285.81
283.745	288.81
283.976	308.81
284.207	294.81
284.439	298.81
284.67	309.81
284.901	293.81
285.132	281.81
285.364	293.81
285.595	290.81
285.826	306.81
286.057	288.81
286.288	309.81
286.52	297.81
286.751	290.81
286.982	304.81
287.213	300.81
287.444	296.81
287.675	303.81
287.906	310.81
288.138	332.81
288.369	323.81
288.6	312.81
288.831	327.81
289.062	291.81
289.293	299.81
289.524	310.81
289.755	304.81
289.986	296.81
290.217	304.81
290.448	321.81
290.679	316.81
290.91	312.81
291.141	321.81
291.371	312.81
291.602	298.81
291.833	315.81
292.064	309.81
292.295	315.81
292.526	314.81
292.757	313.81
292.987	314.81
293.218	329.81
293.449	304.81
293.68	298.81
293.91	311.81
294.141	318.81
294.372	307.81
294.603	310.81
294.833	322.81
295.064	323.81
295.295	316.81
295.525	318.81
295.756	313.81
295.987	308.81
296.217	339.81
296.448	341.81
296.679	316.81
296.909	343.81
297.14	320.81
297.37	328.81
297.601	308.81
297.831	330.81
298.062	323.81
298.292	332.81
298.523	322.81
298.753	310.81
298.984	322.81
299.214	350.81
299.445	331.81
299.675	348.81
299.905	334.81
300.136	331.81
300.366	339.81
300.597	328.81
300.827	333.81
301.057	348.81
301.288	343.81
301.518	370.81
301.748	340.81
301.979	338.81
302.209	338.81
302.439	356.81
302.669	347.81
302.9	369.81
303.13	362.81
303.36	349.81
303.59	340.81
303.82	360.81
304.051	370.81
304.281	341.81
304.511	344.81
304.741	342.81
304.971	346.81
305.201	355.81
305.431	374.81
305.661	336.81
305.891	338.81
306.121	348.81
306.352	368.81
306.582	378.81
306.812	339.81
307.042	359.81
307.272	356.81
307.502	365.81
307.731	373.81
307.961	374.81
308.191	368.81
308.421	369.81
308.651	382.81
308.881	388.81
309.111	376.81
309.341	358.81
309.571	362.81
309.8	386.81
310.03	378.81
310.26	404.81
310.49	419.81
310.72	406.81
310.949	437.81
311.179	437.81
311.409	406.81
311.639	404.81
311.868	421.81
312.098	412.81
312.328	418.81
312.557	424.81
312.787	452.81
313.017	428.81
313.246	424.81
313.476	411.81
313.706	425.81
313.935	421.81
314.165	416.81
314.394	443.81
314.624	429.81
314.853	428.81
315.083	443.81
315.312	420.81
315.542	425.81
315.771	435.81
316.001	404.81
316.23	404.81
316.46	407.81
316.689	409.81
316.919	424.81
317.148	422.81
317.377	437.81
317.607	438.81
317.836	403.81
318.065	416.81
318.295	417.81
318.524	408.81
318.753	418.81
318.983	405.81
319.212	399.81
319.441	407.81
319.67	435.81
319.9	413.81
320.129	422.81
320.358	402.81
320.587	433.81
320.816	444.81
321.046	430.81
321.275	421.81
321.504	415.81
321.733	432.81
321.962	446.81
322.191	457.81
322.42	466.81
322.649	497.81
322.878	500.81
323.108	490.81
323.337	512.81
323.566	542.81
323.795	589.81
324.024	627.81
324.253	756.81
324.482	1084.81
324.71	1614.81
324.939	2453.81
325.168	2126.81
325.397	1086.81
325.626	730.81
325.855	629.81
326.084	574.81
326.313	564.81
326.542	558.81
326.77	634.81
326.999	689.81
327.228	950.81
327.457	1484.81
327.686	1843.81
327.914	1191.81
328.143	766.81
328.372	674.81
328.6	645.81
328.829	626.81
329.058	618.81
329.287	604.81
329.515	603.81
329.744	572.81
329.972	537.81
330.201	518.81
330.43	567.81
330.658	614.81
330.887	615.81
331.115	638.81
331.344	582.81
331.572	558.81
331.801	547.81
332.03	537.81
332.258	512.81
332.486	501.81
332.715	504.81
332.943	489.81
333.172	484.81
333.4	488.81
333.629	510.81
333.857	500.81
334.085	515.81
334.314	504.81
334.542	514.81
334.771	496.81
334.999	510.81
335.227	516.81
335.455	499.81
335.684	466.81
335.912	488.81
336.14	462.81
336.369	486.81
336.597	503.81
336.825	504.81
337.053	481.81
337.281	464.81
337.51	480.81
337.738	510.81
337.966	477.81
338.194	471.81
338.422	516.81
338.65	485.81
338.878	506.81
339.106	474.81
339.334	457.81
339.562	480.81
339.79	474.81
340.018	470.81
340.246	473.81
340.474	488.81
340.702	500.81
340.93	485.81
341.158	465.81
341.386	466.81
341.614	482.81
341.842	478.81
342.07	469.81
342.298	474.81
342.526	482.81
342.754	453.81
342.981	443.81
343.209	476.81
343.437	487.81
343.665	462.81
343.893	476.81
344.12	493.81
344.348	492.81
344.576	485.81
344.804	488.81
345.031	522.81
345.259	526.81
345.487	509.81
345.714	490.81
345.942	472.81
346.17	465.81
346.397	472.81
346.625	485.81
346.853	471.81
347.08	473.81
347.308	475.81
347.535	485.81
347.763	468.81
347.99	470.81
348.218	472.81
348.445	482.81
348.673	498.81
348.9	475.81
349.128	481.81
349.355	453.81
349.583	455.81
349.81	446.81
350.037	460.81
350.265	453.81
350.492	470.81
350.72	446.81
350.947	476.81
351.174	467.81
351.402	492.81
351.629	472.81
351.856	459.81
352.083	451.81
352.311	472.81
352.538	484.81
352.765	494.81
352.992	457.81
353.22	457.81
353.447	453.81
353.674	448.81
353.901	430.81
354.128	451.81
354.355	424.81
354.583	405.81
354.81	438.81
355.037	432.81
355.264	438.81
355.491	434.81
355.718	404.81
355.945	435.81
356.172	424.81
356.399	441.81
356.626	425.81
356.853	438.81
357.08	421.81
357.307	447.81
357.534	444.81
357.761	458.81
357.988	430.81
358.215	414.81
358.441	434.81
358.668	421.81
358.895	450.81
359.122	429.81
359.349	439.81
359.576	469.81
359.802	485.81
360.029	521.81
360.256	527.81
360.483	502.81
360.709	476.81
360.936	461.81
361.163	462.81
361.39	466.81
361.616	479.81
361.843	476.81
362.07	462.81
362.296	499.81
362.523	474.81
362.749	466.81
362.976	454.81
363.203	459.81
363.429	446.81
363.656	458.81
363.882	446.81
364.109	449.81
364.335	437.81
364.562	440.81
364.788	450.81
365.015	485.81
365.241	440.81
365.468	473.81
365.694	458.81
365.92	473.81
366.147	447.81
366.373	436.81
366.599	465.81
366.826	438.81
367.052	444.81
367.278	450.81
367.505	461.81
367.731	487.81
367.957	457.81
368.184	447.81
368.41	458.81
368.636	449.81
368.862	462.81
369.089	484.81
369.315	450.81
369.541	460.81
369.767	459.81
369.993	449.81
370.219	440.81
370.445	458.81
370.672	447.81
370.898	457.81
371.124	446.81
371.35	448.81
371.576	450.81
371.802	448.81
372.028	446.81
372.254	452.81
372.48	466.81
372.706	456.81
372.932	442.81
373.158	451.81
373.384	457.81
373.61	466.81
373.835	435.81
374.061	473.81
374.287	478.81
374.513	471.81
374.739	472.81
374.965	469.81
375.191	480.81
375.416	485.81
375.642	442.81
375.868	452.81
376.094	464.81
376.319	442.81
376.545	475.81
376.771	456.81
376.997	462.81
377.222	439.81
377.448	441.81
377.674	432.81
377.899	445.81
378.125	456.81
378.35	447.81
378.576	450.81
378.802	436.81
379.027	455.81
379.253	450.81
379.478	452.81
379.704	436.81
379.929	460.81
380.155	459.81
380.38	465.81
380.606	448.81
380.831	458.81
381.057	444.81
381.282	460.81
381.507	465.81
381.733	456.81
381.958	468.81
382.184	461.81
382.409	451.81
382.634	464.81
382.86	471.81
383.085	480.81
383.31	480.81
383.535	488.81
383.761	454.81
383.986	463.81
384.211	466.81
384.436	478.81
384.662	481.81
384.887	506.81
385.112	496.81
385.337	496.81
385.562	491.81
385.787	497.81
386.013	512.81
386.238	508.81
386.463	515.81
386.688	503.81
386.913	490.81
387.138	502.81
387.363	486.81
387.588	482.81
387.813	505.81
388.038	500.81
388.263	491.81
388.488	489.81
388.713	487.81
388.938	510.81
389.163	500.81
389.387	488.81
389.612	504.81
389.837	501.81
390.062	496.81
390.287	484.81
390.512	490.81
390.736	514.81
390.961	498.81
391.186	501.81
391.411	506.81
391.636	512.81
391.86	518.81
392.085	521.81
392.31	540.81
392.534	516.81
392.759	508.81
392.984	518.81
393.208	505.81
393.433	513.81
393.658	530.81
393.882	507.81
394.107	500.81
394.331	515.81
394.556	521.81
394.78	515.81
395.005	480.81
395.229	518.81
395.454	514.81
395.678	516.81
395.903	527.81
396.127	547.81
396.352	542.81
396.576	532.81
396.801	521.81
397.025	523.81
397.249	550.81
397.474	548.81
397.698	520.81
397.922	554.81
398.147	588.81
398.371	568.81
398.595	572.81
398.82	560.81
399.044	602.81
399.268	620.81
399.492	637.81
399.717	679.81
399.941	690.81
400.165	727.81
400.389	727.81
400.613	661.81
400.837	630.81
401.062	606.81
401.286	590.81
401.51	593.81
401.734	594.81
401.958	597.81
402.182	589.81
402.406	596.81
402.63	601.81
402.854	587.81
403.078	584.81
403.302	590.81
403.526	592.81
403.75	614.81
403.974	626.81
404.198	605.81
404.422	599.81
404.645	597.81
404.869	613.81
405.093	649.81
405.317	668.81
405.541	688.81
405.765	649.81
405.988	630.81
406.212	633.81
406.436	676.81
406.66	680.81
406.883	651.81
407.107	682.81
407.331	717.81
407.555	818.81
407.778	829.81
408.002	737.81
408.226	692.81
408.449	674.81
408.673	680.81
408.896	690.81
409.12	748.81
409.344	717.81
409.567	646.81
409.791	631.81
410.014	624.81
410.238	608.81
410.461	627.81
410.685	624.81
410.908	626.81
411.132	644.81
411.355	712.81
411.578	645.81
411.802	638.81
412.025	613.81
412.249	595.81
412.472	627.81
412.695	625.81
412.919	629.81
413.142	589.81
413.365	595.81
413.589	592.81
413.812	574.81
414.035	601.81
414.258	602.81
414.482	567.81
414.705	584.81
414.928	594.81
415.151	576.81
415.374	577.81
415.597	556.81
415.821	572.81
416.044	576.81
416.267	573.81
416.49	564.81
416.713	556.81
416.936	581.81
417.159	568.81
417.382	586.81
417.605	577.81
417.828	584.81
418.051	625.81
418.274	603.81
418.497	590.81
418.72	572.81
418.943	578.81
419.166	608.81
419.389	612.81
419.611	620.81
419.834	579.81
420.057	609.81
420.28	585.81
420.503	579.81
420.726	591.81
420.948	602.81
421.171	626.81
421.394	705.81
421.617	638.81
421.839	588.81
422.062	602.81
422.285	609.81
422.507	709.81
422.73	776.81
422.953	744.81
423.175	670.81
423.398	628.81
423.621	636.81
423.843	656.81
424.066	646.81
424.288	629.81
424.511	685.81
424.733	737.81
424.956	852.81
425.178	781.81
425.401	791.81
425.623	804.81
425.846	724.81
426.068	692.81
426.291	637.81
426.513	643.81
426.735	662.81
426.958	712.81
427.18	792.81
427.402	936.81
427.625	1038.81
427.847	907.81
428.069	786.81
428.292	709.81
428.514	625.81
428.736	606.81
428.958	648.81
429.181	619.81
429.403	605.81
429.625	613.81
429.847	637.81
430.069	711.81
430.292	726.81
430.514	656.81
430.736	614.81
430.958	610.81
431.18	590.81
431.402	587.81
431.624	554.81
431.846	564.81
432.068	566.81
432.29	577.81
432.512	571.81
432.734	564.81
432.956	550.81
433.178	589.81
433.4	582.81
433.622	584.81
433.844	602.81
434.066	565.81
434.287	572.81
434.509	602.81
434.731	589.81
434.953	610.81
435.175	605.81
435.397	635.81
435.618	636.81
435.84	691.81
436.062	798.81
436.284	896.81
436.505	724.81
436.727	689.81
436.949	621.81
437.17	615.81
437.392	605.81
437.614	624.81
437.835	660.81
438.057	774.81
438.278	912.81
438.5	900.81
438.721	979.81
438.943	953.81
439.165	742.81
439.386	660.81
439.608	692.81
439.829	675.81
440.05	693.81
440.272	740.81
440.493	705.81
440.715	645.81
440.936	624.81
441.158	618.81
441.379	597.81
441.6	640.81
441.822	642.81
442.043	678.81
442.264	796.81
442.486	836.81
442.707	736.81
442.928	648.81
443.149	683.81
443.371	701.81
443.592	759.81
443.813	853.81
444.034	942.81
444.255	775.81
444.476	690.81
444.698	668.81
444.919	652.81
445.14	761.81
445.361	720.81
445.582	683.81
445.803	805.81
446.024	896.81
446.245	911.81
446.466	803.81
446.687	712.81
446.908	658.81
447.129	608.81
447.35	623.81
447.571	582.81
447.792	585.81
448.013	612.81
448.234	633.81
448.455	680.81
448.675	830.81
448.896	955.81
449.117	800.81
449.338	764.81
449.559	891.81
449.779	997.81
450	804.81
450.221	674.81
450.442	633.81
450.662	615.81
450.883	581.81
451.104	618.81
451.324	600.81
451.545	581.81
451.766	549.81
451.986	520.81
452.207	525.81
452.428	512.81
452.648	519.81
452.869	533.81
453.089	546.81
453.31	557.81
453.53	576.81
453.751	538.81
453.971	540.81
454.192	566.81
454.412	541.81
454.633	539.81
454.853	545.81
455.073	530.81
455.294	579.81
455.514	670.81
455.734	624.81
455.955	544.81
456.175	525.81
456.395	530.81
456.616	514.81
456.836	519.81
457.056	484.81
457.276	504.81
457.497	534.81
457.717	519.81
457.937	507.81
458.157	517.81
458.377	516.81
458.598	558.81
458.818	629.81
459.038	704.81
459.258	731.81
459.478	617.81
459.698	589.81
459.918	579.81
460.138	575.81
460.358	611.81
460.578	593.81
460.798	572.81
461.018	596.81
461.238	594.81
461.458	572.81
461.678	605.81
461.898	572.81
462.118	581.81
462.338	586.81
462.558	636.81
462.777	617.81
462.997	635.81
463.217	656.81
463.437	649.81
463.657	622.81
463.876	640.81
464.096	646.81
464.316	631.81
464.536	616.81
464.755	616.81
464.975	613.81
465.195	650.81
465.414	731.81
465.634	672.81
465.854	619.81
466.073	602.81
466.293	592.81
466.512	588.81
466.732	540.81
466.951	574.81
467.171	555.81
467.391	577.81
467.61	610.81
467.829	571.81
468.049	570.81
468.268	574.81
468.488	542.81
468.707	542.81
468.927	537.81
469.146	522.81
469.365	535.81
469.585	540.81
469.804	542.81
470.023	573.81
470.243	549.81
470.462	573.81
470.681	606.81
470.901	577.81
471.12	562.81
471.339	551.81
471.558	573.81
471.777	534.81
471.997	530.81
472.216	553.81
472.435	530.81
472.654	563.81
472.873	550.81
473.092	558.81
473.311	544.81
473.53	584.81
473.749	564.81
473.968	622.81
474.187	745.81
474.406	756.81
474.625	614.81
474.844	588.81
475.063	560.81
475.282	557.81
475.501	562.81
475.72	556.81
475.939	594.81
476.158	576.81
476.377	561.81
476.596	558.81
476.814	604.81
477.033	584.81
477.252	587.81
477.471	609.81
477.69	621.81
477.908	614.81
478.127	618.81
478.346	620.81
478.564	626.81
478.783	635.81
479.002	668.81
479.22	649.81
479.439	640.81
479.658	667.81
479.876	665.81
480.095	699.81
480.313	726.81
480.532	693.81
480.751	691.81
480.969	698.81
481.188	700.81
481.406	691.81
481.624	665.81
481.843	670.81
482.061	665.81
482.28	653.81
482.498	650.81
482.717	646.81
482.935	654.81
483.153	666.81
483.372	659.81
483.59	629.81
483.808	658.81
484.027	679.81
484.245	691.81
484.463	676.81
484.681	684.81
484.9	658.81
485.118	652.81
485.336	669.81
485.554	677.81
485.772	696.81
485.99	683.81
486.209	699.81
486.427	671.81
486.645	682.81
486.863	725.81
487.081	700.81
487.299	698.81
487.517	705.81
487.735	709.81
487.953	709.81
488.171	729.81
488.389	709.81
488.607	708.81
488.825	701.81
489.043	694.81
489.261	706.81
489.479	716.81
489.696	714.81
489.914	731.81
490.132	728.81
490.35	726.81
490.568	743.81
490.786	760.81
491.003	753.81
491.221	759.81
491.439	772.81
491.657	772.81
491.874	788.81
492.092	800.81
492.31	826.81
492.527	826.81
492.745	802.81
492.963	814.81
493.18	828.81
493.398	829.81
493.615	802.81
493.833	825.81
494.05	832.81
494.268	857.81
494.485	824.81
494.703	826.81
494.92	836.81
495.138	806.81
495.355	820.81
495.573	859.81
495.79	841.81
496.008	864.81
496.225	836.81
496.442	873.81
496.66	827.81
496.877	852.81
497.094	884.81
497.312	870.81
497.529	873.81
497.746	868.81
497.963	892.81
498.181	922.81
498.398	933.81
498.615	926.81
498.832	998.81
499.049	988.81
499.267	1013.81
499.484	1033.81
499.701	1070.81
499.918	1106.81
500.135	1166.81
500.352	1165.81
500.569	1196.81
500.786	1202.81
501.003	1198.81
501.22	1154.81
501.437	1150.81
501.654	1089.81
