Data from 1988.PennyLincolnUp.Lamp.En5.5.200Scan.071819.P2_HRD10591_17-21-16-971.txt Node
Date: Thu Jul 18 17:21:16 EDT 2019
User: cochatt
Spectrometer: HR+D1059
Trigger mode: 1
Integration Time (sec): 1.000000E-1
Scans to average: 1
Electric dark correction enabled: true
Nonlinearity correction enabled: false
Boxcar width: 0
XAxis mode: Wavelengths
Number of Pixels in Spectrum: 2048
>>>>>Begin Spectral Data<<<<<
223.165	-27.25
223.4	-27.25
223.635	-27.25
223.869	-11.25
224.104	-9.25
224.338	-9.25
224.573	-6.25
224.808	-10.25
225.042	-27.25
225.277	6.75
225.511	-9.25
225.746	-1.25
225.98	8.75
226.215	9.75
226.449	-0.25
226.683	18.75
226.918	29.75
227.152	37.75
227.387	25.75
227.621	44.75
227.856	48.75
228.09	54.75
228.324	52.75
228.559	58.75
228.793	80.75
229.027	118.75
229.262	112.75
229.496	124.75
229.73	136.75
229.964	183.75
230.199	136.75
230.433	123.75
230.667	118.75
230.901	110.75
231.136	125.75
231.37	121.75
231.604	108.75
231.838	128.75
232.072	114.75
232.306	110.75
232.541	118.75
232.775	124.75
233.009	112.75
233.243	109.75
233.477	132.75
233.711	120.75
233.945	128.75
234.179	136.75
234.413	131.75
234.647	135.75
234.881	123.75
235.115	125.75
235.349	123.75
235.583	127.75
235.817	134.75
236.051	140.75
236.285	135.75
236.519	144.75
236.753	137.75
236.987	160.75
237.221	213.75
237.455	272.75
237.689	217.75
237.922	160.75
238.156	150.75
238.39	152.75
238.624	151.75
238.858	149.75
239.091	130.75
239.325	125.75
239.559	147.75
239.793	146.75
240.027	155.75
240.26	172.75
240.494	164.75
240.728	169.75
240.961	165.75
241.195	157.75
241.429	151.75
241.662	147.75
241.896	138.75
242.13	135.75
242.363	152.75
242.597	154.75
242.83	164.75
243.064	149.75
243.298	149.75
243.531	156.75
243.765	144.75
243.998	146.75
244.232	146.75
244.465	156.75
244.699	176.75
244.932	161.75
245.166	152.75
245.399	146.75
245.633	170.75
245.866	155.75
246.099	154.75
246.333	177.75
246.566	167.75
246.8	161.75
247.033	164.75
247.266	175.75
247.5	194.75
247.733	192.75
247.966	169.75
248.2	190.75
248.433	172.75
248.666	171.75
248.899	197.75
249.133	206.75
249.366	233.75
249.599	229.75
249.832	186.75
250.066	204.75
250.299	191.75
250.532	203.75
250.765	220.75
250.998	226.75
251.231	233.75
251.465	224.75
251.698	231.75
251.931	216.75
252.164	204.75
252.397	213.75
252.63	210.75
252.863	201.75
253.096	223.75
253.329	251.75
253.562	238.75
253.795	230.75
254.028	238.75
254.261	248.75
254.494	233.75
254.727	282.75
254.96	301.75
255.193	282.75
255.426	262.75
255.659	255.75
255.892	229.75
256.124	241.75
256.357	249.75
256.59	246.75
256.823	222.75
257.056	237.75
257.289	224.75
257.521	228.75
257.754	208.75
257.987	216.75
258.22	228.75
258.452	216.75
258.685	226.75
258.918	221.75
259.151	219.75
259.383	237.75
259.616	244.75
259.849	228.75
260.081	242.75
260.314	280.75
260.547	291.75
260.779	286.75
261.012	260.75
261.244	241.75
261.477	240.75
261.71	237.75
261.942	246.75
262.175	262.75
262.407	251.75
262.64	241.75
262.872	239.75
263.105	237.75
263.337	237.75
263.57	230.75
263.802	232.75
264.035	241.75
264.267	239.75
264.499	241.75
264.732	233.75
264.964	238.75
265.197	236.75
265.429	232.75
265.661	241.75
265.894	234.75
266.126	255.75
266.358	248.75
266.591	230.75
266.823	262.75
267.055	248.75
267.287	240.75
267.52	241.75
267.752	260.75
267.984	244.75
268.216	253.75
268.448	258.75
268.681	265.75
268.913	254.75
269.145	295.75
269.377	294.75
269.609	288.75
269.841	296.75
270.073	300.75
270.306	336.75
270.538	347.75
270.77	341.75
271.002	349.75
271.234	316.75
271.466	334.75
271.698	349.75
271.93	338.75
272.162	318.75
272.394	364.75
272.626	338.75
272.858	318.75
273.09	321.75
273.322	297.75
273.553	282.75
273.785	289.75
274.017	304.75
274.249	282.75
274.481	300.75
274.713	297.75
274.945	289.75
275.176	295.75
275.408	289.75
275.64	292.75
275.872	289.75
276.104	296.75
276.335	309.75
276.567	308.75
276.799	323.75
277.031	318.75
277.262	333.75
277.494	359.75
277.726	349.75
277.957	314.75
278.189	317.75
278.421	301.75
278.652	289.75
278.884	306.75
279.115	292.75
279.347	297.75
279.579	305.75
279.81	303.75
280.042	305.75
280.273	309.75
280.505	306.75
280.736	298.75
280.968	289.75
281.199	296.75
281.431	314.75
281.662	312.75
281.894	294.75
282.125	287.75
282.356	303.75
282.588	350.75
282.819	351.75
283.051	290.75
283.282	301.75
283.513	331.75
283.745	289.75
283.976	296.75
284.207	320.75
284.439	300.75
284.67	298.75
284.901	324.75
285.132	316.75
285.364	304.75
285.595	292.75
285.826	286.75
286.057	318.75
286.288	289.75
286.52	306.75
286.751	308.75
286.982	323.75
287.213	301.75
287.444	317.75
287.675	317.75
287.906	327.75
288.138	330.75
288.369	338.75
288.6	325.75
288.831	333.75
289.062	311.75
289.293	330.75
289.524	345.75
289.755	309.75
289.986	325.75
290.217	305.75
290.448	320.75
290.679	339.75
290.91	312.75
291.141	342.75
291.371	323.75
291.602	322.75
291.833	310.75
292.064	326.75
292.295	309.75
292.526	327.75
292.757	312.75
292.987	320.75
293.218	321.75
293.449	329.75
293.68	328.75
293.91	324.75
294.141	316.75
294.372	306.75
294.603	323.75
294.833	328.75
295.064	328.75
295.295	332.75
295.525	326.75
295.756	322.75
295.987	333.75
296.217	359.75
296.448	372.75
296.679	340.75
296.909	334.75
297.14	324.75
297.37	333.75
297.601	350.75
297.831	338.75
298.062	356.75
298.292	328.75
298.523	342.75
298.753	345.75
298.984	344.75
299.214	328.75
299.445	354.75
299.675	332.75
299.905	362.75
300.136	366.75
300.366	327.75
300.597	353.75
300.827	363.75
301.057	371.75
301.288	374.75
301.518	374.75
301.748	361.75
301.979	361.75
302.209	359.75
302.439	367.75
302.669	368.75
302.9	358.75
303.13	361.75
303.36	344.75
303.59	358.75
303.82	384.75
304.051	354.75
304.281	372.75
304.511	353.75
304.741	364.75
304.971	372.75
305.201	366.75
305.431	362.75
305.661	381.75
305.891	367.75
306.121	380.75
306.352	370.75
306.582	372.75
306.812	376.75
307.042	362.75
307.272	360.75
307.502	382.75
307.731	386.75
307.961	365.75
308.191	361.75
308.421	353.75
308.651	385.75
308.881	394.75
309.111	397.75
309.341	388.75
309.571	385.75
309.8	394.75
310.03	407.75
310.26	438.75
310.49	433.75
310.72	431.75
310.949	438.75
311.179	449.75
311.409	439.75
311.639	441.75
311.868	424.75
312.098	414.75
312.328	442.75
312.557	440.75
312.787	470.75
313.017	470.75
313.246	447.75
313.476	429.75
313.706	433.75
313.935	433.75
314.165	446.75
314.394	438.75
314.624	453.75
314.853	440.75
315.083	436.75
315.312	406.75
315.542	430.75
315.771	417.75
316.001	393.75
316.23	419.75
316.46	442.75
316.689	430.75
316.919	424.75
317.148	424.75
317.377	434.75
317.607	426.75
317.836	425.75
318.065	442.75
318.295	412.75
318.524	424.75
318.753	408.75
318.983	451.75
319.212	432.75
319.441	429.75
319.67	432.75
319.9	444.75
320.129	425.75
320.358	439.75
320.587	440.75
320.816	432.75
321.046	444.75
321.275	482.75
321.504	452.75
321.733	464.75
321.962	483.75
322.191	466.75
322.42	494.75
322.649	509.75
322.878	510.75
323.108	541.75
323.337	564.75
323.566	567.75
323.795	597.75
324.024	665.75
324.253	804.75
324.482	1140.75
324.71	1821.75
324.939	2708.75
325.168	2360.75
325.397	1158.75
325.626	776.75
325.855	640.75
326.084	583.75
326.313	590.75
326.542	583.75
326.77	663.75
326.999	728.75
327.228	1061.75
327.457	1608.75
327.686	2048.75
327.914	1348.75
328.143	862.75
328.372	719.75
328.6	669.75
328.829	658.75
329.058	652.75
329.287	669.75
329.515	635.75
329.744	581.75
329.972	576.75
330.201	586.75
330.43	615.75
330.658	646.75
330.887	694.75
331.115	689.75
331.344	593.75
331.572	565.75
331.801	553.75
332.03	555.75
332.258	559.75
332.486	514.75
332.715	520.75
332.943	533.75
333.172	517.75
333.4	537.75
333.629	534.75
333.857	533.75
334.085	543.75
334.314	539.75
334.542	574.75
334.771	565.75
334.999	544.75
335.227	530.75
335.455	516.75
335.684	513.75
335.912	506.75
336.14	501.75
336.369	501.75
336.597	514.75
336.825	529.75
337.053	516.75
337.281	524.75
337.51	504.75
337.738	520.75
337.966	516.75
338.194	495.75
338.422	540.75
338.65	520.75
338.878	518.75
339.106	493.75
339.334	501.75
339.562	483.75
339.79	494.75
340.018	487.75
340.246	476.75
340.474	519.75
340.702	526.75
340.93	516.75
341.158	510.75
341.386	490.75
341.614	499.75
341.842	497.75
342.07	501.75
342.298	488.75
342.526	478.75
342.754	476.75
342.981	472.75
343.209	490.75
343.437	497.75
343.665	475.75
343.893	498.75
344.12	522.75
344.348	481.75
344.576	488.75
344.804	497.75
345.031	501.75
345.259	530.75
345.487	510.75
345.714	482.75
345.942	498.75
346.17	480.75
346.397	473.75
346.625	482.75
346.853	467.75
347.08	483.75
347.308	505.75
347.535	491.75
347.763	487.75
347.99	469.75
348.218	491.75
348.445	503.75
348.673	491.75
348.9	480.75
349.128	479.75
349.355	463.75
349.583	468.75
349.81	471.75
350.037	462.75
350.265	468.75
350.492	466.75
350.72	489.75
350.947	478.75
351.174	489.75
351.402	498.75
351.629	490.75
351.856	481.75
352.083	487.75
352.311	496.75
352.538	480.75
352.765	495.75
352.992	488.75
353.22	481.75
353.447	486.75
353.674	463.75
353.901	462.75
354.128	455.75
354.355	450.75
354.583	454.75
354.81	445.75
355.037	446.75
355.264	463.75
355.491	457.75
355.718	441.75
355.945	440.75
356.172	441.75
356.399	436.75
356.626	452.75
356.853	466.75
357.08	471.75
357.307	443.75
357.534	439.75
357.761	447.75
357.988	425.75
358.215	465.75
358.441	451.75
358.668	450.75
358.895	454.75
359.122	471.75
359.349	463.75
359.576	480.75
359.802	503.75
360.029	541.75
360.256	535.75
360.483	529.75
360.709	486.75
360.936	483.75
361.163	484.75
361.39	487.75
361.616	486.75
361.843	469.75
362.07	477.75
362.296	488.75
362.523	479.75
362.749	489.75
362.976	477.75
363.203	474.75
363.429	478.75
363.656	470.75
363.882	479.75
364.109	482.75
364.335	461.75
364.562	465.75
364.788	473.75
365.015	459.75
365.241	452.75
365.468	479.75
365.694	472.75
365.92	478.75
366.147	470.75
366.373	472.75
366.599	464.75
366.826	446.75
367.052	466.75
367.278	453.75
367.505	460.75
367.731	474.75
367.957	470.75
368.184	474.75
368.41	476.75
368.636	479.75
368.862	483.75
369.089	459.75
369.315	460.75
369.541	450.75
369.767	472.75
369.993	469.75
370.219	471.75
370.445	470.75
370.672	473.75
370.898	454.75
371.124	472.75
371.35	474.75
371.576	463.75
371.802	469.75
372.028	476.75
372.254	454.75
372.48	469.75
372.706	466.75
372.932	461.75
373.158	486.75
373.384	490.75
373.61	465.75
373.835	472.75
374.061	469.75
374.287	467.75
374.513	444.75
374.739	489.75
374.965	463.75
375.191	464.75
375.416	470.75
375.642	471.75
375.868	484.75
376.094	479.75
376.319	467.75
376.545	479.75
376.771	453.75
376.997	469.75
377.222	455.75
377.448	457.75
377.674	465.75
377.899	457.75
378.125	455.75
378.35	455.75
378.576	457.75
378.802	457.75
379.027	465.75
379.253	465.75
379.478	459.75
379.704	469.75
379.929	463.75
380.155	462.75
380.38	496.75
380.606	457.75
380.831	485.75
381.057	477.75
381.282	466.75
381.507	475.75
381.733	497.75
381.958	468.75
382.184	464.75
382.409	488.75
382.634	490.75
382.86	486.75
383.085	464.75
383.31	481.75
383.535	494.75
383.761	478.75
383.986	506.75
384.211	501.75
384.436	489.75
384.662	522.75
384.887	498.75
385.112	490.75
385.337	508.75
385.562	536.75
385.787	517.75
386.013	554.75
386.238	522.75
386.463	530.75
386.688	539.75
386.913	502.75
387.138	505.75
387.363	515.75
387.588	544.75
387.813	532.75
388.038	517.75
388.263	518.75
388.488	522.75
388.713	500.75
388.938	485.75
389.163	527.75
389.387	507.75
389.612	497.75
389.837	505.75
390.062	494.75
390.287	516.75
390.512	522.75
390.736	529.75
390.961	523.75
391.186	502.75
391.411	517.75
391.636	528.75
391.86	555.75
392.085	548.75
392.31	548.75
392.534	534.75
392.759	526.75
392.984	518.75
393.208	540.75
393.433	529.75
393.658	527.75
393.882	531.75
394.107	529.75
394.331	526.75
394.556	514.75
394.78	532.75
395.005	534.75
395.229	549.75
395.454	528.75
395.678	552.75
395.903	556.75
396.127	570.75
396.352	575.75
396.576	540.75
396.801	539.75
397.025	536.75
397.249	564.75
397.474	545.75
397.698	575.75
397.922	599.75
398.147	572.75
398.371	602.75
398.595	592.75
398.82	583.75
399.044	598.75
399.268	614.75
399.492	640.75
399.717	690.75
399.941	725.75
400.165	758.75
400.389	746.75
400.613	684.75
400.837	664.75
401.062	648.75
401.286	622.75
401.51	616.75
401.734	592.75
401.958	623.75
402.182	634.75
402.406	630.75
402.63	607.75
402.854	615.75
403.078	630.75
403.302	605.75
403.526	608.75
403.75	649.75
403.974	636.75
404.198	620.75
404.422	625.75
404.645	636.75
404.869	655.75
405.093	660.75
405.317	702.75
405.541	733.75
405.765	678.75
405.988	638.75
406.212	655.75
406.436	694.75
406.66	690.75
406.883	689.75
407.107	702.75
407.331	772.75
407.555	830.75
407.778	809.75
408.002	752.75
408.226	702.75
408.449	685.75
408.673	690.75
408.896	747.75
409.12	777.75
409.344	719.75
409.567	657.75
409.791	646.75
410.014	631.75
410.238	644.75
410.461	635.75
410.685	667.75
410.908	683.75
411.132	720.75
411.355	743.75
411.578	698.75
411.802	656.75
412.025	637.75
412.249	626.75
412.472	668.75
412.695	650.75
412.919	664.75
413.142	621.75
413.365	610.75
413.589	588.75
413.812	588.75
414.035	604.75
414.258	579.75
414.482	589.75
414.705	611.75
414.928	629.75
415.151	582.75
415.374	591.75
415.597	597.75
415.821	594.75
416.044	607.75
416.267	617.75
416.49	585.75
416.713	582.75
416.936	578.75
417.159	603.75
417.382	601.75
417.605	604.75
417.828	620.75
418.051	626.75
418.274	593.75
418.497	600.75
418.72	602.75
418.943	601.75
419.166	613.75
419.389	635.75
419.611	622.75
419.834	611.75
420.057	618.75
420.28	604.75
420.503	599.75
420.726	612.75
420.948	640.75
421.171	671.75
421.394	706.75
421.617	652.75
421.839	632.75
422.062	617.75
422.285	637.75
422.507	702.75
422.73	798.75
422.953	778.75
423.175	679.75
423.398	662.75
423.621	657.75
423.843	642.75
424.066	657.75
424.288	684.75
424.511	681.75
424.733	764.75
424.956	866.75
425.178	833.75
425.401	815.75
425.623	842.75
425.846	748.75
426.068	678.75
426.291	673.75
426.513	668.75
426.735	682.75
426.958	726.75
427.18	841.75
427.402	1003.75
427.625	1113.75
427.847	950.75
428.069	815.75
428.292	718.75
428.514	668.75
428.736	649.75
428.958	663.75
429.181	631.75
429.403	614.75
429.625	624.75
429.847	671.75
430.069	766.75
430.292	752.75
430.514	644.75
430.736	636.75
430.958	621.75
431.18	605.75
431.402	602.75
431.624	591.75
431.846	600.75
432.068	590.75
432.29	583.75
432.512	592.75
432.734	626.75
432.956	590.75
433.178	609.75
433.4	635.75
433.622	610.75
433.844	602.75
434.066	586.75
434.287	588.75
434.509	620.75
434.731	644.75
434.953	606.75
435.175	644.75
435.397	676.75
435.618	671.75
435.84	703.75
436.062	829.75
436.284	902.75
436.505	775.75
436.727	688.75
436.949	657.75
437.17	623.75
437.392	621.75
437.614	645.75
437.835	651.75
438.057	786.75
438.278	949.75
438.5	900.75
438.721	1028.75
438.943	953.75
439.165	745.75
439.386	696.75
439.608	698.75
439.829	678.75
440.05	716.75
440.272	796.75
440.493	724.75
440.715	650.75
440.936	656.75
441.158	609.75
441.379	610.75
441.6	649.75
441.822	666.75
442.043	726.75
442.264	830.75
442.486	864.75
442.707	772.75
442.928	701.75
443.149	708.75
443.371	706.75
443.592	761.75
443.813	884.75
444.034	964.75
444.255	797.75
444.476	700.75
444.698	710.75
444.919	684.75
445.14	758.75
445.361	751.75
445.582	748.75
445.803	812.75
446.024	935.75
446.245	939.75
446.466	861.75
446.687	723.75
446.908	681.75
447.129	637.75
447.35	645.75
447.571	614.75
447.792	602.75
448.013	605.75
448.234	664.75
448.455	689.75
448.675	854.75
448.896	1022.75
449.117	830.75
449.338	777.75
449.559	904.75
449.779	1053.75
450	826.75
450.221	672.75
450.442	628.75
450.662	636.75
450.883	626.75
451.104	630.75
451.324	636.75
451.545	593.75
451.766	578.75
451.986	551.75
452.207	531.75
452.428	551.75
452.648	567.75
452.869	552.75
453.089	542.75
453.31	574.75
453.53	571.75
453.751	570.75
453.971	559.75
454.192	601.75
454.412	568.75
454.633	558.75
454.853	553.75
455.073	542.75
455.294	586.75
455.514	669.75
455.734	664.75
455.955	562.75
456.175	548.75
456.395	532.75
456.616	521.75
456.836	528.75
457.056	525.75
457.276	504.75
457.497	516.75
457.717	543.75
457.937	528.75
458.157	550.75
458.377	542.75
458.598	589.75
458.818	638.75
459.038	759.75
459.258	757.75
459.478	650.75
459.698	600.75
459.918	609.75
460.138	596.75
460.358	636.75
460.578	612.75
460.798	604.75
461.018	623.75
461.238	597.75
461.458	594.75
461.678	604.75
461.898	584.75
462.118	598.75
462.338	636.75
462.558	628.75
462.777	636.75
462.997	649.75
463.217	669.75
463.437	661.75
463.657	637.75
463.876	633.75
464.096	665.75
464.316	630.75
464.536	665.75
464.755	671.75
464.975	649.75
465.195	707.75
465.414	768.75
465.634	666.75
465.854	646.75
466.073	607.75
466.293	607.75
466.512	584.75
466.732	551.75
466.951	566.75
467.171	584.75
467.391	590.75
467.61	593.75
467.829	586.75
468.049	564.75
468.268	580.75
468.488	577.75
468.707	564.75
468.927	562.75
469.146	550.75
469.365	558.75
469.585	557.75
469.804	557.75
470.023	576.75
470.243	568.75
470.462	578.75
470.681	612.75
470.901	603.75
471.12	590.75
471.339	586.75
471.558	607.75
471.777	587.75
471.997	566.75
472.216	570.75
472.435	597.75
472.654	575.75
472.873	559.75
473.092	563.75
473.311	584.75
473.53	558.75
473.749	600.75
473.968	634.75
474.187	747.75
474.406	778.75
474.625	646.75
474.844	620.75
475.063	586.75
475.282	589.75
475.501	596.75
475.72	622.75
475.939	598.75
476.158	604.75
476.377	618.75
476.596	596.75
476.814	606.75
477.033	595.75
477.252	628.75
477.471	606.75
477.69	619.75
477.908	624.75
478.127	649.75
478.346	638.75
478.564	676.75
478.783	666.75
479.002	650.75
479.22	642.75
479.439	677.75
479.658	707.75
479.876	713.75
480.095	715.75
480.313	729.75
480.532	725.75
480.751	731.75
480.969	704.75
481.188	733.75
481.406	734.75
481.624	710.75
481.843	703.75
482.061	692.75
482.28	669.75
482.498	680.75
482.717	676.75
482.935	688.75
483.153	679.75
483.372	682.75
483.59	678.75
483.808	686.75
484.027	661.75
484.245	681.75
484.463	679.75
484.681	682.75
484.9	694.75
485.118	689.75
485.336	704.75
485.554	706.75
485.772	712.75
485.99	701.75
486.209	713.75
486.427	742.75
486.645	736.75
486.863	742.75
487.081	765.75
487.299	745.75
487.517	719.75
487.735	746.75
487.953	737.75
488.171	749.75
488.389	750.75
488.607	742.75
488.825	734.75
489.043	749.75
489.261	750.75
489.479	717.75
489.696	732.75
489.914	730.75
490.132	741.75
490.35	774.75
490.568	752.75
490.786	786.75
491.003	765.75
491.221	786.75
491.439	803.75
491.657	814.75
491.874	823.75
492.092	842.75
492.31	839.75
492.527	842.75
492.745	828.75
492.963	855.75
493.18	831.75
493.398	857.75
493.615	857.75
493.833	850.75
494.05	879.75
494.268	867.75
494.485	850.75
494.703	879.75
494.92	847.75
495.138	876.75
495.355	882.75
495.573	851.75
495.79	855.75
496.008	896.75
496.225	890.75
496.442	857.75
496.66	895.75
496.877	849.75
497.094	884.75
497.312	914.75
497.529	912.75
497.746	880.75
497.963	930.75
498.181	945.75
498.398	979.75
498.615	979.75
498.832	1003.75
499.049	987.75
499.267	1029.75
499.484	1093.75
499.701	1112.75
499.918	1128.75
500.135	1153.75
500.352	1244.75
500.569	1263.75
500.786	1238.75
501.003	1245.75
501.22	1206.75
501.437	1169.75
501.654	1137.75
