Data from 1988.PennyLincolnUp.Lamp.En5.5.200Scan.071819.P2_HRD10591_17-19-07-972.txt Node
Date: Thu Jul 18 17:19:07 EDT 2019
User: cochatt
Spectrometer: HR+D1059
Trigger mode: 1
Integration Time (sec): 1.000000E-1
Scans to average: 1
Electric dark correction enabled: true
Nonlinearity correction enabled: false
Boxcar width: 0
XAxis mode: Wavelengths
Number of Pixels in Spectrum: 2048
>>>>>Begin Spectral Data<<<<<
223.165	-12.06
223.4	-12.06
223.635	-12.06
223.869	-12.06
224.104	-27.06
224.338	-8.06
224.573	-9.06
224.808	-22.06
225.042	-4.06
225.277	-5.06
225.511	4.94
225.746	-5.06
225.98	-2.06
226.215	16.94
226.449	2.94
226.683	19.94
226.918	27.94
227.152	33.94
227.387	37.94
227.621	31.94
227.856	50.94
228.09	34.94
228.324	51.94
228.559	54.94
228.793	67.94
229.027	106.94
229.262	105.94
229.496	107.94
229.73	123.94
229.964	149.94
230.199	116.94
230.433	96.94
230.667	104.94
230.901	103.94
231.136	120.94
231.37	113.94
231.604	115.94
231.838	107.94
232.072	108.94
232.306	92.94
232.541	95.94
232.775	105.94
233.009	118.94
233.243	110.94
233.477	116.94
233.711	107.94
233.945	119.94
234.179	103.94
234.413	112.94
234.647	108.94
234.881	128.94
235.115	111.94
235.349	110.94
235.583	108.94
235.817	122.94
236.051	117.94
236.285	137.94
236.519	129.94
236.753	130.94
236.987	136.94
237.221	168.94
237.455	214.94
237.689	164.94
237.922	120.94
238.156	144.94
238.39	120.94
238.624	122.94
238.858	112.94
239.091	114.94
239.325	108.94
239.559	107.94
239.793	133.94
240.027	133.94
240.26	134.94
240.494	151.94
240.728	168.94
240.961	143.94
241.195	131.94
241.429	150.94
241.662	124.94
241.896	127.94
242.13	123.94
242.363	124.94
242.597	126.94
242.83	132.94
243.064	138.94
243.298	131.94
243.531	121.94
243.765	112.94
243.998	132.94
244.232	115.94
244.465	151.94
244.699	145.94
244.932	141.94
245.166	135.94
245.399	133.94
245.633	121.94
245.866	145.94
246.099	148.94
246.333	144.94
246.566	158.94
246.8	152.94
247.033	152.94
247.266	146.94
247.5	153.94
247.733	158.94
247.966	139.94
248.2	156.94
248.433	151.94
248.666	160.94
248.899	174.94
249.133	187.94
249.366	182.94
249.599	175.94
249.832	184.94
250.066	180.94
250.299	161.94
250.532	171.94
250.765	182.94
250.998	200.94
251.231	217.94
251.465	198.94
251.698	207.94
251.931	181.94
252.164	196.94
252.397	182.94
252.63	208.94
252.863	191.94
253.096	209.94
253.329	202.94
253.562	205.94
253.795	206.94
254.028	196.94
254.261	203.94
254.494	218.94
254.727	247.94
254.96	262.94
255.193	247.94
255.426	236.94
255.659	224.94
255.892	229.94
256.124	219.94
256.357	199.94
256.59	207.94
256.823	198.94
257.056	190.94
257.289	198.94
257.521	211.94
257.754	176.94
257.987	194.94
258.22	203.94
258.452	211.94
258.685	201.94
258.918	212.94
259.151	209.94
259.383	203.94
259.616	209.94
259.849	212.94
260.081	218.94
260.314	235.94
260.547	235.94
260.779	226.94
261.012	221.94
261.244	212.94
261.477	231.94
261.71	212.94
261.942	208.94
262.175	211.94
262.407	235.94
262.64	221.94
262.872	216.94
263.105	215.94
263.337	214.94
263.57	222.94
263.802	210.94
264.035	205.94
264.267	203.94
264.499	211.94
264.732	219.94
264.964	204.94
265.197	210.94
265.429	197.94
265.661	205.94
265.894	208.94
266.126	222.94
266.358	229.94
266.591	197.94
266.823	224.94
267.055	239.94
267.287	215.94
267.52	214.94
267.752	214.94
267.984	212.94
268.216	227.94
268.448	247.94
268.681	238.94
268.913	243.94
269.145	243.94
269.377	263.94
269.609	250.94
269.841	254.94
270.073	264.94
270.306	265.94
270.538	292.94
270.77	302.94
271.002	291.94
271.234	278.94
271.466	274.94
271.698	275.94
271.93	293.94
272.162	292.94
272.394	296.94
272.626	274.94
272.858	278.94
273.09	287.94
273.322	248.94
273.553	263.94
273.785	230.94
274.017	246.94
274.249	258.94
274.481	268.94
274.713	255.94
274.945	272.94
275.176	250.94
275.408	266.94
275.64	251.94
275.872	265.94
276.104	271.94
276.335	261.94
276.567	274.94
276.799	275.94
277.031	302.94
277.262	292.94
277.494	299.94
277.726	281.94
277.957	281.94
278.189	283.94
278.421	264.94
278.652	258.94
278.884	265.94
279.115	254.94
279.347	256.94
279.579	255.94
279.81	263.94
280.042	267.94
280.273	269.94
280.505	252.94
280.736	262.94
280.968	242.94
281.199	257.94
281.431	272.94
281.662	262.94
281.894	280.94
282.125	273.94
282.356	286.94
282.588	316.94
282.819	304.94
283.051	263.94
283.282	286.94
283.513	274.94
283.745	262.94
283.976	270.94
284.207	267.94
284.439	287.94
284.67	290.94
284.901	275.94
285.132	299.94
285.364	273.94
285.595	288.94
285.826	264.94
286.057	278.94
286.288	268.94
286.52	306.94
286.751	300.94
286.982	274.94
287.213	256.94
287.444	258.94
287.675	285.94
287.906	303.94
288.138	303.94
288.369	295.94
288.6	311.94
288.831	294.94
289.062	285.94
289.293	305.94
289.524	294.94
289.755	276.94
289.986	296.94
290.217	294.94
290.448	286.94
290.679	288.94
290.91	283.94
291.141	282.94
291.371	294.94
291.602	274.94
291.833	278.94
292.064	281.94
292.295	274.94
292.526	295.94
292.757	283.94
292.987	292.94
293.218	284.94
293.449	290.94
293.68	300.94
293.91	264.94
294.141	283.94
294.372	287.94
294.603	298.94
294.833	290.94
295.064	281.94
295.295	300.94
295.525	298.94
295.756	306.94
295.987	306.94
296.217	335.94
296.448	326.94
296.679	323.94
296.909	293.94
297.14	280.94
297.37	297.94
297.601	294.94
297.831	297.94
298.062	298.94
298.292	303.94
298.523	297.94
298.753	302.94
298.984	293.94
299.214	304.94
299.445	298.94
299.675	288.94
299.905	325.94
300.136	311.94
300.366	326.94
300.597	315.94
300.827	313.94
301.057	323.94
301.288	319.94
301.518	315.94
301.748	323.94
301.979	316.94
302.209	323.94
302.439	323.94
302.669	339.94
302.9	326.94
303.13	324.94
303.36	329.94
303.59	342.94
303.82	338.94
304.051	340.94
304.281	340.94
304.511	337.94
304.741	340.94
304.971	328.94
305.201	333.94
305.431	344.94
305.661	328.94
305.891	320.94
306.121	325.94
306.352	330.94
306.582	342.94
306.812	342.94
307.042	342.94
307.272	337.94
307.502	326.94
307.731	342.94
307.961	336.94
308.191	337.94
308.421	324.94
308.651	339.94
308.881	337.94
309.111	334.94
309.341	341.94
309.571	358.94
309.8	348.94
310.03	360.94
310.26	386.94
310.49	384.94
310.72	387.94
310.949	391.94
311.179	392.94
311.409	383.94
311.639	391.94
311.868	387.94
312.098	388.94
312.328	379.94
312.557	393.94
312.787	394.94
313.017	393.94
313.246	370.94
313.476	385.94
313.706	371.94
313.935	392.94
314.165	395.94
314.394	408.94
314.624	419.94
314.853	400.94
315.083	380.94
315.312	380.94
315.542	370.94
315.771	370.94
316.001	367.94
316.23	369.94
316.46	379.94
316.689	387.94
316.919	394.94
317.148	406.94
317.377	392.94
317.607	390.94
317.836	380.94
318.065	392.94
318.295	396.94
318.524	358.94
318.753	368.94
318.983	375.94
319.212	371.94
319.441	399.94
319.67	383.94
319.9	408.94
320.129	385.94
320.358	396.94
320.587	378.94
320.816	411.94
321.046	411.94
321.275	411.94
321.504	387.94
321.733	425.94
321.962	420.94
322.191	426.94
322.42	426.94
322.649	447.94
322.878	456.94
323.108	461.94
323.337	476.94
323.566	488.94
323.795	546.94
324.024	596.94
324.253	724.94
324.482	1002.94
324.71	1558.94
324.939	2194.94
325.168	1908.94
325.397	1011.94
325.626	666.94
325.855	571.94
326.084	526.94
326.313	514.94
326.542	517.94
326.77	570.94
326.999	680.94
327.228	914.94
327.457	1354.94
327.686	1655.94
327.914	1090.94
328.143	705.94
328.372	628.94
328.6	579.94
328.829	546.94
329.058	583.94
329.287	564.94
329.515	550.94
329.744	519.94
329.972	491.94
330.201	498.94
330.43	520.94
330.658	544.94
330.887	622.94
331.115	586.94
331.344	548.94
331.572	479.94
331.801	494.94
332.03	487.94
332.258	466.94
332.486	449.94
332.715	460.94
332.943	454.94
333.172	462.94
333.4	454.94
333.629	461.94
333.857	462.94
334.085	496.94
334.314	466.94
334.542	486.94
334.771	469.94
334.999	474.94
335.227	457.94
335.455	459.94
335.684	465.94
335.912	455.94
336.14	418.94
336.369	448.94
336.597	459.94
336.825	460.94
337.053	463.94
337.281	454.94
337.51	435.94
337.738	431.94
337.966	416.94
338.194	442.94
338.422	444.94
338.65	464.94
338.878	460.94
339.106	436.94
339.334	455.94
339.562	433.94
339.79	403.94
340.018	425.94
340.246	427.94
340.474	422.94
340.702	438.94
340.93	444.94
341.158	427.94
341.386	445.94
341.614	444.94
341.842	457.94
342.07	439.94
342.298	420.94
342.526	426.94
342.754	437.94
342.981	427.94
343.209	410.94
343.437	417.94
343.665	450.94
343.893	458.94
344.12	448.94
344.348	428.94
344.576	463.94
344.804	454.94
345.031	456.94
345.259	464.94
345.487	457.94
345.714	454.94
345.942	414.94
346.17	415.94
346.397	402.94
346.625	423.94
346.853	413.94
347.08	439.94
347.308	428.94
347.535	442.94
347.763	439.94
347.99	427.94
348.218	435.94
348.445	427.94
348.673	446.94
348.9	432.94
349.128	427.94
349.355	426.94
349.583	412.94
349.81	397.94
350.037	403.94
350.265	421.94
350.492	406.94
350.72	400.94
350.947	420.94
351.174	440.94
351.402	441.94
351.629	450.94
351.856	419.94
352.083	425.94
352.311	442.94
352.538	441.94
352.765	433.94
352.992	424.94
353.22	423.94
353.447	423.94
353.674	407.94
353.901	407.94
354.128	385.94
354.355	388.94
354.583	408.94
354.81	394.94
355.037	394.94
355.264	380.94
355.491	396.94
355.718	402.94
355.945	383.94
356.172	394.94
356.399	391.94
356.626	367.94
356.853	383.94
357.08	400.94
357.307	405.94
357.534	394.94
357.761	398.94
357.988	393.94
358.215	403.94
358.441	392.94
358.668	387.94
358.895	407.94
359.122	414.94
359.349	411.94
359.576	418.94
359.802	422.94
360.029	468.94
360.256	480.94
360.483	452.94
360.709	431.94
360.936	407.94
361.163	404.94
361.39	443.94
361.616	428.94
361.843	419.94
362.07	400.94
362.296	408.94
362.523	410.94
362.749	424.94
362.976	420.94
363.203	411.94
363.429	412.94
363.656	402.94
363.882	406.94
364.109	404.94
364.335	388.94
364.562	403.94
364.788	402.94
365.015	411.94
365.241	424.94
365.468	419.94
365.694	427.94
365.92	416.94
366.147	408.94
366.373	399.94
366.599	394.94
366.826	400.94
367.052	402.94
367.278	399.94
367.505	390.94
367.731	402.94
367.957	409.94
368.184	400.94
368.41	418.94
368.636	409.94
368.862	406.94
369.089	415.94
369.315	401.94
369.541	395.94
369.767	396.94
369.993	414.94
370.219	409.94
370.445	423.94
370.672	397.94
370.898	397.94
371.124	401.94
371.35	401.94
371.576	377.94
371.802	398.94
372.028	405.94
372.254	376.94
372.48	402.94
372.706	409.94
372.932	414.94
373.158	416.94
373.384	409.94
373.61	416.94
373.835	405.94
374.061	411.94
374.287	415.94
374.513	394.94
374.739	439.94
374.965	419.94
375.191	420.94
375.416	408.94
375.642	432.94
375.868	420.94
376.094	409.94
376.319	419.94
376.545	416.94
376.771	394.94
376.997	390.94
377.222	401.94
377.448	400.94
377.674	385.94
377.899	395.94
378.125	398.94
378.35	412.94
378.576	395.94
378.802	411.94
379.027	397.94
379.253	391.94
379.478	397.94
379.704	401.94
379.929	414.94
380.155	405.94
380.38	384.94
380.606	402.94
380.831	401.94
381.057	397.94
381.282	392.94
381.507	398.94
381.733	410.94
381.958	416.94
382.184	405.94
382.409	411.94
382.634	424.94
382.86	410.94
383.085	424.94
383.31	422.94
383.535	416.94
383.761	442.94
383.986	419.94
384.211	419.94
384.436	432.94
384.662	448.94
384.887	442.94
385.112	424.94
385.337	432.94
385.562	421.94
385.787	448.94
386.013	452.94
386.238	469.94
386.463	421.94
386.688	454.94
386.913	442.94
387.138	433.94
387.363	462.94
387.588	446.94
387.813	474.94
388.038	464.94
388.263	427.94
388.488	443.94
388.713	436.94
388.938	423.94
389.163	431.94
389.387	448.94
389.612	426.94
389.837	458.94
390.062	448.94
390.287	449.94
390.512	435.94
390.736	463.94
390.961	442.94
391.186	419.94
391.411	448.94
391.636	459.94
391.86	451.94
392.085	459.94
392.31	485.94
392.534	459.94
392.759	458.94
392.984	455.94
393.208	443.94
393.433	448.94
393.658	468.94
393.882	455.94
394.107	431.94
394.331	458.94
394.556	473.94
394.78	470.94
395.005	470.94
395.229	462.94
395.454	457.94
395.678	467.94
395.903	470.94
396.127	474.94
396.352	486.94
396.576	463.94
396.801	477.94
397.025	464.94
397.249	480.94
397.474	467.94
397.698	476.94
397.922	488.94
398.147	512.94
398.371	496.94
398.595	501.94
398.82	481.94
399.044	518.94
399.268	525.94
399.492	569.94
399.717	567.94
399.941	615.94
400.165	651.94
400.389	656.94
400.613	592.94
400.837	554.94
401.062	545.94
401.286	524.94
401.51	531.94
401.734	495.94
401.958	503.94
402.182	513.94
402.406	521.94
402.63	530.94
402.854	518.94
403.078	507.94
403.302	510.94
403.526	534.94
403.75	554.94
403.974	498.94
404.198	522.94
404.422	534.94
404.645	552.94
404.869	536.94
405.093	554.94
405.317	563.94
405.541	596.94
405.765	566.94
405.988	556.94
406.212	538.94
406.436	575.94
406.66	576.94
406.883	584.94
407.107	606.94
407.331	652.94
407.555	713.94
407.778	677.94
408.002	632.94
408.226	606.94
408.449	577.94
408.673	590.94
408.896	604.94
409.12	632.94
409.344	588.94
409.567	552.94
409.791	549.94
410.014	542.94
410.238	553.94
410.461	530.94
410.685	543.94
410.908	555.94
411.132	565.94
411.355	639.94
411.578	578.94
411.802	523.94
412.025	542.94
412.249	526.94
412.472	538.94
412.695	535.94
412.919	533.94
413.142	528.94
413.365	518.94
413.589	509.94
413.812	491.94
414.035	501.94
414.258	499.94
414.482	505.94
414.705	522.94
414.928	503.94
415.151	521.94
415.374	520.94
415.597	474.94
415.821	492.94
416.044	498.94
416.267	488.94
416.49	500.94
416.713	486.94
416.936	482.94
417.159	495.94
417.382	544.94
417.605	494.94
417.828	513.94
418.051	525.94
418.274	523.94
418.497	499.94
418.72	482.94
418.943	500.94
419.166	526.94
419.389	523.94
419.611	529.94
419.834	544.94
420.057	524.94
420.28	505.94
420.503	503.94
420.726	500.94
420.948	523.94
421.171	566.94
421.394	566.94
421.617	550.94
421.839	529.94
422.062	513.94
422.285	532.94
422.507	589.94
422.73	678.94
422.953	671.94
423.175	584.94
423.398	555.94
423.621	542.94
423.843	558.94
424.066	549.94
424.288	558.94
424.511	575.94
424.733	628.94
424.956	712.94
425.178	685.94
425.401	687.94
425.623	711.94
425.846	582.94
426.068	568.94
426.291	546.94
426.513	547.94
426.735	585.94
426.958	622.94
427.18	721.94
427.402	812.94
427.625	900.94
427.847	757.94
428.069	658.94
428.292	599.94
428.514	558.94
428.736	538.94
428.958	538.94
429.181	526.94
429.403	517.94
429.625	542.94
429.847	577.94
430.069	625.94
430.292	627.94
430.514	529.94
430.736	553.94
430.958	511.94
431.18	501.94
431.402	500.94
431.624	490.94
431.846	494.94
432.068	483.94
432.29	475.94
432.512	483.94
432.734	512.94
432.956	486.94
433.178	497.94
433.4	500.94
433.622	486.94
433.844	498.94
434.066	504.94
434.287	496.94
434.509	503.94
434.731	513.94
434.953	498.94
435.175	537.94
435.397	546.94
435.618	574.94
435.84	582.94
436.062	690.94
436.284	774.94
436.505	638.94
436.727	575.94
436.949	546.94
437.17	525.94
437.392	532.94
437.614	543.94
437.835	583.94
438.057	673.94
438.278	758.94
438.5	772.94
438.721	872.94
438.943	810.94
439.165	636.94
439.386	587.94
439.608	588.94
439.829	563.94
440.05	591.94
440.272	610.94
440.493	606.94
440.715	556.94
440.936	548.94
441.158	527.94
441.379	519.94
441.6	542.94
441.822	554.94
442.043	623.94
442.264	682.94
442.486	719.94
442.707	608.94
442.928	562.94
443.149	591.94
443.371	607.94
443.592	639.94
443.813	736.94
444.034	815.94
444.255	668.94
444.476	600.94
444.698	576.94
444.919	589.94
445.14	640.94
445.361	601.94
445.582	603.94
445.803	688.94
446.024	762.94
446.245	757.94
446.466	708.94
446.687	594.94
446.908	570.94
447.129	548.94
447.35	538.94
447.571	500.94
447.792	509.94
448.013	532.94
448.234	562.94
448.455	612.94
448.675	707.94
448.896	816.94
449.117	702.94
449.338	672.94
449.559	774.94
449.779	874.94
450	691.94
450.221	581.94
450.442	529.94
450.662	520.94
450.883	545.94
451.104	526.94
451.324	534.94
451.545	509.94
451.766	483.94
451.986	494.94
452.207	474.94
452.428	460.94
452.648	468.94
452.869	475.94
453.089	467.94
453.31	488.94
453.53	485.94
453.751	469.94
453.971	462.94
454.192	506.94
454.412	466.94
454.633	454.94
454.853	455.94
455.073	471.94
455.294	481.94
455.514	544.94
455.734	550.94
455.955	468.94
456.175	449.94
456.395	448.94
456.616	454.94
456.836	452.94
457.056	446.94
457.276	457.94
457.497	447.94
457.717	450.94
457.937	446.94
458.157	454.94
458.377	447.94
458.598	513.94
458.818	558.94
459.038	608.94
459.258	616.94
459.478	546.94
459.698	511.94
459.918	496.94
460.138	519.94
460.358	497.94
460.578	511.94
460.798	502.94
461.018	504.94
461.238	522.94
461.458	522.94
461.678	509.94
461.898	498.94
462.118	495.94
462.338	544.94
462.558	523.94
462.777	531.94
462.997	544.94
463.217	558.94
463.437	542.94
463.657	549.94
463.876	541.94
464.096	538.94
464.316	540.94
464.536	543.94
464.755	547.94
464.975	557.94
465.195	576.94
465.414	673.94
465.634	604.94
465.854	530.94
466.073	511.94
466.293	481.94
466.512	483.94
466.732	506.94
466.951	484.94
467.171	483.94
467.391	500.94
467.61	485.94
467.829	501.94
468.049	499.94
468.268	491.94
468.488	478.94
468.707	497.94
468.927	463.94
469.146	442.94
469.365	491.94
469.585	470.94
469.804	488.94
470.023	494.94
470.243	470.94
470.462	487.94
470.681	486.94
470.901	502.94
471.12	484.94
471.339	493.94
471.558	494.94
471.777	479.94
471.997	474.94
472.216	489.94
472.435	492.94
472.654	489.94
472.873	480.94
473.092	477.94
473.311	483.94
473.53	472.94
473.749	474.94
473.968	514.94
474.187	632.94
474.406	645.94
474.625	558.94
474.844	514.94
475.063	488.94
475.282	495.94
475.501	494.94
475.72	502.94
475.939	479.94
476.158	498.94
476.377	520.94
476.596	501.94
476.814	506.94
477.033	534.94
477.252	533.94
477.471	536.94
477.69	550.94
477.908	528.94
478.127	532.94
478.346	544.94
478.564	563.94
478.783	535.94
479.002	550.94
479.22	543.94
479.439	574.94
479.658	586.94
479.876	623.94
480.095	606.94
480.313	626.94
480.532	610.94
480.751	585.94
480.969	599.94
481.188	609.94
481.406	606.94
481.624	623.94
481.843	580.94
482.061	588.94
482.28	578.94
482.498	582.94
482.717	555.94
482.935	566.94
483.153	561.94
483.372	564.94
483.59	569.94
483.808	578.94
484.027	570.94
484.245	580.94
484.463	606.94
484.681	601.94
484.9	591.94
485.118	588.94
485.336	587.94
485.554	598.94
485.772	605.94
485.99	598.94
486.209	610.94
486.427	610.94
486.645	625.94
486.863	603.94
487.081	624.94
487.299	624.94
487.517	625.94
487.735	592.94
487.953	597.94
488.171	613.94
488.389	616.94
488.607	626.94
488.825	630.94
489.043	598.94
489.261	609.94
489.479	627.94
489.696	636.94
489.914	643.94
490.132	629.94
490.35	622.94
490.568	633.94
490.786	657.94
491.003	649.94
491.221	631.94
491.439	672.94
491.657	687.94
491.874	703.94
492.092	693.94
492.31	668.94
492.527	694.94
492.745	705.94
492.963	708.94
493.18	678.94
493.398	735.94
493.615	710.94
493.833	727.94
494.05	697.94
494.268	726.94
494.485	716.94
494.703	720.94
494.92	709.94
495.138	711.94
495.355	695.94
495.573	725.94
495.79	729.94
496.008	708.94
496.225	725.94
496.442	728.94
496.66	715.94
496.877	740.94
497.094	740.94
497.312	750.94
497.529	750.94
497.746	755.94
497.963	761.94
498.181	799.94
498.398	824.94
498.615	820.94
498.832	822.94
499.049	838.94
499.267	885.94
499.484	908.94
499.701	926.94
499.918	958.94
500.135	990.94
500.352	1037.94
500.569	1018.94
500.786	1026.94
501.003	1023.94
501.22	1004.94
501.437	939.94
501.654	924.94
501.871	905.94
