Data from 1988.PennyLincolnUp.Lamp.En5.5.200Scan.071819.P2_HRD10591_17-20-02-972.txt Node
Date: Thu Jul 18 17:20:02 EDT 2019
User: cochatt
Spectrometer: HR+D1059
Trigger mode: 1
Integration Time (sec): 1.000000E-1
Scans to average: 1
Electric dark correction enabled: true
Nonlinearity correction enabled: false
Boxcar width: 0
XAxis mode: Wavelengths
Number of Pixels in Spectrum: 2048
>>>>>Begin Spectral Data<<<<<
223.165	-24.62
223.4	-24.62
223.635	-24.62
223.869	-28.62
224.104	6.38
224.338	-7.62
224.573	-20.62
224.808	-7.62
225.042	6.38
225.277	-13.62
225.511	-14.62
225.746	5.38
225.98	6.38
226.215	-0.62
226.449	15.38
226.683	28.38
226.918	19.38
227.152	30.38
227.387	20.38
227.621	60.38
227.856	42.38
228.09	42.38
228.324	31.38
228.559	47.38
228.793	61.38
229.027	98.38
229.262	101.38
229.496	113.38
229.73	150.38
229.964	165.38
230.199	122.38
230.433	112.38
230.667	126.38
230.901	123.38
231.136	116.38
231.37	115.38
231.604	116.38
231.838	122.38
232.072	117.38
232.306	114.38
232.541	122.38
232.775	113.38
233.009	110.38
233.243	119.38
233.477	112.38
233.711	114.38
233.945	113.38
234.179	103.38
234.413	128.38
234.647	120.38
234.881	120.38
235.115	122.38
235.349	123.38
235.583	114.38
235.817	132.38
236.051	120.38
236.285	138.38
236.519	139.38
236.753	133.38
236.987	163.38
237.221	190.38
237.455	246.38
237.689	203.38
237.922	146.38
238.156	141.38
238.39	127.38
238.624	119.38
238.858	133.38
239.091	131.38
239.325	127.38
239.559	126.38
239.793	125.38
240.027	115.38
240.26	144.38
240.494	164.38
240.728	167.38
240.961	153.38
241.195	136.38
241.429	134.38
241.662	135.38
241.896	129.38
242.13	127.38
242.363	145.38
242.597	138.38
242.83	149.38
243.064	126.38
243.298	134.38
243.531	139.38
243.765	152.38
243.998	140.38
244.232	153.38
244.465	140.38
244.699	154.38
244.932	148.38
245.166	151.38
245.399	150.38
245.633	142.38
245.866	153.38
246.099	158.38
246.333	146.38
246.566	151.38
246.8	168.38
247.033	165.38
247.266	173.38
247.5	171.38
247.733	179.38
247.966	168.38
248.2	176.38
248.433	175.38
248.666	166.38
248.899	167.38
249.133	186.38
249.366	229.38
249.599	219.38
249.832	187.38
250.066	187.38
250.299	171.38
250.532	168.38
250.765	186.38
250.998	209.38
251.231	215.38
251.465	218.38
251.698	217.38
251.931	199.38
252.164	217.38
252.397	215.38
252.63	200.38
252.863	213.38
253.096	216.38
253.329	233.38
253.562	220.38
253.795	235.38
254.028	238.38
254.261	222.38
254.494	239.38
254.727	245.38
254.96	285.38
255.193	278.38
255.426	248.38
255.659	243.38
255.892	222.38
256.124	218.38
256.357	233.38
256.59	225.38
256.823	213.38
257.056	203.38
257.289	209.38
257.521	224.38
257.754	222.38
257.987	199.38
258.22	207.38
258.452	222.38
258.685	204.38
258.918	206.38
259.151	209.38
259.383	217.38
259.616	225.38
259.849	227.38
260.081	244.38
260.314	246.38
260.547	262.38
260.779	264.38
261.012	258.38
261.244	239.38
261.477	242.38
261.71	217.38
261.942	238.38
262.175	240.38
262.407	251.38
262.64	223.38
262.872	216.38
263.105	220.38
263.337	223.38
263.57	210.38
263.802	213.38
264.035	232.38
264.267	205.38
264.499	223.38
264.732	207.38
264.964	217.38
265.197	223.38
265.429	217.38
265.661	214.38
265.894	219.38
266.126	211.38
266.358	215.38
266.591	216.38
266.823	230.38
267.055	245.38
267.287	232.38
267.52	230.38
267.752	249.38
267.984	246.38
268.216	229.38
268.448	245.38
268.681	260.38
268.913	242.38
269.145	286.38
269.377	295.38
269.609	282.38
269.841	284.38
270.073	286.38
270.306	278.38
270.538	321.38
270.77	328.38
271.002	315.38
271.234	303.38
271.466	310.38
271.698	319.38
271.93	336.38
272.162	336.38
272.394	323.38
272.626	303.38
272.858	284.38
273.09	286.38
273.322	292.38
273.553	277.38
273.785	267.38
274.017	268.38
274.249	269.38
274.481	276.38
274.713	285.38
274.945	278.38
275.176	273.38
275.408	289.38
275.64	261.38
275.872	266.38
276.104	286.38
276.335	283.38
276.567	279.38
276.799	282.38
277.031	317.38
277.262	326.38
277.494	323.38
277.726	320.38
277.957	312.38
278.189	301.38
278.421	277.38
278.652	289.38
278.884	271.38
279.115	301.38
279.347	272.38
279.579	266.38
279.81	278.38
280.042	295.38
280.273	278.38
280.505	290.38
280.736	278.38
280.968	276.38
281.199	271.38
281.431	285.38
281.662	273.38
281.894	286.38
282.125	284.38
282.356	303.38
282.588	308.38
282.819	330.38
283.051	294.38
283.282	273.38
283.513	291.38
283.745	296.38
283.976	319.38
284.207	297.38
284.439	288.38
284.67	289.38
284.901	304.38
285.132	287.38
285.364	291.38
285.595	285.38
285.826	291.38
286.057	287.38
286.288	294.38
286.52	303.38
286.751	282.38
286.982	280.38
287.213	295.38
287.444	308.38
287.675	297.38
287.906	298.38
288.138	307.38
288.369	316.38
288.6	315.38
288.831	307.38
289.062	312.38
289.293	302.38
289.524	295.38
289.755	305.38
289.986	284.38
290.217	298.38
290.448	306.38
290.679	312.38
290.91	313.38
291.141	314.38
291.371	305.38
291.602	326.38
291.833	287.38
292.064	302.38
292.295	295.38
292.526	313.38
292.757	300.38
292.987	300.38
293.218	283.38
293.449	300.38
293.68	306.38
293.91	296.38
294.141	314.38
294.372	300.38
294.603	322.38
294.833	289.38
295.064	306.38
295.295	308.38
295.525	308.38
295.756	324.38
295.987	326.38
296.217	326.38
296.448	357.38
296.679	306.38
296.909	334.38
297.14	296.38
297.37	323.38
297.601	325.38
297.831	330.38
298.062	342.38
298.292	324.38
298.523	339.38
298.753	312.38
298.984	340.38
299.214	327.38
299.445	340.38
299.675	345.38
299.905	332.38
300.136	331.38
300.366	332.38
300.597	310.38
300.827	318.38
301.057	354.38
301.288	344.38
301.518	349.38
301.748	336.38
301.979	338.38
302.209	348.38
302.439	353.38
302.669	353.38
302.9	329.38
303.13	340.38
303.36	345.38
303.59	342.38
303.82	357.38
304.051	375.38
304.281	352.38
304.511	337.38
304.741	350.38
304.971	341.38
305.201	329.38
305.431	352.38
305.661	351.38
305.891	338.38
306.121	361.38
306.352	351.38
306.582	355.38
306.812	362.38
307.042	352.38
307.272	366.38
307.502	346.38
307.731	372.38
307.961	359.38
308.191	370.38
308.421	366.38
308.651	340.38
308.881	368.38
309.111	370.38
309.341	361.38
309.571	388.38
309.8	388.38
310.03	371.38
310.26	408.38
310.49	393.38
310.72	431.38
310.949	419.38
311.179	430.38
311.409	417.38
311.639	407.38
311.868	395.38
312.098	397.38
312.328	418.38
312.557	431.38
312.787	433.38
313.017	444.38
313.246	414.38
313.476	403.38
313.706	410.38
313.935	404.38
314.165	422.38
314.394	434.38
314.624	423.38
314.853	425.38
315.083	416.38
315.312	407.38
315.542	399.38
315.771	407.38
316.001	403.38
316.23	402.38
316.46	401.38
316.689	390.38
316.919	400.38
317.148	406.38
317.377	421.38
317.607	433.38
317.836	389.38
318.065	406.38
318.295	423.38
318.524	405.38
318.753	401.38
318.983	391.38
319.212	409.38
319.441	425.38
319.67	419.38
319.9	418.38
320.129	433.38
320.358	423.38
320.587	430.38
320.816	421.38
321.046	415.38
321.275	443.38
321.504	403.38
321.733	423.38
321.962	443.38
322.191	438.38
322.42	460.38
322.649	483.38
322.878	465.38
323.108	522.38
323.337	501.38
323.566	529.38
323.795	580.38
324.024	635.38
324.253	734.38
324.482	1041.38
324.71	1670.38
324.939	2448.38
325.168	2127.38
325.397	1094.38
325.626	721.38
325.855	611.38
326.084	545.38
326.313	534.38
326.542	543.38
326.77	601.38
326.999	685.38
327.228	987.38
327.457	1471.38
327.686	1834.38
327.914	1200.38
328.143	792.38
328.372	682.38
328.6	612.38
328.829	605.38
329.058	589.38
329.287	620.38
329.515	602.38
329.744	543.38
329.972	537.38
330.201	548.38
330.43	542.38
330.658	586.38
330.887	648.38
331.115	643.38
331.344	583.38
331.572	530.38
331.801	527.38
332.03	535.38
332.258	526.38
332.486	484.38
332.715	478.38
332.943	475.38
333.172	482.38
333.4	492.38
333.629	501.38
333.857	512.38
334.085	507.38
334.314	518.38
334.542	517.38
334.771	513.38
334.999	519.38
335.227	503.38
335.455	504.38
335.684	510.38
335.912	471.38
336.14	477.38
336.369	477.38
336.597	497.38
336.825	484.38
337.053	461.38
337.281	473.38
337.51	468.38
337.738	496.38
337.966	487.38
338.194	512.38
338.422	505.38
338.65	484.38
338.878	458.38
339.106	491.38
339.334	470.38
339.562	480.38
339.79	467.38
340.018	469.38
340.246	472.38
340.474	484.38
340.702	470.38
340.93	496.38
341.158	460.38
341.386	465.38
341.614	478.38
341.842	482.38
342.07	459.38
342.298	483.38
342.526	468.38
342.754	450.38
342.981	467.38
343.209	453.38
343.437	454.38
343.665	475.38
343.893	483.38
344.12	477.38
344.348	505.38
344.576	482.38
344.804	488.38
345.031	484.38
345.259	508.38
345.487	478.38
345.714	485.38
345.942	465.38
346.17	462.38
346.397	450.38
346.625	456.38
346.853	447.38
347.08	443.38
347.308	454.38
347.535	472.38
347.763	486.38
347.99	471.38
348.218	456.38
348.445	479.38
348.673	461.38
348.9	472.38
349.128	442.38
349.355	452.38
349.583	438.38
349.81	453.38
350.037	436.38
350.265	450.38
350.492	444.38
350.72	460.38
350.947	443.38
351.174	458.38
351.402	464.38
351.629	471.38
351.856	466.38
352.083	466.38
352.311	491.38
352.538	480.38
352.765	476.38
352.992	462.38
353.22	459.38
353.447	459.38
353.674	457.38
353.901	440.38
354.128	430.38
354.355	446.38
354.583	435.38
354.81	419.38
355.037	435.38
355.264	428.38
355.491	415.38
355.718	423.38
355.945	424.38
356.172	455.38
356.399	422.38
356.626	424.38
356.853	429.38
357.08	434.38
357.307	426.38
357.534	430.38
357.761	429.38
357.988	416.38
358.215	433.38
358.441	427.38
358.668	430.38
358.895	434.38
359.122	440.38
359.349	434.38
359.576	480.38
359.802	493.38
360.029	510.38
360.256	537.38
360.483	481.38
360.709	479.38
360.936	475.38
361.163	456.38
361.39	455.38
361.616	466.38
361.843	469.38
362.07	467.38
362.296	441.38
362.523	462.38
362.749	466.38
362.976	466.38
363.203	466.38
363.429	451.38
363.656	474.38
363.882	454.38
364.109	442.38
364.335	451.38
364.562	438.38
364.788	422.38
365.015	447.38
365.241	438.38
365.468	447.38
365.694	434.38
365.92	445.38
366.147	466.38
366.373	455.38
366.599	427.38
366.826	427.38
367.052	448.38
367.278	439.38
367.505	466.38
367.731	461.38
367.957	453.38
368.184	456.38
368.41	458.38
368.636	459.38
368.862	476.38
369.089	469.38
369.315	457.38
369.541	441.38
369.767	440.38
369.993	458.38
370.219	421.38
370.445	465.38
370.672	443.38
370.898	473.38
371.124	436.38
371.35	433.38
371.576	435.38
371.802	444.38
372.028	440.38
372.254	460.38
372.48	433.38
372.706	444.38
372.932	449.38
373.158	436.38
373.384	423.38
373.61	442.38
373.835	444.38
374.061	435.38
374.287	451.38
374.513	456.38
374.739	466.38
374.965	457.38
375.191	460.38
375.416	456.38
375.642	448.38
375.868	449.38
376.094	458.38
376.319	459.38
376.545	440.38
376.771	457.38
376.997	470.38
377.222	454.38
377.448	468.38
377.674	436.38
377.899	446.38
378.125	428.38
378.35	461.38
378.576	442.38
378.802	442.38
379.027	448.38
379.253	453.38
379.478	447.38
379.704	436.38
379.929	449.38
380.155	442.38
380.38	459.38
380.606	460.38
380.831	438.38
381.057	442.38
381.282	459.38
381.507	440.38
381.733	465.38
381.958	453.38
382.184	448.38
382.409	456.38
382.634	472.38
382.86	450.38
383.085	475.38
383.31	436.38
383.535	458.38
383.761	481.38
383.986	452.38
384.211	481.38
384.436	480.38
384.662	469.38
384.887	484.38
385.112	480.38
385.337	482.38
385.562	484.38
385.787	474.38
386.013	514.38
386.238	478.38
386.463	478.38
386.688	494.38
386.913	483.38
387.138	488.38
387.363	482.38
387.588	476.38
387.813	505.38
388.038	516.38
388.263	476.38
388.488	489.38
388.713	500.38
388.938	514.38
389.163	514.38
389.387	494.38
389.612	499.38
389.837	496.38
390.062	478.38
390.287	485.38
390.512	483.38
390.736	501.38
390.961	493.38
391.186	471.38
391.411	512.38
391.636	517.38
391.86	541.38
392.085	496.38
392.31	491.38
392.534	507.38
392.759	505.38
392.984	517.38
393.208	522.38
393.433	519.38
393.658	497.38
393.882	502.38
394.107	519.38
394.331	512.38
394.556	504.38
394.78	496.38
395.005	512.38
395.229	518.38
395.454	524.38
395.678	524.38
395.903	543.38
396.127	521.38
396.352	553.38
396.576	530.38
396.801	527.38
397.025	526.38
397.249	523.38
397.474	539.38
397.698	553.38
397.922	563.38
398.147	577.38
398.371	577.38
398.595	562.38
398.82	599.38
399.044	576.38
399.268	622.38
399.492	632.38
399.717	650.38
399.941	712.38
400.165	722.38
400.389	704.38
400.613	652.38
400.837	620.38
401.062	593.38
401.286	608.38
401.51	590.38
401.734	583.38
401.958	594.38
402.182	578.38
402.406	598.38
402.63	592.38
402.854	601.38
403.078	587.38
403.302	588.38
403.526	623.38
403.75	602.38
403.974	587.38
404.198	596.38
404.422	606.38
404.645	588.38
404.869	628.38
405.093	661.38
405.317	640.38
405.541	698.38
405.765	648.38
405.988	610.38
406.212	628.38
406.436	647.38
406.66	656.38
406.883	659.38
407.107	698.38
407.331	704.38
407.555	798.38
407.778	811.38
408.002	745.38
408.226	679.38
408.449	675.38
408.673	662.38
408.896	686.38
409.12	748.38
409.344	690.38
409.567	636.38
409.791	620.38
410.014	607.38
410.238	610.38
410.461	582.38
410.685	642.38
410.908	657.38
411.132	655.38
411.355	717.38
411.578	671.38
411.802	626.38
412.025	597.38
412.249	606.38
412.472	607.38
412.695	610.38
412.919	614.38
413.142	608.38
413.365	581.38
413.589	598.38
413.812	576.38
414.035	590.38
414.258	564.38
414.482	571.38
414.705	583.38
414.928	567.38
415.151	563.38
415.374	560.38
415.597	581.38
415.821	562.38
416.044	563.38
416.267	583.38
416.49	593.38
416.713	574.38
416.936	584.38
417.159	574.38
417.382	554.38
417.605	569.38
417.828	578.38
418.051	592.38
418.274	585.38
418.497	566.38
418.72	580.38
418.943	545.38
419.166	571.38
419.389	612.38
419.611	609.38
419.834	588.38
420.057	609.38
420.28	610.38
420.503	582.38
420.726	583.38
420.948	597.38
421.171	643.38
421.394	715.38
421.617	633.38
421.839	597.38
422.062	609.38
422.285	602.38
422.507	674.38
422.73	768.38
422.953	744.38
423.175	642.38
423.398	634.38
423.621	645.38
423.843	640.38
424.066	646.38
424.288	608.38
424.511	661.38
424.733	714.38
424.956	800.38
425.178	770.38
425.401	787.38
425.623	809.38
425.846	693.38
426.068	662.38
426.291	646.38
426.513	636.38
426.735	656.38
426.958	690.38
427.18	798.38
427.402	947.38
427.625	1036.38
427.847	866.38
428.069	774.38
428.292	658.38
428.514	649.38
428.736	614.38
428.958	607.38
429.181	594.38
429.403	580.38
429.625	581.38
429.847	648.38
430.069	722.38
430.292	714.38
430.514	613.38
430.736	606.38
430.958	595.38
431.18	544.38
431.402	550.38
431.624	577.38
431.846	570.38
432.068	538.38
432.29	535.38
432.512	569.38
432.734	571.38
432.956	584.38
433.178	572.38
433.4	587.38
433.622	596.38
433.844	581.38
434.066	553.38
434.287	564.38
434.509	574.38
434.731	561.38
434.953	583.38
435.175	603.38
435.397	636.38
435.618	652.38
435.84	697.38
436.062	818.38
436.284	879.38
436.505	725.38
436.727	647.38
436.949	608.38
437.17	602.38
437.392	592.38
437.614	618.38
437.835	635.38
438.057	752.38
438.278	873.38
438.5	879.38
438.721	987.38
438.943	915.38
439.165	724.38
439.386	647.38
439.608	634.38
439.829	642.38
440.05	694.38
440.272	727.38
440.493	681.38
440.715	635.38
440.936	630.38
441.158	605.38
441.379	606.38
441.6	613.38
441.822	628.38
442.043	676.38
442.264	763.38
442.486	820.38
442.707	704.38
442.928	648.38
443.149	679.38
443.371	707.38
443.592	699.38
443.813	833.38
444.034	904.38
444.255	779.38
444.476	679.38
444.698	668.38
444.919	651.38
445.14	775.38
445.361	730.38
445.582	714.38
445.803	785.38
446.024	864.38
446.245	902.38
446.466	828.38
446.687	693.38
446.908	643.38
447.129	609.38
447.35	614.38
447.571	602.38
447.792	586.38
448.013	603.38
448.234	623.38
448.455	673.38
448.675	806.38
448.896	937.38
449.117	816.38
449.338	762.38
449.559	865.38
449.779	1000.38
450	779.38
450.221	650.38
450.442	591.38
450.662	591.38
450.883	596.38
451.104	583.38
451.324	582.38
451.545	574.38
451.766	554.38
451.986	550.38
452.207	554.38
452.428	533.38
452.648	515.38
452.869	535.38
453.089	551.38
453.31	574.38
453.53	532.38
453.751	568.38
453.971	549.38
454.192	576.38
454.412	561.38
454.633	530.38
454.853	524.38
455.073	529.38
455.294	574.38
455.514	653.38
455.734	625.38
455.955	525.38
456.175	510.38
456.395	523.38
456.616	511.38
456.836	493.38
457.056	511.38
457.276	486.38
457.497	504.38
457.717	523.38
457.937	496.38
458.157	527.38
458.377	542.38
458.598	572.38
458.818	618.38
459.038	710.38
459.258	696.38
459.478	645.38
459.698	608.38
459.918	576.38
460.138	566.38
460.358	576.38
460.578	576.38
460.798	624.38
461.018	603.38
461.238	580.38
461.458	590.38
461.678	552.38
461.898	571.38
462.118	598.38
462.338	593.38
462.558	607.38
462.777	605.38
462.997	627.38
463.217	652.38
463.437	646.38
463.657	619.38
463.876	634.38
464.096	627.38
464.316	608.38
464.536	631.38
464.755	635.38
464.975	625.38
465.195	649.38
465.414	711.38
465.634	685.38
465.854	634.38
466.073	596.38
466.293	568.38
466.512	553.38
466.732	541.38
466.951	555.38
467.171	544.38
467.391	561.38
467.61	577.38
467.829	556.38
468.049	562.38
468.268	539.38
468.488	558.38
468.707	544.38
468.927	539.38
469.146	558.38
469.365	550.38
469.585	519.38
469.804	529.38
470.023	563.38
470.243	576.38
470.462	573.38
470.681	585.38
470.901	577.38
471.12	566.38
471.339	549.38
471.558	576.38
471.777	560.38
471.997	545.38
472.216	550.38
472.435	538.38
472.654	561.38
472.873	539.38
473.092	546.38
473.311	550.38
473.53	542.38
473.749	569.38
473.968	605.38
474.187	707.38
474.406	752.38
474.625	619.38
474.844	564.38
475.063	576.38
475.282	567.38
475.501	561.38
475.72	575.38
475.939	563.38
476.158	556.38
476.377	586.38
476.596	583.38
476.814	583.38
477.033	579.38
477.252	609.38
477.471	581.38
477.69	601.38
477.908	622.38
478.127	614.38
478.346	621.38
478.564	608.38
478.783	601.38
479.002	614.38
479.22	618.38
479.439	651.38
479.658	673.38
479.876	646.38
480.095	659.38
480.313	676.38
480.532	691.38
480.751	694.38
480.969	699.38
481.188	708.38
481.406	677.38
481.624	664.38
481.843	654.38
482.061	650.38
482.28	649.38
482.498	644.38
482.717	642.38
482.935	643.38
483.153	638.38
483.372	640.38
483.59	649.38
483.808	658.38
484.027	644.38
484.245	652.38
484.463	662.38
484.681	674.38
484.9	682.38
485.118	676.38
485.336	691.38
485.554	683.38
485.772	700.38
485.99	663.38
486.209	672.38
486.427	694.38
486.645	675.38
486.863	725.38
487.081	703.38
487.299	684.38
487.517	696.38
487.735	686.38
487.953	688.38
488.171	695.38
488.389	689.38
488.607	700.38
488.825	712.38
489.043	710.38
489.261	702.38
489.479	722.38
489.696	728.38
489.914	703.38
490.132	720.38
490.35	763.38
490.568	720.38
490.786	746.38
491.003	762.38
491.221	765.38
491.439	772.38
491.657	760.38
491.874	808.38
492.092	766.38
492.31	775.38
492.527	826.38
492.745	823.38
492.963	788.38
493.18	786.38
493.398	803.38
493.615	836.38
493.833	812.38
494.05	823.38
494.268	825.38
494.485	817.38
494.703	801.38
494.92	829.38
495.138	814.38
495.355	839.38
495.573	840.38
495.79	833.38
496.008	843.38
496.225	826.38
496.442	830.38
496.66	827.38
496.877	825.38
497.094	820.38
497.312	885.38
497.529	871.38
497.746	862.38
497.963	878.38
498.181	917.38
498.398	907.38
498.615	955.38
498.832	947.38
499.049	996.38
499.267	991.38
499.484	1020.38
499.701	1040.38
499.918	1112.38
500.135	1156.38
500.352	1190.38
500.569	1191.38
500.786	1216.38
501.003	1206.38
501.22	1162.38
501.437	1134.38
501.654	1066.38
