Data from 1988.PennyLincolnUp.Lamp.En5.5.200Scan.071819.P2_HRD10591_17-19-37-971.txt Node
Date: Thu Jul 18 17:19:37 EDT 2019
User: cochatt
Spectrometer: HR+D1059
Trigger mode: 1
Integration Time (sec): 1.000000E-1
Scans to average: 1
Electric dark correction enabled: true
Nonlinearity correction enabled: false
Boxcar width: 0
XAxis mode: Wavelengths
Number of Pixels in Spectrum: 2048
>>>>>Begin Spectral Data<<<<<
223.165	-10.69
223.4	-10.69
223.635	-10.69
223.869	-15.69
224.104	-19.69
224.338	-25.69
224.573	-23.69
224.808	-19.69
225.042	-8.69
225.277	-7.69
225.511	5.31
225.746	-1.69
225.98	2.31
226.215	8.31
226.449	16.31
226.683	25.31
226.918	29.31
227.152	46.31
227.387	35.31
227.621	45.31
227.856	47.31
228.09	45.31
228.324	55.31
228.559	51.31
228.793	69.31
229.027	78.31
229.262	106.31
229.496	123.31
229.73	137.31
229.964	163.31
230.199	126.31
230.433	117.31
230.667	109.31
230.901	122.31
231.136	107.31
231.37	99.31
231.604	107.31
231.838	120.31
232.072	117.31
232.306	110.31
232.541	113.31
232.775	121.31
233.009	114.31
233.243	113.31
233.477	115.31
233.711	120.31
233.945	119.31
234.179	119.31
234.413	126.31
234.647	126.31
234.881	121.31
235.115	130.31
235.349	103.31
235.583	129.31
235.817	135.31
236.051	132.31
236.285	118.31
236.519	129.31
236.753	149.31
236.987	140.31
237.221	198.31
237.455	241.31
237.689	211.31
237.922	152.31
238.156	123.31
238.39	154.31
238.624	135.31
238.858	138.31
239.091	127.31
239.325	110.31
239.559	145.31
239.793	133.31
240.027	165.31
240.26	154.31
240.494	153.31
240.728	151.31
240.961	138.31
241.195	154.31
241.429	142.31
241.662	133.31
241.896	132.31
242.13	144.31
242.363	147.31
242.597	143.31
242.83	140.31
243.064	147.31
243.298	135.31
243.531	146.31
243.765	138.31
243.998	154.31
244.232	148.31
244.465	161.31
244.699	139.31
244.932	156.31
245.166	153.31
245.399	154.31
245.633	157.31
245.866	142.31
246.099	156.31
246.333	150.31
246.566	163.31
246.8	162.31
247.033	168.31
247.266	165.31
247.5	179.31
247.733	166.31
247.966	181.31
248.2	188.31
248.433	178.31
248.666	167.31
248.899	190.31
249.133	201.31
249.366	210.31
249.599	202.31
249.832	188.31
250.066	187.31
250.299	177.31
250.532	191.31
250.765	198.31
250.998	230.31
251.231	227.31
251.465	234.31
251.698	219.31
251.931	203.31
252.164	195.31
252.397	205.31
252.63	215.31
252.863	217.31
253.096	228.31
253.329	236.31
253.562	221.31
253.795	207.31
254.028	221.31
254.261	225.31
254.494	220.31
254.727	249.31
254.96	292.31
255.193	284.31
255.426	232.31
255.659	238.31
255.892	228.31
256.124	225.31
256.357	235.31
256.59	217.31
256.823	234.31
257.056	216.31
257.289	210.31
257.521	213.31
257.754	215.31
257.987	203.31
258.22	223.31
258.452	204.31
258.685	221.31
258.918	209.31
259.151	217.31
259.383	225.31
259.616	209.31
259.849	226.31
260.081	236.31
260.314	257.31
260.547	253.31
260.779	257.31
261.012	244.31
261.244	238.31
261.477	225.31
261.71	231.31
261.942	226.31
262.175	237.31
262.407	242.31
262.64	231.31
262.872	232.31
263.105	216.31
263.337	212.31
263.57	222.31
263.802	215.31
264.035	228.31
264.267	229.31
264.499	228.31
264.732	227.31
264.964	220.31
265.197	219.31
265.429	228.31
265.661	214.31
265.894	200.31
266.126	229.31
266.358	227.31
266.591	235.31
266.823	245.31
267.055	246.31
267.287	242.31
267.52	242.31
267.752	248.31
267.984	247.31
268.216	253.31
268.448	230.31
268.681	229.31
268.913	271.31
269.145	271.31
269.377	277.31
269.609	284.31
269.841	277.31
270.073	283.31
270.306	293.31
270.538	321.31
270.77	317.31
271.002	306.31
271.234	291.31
271.466	305.31
271.698	311.31
271.93	311.31
272.162	332.31
272.394	318.31
272.626	313.31
272.858	292.31
273.09	297.31
273.322	290.31
273.553	283.31
273.785	279.31
274.017	285.31
274.249	255.31
274.481	289.31
274.713	286.31
274.945	286.31
275.176	266.31
275.408	284.31
275.64	265.31
275.872	278.31
276.104	269.31
276.335	274.31
276.567	271.31
276.799	303.31
277.031	333.31
277.262	323.31
277.494	315.31
277.726	327.31
277.957	329.31
278.189	294.31
278.421	287.31
278.652	281.31
278.884	282.31
279.115	284.31
279.347	281.31
279.579	281.31
279.81	282.31
280.042	291.31
280.273	284.31
280.505	289.31
280.736	268.31
280.968	271.31
281.199	283.31
281.431	289.31
281.662	292.31
281.894	287.31
282.125	291.31
282.356	302.31
282.588	302.31
282.819	325.31
283.051	301.31
283.282	265.31
283.513	307.31
283.745	287.31
283.976	296.31
284.207	301.31
284.439	283.31
284.67	298.31
284.901	287.31
285.132	291.31
285.364	303.31
285.595	298.31
285.826	289.31
286.057	305.31
286.288	302.31
286.52	293.31
286.751	283.31
286.982	318.31
287.213	297.31
287.444	305.31
287.675	294.31
287.906	295.31
288.138	306.31
288.369	317.31
288.6	318.31
288.831	340.31
289.062	298.31
289.293	308.31
289.524	329.31
289.755	301.31
289.986	315.31
290.217	305.31
290.448	322.31
290.679	309.31
290.91	328.31
291.141	305.31
291.371	309.31
291.602	308.31
291.833	300.31
292.064	315.31
292.295	302.31
292.526	307.31
292.757	297.31
292.987	304.31
293.218	291.31
293.449	311.31
293.68	306.31
293.91	312.31
294.141	324.31
294.372	314.31
294.603	334.31
294.833	302.31
295.064	311.31
295.295	307.31
295.525	327.31
295.756	322.31
295.987	327.31
296.217	355.31
296.448	346.31
296.679	334.31
296.909	317.31
297.14	310.31
297.37	337.31
297.601	317.31
297.831	291.31
298.062	326.31
298.292	302.31
298.523	325.31
298.753	323.31
298.984	334.31
299.214	319.31
299.445	338.31
299.675	317.31
299.905	344.31
300.136	334.31
300.366	337.31
300.597	340.31
300.827	338.31
301.057	329.31
301.288	346.31
301.518	345.31
301.748	325.31
301.979	346.31
302.209	354.31
302.439	367.31
302.669	353.31
302.9	342.31
303.13	348.31
303.36	358.31
303.59	369.31
303.82	361.31
304.051	369.31
304.281	350.31
304.511	340.31
304.741	356.31
304.971	355.31
305.201	367.31
305.431	353.31
305.661	359.31
305.891	356.31
306.121	334.31
306.352	351.31
306.582	344.31
306.812	335.31
307.042	351.31
307.272	347.31
307.502	345.31
307.731	346.31
307.961	361.31
308.191	361.31
308.421	353.31
308.651	353.31
308.881	358.31
309.111	369.31
309.341	379.31
309.571	371.31
309.8	356.31
310.03	395.31
310.26	399.31
310.49	382.31
310.72	433.31
310.949	433.31
311.179	438.31
311.409	414.31
311.639	404.31
311.868	405.31
312.098	400.31
312.328	414.31
312.557	413.31
312.787	420.31
313.017	408.31
313.246	425.31
313.476	389.31
313.706	394.31
313.935	420.31
314.165	413.31
314.394	417.31
314.624	411.31
314.853	417.31
315.083	420.31
315.312	440.31
315.542	411.31
315.771	391.31
316.001	397.31
316.23	390.31
316.46	399.31
316.689	408.31
316.919	403.31
317.148	406.31
317.377	436.31
317.607	421.31
317.836	412.31
318.065	396.31
318.295	411.31
318.524	420.31
318.753	414.31
318.983	400.31
319.212	407.31
319.441	422.31
319.67	438.31
319.9	426.31
320.129	403.31
320.358	419.31
320.587	419.31
320.816	408.31
321.046	428.31
321.275	419.31
321.504	430.31
321.733	434.31
321.962	448.31
322.191	452.31
322.42	468.31
322.649	456.31
322.878	487.31
323.108	485.31
323.337	530.31
323.566	529.31
323.795	568.31
324.024	622.31
324.253	720.31
324.482	1028.31
324.71	1595.31
324.939	2341.31
325.168	2040.31
325.397	1046.31
325.626	729.31
325.855	613.31
326.084	569.31
326.313	522.31
326.542	537.31
326.77	605.31
326.999	689.31
327.228	939.31
327.457	1443.31
327.686	1756.31
327.914	1165.31
328.143	769.31
328.372	671.31
328.6	620.31
328.829	591.31
329.058	617.31
329.287	606.31
329.515	587.31
329.744	530.31
329.972	519.31
330.201	540.31
330.43	577.31
330.658	583.31
330.887	634.31
331.115	639.31
331.344	549.31
331.572	521.31
331.801	538.31
332.03	517.31
332.258	505.31
332.486	498.31
332.715	467.31
332.943	474.31
333.172	486.31
333.4	494.31
333.629	489.31
333.857	507.31
334.085	485.31
334.314	513.31
334.542	483.31
334.771	506.31
334.999	513.31
335.227	519.31
335.455	509.31
335.684	491.31
335.912	482.31
336.14	496.31
336.369	484.31
336.597	490.31
336.825	511.31
337.053	492.31
337.281	487.31
337.51	469.31
337.738	481.31
337.966	462.31
338.194	478.31
338.422	500.31
338.65	482.31
338.878	486.31
339.106	476.31
339.334	466.31
339.562	466.31
339.79	477.31
340.018	457.31
340.246	478.31
340.474	460.31
340.702	459.31
340.93	462.31
341.158	474.31
341.386	467.31
341.614	471.31
341.842	470.31
342.07	461.31
342.298	476.31
342.526	478.31
342.754	461.31
342.981	474.31
343.209	471.31
343.437	449.31
343.665	476.31
343.893	466.31
344.12	473.31
344.348	478.31
344.576	476.31
344.804	494.31
345.031	470.31
345.259	514.31
345.487	497.31
345.714	481.31
345.942	468.31
346.17	458.31
346.397	460.31
346.625	459.31
346.853	463.31
347.08	461.31
347.308	484.31
347.535	472.31
347.763	467.31
347.99	456.31
348.218	465.31
348.445	467.31
348.673	490.31
348.9	468.31
349.128	450.31
349.355	451.31
349.583	448.31
349.81	427.31
350.037	443.31
350.265	450.31
350.492	433.31
350.72	437.31
350.947	484.31
351.174	475.31
351.402	481.31
351.629	467.31
351.856	461.31
352.083	481.31
352.311	464.31
352.538	452.31
352.765	484.31
352.992	493.31
353.22	448.31
353.447	452.31
353.674	459.31
353.901	456.31
354.128	425.31
354.355	413.31
354.583	436.31
354.81	458.31
355.037	435.31
355.264	445.31
355.491	439.31
355.718	447.31
355.945	418.31
356.172	429.31
356.399	422.31
356.626	419.31
356.853	428.31
357.08	428.31
357.307	428.31
357.534	424.31
357.761	433.31
357.988	449.31
358.215	439.31
358.441	437.31
358.668	418.31
358.895	445.31
359.122	457.31
359.349	468.31
359.576	443.31
359.802	483.31
360.029	513.31
360.256	513.31
360.483	490.31
360.709	467.31
360.936	463.31
361.163	455.31
361.39	464.31
361.616	456.31
361.843	460.31
362.07	451.31
362.296	449.31
362.523	460.31
362.749	479.31
362.976	443.31
363.203	461.31
363.429	444.31
363.656	438.31
363.882	449.31
364.109	440.31
364.335	447.31
364.562	450.31
364.788	450.31
365.015	438.31
365.241	454.31
365.468	451.31
365.694	457.31
365.92	461.31
366.147	457.31
366.373	434.31
366.599	444.31
366.826	462.31
367.052	446.31
367.278	449.31
367.505	447.31
367.731	424.31
367.957	425.31
368.184	461.31
368.41	449.31
368.636	457.31
368.862	457.31
369.089	453.31
369.315	441.31
369.541	445.31
369.767	452.31
369.993	443.31
370.219	461.31
370.445	432.31
370.672	421.31
370.898	447.31
371.124	440.31
371.35	439.31
371.576	457.31
371.802	436.31
372.028	455.31
372.254	447.31
372.48	433.31
372.706	459.31
372.932	472.31
373.158	475.31
373.384	465.31
373.61	462.31
373.835	466.31
374.061	445.31
374.287	446.31
374.513	462.31
374.739	475.31
374.965	463.31
375.191	454.31
375.416	471.31
375.642	442.31
375.868	443.31
376.094	455.31
376.319	439.31
376.545	444.31
376.771	463.31
376.997	464.31
377.222	449.31
377.448	459.31
377.674	442.31
377.899	450.31
378.125	455.31
378.35	447.31
378.576	455.31
378.802	462.31
379.027	456.31
379.253	420.31
379.478	449.31
379.704	445.31
379.929	461.31
380.155	474.31
380.38	459.31
380.606	449.31
380.831	442.31
381.057	472.31
381.282	448.31
381.507	439.31
381.733	440.31
381.958	459.31
382.184	452.31
382.409	467.31
382.634	456.31
382.86	462.31
383.085	461.31
383.31	458.31
383.535	445.31
383.761	467.31
383.986	473.31
384.211	480.31
384.436	490.31
384.662	503.31
384.887	485.31
385.112	485.31
385.337	467.31
385.562	474.31
385.787	497.31
386.013	499.31
386.238	515.31
386.463	500.31
386.688	494.31
386.913	485.31
387.138	462.31
387.363	494.31
387.588	523.31
387.813	499.31
388.038	503.31
388.263	522.31
388.488	495.31
388.713	490.31
388.938	514.31
389.163	501.31
389.387	506.31
389.612	482.31
389.837	503.31
390.062	511.31
390.287	511.31
390.512	488.31
390.736	478.31
390.961	501.31
391.186	499.31
391.411	502.31
391.636	501.31
391.86	532.31
392.085	513.31
392.31	515.31
392.534	524.31
392.759	524.31
392.984	519.31
393.208	504.31
393.433	500.31
393.658	519.31
393.882	495.31
394.107	499.31
394.331	509.31
394.556	494.31
394.78	528.31
395.005	517.31
395.229	510.31
395.454	499.31
395.678	533.31
395.903	543.31
396.127	559.31
396.352	574.31
396.576	512.31
396.801	523.31
397.025	532.31
397.249	525.31
397.474	543.31
397.698	534.31
397.922	556.31
398.147	555.31
398.371	574.31
398.595	577.31
398.82	569.31
399.044	582.31
399.268	571.31
399.492	621.31
399.717	690.31
399.941	689.31
400.165	726.31
400.389	742.31
400.613	649.31
400.837	632.31
401.062	621.31
401.286	596.31
401.51	582.31
401.734	592.31
401.958	575.31
402.182	587.31
402.406	606.31
402.63	574.31
402.854	578.31
403.078	598.31
403.302	619.31
403.526	589.31
403.75	617.31
403.974	614.31
404.198	591.31
404.422	579.31
404.645	627.31
404.869	611.31
405.093	630.31
405.317	655.31
405.541	669.31
405.765	621.31
405.988	637.31
406.212	641.31
406.436	668.31
406.66	673.31
406.883	648.31
407.107	675.31
407.331	723.31
407.555	803.31
407.778	784.31
408.002	718.31
408.226	687.31
408.449	655.31
408.673	670.31
408.896	702.31
409.12	787.31
409.344	684.31
409.567	616.31
409.791	626.31
410.014	592.31
410.238	612.31
410.461	615.31
410.685	596.31
410.908	618.31
411.132	658.31
411.355	709.31
411.578	669.31
411.802	628.31
412.025	622.31
412.249	608.31
412.472	592.31
412.695	611.31
412.919	593.31
413.142	592.31
413.365	587.31
413.589	569.31
413.812	553.31
414.035	569.31
414.258	564.31
414.482	575.31
414.705	575.31
414.928	584.31
415.151	591.31
415.374	569.31
415.597	565.31
415.821	553.31
416.044	589.31
416.267	590.31
416.49	557.31
416.713	550.31
416.936	549.31
417.159	584.31
417.382	565.31
417.605	578.31
417.828	581.31
418.051	592.31
418.274	578.31
418.497	580.31
418.72	591.31
418.943	575.31
419.166	571.31
419.389	634.31
419.611	625.31
419.834	606.31
420.057	583.31
420.28	604.31
420.503	552.31
420.726	563.31
420.948	637.31
421.171	672.31
421.394	686.31
421.617	612.31
421.839	602.31
422.062	593.31
422.285	613.31
422.507	687.31
422.73	762.31
422.953	726.31
423.175	673.31
423.398	611.31
423.621	621.31
423.843	646.31
424.066	651.31
424.288	637.31
424.511	650.31
424.733	704.31
424.956	825.31
425.178	782.31
425.401	750.31
425.623	789.31
425.846	674.31
426.068	655.31
426.291	649.31
426.513	645.31
426.735	624.31
426.958	691.31
427.18	795.31
427.402	926.31
427.625	1039.31
427.847	870.31
428.069	774.31
428.292	665.31
428.514	633.31
428.736	600.31
428.958	599.31
429.181	601.31
429.403	595.31
429.625	612.31
429.847	629.31
430.069	716.31
430.292	709.31
430.514	624.31
430.736	589.31
430.958	576.31
431.18	587.31
431.402	571.31
431.624	560.31
431.846	545.31
432.068	579.31
432.29	571.31
432.512	549.31
432.734	574.31
432.956	562.31
433.178	568.31
433.4	579.31
433.622	572.31
433.844	567.31
434.066	559.31
434.287	564.31
434.509	558.31
434.731	590.31
434.953	576.31
435.175	591.31
435.397	631.31
435.618	627.31
435.84	691.31
436.062	790.31
436.284	888.31
436.505	734.31
436.727	641.31
436.949	628.31
437.17	604.31
437.392	597.31
437.614	605.31
437.835	636.31
438.057	778.31
438.278	851.31
438.5	878.31
438.721	935.31
438.943	910.31
439.165	719.31
439.386	669.31
439.608	641.31
439.829	661.31
440.05	686.31
440.272	712.31
440.493	678.31
440.715	636.31
440.936	628.31
441.158	597.31
441.379	609.31
441.6	626.31
441.822	665.31
442.043	664.31
442.264	800.31
442.486	831.31
442.707	733.31
442.928	687.31
443.149	669.31
443.371	709.31
443.592	734.31
443.813	855.31
444.034	919.31
444.255	769.31
444.476	651.31
444.698	643.31
444.919	661.31
445.14	734.31
445.361	717.31
445.582	709.31
445.803	776.31
446.024	889.31
446.245	893.31
446.466	819.31
446.687	713.31
446.908	654.31
447.129	612.31
447.35	608.31
447.571	594.31
447.792	588.31
448.013	589.31
448.234	631.31
448.455	695.31
448.675	789.31
448.896	938.31
449.117	811.31
449.338	739.31
449.559	868.31
449.779	994.31
450	779.31
450.221	643.31
450.442	599.31
450.662	597.31
450.883	579.31
451.104	604.31
451.324	599.31
451.545	567.31
451.766	556.31
451.986	547.31
452.207	521.31
452.428	532.31
452.648	539.31
452.869	540.31
453.089	538.31
453.31	550.31
453.53	541.31
453.751	540.31
453.971	542.31
454.192	542.31
454.412	522.31
454.633	524.31
454.853	527.31
455.073	548.31
455.294	561.31
455.514	657.31
455.734	623.31
455.955	522.31
456.175	530.31
456.395	509.31
456.616	495.31
456.836	517.31
457.056	511.31
457.276	513.31
457.497	500.31
457.717	526.31
457.937	511.31
458.157	519.31
458.377	507.31
458.598	537.31
458.818	614.31
459.038	699.31
459.258	742.31
459.478	613.31
459.698	566.31
459.918	570.31
460.138	568.31
460.358	581.31
460.578	573.31
460.798	587.31
461.018	591.31
461.238	583.31
461.458	591.31
461.678	575.31
461.898	580.31
462.118	597.31
462.338	603.31
462.558	621.31
462.777	620.31
462.997	609.31
463.217	629.31
463.437	639.31
463.657	615.31
463.876	611.31
464.096	624.31
464.316	617.31
464.536	635.31
464.755	620.31
464.975	607.31
465.195	668.31
465.414	731.31
465.634	653.31
465.854	597.31
466.073	593.31
466.293	553.31
466.512	563.31
466.732	573.31
466.951	564.31
467.171	539.31
467.391	563.31
467.61	565.31
467.829	545.31
468.049	554.31
468.268	550.31
468.488	533.31
468.707	540.31
468.927	539.31
469.146	526.31
469.365	546.31
469.585	546.31
469.804	534.31
470.023	543.31
470.243	550.31
470.462	570.31
470.681	594.31
470.901	582.31
471.12	567.31
471.339	580.31
471.558	564.31
471.777	547.31
471.997	570.31
472.216	578.31
472.435	538.31
472.654	541.31
472.873	566.31
473.092	575.31
473.311	568.31
473.53	541.31
473.749	545.31
473.968	599.31
474.187	707.31
474.406	737.31
474.625	622.31
474.844	575.31
475.063	546.31
475.282	550.31
475.501	558.31
475.72	555.31
475.939	580.31
476.158	581.31
476.377	586.31
476.596	565.31
476.814	593.31
477.033	573.31
477.252	586.31
477.471	581.31
477.69	590.31
477.908	595.31
478.127	605.31
478.346	597.31
478.564	653.31
478.783	607.31
479.002	641.31
479.22	662.31
479.439	646.31
479.658	667.31
479.876	669.31
480.095	673.31
480.313	690.31
480.532	698.31
480.751	676.31
480.969	671.31
481.188	706.31
481.406	697.31
481.624	678.31
481.843	655.31
482.061	646.31
482.28	676.31
482.498	656.31
482.717	669.31
482.935	659.31
483.153	641.31
483.372	658.31
483.59	647.31
483.808	654.31
484.027	654.31
484.245	657.31
484.463	683.31
484.681	673.31
484.9	654.31
485.118	664.31
485.336	676.31
485.554	663.31
485.772	682.31
485.99	681.31
486.209	675.31
486.427	684.31
486.645	682.31
486.863	697.31
487.081	707.31
487.299	722.31
487.517	703.31
487.735	717.31
487.953	693.31
488.171	684.31
488.389	709.31
488.607	705.31
488.825	700.31
489.043	705.31
489.261	717.31
489.479	713.31
489.696	706.31
489.914	734.31
490.132	712.31
490.35	721.31
490.568	723.31
490.786	750.31
491.003	767.31
491.221	761.31
491.439	769.31
491.657	785.31
491.874	775.31
492.092	763.31
492.31	787.31
492.527	791.31
492.745	774.31
492.963	788.31
493.18	794.31
493.398	826.31
493.615	813.31
493.833	832.31
494.05	814.31
494.268	790.31
494.485	824.31
494.703	805.31
494.92	804.31
495.138	811.31
495.355	833.31
495.573	830.31
495.79	834.31
496.008	823.31
496.225	833.31
496.442	832.31
496.66	838.31
496.877	837.31
497.094	837.31
497.312	852.31
497.529	862.31
497.746	865.31
497.963	907.31
498.181	916.31
498.398	892.31
498.615	927.31
498.832	930.31
499.049	974.31
499.267	977.31
499.484	1014.31
499.701	1064.31
499.918	1068.31
500.135	1130.31
500.352	1212.31
500.569	1193.31
500.786	1201.31
501.003	1203.31
501.22	1176.31
501.437	1134.31
501.654	1093.31
