Data from 1988.PennyLincolnUp.Lamp.En5.5.200Scan.071819.P2_HRD10591_17-21-03-972.txt Node
Date: Thu Jul 18 17:21:03 EDT 2019
User: cochatt
Spectrometer: HR+D1059
Trigger mode: 1
Integration Time (sec): 1.000000E-1
Scans to average: 1
Electric dark correction enabled: true
Nonlinearity correction enabled: false
Boxcar width: 0
XAxis mode: Wavelengths
Number of Pixels in Spectrum: 2048
>>>>>Begin Spectral Data<<<<<
223.165	-19.5
223.4	-19.5
223.635	-19.5
223.869	-16.5
224.104	-30.5
224.338	-16.5
224.573	-15.5
224.808	-16.5
225.042	-0.5
225.277	-2.5
225.511	3.5
225.746	3.5
225.98	7.5
226.215	5.5
226.449	16.5
226.683	18.5
226.918	27.5
227.152	35.5
227.387	36.5
227.621	42.5
227.856	51.5
228.09	38.5
228.324	40.5
228.559	60.5
228.793	67.5
229.027	107.5
229.262	124.5
229.496	133.5
229.73	132.5
229.964	166.5
230.199	127.5
230.433	122.5
230.667	134.5
230.901	124.5
231.136	99.5
231.37	135.5
231.604	123.5
231.838	120.5
232.072	125.5
232.306	116.5
232.541	125.5
232.775	129.5
233.009	127.5
233.243	126.5
233.477	121.5
233.711	139.5
233.945	137.5
234.179	120.5
234.413	135.5
234.647	130.5
234.881	136.5
235.115	118.5
235.349	117.5
235.583	121.5
235.817	131.5
236.051	120.5
236.285	138.5
236.519	133.5
236.753	138.5
236.987	166.5
237.221	205.5
237.455	244.5
237.689	203.5
237.922	163.5
238.156	147.5
238.39	146.5
238.624	127.5
238.858	122.5
239.091	147.5
239.325	117.5
239.559	125.5
239.793	139.5
240.027	140.5
240.26	162.5
240.494	159.5
240.728	148.5
240.961	155.5
241.195	156.5
241.429	150.5
241.662	138.5
241.896	143.5
242.13	149.5
242.363	158.5
242.597	146.5
242.83	138.5
243.064	141.5
243.298	141.5
243.531	137.5
243.765	151.5
243.998	158.5
244.232	149.5
244.465	152.5
244.699	151.5
244.932	150.5
245.166	150.5
245.399	164.5
245.633	148.5
245.866	150.5
246.099	163.5
246.333	189.5
246.566	148.5
246.8	167.5
247.033	148.5
247.266	154.5
247.5	166.5
247.733	188.5
247.966	175.5
248.2	179.5
248.433	177.5
248.666	193.5
248.899	188.5
249.133	207.5
249.366	232.5
249.599	219.5
249.832	194.5
250.066	179.5
250.299	173.5
250.532	195.5
250.765	224.5
250.998	227.5
251.231	234.5
251.465	241.5
251.698	227.5
251.931	201.5
252.164	220.5
252.397	208.5
252.63	219.5
252.863	219.5
253.096	234.5
253.329	230.5
253.562	221.5
253.795	228.5
254.028	236.5
254.261	234.5
254.494	240.5
254.727	275.5
254.96	290.5
255.193	309.5
255.426	259.5
255.659	224.5
255.892	226.5
256.124	241.5
256.357	245.5
256.59	235.5
256.823	213.5
257.056	235.5
257.289	224.5
257.521	220.5
257.754	212.5
257.987	210.5
258.22	229.5
258.452	217.5
258.685	223.5
258.918	231.5
259.151	230.5
259.383	240.5
259.616	235.5
259.849	245.5
260.081	257.5
260.314	265.5
260.547	286.5
260.779	250.5
261.012	265.5
261.244	260.5
261.477	230.5
261.71	231.5
261.942	232.5
262.175	236.5
262.407	242.5
262.64	235.5
262.872	230.5
263.105	229.5
263.337	239.5
263.57	236.5
263.802	230.5
264.035	237.5
264.267	219.5
264.499	228.5
264.732	224.5
264.964	239.5
265.197	220.5
265.429	244.5
265.661	231.5
265.894	245.5
266.126	231.5
266.358	234.5
266.591	228.5
266.823	233.5
267.055	246.5
267.287	235.5
267.52	244.5
267.752	235.5
267.984	233.5
268.216	257.5
268.448	247.5
268.681	267.5
268.913	276.5
269.145	279.5
269.377	294.5
269.609	280.5
269.841	284.5
270.073	305.5
270.306	313.5
270.538	355.5
270.77	352.5
271.002	335.5
271.234	324.5
271.466	327.5
271.698	326.5
271.93	335.5
272.162	360.5
272.394	337.5
272.626	321.5
272.858	333.5
273.09	306.5
273.322	290.5
273.553	281.5
273.785	287.5
274.017	282.5
274.249	285.5
274.481	288.5
274.713	281.5
274.945	297.5
275.176	295.5
275.408	292.5
275.64	287.5
275.872	300.5
276.104	287.5
276.335	298.5
276.567	280.5
276.799	305.5
277.031	343.5
277.262	337.5
277.494	348.5
277.726	310.5
277.957	315.5
278.189	298.5
278.421	303.5
278.652	297.5
278.884	318.5
279.115	284.5
279.347	276.5
279.579	282.5
279.81	279.5
280.042	287.5
280.273	280.5
280.505	287.5
280.736	290.5
280.968	283.5
281.199	294.5
281.431	290.5
281.662	283.5
281.894	296.5
282.125	298.5
282.356	299.5
282.588	343.5
282.819	340.5
283.051	320.5
283.282	296.5
283.513	304.5
283.745	305.5
283.976	315.5
284.207	306.5
284.439	314.5
284.67	327.5
284.901	312.5
285.132	300.5
285.364	316.5
285.595	298.5
285.826	292.5
286.057	315.5
286.288	315.5
286.52	303.5
286.751	295.5
286.982	293.5
287.213	304.5
287.444	323.5
287.675	320.5
287.906	336.5
288.138	325.5
288.369	332.5
288.6	343.5
288.831	319.5
289.062	323.5
289.293	332.5
289.524	290.5
289.755	306.5
289.986	313.5
290.217	323.5
290.448	325.5
290.679	309.5
290.91	320.5
291.141	315.5
291.371	324.5
291.602	317.5
291.833	304.5
292.064	322.5
292.295	303.5
292.526	329.5
292.757	319.5
292.987	315.5
293.218	331.5
293.449	321.5
293.68	327.5
293.91	306.5
294.141	307.5
294.372	316.5
294.603	323.5
294.833	320.5
295.064	325.5
295.295	323.5
295.525	299.5
295.756	336.5
295.987	337.5
296.217	345.5
296.448	363.5
296.679	339.5
296.909	335.5
297.14	333.5
297.37	348.5
297.601	339.5
297.831	328.5
298.062	335.5
298.292	348.5
298.523	327.5
298.753	328.5
298.984	340.5
299.214	319.5
299.445	340.5
299.675	346.5
299.905	348.5
300.136	335.5
300.366	327.5
300.597	352.5
300.827	350.5
301.057	351.5
301.288	339.5
301.518	372.5
301.748	367.5
301.979	352.5
302.209	345.5
302.439	373.5
302.669	374.5
302.9	346.5
303.13	347.5
303.36	369.5
303.59	366.5
303.82	375.5
304.051	386.5
304.281	370.5
304.511	368.5
304.741	365.5
304.971	344.5
305.201	373.5
305.431	351.5
305.661	361.5
305.891	377.5
306.121	368.5
306.352	370.5
306.582	376.5
306.812	397.5
307.042	375.5
307.272	349.5
307.502	370.5
307.731	375.5
307.961	355.5
308.191	374.5
308.421	369.5
308.651	372.5
308.881	359.5
309.111	367.5
309.341	383.5
309.571	382.5
309.8	417.5
310.03	417.5
310.26	425.5
310.49	421.5
310.72	420.5
310.949	439.5
311.179	455.5
311.409	428.5
311.639	409.5
311.868	417.5
312.098	404.5
312.328	431.5
312.557	439.5
312.787	453.5
313.017	450.5
313.246	438.5
313.476	424.5
313.706	430.5
313.935	433.5
314.165	436.5
314.394	442.5
314.624	436.5
314.853	435.5
315.083	425.5
315.312	443.5
315.542	401.5
315.771	408.5
316.001	416.5
316.23	391.5
316.46	420.5
316.689	421.5
316.919	421.5
317.148	444.5
317.377	422.5
317.607	427.5
317.836	438.5
318.065	426.5
318.295	433.5
318.524	425.5
318.753	422.5
318.983	419.5
319.212	439.5
319.441	451.5
319.67	439.5
319.9	416.5
320.129	421.5
320.358	442.5
320.587	416.5
320.816	415.5
321.046	451.5
321.275	434.5
321.504	455.5
321.733	465.5
321.962	446.5
322.191	474.5
322.42	468.5
322.649	484.5
322.878	546.5
323.108	516.5
323.337	544.5
323.566	580.5
323.795	614.5
324.024	669.5
324.253	825.5
324.482	1128.5
324.71	1843.5
324.939	2728.5
325.168	2328.5
325.397	1160.5
325.626	743.5
325.855	633.5
326.084	581.5
326.313	566.5
326.542	584.5
326.77	650.5
326.999	741.5
327.228	1037.5
327.457	1640.5
327.686	2024.5
327.914	1305.5
328.143	829.5
328.372	730.5
328.6	678.5
328.829	616.5
329.058	640.5
329.287	675.5
329.515	603.5
329.744	582.5
329.972	557.5
330.201	585.5
330.43	603.5
330.658	637.5
330.887	684.5
331.115	666.5
331.344	597.5
331.572	569.5
331.801	575.5
332.03	555.5
332.258	536.5
332.486	530.5
332.715	499.5
332.943	497.5
333.172	530.5
333.4	499.5
333.629	519.5
333.857	525.5
334.085	538.5
334.314	529.5
334.542	542.5
334.771	531.5
334.999	543.5
335.227	518.5
335.455	528.5
335.684	502.5
335.912	505.5
336.14	506.5
336.369	495.5
336.597	510.5
336.825	523.5
337.053	512.5
337.281	497.5
337.51	500.5
337.738	496.5
337.966	506.5
338.194	503.5
338.422	515.5
338.65	482.5
338.878	472.5
339.106	492.5
339.334	477.5
339.562	503.5
339.79	499.5
340.018	476.5
340.246	477.5
340.474	486.5
340.702	500.5
340.93	488.5
341.158	480.5
341.386	475.5
341.614	489.5
341.842	489.5
342.07	480.5
342.298	471.5
342.526	471.5
342.754	476.5
342.981	469.5
343.209	483.5
343.437	455.5
343.665	473.5
343.893	491.5
344.12	501.5
344.348	484.5
344.576	498.5
344.804	509.5
345.031	512.5
345.259	519.5
345.487	507.5
345.714	499.5
345.942	461.5
346.17	487.5
346.397	487.5
346.625	468.5
346.853	497.5
347.08	497.5
347.308	483.5
347.535	482.5
347.763	506.5
347.99	482.5
348.218	469.5
348.445	513.5
348.673	484.5
348.9	467.5
349.128	468.5
349.355	458.5
349.583	463.5
349.81	452.5
350.037	467.5
350.265	470.5
350.492	479.5
350.72	466.5
350.947	481.5
351.174	474.5
351.402	494.5
351.629	495.5
351.856	495.5
352.083	499.5
352.311	479.5
352.538	500.5
352.765	491.5
352.992	472.5
353.22	474.5
353.447	473.5
353.674	482.5
353.901	456.5
354.128	433.5
354.355	446.5
354.583	468.5
354.81	443.5
355.037	461.5
355.264	441.5
355.491	450.5
355.718	439.5
355.945	443.5
356.172	438.5
356.399	425.5
356.626	444.5
356.853	427.5
357.08	435.5
357.307	424.5
357.534	432.5
357.761	440.5
357.988	450.5
358.215	453.5
358.441	464.5
358.668	447.5
358.895	448.5
359.122	453.5
359.349	475.5
359.576	476.5
359.802	495.5
360.029	525.5
360.256	541.5
360.483	536.5
360.709	499.5
360.936	496.5
361.163	479.5
361.39	486.5
361.616	492.5
361.843	464.5
362.07	470.5
362.296	489.5
362.523	487.5
362.749	484.5
362.976	480.5
363.203	461.5
363.429	467.5
363.656	490.5
363.882	479.5
364.109	464.5
364.335	460.5
364.562	455.5
364.788	479.5
365.015	478.5
365.241	460.5
365.468	468.5
365.694	454.5
365.92	481.5
366.147	467.5
366.373	477.5
366.599	453.5
366.826	471.5
367.052	460.5
367.278	465.5
367.505	473.5
367.731	468.5
367.957	477.5
368.184	473.5
368.41	492.5
368.636	488.5
368.862	501.5
369.089	482.5
369.315	458.5
369.541	462.5
369.767	457.5
369.993	459.5
370.219	456.5
370.445	456.5
370.672	457.5
370.898	468.5
371.124	447.5
371.35	479.5
371.576	469.5
371.802	446.5
372.028	483.5
372.254	473.5
372.48	463.5
372.706	465.5
372.932	486.5
373.158	464.5
373.384	446.5
373.61	465.5
373.835	469.5
374.061	487.5
374.287	453.5
374.513	464.5
374.739	483.5
374.965	491.5
375.191	466.5
375.416	486.5
375.642	471.5
375.868	469.5
376.094	472.5
376.319	471.5
376.545	452.5
376.771	478.5
376.997	471.5
377.222	468.5
377.448	462.5
377.674	462.5
377.899	459.5
378.125	448.5
378.35	460.5
378.576	482.5
378.802	436.5
379.027	457.5
379.253	476.5
379.478	461.5
379.704	450.5
379.929	457.5
380.155	457.5
380.38	467.5
380.606	474.5
380.831	481.5
381.057	486.5
381.282	476.5
381.507	467.5
381.733	464.5
381.958	472.5
382.184	468.5
382.409	479.5
382.634	465.5
382.86	477.5
383.085	477.5
383.31	496.5
383.535	479.5
383.761	488.5
383.986	478.5
384.211	472.5
384.436	495.5
384.662	485.5
384.887	488.5
385.112	481.5
385.337	477.5
385.562	501.5
385.787	505.5
386.013	516.5
386.238	537.5
386.463	505.5
386.688	515.5
386.913	510.5
387.138	516.5
387.363	510.5
387.588	507.5
387.813	515.5
388.038	517.5
388.263	515.5
388.488	506.5
388.713	530.5
388.938	517.5
389.163	529.5
389.387	519.5
389.612	512.5
389.837	524.5
390.062	514.5
390.287	520.5
390.512	540.5
390.736	516.5
390.961	522.5
391.186	515.5
391.411	524.5
391.636	507.5
391.86	527.5
392.085	549.5
392.31	539.5
392.534	545.5
392.759	544.5
392.984	522.5
393.208	517.5
393.433	525.5
393.658	543.5
393.882	532.5
394.107	524.5
394.331	523.5
394.556	530.5
394.78	537.5
395.005	535.5
395.229	533.5
395.454	546.5
395.678	546.5
395.903	572.5
396.127	593.5
396.352	582.5
396.576	531.5
396.801	567.5
397.025	556.5
397.249	563.5
397.474	549.5
397.698	559.5
397.922	576.5
398.147	576.5
398.371	596.5
398.595	586.5
398.82	607.5
399.044	613.5
399.268	609.5
399.492	661.5
399.717	712.5
399.941	693.5
400.165	757.5
400.389	768.5
400.613	661.5
400.837	647.5
401.062	623.5
401.286	607.5
401.51	613.5
401.734	570.5
401.958	583.5
402.182	593.5
402.406	624.5
402.63	632.5
402.854	625.5
403.078	638.5
403.302	629.5
403.526	649.5
403.75	634.5
403.974	613.5
404.198	595.5
404.422	619.5
404.645	631.5
404.869	638.5
405.093	663.5
405.317	683.5
405.541	711.5
405.765	679.5
405.988	654.5
406.212	651.5
406.436	675.5
406.66	714.5
406.883	673.5
407.107	689.5
407.331	743.5
407.555	821.5
407.778	832.5
408.002	776.5
408.226	720.5
408.449	699.5
408.673	685.5
408.896	733.5
409.12	769.5
409.344	731.5
409.567	670.5
409.791	640.5
410.014	622.5
410.238	622.5
410.461	631.5
410.685	653.5
410.908	661.5
411.132	698.5
411.355	746.5
411.578	700.5
411.802	648.5
412.025	621.5
412.249	646.5
412.472	635.5
412.695	668.5
412.919	644.5
413.142	625.5
413.365	618.5
413.589	593.5
413.812	608.5
414.035	599.5
414.258	591.5
414.482	610.5
414.705	576.5
414.928	595.5
415.151	601.5
415.374	599.5
415.597	571.5
415.821	578.5
416.044	597.5
416.267	604.5
416.49	574.5
416.713	590.5
416.936	589.5
417.159	577.5
417.382	605.5
417.605	600.5
417.828	583.5
418.051	621.5
418.274	618.5
418.497	575.5
418.72	570.5
418.943	603.5
419.166	596.5
419.389	652.5
419.611	640.5
419.834	611.5
420.057	626.5
420.28	610.5
420.503	584.5
420.726	580.5
420.948	608.5
421.171	669.5
421.394	707.5
421.617	634.5
421.839	635.5
422.062	618.5
422.285	645.5
422.507	685.5
422.73	790.5
422.953	792.5
423.175	654.5
423.398	638.5
423.621	634.5
423.843	670.5
424.066	651.5
424.288	684.5
424.511	670.5
424.733	756.5
424.956	874.5
425.178	835.5
425.401	804.5
425.623	840.5
425.846	709.5
426.068	694.5
426.291	665.5
426.513	679.5
426.735	680.5
426.958	745.5
427.18	833.5
427.402	959.5
427.625	1080.5
427.847	956.5
428.069	800.5
428.292	723.5
428.514	675.5
428.736	620.5
428.958	627.5
429.181	645.5
429.403	612.5
429.625	629.5
429.847	653.5
430.069	751.5
430.292	735.5
430.514	631.5
430.736	625.5
430.958	605.5
431.18	616.5
431.402	598.5
431.624	589.5
431.846	571.5
432.068	583.5
432.29	587.5
432.512	583.5
432.734	597.5
432.956	587.5
433.178	620.5
433.4	603.5
433.622	584.5
433.844	577.5
434.066	563.5
434.287	597.5
434.509	600.5
434.731	617.5
434.953	602.5
435.175	625.5
435.397	637.5
435.618	665.5
435.84	730.5
436.062	862.5
436.284	921.5
436.505	736.5
436.727	693.5
436.949	657.5
437.17	636.5
437.392	613.5
437.614	631.5
437.835	674.5
438.057	773.5
438.278	965.5
438.5	921.5
438.721	1027.5
438.943	944.5
439.165	754.5
439.386	688.5
439.608	673.5
439.829	682.5
440.05	713.5
440.272	779.5
440.493	740.5
440.715	674.5
440.936	653.5
441.158	623.5
441.379	621.5
441.6	643.5
441.822	645.5
442.043	723.5
442.264	817.5
442.486	884.5
442.707	769.5
442.928	695.5
443.149	687.5
443.371	731.5
443.592	768.5
443.813	886.5
444.034	977.5
444.255	802.5
444.476	720.5
444.698	700.5
444.919	659.5
445.14	781.5
445.361	754.5
445.582	739.5
445.803	807.5
446.024	921.5
446.245	940.5
446.466	868.5
446.687	728.5
446.908	665.5
447.129	623.5
447.35	625.5
447.571	627.5
447.792	616.5
448.013	613.5
448.234	649.5
448.455	709.5
448.675	846.5
448.896	984.5
449.117	821.5
449.338	785.5
449.559	938.5
449.779	1057.5
450	836.5
450.221	693.5
450.442	655.5
450.662	604.5
450.883	615.5
451.104	643.5
451.324	623.5
451.545	598.5
451.766	587.5
451.986	557.5
452.207	549.5
452.428	537.5
452.648	546.5
452.869	547.5
453.089	560.5
453.31	581.5
453.53	569.5
453.751	575.5
453.971	533.5
454.192	582.5
454.412	549.5
454.633	544.5
454.853	540.5
455.073	556.5
455.294	575.5
455.514	665.5
455.734	644.5
455.955	566.5
456.175	524.5
456.395	544.5
456.616	540.5
456.836	529.5
457.056	500.5
457.276	509.5
457.497	538.5
457.717	519.5
457.937	528.5
458.157	547.5
458.377	567.5
458.598	584.5
458.818	628.5
459.038	745.5
459.258	764.5
459.478	638.5
459.698	615.5
459.918	594.5
460.138	575.5
460.358	602.5
460.578	587.5
460.798	613.5
461.018	601.5
461.238	608.5
461.458	584.5
461.678	568.5
461.898	620.5
462.118	628.5
462.338	624.5
462.558	627.5
462.777	655.5
462.997	636.5
463.217	651.5
463.437	644.5
463.657	642.5
463.876	636.5
464.096	646.5
464.316	636.5
464.536	639.5
464.755	631.5
464.975	653.5
465.195	679.5
465.414	768.5
465.634	689.5
465.854	646.5
466.073	630.5
466.293	600.5
466.512	594.5
466.732	576.5
466.951	586.5
467.171	579.5
467.391	583.5
467.61	584.5
467.829	592.5
468.049	588.5
468.268	544.5
468.488	583.5
468.707	571.5
468.927	543.5
469.146	550.5
469.365	557.5
469.585	532.5
469.804	555.5
470.023	596.5
470.243	577.5
470.462	581.5
470.681	624.5
470.901	606.5
471.12	580.5
471.339	579.5
471.558	581.5
471.777	591.5
471.997	575.5
472.216	580.5
472.435	580.5
472.654	584.5
472.873	571.5
473.092	565.5
473.311	571.5
473.53	589.5
473.749	582.5
473.968	632.5
474.187	722.5
474.406	769.5
474.625	645.5
474.844	581.5
475.063	607.5
475.282	612.5
475.501	614.5
475.72	610.5
475.939	603.5
476.158	583.5
476.377	581.5
476.596	592.5
476.814	618.5
477.033	610.5
477.252	628.5
477.471	630.5
477.69	615.5
477.908	629.5
478.127	651.5
478.346	619.5
478.564	648.5
478.783	627.5
479.002	642.5
479.22	655.5
479.439	687.5
479.658	701.5
479.876	708.5
480.095	700.5
480.313	738.5
480.532	716.5
480.751	699.5
480.969	691.5
481.188	731.5
481.406	728.5
481.624	701.5
481.843	689.5
482.061	693.5
482.28	681.5
482.498	670.5
482.717	694.5
482.935	689.5
483.153	678.5
483.372	655.5
483.59	647.5
483.808	671.5
484.027	672.5
484.245	676.5
484.463	685.5
484.681	671.5
484.9	693.5
485.118	694.5
485.336	711.5
485.554	699.5
485.772	717.5
485.99	725.5
486.209	726.5
486.427	731.5
486.645	723.5
486.863	729.5
487.081	729.5
487.299	732.5
487.517	730.5
487.735	722.5
487.953	717.5
488.171	744.5
488.389	717.5
488.607	752.5
488.825	740.5
489.043	716.5
489.261	738.5
489.479	761.5
489.696	755.5
489.914	749.5
490.132	772.5
490.35	765.5
490.568	773.5
490.786	765.5
491.003	789.5
491.221	821.5
491.439	811.5
491.657	808.5
491.874	843.5
492.092	826.5
492.31	817.5
492.527	846.5
492.745	827.5
492.963	836.5
493.18	837.5
493.398	848.5
493.615	837.5
493.833	852.5
494.05	865.5
494.268	849.5
494.485	824.5
494.703	866.5
494.92	863.5
495.138	859.5
495.355	860.5
495.573	872.5
495.79	886.5
496.008	883.5
496.225	868.5
496.442	876.5
496.66	864.5
496.877	856.5
497.094	896.5
497.312	887.5
497.529	911.5
497.746	908.5
497.963	931.5
498.181	932.5
498.398	960.5
498.615	964.5
498.832	1031.5
499.049	999.5
499.267	1034.5
499.484	1107.5
499.701	1096.5
499.918	1100.5
500.135	1187.5
500.352	1210.5
500.569	1247.5
500.786	1281.5
501.003	1234.5
501.22	1222.5
501.437	1182.5
501.654	1140.5
501.871	1131.5
502.088	1090.5
502.305	1038.5
502.522	991.5
502.739	1011.5
502.956	943.5
503.172	921.5
503.389	938.5
503.606	933.5
503.823	910.5
504.04	929.5
504.256	888.5
504.473	874.5
504.69	879.5
504.907	880.5
505.123	876.5
505.34	876.5
505.557	844.5
505.773	848.5
505.99	859.5
506.207	851.5
506.423	856.5
506.64	837.5
506.856	820.5
507.073	821.5
507.289	826.5
507.506	798.5
507.722	821.5
507.939	843.5
508.155	840.5
508.372	820.5
508.588	801.5
508.805	787.5
509.021	795.5
509.238	790.5
509.454	810.5
509.67	803.5
509.887	795.5
510.103	795.5
510.319	808.5
510.536	897.5
510.752	1427.5
510.968	1244.5
511.184	809.5
511.401	793.5
511.617	774.5
511.833	736.5
512.049	745.5
512.265	760.5
512.481	759.5
512.698	743.5
512.914	732.5
513.13	725.5
513.346	740.5
513.562	740.5
513.778	748.5
513.994	777.5
514.21	770.5
514.426	818.5
514.642	853.5
514.858	905.5
515.074	911.5
515.29	1059.5
515.506	1502.5
515.721	1298.5
515.937	895.5
516.153	855.5
516.369	824.5
516.585	796.5
516.801	805.5
517.016	772.5
517.232	785.5
517.448	777.5
517.664	789.5
517.879	778.5
518.095	789.5
518.311	778.5
518.527	788.5
518.742	761.5
518.958	752.5
519.173	775.5
519.389	740.5
