Data from 1988.PennyLincolnUp.Lamp.En5.5.200Scan.071819.P2_HRD10591_17-20-25-974.txt Node
Date: Thu Jul 18 17:20:25 EDT 2019
User: cochatt
Spectrometer: HR+D1059
Trigger mode: 1
Integration Time (sec): 1.000000E-1
Scans to average: 1
Electric dark correction enabled: true
Nonlinearity correction enabled: false
Boxcar width: 0
XAxis mode: Wavelengths
Number of Pixels in Spectrum: 2048
>>>>>Begin Spectral Data<<<<<
223.165	-25.62
223.4	-25.62
223.635	-25.62
223.869	-16.62
224.104	-23.62
224.338	-15.62
224.573	-7.62
224.808	-11.62
225.042	9.38
225.277	-8.62
225.511	-9.62
225.746	2.38
225.98	13.38
226.215	9.38
226.449	11.38
226.683	20.38
226.918	26.38
227.152	26.38
227.387	30.38
227.621	34.38
227.856	38.38
228.09	39.38
228.324	35.38
228.559	51.38
228.793	71.38
229.027	93.38
229.262	100.38
229.496	104.38
229.73	141.38
229.964	169.38
230.199	131.38
230.433	117.38
230.667	102.38
230.901	114.38
231.136	115.38
231.37	108.38
231.604	111.38
231.838	109.38
232.072	119.38
232.306	126.38
232.541	116.38
232.775	101.38
233.009	123.38
233.243	116.38
233.477	112.38
233.711	131.38
233.945	109.38
234.179	121.38
234.413	122.38
234.647	122.38
234.881	116.38
235.115	122.38
235.349	127.38
235.583	125.38
235.817	140.38
236.051	126.38
236.285	123.38
236.519	140.38
236.753	129.38
236.987	142.38
237.221	204.38
237.455	271.38
237.689	196.38
237.922	136.38
238.156	145.38
238.39	138.38
238.624	135.38
238.858	137.38
239.091	123.38
239.325	134.38
239.559	137.38
239.793	135.38
240.027	140.38
240.26	161.38
240.494	182.38
240.728	152.38
240.961	159.38
241.195	137.38
241.429	150.38
241.662	153.38
241.896	133.38
242.13	141.38
242.363	135.38
242.597	141.38
242.83	134.38
243.064	145.38
243.298	142.38
243.531	128.38
243.765	137.38
243.998	148.38
244.232	147.38
244.465	147.38
244.699	145.38
244.932	149.38
245.166	145.38
245.399	142.38
245.633	141.38
245.866	145.38
246.099	158.38
246.333	149.38
246.566	146.38
246.8	151.38
247.033	156.38
247.266	160.38
247.5	164.38
247.733	164.38
247.966	179.38
248.2	187.38
248.433	178.38
248.666	195.38
248.899	172.38
249.133	205.38
249.366	204.38
249.599	215.38
249.832	196.38
250.066	187.38
250.299	191.38
250.532	183.38
250.765	205.38
250.998	219.38
251.231	231.38
251.465	239.38
251.698	209.38
251.931	194.38
252.164	210.38
252.397	199.38
252.63	196.38
252.863	203.38
253.096	228.38
253.329	228.38
253.562	235.38
253.795	225.38
254.028	223.38
254.261	231.38
254.494	240.38
254.727	270.38
254.96	295.38
255.193	280.38
255.426	242.38
255.659	232.38
255.892	231.38
256.124	235.38
256.357	244.38
256.59	220.38
256.823	204.38
257.056	213.38
257.289	209.38
257.521	216.38
257.754	212.38
257.987	218.38
258.22	213.38
258.452	212.38
258.685	208.38
258.918	205.38
259.151	230.38
259.383	229.38
259.616	225.38
259.849	230.38
260.081	249.38
260.314	260.38
260.547	255.38
260.779	230.38
261.012	251.38
261.244	241.38
261.477	233.38
261.71	228.38
261.942	240.38
262.175	241.38
262.407	237.38
262.64	223.38
262.872	216.38
263.105	229.38
263.337	225.38
263.57	231.38
263.802	218.38
264.035	239.38
264.267	243.38
264.499	231.38
264.732	225.38
264.964	223.38
265.197	206.38
265.429	235.38
265.661	227.38
265.894	227.38
266.126	219.38
266.358	221.38
266.591	225.38
266.823	244.38
267.055	232.38
267.287	239.38
267.52	231.38
267.752	255.38
267.984	234.38
268.216	243.38
268.448	233.38
268.681	256.38
268.913	257.38
269.145	286.38
269.377	296.38
269.609	283.38
269.841	288.38
270.073	287.38
270.306	317.38
270.538	342.38
270.77	329.38
271.002	320.38
271.234	310.38
271.466	319.38
271.698	314.38
271.93	323.38
272.162	333.38
272.394	325.38
272.626	310.38
272.858	313.38
273.09	290.38
273.322	277.38
273.553	278.38
273.785	281.38
274.017	276.38
274.249	254.38
274.481	269.38
274.713	295.38
274.945	293.38
275.176	287.38
275.408	291.38
275.64	264.38
275.872	264.38
276.104	269.38
276.335	278.38
276.567	282.38
276.799	313.38
277.031	320.38
277.262	325.38
277.494	332.38
277.726	325.38
277.957	300.38
278.189	287.38
278.421	290.38
278.652	284.38
278.884	272.38
279.115	293.38
279.347	298.38
279.579	280.38
279.81	285.38
280.042	285.38
280.273	282.38
280.505	287.38
280.736	276.38
280.968	289.38
281.199	303.38
281.431	273.38
281.662	287.38
281.894	298.38
282.125	286.38
282.356	303.38
282.588	324.38
282.819	334.38
283.051	296.38
283.282	298.38
283.513	291.38
283.745	286.38
283.976	300.38
284.207	297.38
284.439	302.38
284.67	300.38
284.901	300.38
285.132	300.38
285.364	289.38
285.595	305.38
285.826	289.38
286.057	305.38
286.288	308.38
286.52	313.38
286.751	307.38
286.982	298.38
287.213	293.38
287.444	303.38
287.675	301.38
287.906	306.38
288.138	308.38
288.369	334.38
288.6	305.38
288.831	315.38
289.062	308.38
289.293	318.38
289.524	316.38
289.755	305.38
289.986	303.38
290.217	296.38
290.448	309.38
290.679	299.38
290.91	319.38
291.141	303.38
291.371	311.38
291.602	307.38
291.833	318.38
292.064	296.38
292.295	298.38
292.526	323.38
292.757	315.38
292.987	301.38
293.218	317.38
293.449	317.38
293.68	326.38
293.91	313.38
294.141	305.38
294.372	320.38
294.603	308.38
294.833	315.38
295.064	299.38
295.295	321.38
295.525	314.38
295.756	331.38
295.987	320.38
296.217	355.38
296.448	372.38
296.679	351.38
296.909	324.38
297.14	323.38
297.37	309.38
297.601	331.38
297.831	339.38
298.062	325.38
298.292	327.38
298.523	332.38
298.753	335.38
298.984	348.38
299.214	330.38
299.445	331.38
299.675	329.38
299.905	338.38
300.136	348.38
300.366	324.38
300.597	337.38
300.827	367.38
301.057	338.38
301.288	371.38
301.518	350.38
301.748	359.38
301.979	371.38
302.209	344.38
302.439	356.38
302.669	344.38
302.9	346.38
303.13	349.38
303.36	348.38
303.59	355.38
303.82	368.38
304.051	354.38
304.281	372.38
304.511	360.38
304.741	367.38
304.971	361.38
305.201	351.38
305.431	352.38
305.661	349.38
305.891	351.38
306.121	356.38
306.352	361.38
306.582	375.38
306.812	345.38
307.042	342.38
307.272	339.38
307.502	351.38
307.731	349.38
307.961	354.38
308.191	371.38
308.421	376.38
308.651	359.38
308.881	370.38
309.111	367.38
309.341	381.38
309.571	385.38
309.8	383.38
310.03	394.38
310.26	413.38
310.49	419.38
310.72	417.38
310.949	433.38
311.179	419.38
311.409	419.38
311.639	398.38
311.868	408.38
312.098	417.38
312.328	418.38
312.557	431.38
312.787	450.38
313.017	444.38
313.246	409.38
313.476	429.38
313.706	414.38
313.935	415.38
314.165	417.38
314.394	447.38
314.624	436.38
314.853	401.38
315.083	435.38
315.312	391.38
315.542	412.38
315.771	391.38
316.001	407.38
316.23	413.38
316.46	405.38
316.689	408.38
316.919	400.38
317.148	425.38
317.377	445.38
317.607	424.38
317.836	403.38
318.065	387.38
318.295	432.38
318.524	417.38
318.753	415.38
318.983	443.38
319.212	429.38
319.441	436.38
319.67	397.38
319.9	416.38
320.129	437.38
320.358	412.38
320.587	412.38
320.816	447.38
321.046	431.38
321.275	444.38
321.504	432.38
321.733	446.38
321.962	437.38
322.191	451.38
322.42	476.38
322.649	488.38
322.878	478.38
323.108	514.38
323.337	526.38
323.566	527.38
323.795	604.38
324.024	620.38
324.253	760.38
324.482	1092.38
324.71	1722.38
324.939	2489.38
325.168	2152.38
325.397	1115.38
325.626	741.38
325.855	599.38
326.084	564.38
326.313	565.38
326.542	555.38
326.77	634.38
326.999	727.38
327.228	996.38
327.457	1503.38
327.686	1887.38
327.914	1217.38
328.143	806.38
328.372	670.38
328.6	661.38
328.829	617.38
329.058	631.38
329.287	630.38
329.515	621.38
329.744	577.38
329.972	538.38
330.201	531.38
330.43	563.38
330.658	613.38
330.887	655.38
331.115	634.38
331.344	561.38
331.572	533.38
331.801	564.38
332.03	561.38
332.258	508.38
332.486	515.38
332.715	479.38
332.943	496.38
333.172	492.38
333.4	521.38
333.629	515.38
333.857	525.38
334.085	509.38
334.314	524.38
334.542	538.38
334.771	521.38
334.999	507.38
335.227	504.38
335.455	507.38
335.684	495.38
335.912	498.38
336.14	497.38
336.369	510.38
336.597	521.38
336.825	505.38
337.053	519.38
337.281	492.38
337.51	515.38
337.738	494.38
337.966	489.38
338.194	473.38
338.422	488.38
338.65	493.38
338.878	478.38
339.106	488.38
339.334	480.38
339.562	482.38
339.79	483.38
340.018	458.38
340.246	451.38
340.474	483.38
340.702	473.38
340.93	481.38
341.158	501.38
341.386	483.38
341.614	479.38
341.842	475.38
342.07	472.38
342.298	475.38
342.526	466.38
342.754	459.38
342.981	447.38
343.209	474.38
343.437	495.38
343.665	483.38
343.893	495.38
344.12	517.38
344.348	497.38
344.576	496.38
344.804	488.38
345.031	492.38
345.259	501.38
345.487	501.38
345.714	475.38
345.942	461.38
346.17	476.38
346.397	490.38
346.625	476.38
346.853	466.38
347.08	469.38
347.308	475.38
347.535	482.38
347.763	466.38
347.99	479.38
348.218	474.38
348.445	457.38
348.673	476.38
348.9	447.38
349.128	453.38
349.355	458.38
349.583	438.38
349.81	434.38
350.037	459.38
350.265	440.38
350.492	431.38
350.72	455.38
350.947	459.38
351.174	470.38
351.402	459.38
351.629	488.38
351.856	469.38
352.083	470.38
352.311	498.38
352.538	491.38
352.765	458.38
352.992	489.38
353.22	469.38
353.447	448.38
353.674	448.38
353.901	443.38
354.128	462.38
354.355	424.38
354.583	425.38
354.81	428.38
355.037	462.38
355.264	431.38
355.491	445.38
355.718	447.38
355.945	416.38
356.172	431.38
356.399	419.38
356.626	439.38
356.853	438.38
357.08	442.38
357.307	417.38
357.534	437.38
357.761	427.38
357.988	442.38
358.215	437.38
358.441	443.38
358.668	442.38
358.895	454.38
359.122	450.38
359.349	454.38
359.576	472.38
359.802	505.38
360.029	527.38
360.256	550.38
360.483	502.38
360.709	467.38
360.936	457.38
361.163	469.38
361.39	480.38
361.616	467.38
361.843	464.38
362.07	460.38
362.296	460.38
362.523	450.38
362.749	472.38
362.976	463.38
363.203	460.38
363.429	447.38
363.656	454.38
363.882	447.38
364.109	443.38
364.335	455.38
364.562	444.38
364.788	465.38
365.015	453.38
365.241	448.38
365.468	460.38
365.694	449.38
365.92	467.38
366.147	455.38
366.373	457.38
366.599	465.38
366.826	468.38
367.052	458.38
367.278	448.38
367.505	444.38
367.731	452.38
367.957	457.38
368.184	439.38
368.41	451.38
368.636	472.38
368.862	495.38
369.089	459.38
369.315	453.38
369.541	455.38
369.767	457.38
369.993	457.38
370.219	444.38
370.445	452.38
370.672	455.38
370.898	471.38
371.124	444.38
371.35	473.38
371.576	449.38
371.802	457.38
372.028	436.38
372.254	451.38
372.48	468.38
372.706	444.38
372.932	444.38
373.158	457.38
373.384	462.38
373.61	447.38
373.835	447.38
374.061	453.38
374.287	457.38
374.513	446.38
374.739	456.38
374.965	476.38
375.191	470.38
375.416	468.38
375.642	433.38
375.868	461.38
376.094	469.38
376.319	457.38
376.545	451.38
376.771	429.38
376.997	456.38
377.222	472.38
377.448	475.38
377.674	428.38
377.899	443.38
378.125	444.38
378.35	445.38
378.576	437.38
378.802	448.38
379.027	459.38
379.253	457.38
379.478	467.38
379.704	450.38
379.929	443.38
380.155	467.38
380.38	453.38
380.606	467.38
380.831	453.38
381.057	461.38
381.282	449.38
381.507	451.38
381.733	461.38
381.958	461.38
382.184	444.38
382.409	463.38
382.634	472.38
382.86	492.38
383.085	470.38
383.31	477.38
383.535	507.38
383.761	476.38
383.986	472.38
384.211	466.38
384.436	488.38
384.662	463.38
384.887	488.38
385.112	467.38
385.337	493.38
385.562	480.38
385.787	473.38
386.013	503.38
386.238	515.38
386.463	524.38
386.688	521.38
386.913	519.38
387.138	506.38
387.363	514.38
387.588	508.38
387.813	501.38
388.038	505.38
388.263	512.38
388.488	503.38
388.713	525.38
388.938	495.38
389.163	511.38
389.387	528.38
389.612	485.38
389.837	505.38
390.062	509.38
390.287	522.38
390.512	485.38
390.736	496.38
390.961	511.38
391.186	487.38
391.411	497.38
391.636	516.38
391.86	525.38
392.085	530.38
392.31	519.38
392.534	527.38
392.759	508.38
392.984	520.38
393.208	505.38
393.433	509.38
393.658	506.38
393.882	498.38
394.107	493.38
394.331	523.38
394.556	524.38
394.78	501.38
395.005	506.38
395.229	509.38
395.454	516.38
395.678	518.38
395.903	564.38
396.127	569.38
396.352	579.38
396.576	546.38
396.801	535.38
397.025	541.38
397.249	553.38
397.474	535.38
397.698	547.38
397.922	567.38
398.147	578.38
398.371	591.38
398.595	576.38
398.82	581.38
399.044	586.38
399.268	618.38
399.492	660.38
399.717	688.38
399.941	698.38
400.165	708.38
400.389	728.38
400.613	660.38
400.837	624.38
401.062	637.38
401.286	600.38
401.51	601.38
401.734	585.38
401.958	593.38
402.182	583.38
402.406	565.38
402.63	579.38
402.854	598.38
403.078	602.38
403.302	589.38
403.526	608.38
403.75	614.38
403.974	607.38
404.198	579.38
404.422	617.38
404.645	624.38
404.869	617.38
405.093	641.38
405.317	653.38
405.541	681.38
405.765	652.38
405.988	646.38
406.212	642.38
406.436	652.38
406.66	704.38
406.883	663.38
407.107	690.38
407.331	730.38
407.555	808.38
407.778	792.38
408.002	746.38
408.226	714.38
408.449	676.38
408.673	665.38
408.896	707.38
409.12	771.38
409.344	710.38
409.567	649.38
409.791	624.38
410.014	615.38
410.238	614.38
410.461	598.38
410.685	630.38
410.908	640.38
411.132	691.38
411.355	738.38
411.578	694.38
411.802	632.38
412.025	592.38
412.249	616.38
412.472	623.38
412.695	630.38
412.919	625.38
413.142	609.38
413.365	594.38
413.589	599.38
413.812	590.38
414.035	587.38
414.258	578.38
414.482	577.38
414.705	593.38
414.928	557.38
415.151	583.38
415.374	572.38
415.597	579.38
415.821	569.38
416.044	581.38
416.267	590.38
416.49	585.38
416.713	541.38
416.936	573.38
417.159	564.38
417.382	578.38
417.605	574.38
417.828	592.38
418.051	609.38
418.274	578.38
418.497	572.38
418.72	563.38
418.943	579.38
419.166	575.38
419.389	627.38
419.611	617.38
419.834	603.38
420.057	609.38
420.28	601.38
420.503	593.38
420.726	586.38
420.948	598.38
421.171	665.38
421.394	709.38
421.617	637.38
421.839	602.38
422.062	616.38
422.285	639.38
422.507	682.38
422.73	760.38
422.953	757.38
423.175	640.38
423.398	617.38
423.621	615.38
423.843	657.38
424.066	647.38
424.288	651.38
424.511	678.38
424.733	731.38
424.956	820.38
425.178	792.38
425.401	773.38
425.623	808.38
425.846	703.38
426.068	653.38
426.291	644.38
426.513	656.38
426.735	659.38
426.958	689.38
427.18	795.38
427.402	978.38
427.625	1096.38
427.847	922.38
428.069	761.38
428.292	689.38
428.514	646.38
428.736	639.38
428.958	626.38
429.181	590.38
429.403	603.38
429.625	607.38
429.847	645.38
430.069	745.38
430.292	736.38
430.514	633.38
430.736	611.38
430.958	601.38
431.18	571.38
431.402	569.38
431.624	546.38
431.846	549.38
432.068	562.38
432.29	599.38
432.512	574.38
432.734	595.38
432.956	605.38
433.178	565.38
433.4	592.38
433.622	578.38
433.844	563.38
434.066	578.38
434.287	566.38
434.509	585.38
434.731	600.38
434.953	587.38
435.175	602.38
435.397	638.38
435.618	636.38
435.84	697.38
436.062	822.38
436.284	906.38
436.505	761.38
436.727	654.38
436.949	618.38
437.17	615.38
437.392	595.38
437.614	615.38
437.835	659.38
438.057	779.38
438.278	885.38
438.5	895.38
438.721	964.38
438.943	927.38
439.165	756.38
439.386	675.38
439.608	642.38
439.829	673.38
440.05	703.38
440.272	754.38
440.493	711.38
440.715	674.38
440.936	625.38
441.158	628.38
441.379	618.38
441.6	627.38
441.822	647.38
442.043	681.38
442.264	793.38
442.486	841.38
442.707	744.38
442.928	672.38
443.149	683.38
443.371	703.38
443.592	761.38
443.813	857.38
444.034	921.38
444.255	786.38
444.476	679.38
444.698	682.38
444.919	660.38
445.14	799.38
445.361	730.38
445.582	707.38
445.803	775.38
446.024	909.38
446.245	931.38
446.466	832.38
446.687	708.38
446.908	676.38
447.129	620.38
447.35	605.38
447.571	616.38
447.792	611.38
448.013	592.38
448.234	636.38
448.455	667.38
448.675	837.38
448.896	949.38
449.117	829.38
449.338	745.38
449.559	874.38
449.779	1025.38
450	781.38
450.221	669.38
450.442	599.38
450.662	587.38
450.883	580.38
451.104	605.38
451.324	602.38
451.545	571.38
451.766	549.38
451.986	555.38
452.207	531.38
452.428	543.38
452.648	520.38
452.869	522.38
453.089	536.38
453.31	536.38
453.53	540.38
453.751	537.38
453.971	546.38
454.192	573.38
454.412	563.38
454.633	545.38
454.853	536.38
455.073	529.38
455.294	585.38
455.514	657.38
455.734	616.38
455.955	535.38
456.175	489.38
456.395	535.38
456.616	500.38
456.836	517.38
457.056	491.38
457.276	499.38
457.497	513.38
457.717	509.38
457.937	529.38
458.157	536.38
458.377	544.38
458.598	561.38
458.818	616.38
459.038	710.38
459.258	709.38
459.478	639.38
459.698	579.38
459.918	555.38
460.138	576.38
460.358	590.38
460.578	570.38
460.798	592.38
461.018	602.38
461.238	603.38
461.458	594.38
461.678	604.38
461.898	613.38
462.118	564.38
462.338	595.38
462.558	608.38
462.777	626.38
462.997	627.38
463.217	656.38
463.437	630.38
463.657	635.38
463.876	631.38
464.096	640.38
464.316	614.38
464.536	615.38
464.755	617.38
464.975	641.38
465.195	659.38
465.414	745.38
465.634	669.38
465.854	620.38
466.073	593.38
466.293	571.38
466.512	591.38
466.732	569.38
466.951	570.38
467.171	560.38
467.391	565.38
467.61	587.38
467.829	584.38
468.049	563.38
468.268	549.38
468.488	533.38
468.707	531.38
468.927	550.38
469.146	532.38
469.365	535.38
469.585	543.38
469.804	561.38
470.023	603.38
470.243	582.38
470.462	565.38
470.681	588.38
470.901	578.38
471.12	552.38
471.339	565.38
471.558	577.38
471.777	557.38
471.997	546.38
472.216	579.38
472.435	577.38
472.654	559.38
472.873	558.38
473.092	537.38
473.311	521.38
473.53	577.38
473.749	580.38
473.968	642.38
474.187	732.38
474.406	782.38
474.625	649.38
474.844	584.38
475.063	573.38
475.282	571.38
475.501	561.38
475.72	564.38
475.939	578.38
476.158	580.38
476.377	555.38
476.596	574.38
476.814	582.38
477.033	589.38
477.252	614.38
477.471	610.38
477.69	599.38
477.908	620.38
478.127	599.38
478.346	629.38
478.564	629.38
478.783	626.38
479.002	639.38
479.22	636.38
479.439	669.38
479.658	669.38
479.876	683.38
480.095	682.38
480.313	704.38
480.532	690.38
480.751	692.38
480.969	681.38
481.188	687.38
481.406	705.38
481.624	693.38
481.843	669.38
482.061	668.38
482.28	688.38
482.498	658.38
482.717	677.38
482.935	663.38
483.153	647.38
483.372	661.38
483.59	648.38
483.808	663.38
484.027	679.38
484.245	653.38
484.463	647.38
484.681	648.38
484.9	675.38
485.118	673.38
485.336	673.38
485.554	680.38
485.772	679.38
485.99	685.38
486.209	682.38
486.427	684.38
486.645	698.38
486.863	719.38
487.081	703.38
487.299	709.38
487.517	698.38
487.735	721.38
487.953	707.38
488.171	705.38
488.389	733.38
488.607	715.38
488.825	737.38
489.043	720.38
489.261	715.38
489.479	722.38
489.696	714.38
489.914	726.38
490.132	717.38
490.35	767.38
490.568	746.38
490.786	742.38
491.003	769.38
491.221	775.38
491.439	794.38
491.657	813.38
491.874	800.38
492.092	793.38
492.31	775.38
492.527	829.38
492.745	802.38
492.963	803.38
493.18	833.38
493.398	791.38
493.615	826.38
493.833	829.38
494.05	830.38
494.268	817.38
494.485	831.38
494.703	849.38
494.92	812.38
495.138	828.38
495.355	825.38
495.573	845.38
495.79	810.38
496.008	826.38
496.225	840.38
496.442	859.38
496.66	861.38
496.877	856.38
497.094	876.38
497.312	859.38
497.529	864.38
497.746	889.38
497.963	890.38
498.181	934.38
498.398	945.38
498.615	960.38
498.832	960.38
499.049	962.38
499.267	1035.38
499.484	1056.38
499.701	1085.38
499.918	1125.38
500.135	1179.38
500.352	1215.38
500.569	1228.38
500.786	1223.38
501.003	1216.38
501.22	1170.38
501.437	1126.38
501.654	1125.38
