Data from 1988.PennyLincolnUp.Lamp.En5.5.200Scan.071819.P2_HRD10591_17-20-32-972.txt Node
Date: Thu Jul 18 17:20:32 EDT 2019
User: cochatt
Spectrometer: HR+D1059
Trigger mode: 1
Integration Time (sec): 1.000000E-1
Scans to average: 1
Electric dark correction enabled: true
Nonlinearity correction enabled: false
Boxcar width: 0
XAxis mode: Wavelengths
Number of Pixels in Spectrum: 2048
>>>>>Begin Spectral Data<<<<<
223.165	-6.56
223.4	-6.56
223.635	-6.56
223.869	-11.56
224.104	-3.56
224.338	-20.56
224.573	-10.56
224.808	-0.56
225.042	-0.56
225.277	-9.56
225.511	-0.56
225.746	-3.56
225.98	3.44
226.215	13.44
226.449	10.44
226.683	12.44
226.918	15.44
227.152	12.44
227.387	21.44
227.621	40.44
227.856	57.44
228.09	55.44
228.324	51.44
228.559	54.44
228.793	67.44
229.027	93.44
229.262	119.44
229.496	120.44
229.73	159.44
229.964	156.44
230.199	143.44
230.433	121.44
230.667	120.44
230.901	123.44
231.136	117.44
231.37	106.44
231.604	119.44
231.838	107.44
232.072	121.44
232.306	109.44
232.541	127.44
232.775	119.44
233.009	108.44
233.243	125.44
233.477	121.44
233.711	115.44
233.945	123.44
234.179	124.44
234.413	117.44
234.647	114.44
234.881	112.44
235.115	120.44
235.349	129.44
235.583	126.44
235.817	127.44
236.051	108.44
236.285	131.44
236.519	121.44
236.753	142.44
236.987	166.44
237.221	195.44
237.455	264.44
237.689	185.44
237.922	135.44
238.156	140.44
238.39	135.44
238.624	129.44
238.858	122.44
239.091	133.44
239.325	141.44
239.559	131.44
239.793	139.44
240.027	134.44
240.26	159.44
240.494	152.44
240.728	163.44
240.961	157.44
241.195	150.44
241.429	147.44
241.662	141.44
241.896	140.44
242.13	141.44
242.363	141.44
242.597	144.44
242.83	140.44
243.064	135.44
243.298	151.44
243.531	146.44
243.765	138.44
243.998	137.44
244.232	152.44
244.465	149.44
244.699	167.44
244.932	150.44
245.166	153.44
245.399	149.44
245.633	144.44
245.866	129.44
246.099	159.44
246.333	161.44
246.566	167.44
246.8	157.44
247.033	163.44
247.266	159.44
247.5	161.44
247.733	176.44
247.966	196.44
248.2	193.44
248.433	180.44
248.666	168.44
248.899	201.44
249.133	205.44
249.366	229.44
249.599	213.44
249.832	194.44
250.066	210.44
250.299	204.44
250.532	187.44
250.765	204.44
250.998	234.44
251.231	229.44
251.465	227.44
251.698	220.44
251.931	218.44
252.164	216.44
252.397	208.44
252.63	225.44
252.863	218.44
253.096	228.44
253.329	237.44
253.562	261.44
253.795	234.44
254.028	212.44
254.261	228.44
254.494	253.44
254.727	264.44
254.96	295.44
255.193	293.44
255.426	270.44
255.659	235.44
255.892	227.44
256.124	223.44
256.357	231.44
256.59	227.44
256.823	222.44
257.056	208.44
257.289	218.44
257.521	208.44
257.754	219.44
257.987	225.44
258.22	225.44
258.452	216.44
258.685	205.44
258.918	219.44
259.151	227.44
259.383	244.44
259.616	233.44
259.849	241.44
260.081	256.44
260.314	275.44
260.547	287.44
260.779	259.44
261.012	259.44
261.244	236.44
261.477	246.44
261.71	226.44
261.942	245.44
262.175	259.44
262.407	254.44
262.64	223.44
262.872	229.44
263.105	235.44
263.337	216.44
263.57	238.44
263.802	233.44
264.035	225.44
264.267	237.44
264.499	241.44
264.732	219.44
264.964	219.44
265.197	235.44
265.429	241.44
265.661	221.44
265.894	239.44
266.126	233.44
266.358	211.44
266.591	227.44
266.823	266.44
267.055	237.44
267.287	244.44
267.52	246.44
267.752	251.44
267.984	239.44
268.216	234.44
268.448	243.44
268.681	241.44
268.913	259.44
269.145	274.44
269.377	286.44
269.609	308.44
269.841	283.44
270.073	304.44
270.306	330.44
270.538	332.44
270.77	315.44
271.002	303.44
271.234	309.44
271.466	322.44
271.698	321.44
271.93	341.44
272.162	348.44
272.394	324.44
272.626	320.44
272.858	308.44
273.09	291.44
273.322	292.44
273.553	281.44
273.785	281.44
274.017	273.44
274.249	292.44
274.481	272.44
274.713	292.44
274.945	285.44
275.176	294.44
275.408	306.44
275.64	273.44
275.872	266.44
276.104	275.44
276.335	290.44
276.567	293.44
276.799	294.44
277.031	352.44
277.262	336.44
277.494	346.44
277.726	317.44
277.957	313.44
278.189	306.44
278.421	275.44
278.652	295.44
278.884	293.44
279.115	277.44
279.347	290.44
279.579	271.44
279.81	272.44
280.042	282.44
280.273	267.44
280.505	299.44
280.736	282.44
280.968	288.44
281.199	294.44
281.431	276.44
281.662	281.44
281.894	293.44
282.125	287.44
282.356	308.44
282.588	329.44
282.819	341.44
283.051	305.44
283.282	283.44
283.513	275.44
283.745	292.44
283.976	315.44
284.207	298.44
284.439	308.44
284.67	287.44
284.901	294.44
285.132	298.44
285.364	292.44
285.595	289.44
285.826	297.44
286.057	306.44
286.288	310.44
286.52	309.44
286.751	298.44
286.982	311.44
287.213	329.44
287.444	305.44
287.675	299.44
287.906	312.44
288.138	323.44
288.369	327.44
288.6	312.44
288.831	300.44
289.062	320.44
289.293	305.44
289.524	308.44
289.755	305.44
289.986	311.44
290.217	299.44
290.448	309.44
290.679	317.44
290.91	321.44
291.141	297.44
291.371	305.44
291.602	310.44
291.833	296.44
292.064	310.44
292.295	319.44
292.526	316.44
292.757	317.44
292.987	296.44
293.218	307.44
293.449	327.44
293.68	313.44
293.91	301.44
294.141	308.44
294.372	315.44
294.603	317.44
294.833	331.44
295.064	328.44
295.295	319.44
295.525	309.44
295.756	330.44
295.987	344.44
296.217	362.44
296.448	375.44
296.679	339.44
296.909	325.44
297.14	336.44
297.37	324.44
297.601	315.44
297.831	322.44
298.062	324.44
298.292	332.44
298.523	337.44
298.753	349.44
298.984	338.44
299.214	326.44
299.445	319.44
299.675	355.44
299.905	342.44
300.136	351.44
300.366	348.44
300.597	347.44
300.827	347.44
301.057	351.44
301.288	370.44
301.518	356.44
301.748	345.44
301.979	352.44
302.209	354.44
302.439	346.44
302.669	360.44
302.9	359.44
303.13	352.44
303.36	360.44
303.59	365.44
303.82	377.44
304.051	364.44
304.281	355.44
304.511	362.44
304.741	369.44
304.971	351.44
305.201	345.44
305.431	367.44
305.661	347.44
305.891	363.44
306.121	369.44
306.352	361.44
306.582	370.44
306.812	356.44
307.042	356.44
307.272	363.44
307.502	353.44
307.731	356.44
307.961	356.44
308.191	352.44
308.421	352.44
308.651	370.44
308.881	377.44
309.111	383.44
309.341	380.44
309.571	362.44
309.8	375.44
310.03	404.44
310.26	413.44
310.49	394.44
310.72	433.44
310.949	445.44
311.179	438.44
311.409	423.44
311.639	408.44
311.868	408.44
312.098	386.44
312.328	437.44
312.557	440.44
312.787	445.44
313.017	435.44
313.246	441.44
313.476	439.44
313.706	410.44
313.935	426.44
314.165	448.44
314.394	436.44
314.624	452.44
314.853	436.44
315.083	435.44
315.312	424.44
315.542	401.44
315.771	408.44
316.001	400.44
316.23	417.44
316.46	399.44
316.689	401.44
316.919	419.44
317.148	432.44
317.377	423.44
317.607	417.44
317.836	411.44
318.065	437.44
318.295	404.44
318.524	396.44
318.753	409.44
318.983	422.44
319.212	416.44
319.441	412.44
319.67	422.44
319.9	438.44
320.129	438.44
320.358	417.44
320.587	424.44
320.816	432.44
321.046	432.44
321.275	422.44
321.504	455.44
321.733	454.44
321.962	485.44
322.191	465.44
322.42	486.44
322.649	486.44
322.878	484.44
323.108	492.44
323.337	540.44
323.566	560.44
323.795	602.44
324.024	629.44
324.253	771.44
324.482	1154.44
324.71	1759.44
324.939	2663.44
325.168	2253.44
325.397	1135.44
325.626	755.44
325.855	636.44
326.084	595.44
326.313	559.44
326.542	582.44
326.77	625.44
326.999	708.44
327.228	987.44
327.457	1592.44
327.686	1953.44
327.914	1292.44
328.143	823.44
328.372	680.44
328.6	652.44
328.829	614.44
329.058	631.44
329.287	659.44
329.515	597.44
329.744	557.44
329.972	536.44
330.201	562.44
330.43	598.44
330.658	633.44
330.887	664.44
331.115	663.44
331.344	595.44
331.572	556.44
331.801	554.44
332.03	550.44
332.258	531.44
332.486	516.44
332.715	492.44
332.943	521.44
333.172	521.44
333.4	498.44
333.629	515.44
333.857	545.44
334.085	549.44
334.314	524.44
334.542	533.44
334.771	547.44
334.999	507.44
335.227	521.44
335.455	532.44
335.684	511.44
335.912	507.44
336.14	499.44
336.369	476.44
336.597	499.44
336.825	493.44
337.053	484.44
337.281	487.44
337.51	508.44
337.738	487.44
337.966	501.44
338.194	497.44
338.422	512.44
338.65	498.44
338.878	496.44
339.106	509.44
339.334	489.44
339.562	464.44
339.79	476.44
340.018	511.44
340.246	490.44
340.474	511.44
340.702	504.44
340.93	490.44
341.158	475.44
341.386	479.44
341.614	507.44
341.842	467.44
342.07	490.44
342.298	473.44
342.526	466.44
342.754	440.44
342.981	489.44
343.209	465.44
343.437	478.44
343.665	485.44
343.893	487.44
344.12	496.44
344.348	490.44
344.576	509.44
344.804	513.44
345.031	515.44
345.259	529.44
345.487	525.44
345.714	495.44
345.942	482.44
346.17	468.44
346.397	469.44
346.625	471.44
346.853	475.44
347.08	473.44
347.308	485.44
347.535	481.44
347.763	489.44
347.99	492.44
348.218	494.44
348.445	479.44
348.673	485.44
348.9	469.44
349.128	472.44
349.355	466.44
349.583	461.44
349.81	482.44
350.037	451.44
350.265	456.44
350.492	461.44
350.72	467.44
350.947	487.44
351.174	471.44
351.402	496.44
351.629	481.44
351.856	491.44
352.083	473.44
352.311	512.44
352.538	490.44
352.765	481.44
352.992	492.44
353.22	478.44
353.447	487.44
353.674	457.44
353.901	471.44
354.128	467.44
354.355	442.44
354.583	455.44
354.81	435.44
355.037	420.44
355.264	436.44
355.491	447.44
355.718	437.44
355.945	446.44
356.172	433.44
356.399	426.44
356.626	449.44
356.853	453.44
357.08	435.44
357.307	444.44
357.534	426.44
357.761	439.44
357.988	443.44
358.215	449.44
358.441	423.44
358.668	462.44
358.895	442.44
359.122	455.44
359.349	459.44
359.576	473.44
359.802	496.44
360.029	529.44
360.256	536.44
360.483	505.44
360.709	473.44
360.936	492.44
361.163	470.44
361.39	479.44
361.616	478.44
361.843	482.44
362.07	474.44
362.296	491.44
362.523	473.44
362.749	471.44
362.976	480.44
363.203	461.44
363.429	450.44
363.656	453.44
363.882	441.44
364.109	464.44
364.335	473.44
364.562	472.44
364.788	439.44
365.015	449.44
365.241	452.44
365.468	456.44
365.694	459.44
365.92	481.44
366.147	431.44
366.373	463.44
366.599	456.44
366.826	452.44
367.052	460.44
367.278	453.44
367.505	459.44
367.731	442.44
367.957	465.44
368.184	461.44
368.41	467.44
368.636	467.44
368.862	462.44
369.089	453.44
369.315	455.44
369.541	451.44
369.767	471.44
369.993	455.44
370.219	476.44
370.445	443.44
370.672	461.44
370.898	455.44
371.124	460.44
371.35	442.44
371.576	468.44
371.802	449.44
372.028	437.44
372.254	435.44
372.48	472.44
372.706	451.44
372.932	465.44
373.158	474.44
373.384	467.44
373.61	464.44
373.835	468.44
374.061	467.44
374.287	454.44
374.513	464.44
374.739	467.44
374.965	464.44
375.191	467.44
375.416	457.44
375.642	473.44
375.868	461.44
376.094	465.44
376.319	467.44
376.545	461.44
376.771	458.44
376.997	447.44
377.222	443.44
377.448	442.44
377.674	464.44
377.899	474.44
378.125	452.44
378.35	453.44
378.576	440.44
378.802	453.44
379.027	461.44
379.253	446.44
379.478	445.44
379.704	446.44
379.929	459.44
380.155	463.44
380.38	460.44
380.606	473.44
380.831	464.44
381.057	469.44
381.282	455.44
381.507	468.44
381.733	446.44
381.958	459.44
382.184	469.44
382.409	461.44
382.634	483.44
382.86	461.44
383.085	463.44
383.31	478.44
383.535	481.44
383.761	471.44
383.986	498.44
384.211	480.44
384.436	476.44
384.662	484.44
384.887	492.44
385.112	483.44
385.337	501.44
385.562	517.44
385.787	479.44
386.013	508.44
386.238	523.44
386.463	518.44
386.688	524.44
386.913	510.44
387.138	494.44
387.363	514.44
387.588	522.44
387.813	538.44
388.038	490.44
388.263	516.44
388.488	505.44
388.713	512.44
388.938	520.44
389.163	528.44
389.387	507.44
389.612	503.44
389.837	511.44
390.062	491.44
390.287	485.44
390.512	508.44
390.736	492.44
390.961	506.44
391.186	500.44
391.411	516.44
391.636	508.44
391.86	521.44
392.085	522.44
392.31	526.44
392.534	540.44
392.759	524.44
392.984	513.44
393.208	535.44
393.433	536.44
393.658	533.44
393.882	505.44
394.107	496.44
394.331	528.44
394.556	507.44
394.78	519.44
395.005	499.44
395.229	509.44
395.454	542.44
395.678	522.44
395.903	571.44
396.127	567.44
396.352	565.44
396.576	549.44
396.801	536.44
397.025	533.44
397.249	535.44
397.474	548.44
397.698	595.44
397.922	590.44
398.147	568.44
398.371	603.44
398.595	581.44
398.82	585.44
399.044	616.44
399.268	608.44
399.492	649.44
399.717	675.44
399.941	713.44
400.165	745.44
400.389	734.44
400.613	665.44
400.837	641.44
401.062	637.44
401.286	604.44
401.51	601.44
401.734	611.44
401.958	586.44
402.182	605.44
402.406	619.44
402.63	629.44
402.854	609.44
403.078	628.44
403.302	602.44
403.526	625.44
403.75	631.44
403.974	602.44
404.198	607.44
404.422	607.44
404.645	615.44
404.869	614.44
405.093	629.44
405.317	682.44
405.541	720.44
405.765	687.44
405.988	644.44
406.212	648.44
406.436	668.44
406.66	682.44
406.883	688.44
407.107	705.44
407.331	760.44
407.555	839.44
407.778	806.44
408.002	753.44
408.226	683.44
408.449	689.44
408.673	673.44
408.896	705.44
409.12	770.44
409.344	743.44
409.567	641.44
409.791	622.44
410.014	630.44
410.238	604.44
410.461	629.44
410.685	642.44
410.908	662.44
411.132	658.44
411.355	738.44
411.578	663.44
411.802	649.44
412.025	648.44
412.249	620.44
412.472	646.44
412.695	629.44
412.919	629.44
413.142	618.44
413.365	602.44
413.589	596.44
413.812	604.44
414.035	588.44
414.258	630.44
414.482	583.44
414.705	587.44
414.928	584.44
415.151	593.44
415.374	593.44
415.597	580.44
415.821	578.44
416.044	590.44
416.267	585.44
416.49	590.44
416.713	591.44
416.936	577.44
417.159	570.44
417.382	578.44
417.605	583.44
417.828	588.44
418.051	609.44
418.274	632.44
418.497	589.44
418.72	573.44
418.943	607.44
419.166	609.44
419.389	634.44
419.611	627.44
419.834	628.44
420.057	611.44
420.28	601.44
420.503	602.44
420.726	601.44
420.948	637.44
421.171	667.44
421.394	709.44
421.617	609.44
421.839	589.44
422.062	601.44
422.285	628.44
422.507	683.44
422.73	789.44
422.953	768.44
423.175	646.44
423.398	639.44
423.621	641.44
423.843	680.44
424.066	648.44
424.288	661.44
424.511	687.44
424.733	731.44
424.956	835.44
425.178	817.44
425.401	815.44
425.623	833.44
425.846	728.44
426.068	671.44
426.291	653.44
426.513	659.44
426.735	667.44
426.958	714.44
427.18	828.44
427.402	994.44
427.625	1081.44
427.847	964.44
428.069	793.44
428.292	698.44
428.514	631.44
428.736	630.44
428.958	623.44
429.181	609.44
429.403	608.44
429.625	631.44
429.847	641.44
430.069	723.44
430.292	748.44
430.514	645.44
430.736	641.44
430.958	605.44
431.18	585.44
431.402	579.44
431.624	583.44
431.846	577.44
432.068	573.44
432.29	586.44
432.512	593.44
432.734	590.44
432.956	579.44
433.178	585.44
433.4	591.44
433.622	584.44
433.844	583.44
434.066	565.44
434.287	560.44
434.509	596.44
434.731	617.44
434.953	615.44
435.175	642.44
435.397	667.44
435.618	663.44
435.84	735.44
436.062	827.44
436.284	946.44
436.505	777.44
436.727	693.44
436.949	639.44
437.17	606.44
437.392	602.44
437.614	612.44
437.835	648.44
438.057	780.44
438.278	914.44
438.5	923.44
438.721	1009.44
438.943	969.44
439.165	767.44
439.386	698.44
439.608	667.44
439.829	666.44
440.05	708.44
440.272	776.44
440.493	732.44
440.715	654.44
440.936	649.44
441.158	619.44
441.379	625.44
441.6	641.44
441.822	657.44
442.043	708.44
442.264	811.44
442.486	859.44
442.707	727.44
442.928	680.44
443.149	692.44
443.371	703.44
443.592	749.44
443.813	871.44
444.034	947.44
444.255	777.44
444.476	681.44
444.698	681.44
444.919	685.44
445.14	795.44
445.361	744.44
445.582	701.44
445.803	803.44
446.024	920.44
446.245	947.44
446.466	849.44
446.687	689.44
446.908	660.44
447.129	635.44
447.35	612.44
447.571	591.44
447.792	605.44
448.013	620.44
448.234	664.44
448.455	696.44
448.675	819.44
448.896	961.44
449.117	844.44
449.338	771.44
449.559	901.44
449.779	1011.44
450	831.44
450.221	674.44
450.442	646.44
450.662	624.44
450.883	598.44
451.104	605.44
451.324	608.44
451.545	570.44
451.766	577.44
451.986	548.44
452.207	537.44
452.428	555.44
452.648	551.44
452.869	554.44
453.089	561.44
453.31	585.44
453.53	557.44
453.751	546.44
453.971	575.44
454.192	587.44
454.412	572.44
454.633	565.44
454.853	520.44
455.073	527.44
455.294	578.44
455.514	649.44
455.734	649.44
455.955	571.44
456.175	519.44
456.395	526.44
456.616	511.44
456.836	517.44
457.056	508.44
457.276	505.44
457.497	522.44
457.717	537.44
457.937	525.44
458.157	522.44
458.377	554.44
458.598	523.44
458.818	620.44
459.038	731.44
459.258	759.44
459.478	656.44
459.698	608.44
459.918	586.44
460.138	556.44
460.358	590.44
460.578	575.44
460.798	602.44
461.018	580.44
461.238	577.44
461.458	594.44
461.678	582.44
461.898	612.44
462.118	581.44
462.338	616.44
462.558	634.44
462.777	615.44
462.997	625.44
463.217	655.44
463.437	657.44
463.657	651.44
463.876	635.44
464.096	613.44
464.316	621.44
464.536	634.44
464.755	648.44
464.975	618.44
465.195	688.44
465.414	767.44
465.634	695.44
465.854	636.44
466.073	631.44
466.293	610.44
466.512	573.44
466.732	572.44
466.951	559.44
467.171	576.44
467.391	545.44
467.61	595.44
467.829	612.44
468.049	578.44
468.268	556.44
468.488	565.44
468.707	533.44
468.927	570.44
469.146	540.44
469.365	546.44
469.585	548.44
469.804	559.44
470.023	575.44
470.243	590.44
470.462	589.44
470.681	585.44
470.901	602.44
471.12	576.44
471.339	565.44
471.558	573.44
471.777	595.44
471.997	582.44
472.216	582.44
472.435	546.44
472.654	572.44
472.873	552.44
473.092	550.44
473.311	579.44
473.53	585.44
473.749	562.44
473.968	611.44
474.187	759.44
474.406	764.44
474.625	652.44
474.844	584.44
475.063	587.44
475.282	575.44
475.501	551.44
475.72	595.44
475.939	583.44
476.158	604.44
476.377	585.44
476.596	575.44
476.814	614.44
477.033	595.44
477.252	619.44
477.471	605.44
477.69	613.44
477.908	634.44
478.127	612.44
478.346	625.44
478.564	639.44
478.783	647.44
479.002	662.44
479.22	651.44
479.439	674.44
479.658	696.44
479.876	687.44
480.095	692.44
480.313	732.44
480.532	714.44
480.751	672.44
480.969	687.44
481.188	706.44
481.406	742.44
481.624	684.44
481.843	685.44
482.061	672.44
482.28	680.44
482.498	653.44
482.717	665.44
482.935	661.44
483.153	662.44
483.372	672.44
483.59	663.44
483.808	666.44
484.027	676.44
484.245	678.44
484.463	693.44
484.681	678.44
484.9	679.44
485.118	700.44
485.336	659.44
485.554	687.44
485.772	692.44
485.99	695.44
486.209	683.44
486.427	692.44
486.645	710.44
486.863	712.44
487.081	739.44
487.299	709.44
487.517	745.44
487.735	723.44
487.953	721.44
488.171	714.44
488.389	719.44
488.607	717.44
488.825	722.44
489.043	706.44
489.261	752.44
489.479	739.44
489.696	713.44
489.914	744.44
490.132	743.44
490.35	767.44
490.568	759.44
490.786	758.44
491.003	752.44
491.221	784.44
491.439	818.44
491.657	791.44
491.874	808.44
492.092	803.44
492.31	812.44
492.527	825.44
492.745	849.44
492.963	825.44
493.18	807.44
493.398	859.44
493.615	852.44
493.833	852.44
494.05	843.44
494.268	884.44
494.485	856.44
494.703	840.44
494.92	858.44
495.138	861.44
495.355	851.44
495.573	849.44
495.79	869.44
496.008	839.44
496.225	860.44
496.442	865.44
496.66	859.44
496.877	893.44
497.094	868.44
497.312	872.44
497.529	861.44
497.746	904.44
497.963	906.44
498.181	938.44
498.398	956.44
498.615	949.44
498.832	997.44
499.049	988.44
499.267	1028.44
499.484	1057.44
499.701	1077.44
499.918	1146.44
500.135	1185.44
500.352	1215.44
500.569	1211.44
500.786	1231.44
501.003	1208.44
501.22	1186.44
501.437	1161.44
501.654	1145.44
