Data from 1988.PennyLincolnUp.Lamp.En5.5.200Scan.071819.P2_HRD10591_17-20-58-972.txt Node
Date: Thu Jul 18 17:20:58 EDT 2019
User: cochatt
Spectrometer: HR+D1059
Trigger mode: 1
Integration Time (sec): 1.000000E-1
Scans to average: 1
Electric dark correction enabled: true
Nonlinearity correction enabled: false
Boxcar width: 0
XAxis mode: Wavelengths
Number of Pixels in Spectrum: 2048
>>>>>Begin Spectral Data<<<<<
223.165	-12.75
223.4	-12.75
223.635	-12.75
223.869	-7.75
224.104	-15.75
224.338	-14.75
224.573	-18.75
224.808	-15.75
225.042	-23.75
225.277	6.25
225.511	-30.75
225.746	-2.75
225.98	20.25
226.215	8.25
226.449	8.25
226.683	30.25
226.918	26.25
227.152	43.25
227.387	38.25
227.621	51.25
227.856	59.25
228.09	51.25
228.324	60.25
228.559	60.25
228.793	71.25
229.027	106.25
229.262	124.25
229.496	128.25
229.73	133.25
229.964	159.25
230.199	146.25
230.433	130.25
230.667	124.25
230.901	118.25
231.136	117.25
231.37	116.25
231.604	118.25
231.838	113.25
232.072	126.25
232.306	123.25
232.541	121.25
232.775	112.25
233.009	114.25
233.243	108.25
233.477	107.25
233.711	123.25
233.945	123.25
234.179	119.25
234.413	125.25
234.647	130.25
234.881	122.25
235.115	129.25
235.349	120.25
235.583	127.25
235.817	128.25
236.051	138.25
236.285	141.25
236.519	138.25
236.753	140.25
236.987	165.25
237.221	218.25
237.455	253.25
237.689	214.25
237.922	174.25
238.156	148.25
238.39	140.25
238.624	149.25
238.858	128.25
239.091	122.25
239.325	135.25
239.559	131.25
239.793	134.25
240.027	145.25
240.26	143.25
240.494	172.25
240.728	167.25
240.961	160.25
241.195	151.25
241.429	145.25
241.662	140.25
241.896	155.25
242.13	150.25
242.363	149.25
242.597	151.25
242.83	143.25
243.064	142.25
243.298	152.25
243.531	157.25
243.765	142.25
243.998	160.25
244.232	157.25
244.465	163.25
244.699	153.25
244.932	151.25
245.166	141.25
245.399	179.25
245.633	165.25
245.866	156.25
246.099	146.25
246.333	162.25
246.566	173.25
246.8	156.25
247.033	153.25
247.266	171.25
247.5	182.25
247.733	174.25
247.966	190.25
248.2	180.25
248.433	182.25
248.666	185.25
248.899	210.25
249.133	205.25
249.366	240.25
249.599	217.25
249.832	201.25
250.066	209.25
250.299	193.25
250.532	198.25
250.765	205.25
250.998	235.25
251.231	256.25
251.465	239.25
251.698	231.25
251.931	219.25
252.164	226.25
252.397	203.25
252.63	210.25
252.863	210.25
253.096	226.25
253.329	234.25
253.562	260.25
253.795	260.25
254.028	250.25
254.261	241.25
254.494	242.25
254.727	288.25
254.96	310.25
255.193	314.25
255.426	272.25
255.659	237.25
255.892	245.25
256.124	243.25
256.357	259.25
256.59	242.25
256.823	220.25
257.056	251.25
257.289	218.25
257.521	234.25
257.754	221.25
257.987	227.25
258.22	221.25
258.452	217.25
258.685	206.25
258.918	221.25
259.151	232.25
259.383	229.25
259.616	258.25
259.849	249.25
260.081	274.25
260.314	272.25
260.547	282.25
260.779	245.25
261.012	242.25
261.244	259.25
261.477	244.25
261.71	228.25
261.942	233.25
262.175	281.25
262.407	243.25
262.64	242.25
262.872	241.25
263.105	236.25
263.337	221.25
263.57	238.25
263.802	253.25
264.035	234.25
264.267	244.25
264.499	233.25
264.732	234.25
264.964	233.25
265.197	252.25
265.429	224.25
265.661	225.25
265.894	214.25
266.126	227.25
266.358	238.25
266.591	243.25
266.823	243.25
267.055	246.25
267.287	268.25
267.52	242.25
267.752	245.25
267.984	254.25
268.216	258.25
268.448	246.25
268.681	276.25
268.913	265.25
269.145	284.25
269.377	296.25
269.609	283.25
269.841	308.25
270.073	287.25
270.306	310.25
270.538	345.25
270.77	346.25
271.002	310.25
271.234	287.25
271.466	318.25
271.698	342.25
271.93	348.25
272.162	345.25
272.394	347.25
272.626	346.25
272.858	318.25
273.09	297.25
273.322	308.25
273.553	292.25
273.785	290.25
274.017	286.25
274.249	299.25
274.481	283.25
274.713	291.25
274.945	306.25
275.176	277.25
275.408	295.25
275.64	286.25
275.872	292.25
276.104	295.25
276.335	298.25
276.567	293.25
276.799	312.25
277.031	328.25
277.262	346.25
277.494	331.25
277.726	317.25
277.957	296.25
278.189	297.25
278.421	274.25
278.652	310.25
278.884	301.25
279.115	283.25
279.347	312.25
279.579	290.25
279.81	287.25
280.042	294.25
280.273	289.25
280.505	273.25
280.736	304.25
280.968	298.25
281.199	293.25
281.431	288.25
281.662	295.25
281.894	287.25
282.125	304.25
282.356	300.25
282.588	348.25
282.819	333.25
283.051	291.25
283.282	297.25
283.513	309.25
283.745	309.25
283.976	305.25
284.207	305.25
284.439	291.25
284.67	322.25
284.901	322.25
285.132	305.25
285.364	313.25
285.595	313.25
285.826	307.25
286.057	302.25
286.288	289.25
286.52	286.25
286.751	318.25
286.982	318.25
287.213	315.25
287.444	326.25
287.675	299.25
287.906	328.25
288.138	311.25
288.369	322.25
288.6	347.25
288.831	345.25
289.062	320.25
289.293	317.25
289.524	309.25
289.755	307.25
289.986	323.25
290.217	330.25
290.448	335.25
290.679	314.25
290.91	311.25
291.141	331.25
291.371	325.25
291.602	318.25
291.833	314.25
292.064	317.25
292.295	325.25
292.526	317.25
292.757	334.25
292.987	320.25
293.218	321.25
293.449	336.25
293.68	316.25
293.91	333.25
294.141	330.25
294.372	337.25
294.603	324.25
294.833	318.25
295.064	316.25
295.295	349.25
295.525	345.25
295.756	326.25
295.987	340.25
296.217	345.25
296.448	378.25
296.679	333.25
296.909	316.25
297.14	329.25
297.37	332.25
297.601	322.25
297.831	329.25
298.062	330.25
298.292	336.25
298.523	340.25
298.753	342.25
298.984	329.25
299.214	345.25
299.445	336.25
299.675	346.25
299.905	355.25
300.136	344.25
300.366	348.25
300.597	345.25
300.827	374.25
301.057	361.25
301.288	368.25
301.518	357.25
301.748	342.25
301.979	378.25
302.209	363.25
302.439	354.25
302.669	364.25
302.9	377.25
303.13	350.25
303.36	369.25
303.59	388.25
303.82	383.25
304.051	373.25
304.281	357.25
304.511	352.25
304.741	376.25
304.971	353.25
305.201	359.25
305.431	388.25
305.661	353.25
305.891	362.25
306.121	368.25
306.352	374.25
306.582	396.25
306.812	385.25
307.042	391.25
307.272	377.25
307.502	371.25
307.731	391.25
307.961	380.25
308.191	386.25
308.421	362.25
308.651	392.25
308.881	382.25
309.111	378.25
309.341	389.25
309.571	379.25
309.8	401.25
310.03	421.25
310.26	416.25
310.49	431.25
310.72	423.25
310.949	428.25
311.179	445.25
311.409	426.25
311.639	432.25
311.868	432.25
312.098	433.25
312.328	429.25
312.557	437.25
312.787	456.25
313.017	453.25
313.246	429.25
313.476	399.25
313.706	437.25
313.935	431.25
314.165	451.25
314.394	459.25
314.624	430.25
314.853	443.25
315.083	408.25
315.312	421.25
315.542	412.25
315.771	427.25
316.001	449.25
316.23	409.25
316.46	418.25
316.689	417.25
316.919	437.25
317.148	441.25
317.377	427.25
317.607	438.25
317.836	432.25
318.065	455.25
318.295	456.25
318.524	437.25
318.753	413.25
318.983	428.25
319.212	430.25
319.441	427.25
319.67	443.25
319.9	417.25
320.129	438.25
320.358	428.25
320.587	425.25
320.816	442.25
321.046	456.25
321.275	456.25
321.504	441.25
321.733	456.25
321.962	475.25
322.191	467.25
322.42	477.25
322.649	496.25
322.878	519.25
323.108	525.25
323.337	564.25
323.566	579.25
323.795	609.25
324.024	661.25
324.253	808.25
324.482	1162.25
324.71	1859.25
324.939	2763.25
325.168	2340.25
325.397	1154.25
325.626	784.25
325.855	630.25
326.084	612.25
326.313	584.25
326.542	593.25
326.77	640.25
326.999	744.25
327.228	1063.25
327.457	1594.25
327.686	2036.25
327.914	1325.25
328.143	814.25
328.372	719.25
328.6	676.25
328.829	643.25
329.058	653.25
329.287	653.25
329.515	626.25
329.744	578.25
329.972	593.25
330.201	576.25
330.43	608.25
330.658	624.25
330.887	688.25
331.115	672.25
331.344	609.25
331.572	543.25
331.801	569.25
332.03	560.25
332.258	524.25
332.486	489.25
332.715	515.25
332.943	521.25
333.172	512.25
333.4	521.25
333.629	510.25
333.857	527.25
334.085	540.25
334.314	517.25
334.542	549.25
334.771	543.25
334.999	517.25
335.227	529.25
335.455	547.25
335.684	509.25
335.912	510.25
336.14	517.25
336.369	511.25
336.597	522.25
336.825	531.25
337.053	527.25
337.281	507.25
337.51	494.25
337.738	516.25
337.966	502.25
338.194	506.25
338.422	531.25
338.65	499.25
338.878	486.25
339.106	489.25
339.334	462.25
339.562	477.25
339.79	476.25
340.018	480.25
340.246	503.25
340.474	481.25
340.702	498.25
340.93	485.25
341.158	482.25
341.386	497.25
341.614	495.25
341.842	488.25
342.07	502.25
342.298	483.25
342.526	484.25
342.754	479.25
342.981	478.25
343.209	473.25
343.437	489.25
343.665	491.25
343.893	497.25
344.12	510.25
344.348	522.25
344.576	494.25
344.804	529.25
345.031	522.25
345.259	504.25
345.487	514.25
345.714	481.25
345.942	505.25
346.17	486.25
346.397	481.25
346.625	490.25
346.853	474.25
347.08	457.25
347.308	475.25
347.535	480.25
347.763	494.25
347.99	497.25
348.218	487.25
348.445	512.25
348.673	479.25
348.9	462.25
349.128	465.25
349.355	459.25
349.583	456.25
349.81	475.25
350.037	484.25
350.265	457.25
350.492	445.25
350.72	466.25
350.947	480.25
351.174	495.25
351.402	508.25
351.629	503.25
351.856	510.25
352.083	499.25
352.311	504.25
352.538	506.25
352.765	504.25
352.992	480.25
353.22	476.25
353.447	464.25
353.674	484.25
353.901	476.25
354.128	472.25
354.355	457.25
354.583	443.25
354.81	449.25
355.037	446.25
355.264	442.25
355.491	465.25
355.718	456.25
355.945	448.25
356.172	443.25
356.399	451.25
356.626	457.25
356.853	468.25
357.08	450.25
357.307	432.25
357.534	441.25
357.761	447.25
357.988	453.25
358.215	453.25
358.441	454.25
358.668	458.25
358.895	440.25
359.122	463.25
359.349	463.25
359.576	468.25
359.802	507.25
360.029	510.25
360.256	558.25
360.483	524.25
360.709	487.25
360.936	475.25
361.163	496.25
361.39	502.25
361.616	484.25
361.843	470.25
362.07	467.25
362.296	468.25
362.523	456.25
362.749	496.25
362.976	499.25
363.203	481.25
363.429	469.25
363.656	488.25
363.882	473.25
364.109	433.25
364.335	460.25
364.562	462.25
364.788	461.25
365.015	480.25
365.241	466.25
365.468	465.25
365.694	459.25
365.92	492.25
366.147	464.25
366.373	452.25
366.599	465.25
366.826	486.25
367.052	478.25
367.278	476.25
367.505	480.25
367.731	469.25
367.957	465.25
368.184	464.25
368.41	458.25
368.636	493.25
368.862	489.25
369.089	459.25
369.315	460.25
369.541	483.25
369.767	457.25
369.993	468.25
370.219	483.25
370.445	475.25
370.672	458.25
370.898	468.25
371.124	467.25
371.35	467.25
371.576	475.25
371.802	463.25
372.028	464.25
372.254	476.25
372.48	475.25
372.706	469.25
372.932	468.25
373.158	455.25
373.384	474.25
373.61	467.25
373.835	459.25
374.061	486.25
374.287	465.25
374.513	472.25
374.739	490.25
374.965	461.25
375.191	492.25
375.416	469.25
375.642	454.25
375.868	456.25
376.094	490.25
376.319	466.25
376.545	468.25
376.771	466.25
376.997	453.25
377.222	455.25
377.448	490.25
377.674	454.25
377.899	480.25
378.125	473.25
378.35	460.25
378.576	436.25
378.802	480.25
379.027	474.25
379.253	473.25
379.478	461.25
379.704	453.25
379.929	490.25
380.155	463.25
380.38	466.25
380.606	468.25
380.831	465.25
381.057	465.25
381.282	461.25
381.507	463.25
381.733	462.25
381.958	468.25
382.184	471.25
382.409	446.25
382.634	456.25
382.86	470.25
383.085	478.25
383.31	499.25
383.535	489.25
383.761	480.25
383.986	472.25
384.211	477.25
384.436	496.25
384.662	489.25
384.887	500.25
385.112	508.25
385.337	510.25
385.562	512.25
385.787	505.25
386.013	546.25
386.238	538.25
386.463	497.25
386.688	514.25
386.913	521.25
387.138	475.25
387.363	530.25
387.588	493.25
387.813	512.25
388.038	497.25
388.263	523.25
388.488	516.25
388.713	518.25
388.938	515.25
389.163	516.25
389.387	506.25
389.612	524.25
389.837	500.25
390.062	498.25
390.287	524.25
390.512	504.25
390.736	532.25
390.961	504.25
391.186	503.25
391.411	515.25
391.636	537.25
391.86	547.25
392.085	540.25
392.31	533.25
392.534	541.25
392.759	541.25
392.984	536.25
393.208	523.25
393.433	529.25
393.658	534.25
393.882	524.25
394.107	555.25
394.331	532.25
394.556	541.25
394.78	532.25
395.005	532.25
395.229	531.25
395.454	547.25
395.678	544.25
395.903	545.25
396.127	590.25
396.352	578.25
396.576	532.25
396.801	536.25
397.025	539.25
397.249	532.25
397.474	564.25
397.698	553.25
397.922	565.25
398.147	612.25
398.371	586.25
398.595	589.25
398.82	598.25
399.044	598.25
399.268	627.25
399.492	648.25
399.717	689.25
399.941	726.25
400.165	740.25
400.389	740.25
400.613	689.25
400.837	655.25
401.062	632.25
401.286	601.25
401.51	605.25
401.734	617.25
401.958	595.25
402.182	607.25
402.406	618.25
402.63	633.25
402.854	596.25
403.078	624.25
403.302	630.25
403.526	639.25
403.75	637.25
403.974	624.25
404.198	625.25
404.422	637.25
404.645	630.25
404.869	635.25
405.093	646.25
405.317	703.25
405.541	736.25
405.765	628.25
405.988	646.25
406.212	660.25
406.436	698.25
406.66	721.25
406.883	680.25
407.107	701.25
407.331	748.25
407.555	822.25
407.778	834.25
408.002	753.25
408.226	707.25
408.449	702.25
408.673	696.25
408.896	722.25
409.12	762.25
409.344	742.25
409.567	657.25
409.791	653.25
410.014	625.25
410.238	613.25
410.461	665.25
410.685	648.25
410.908	664.25
411.132	693.25
411.355	733.25
411.578	692.25
411.802	644.25
412.025	608.25
412.249	646.25
412.472	642.25
412.695	683.25
412.919	664.25
413.142	621.25
413.365	605.25
413.589	609.25
413.812	619.25
414.035	582.25
414.258	579.25
414.482	601.25
414.705	615.25
414.928	604.25
415.151	611.25
415.374	614.25
415.597	591.25
415.821	579.25
416.044	589.25
416.267	596.25
416.49	577.25
416.713	604.25
416.936	564.25
417.159	588.25
417.382	584.25
417.605	609.25
417.828	593.25
418.051	629.25
418.274	614.25
418.497	605.25
418.72	597.25
418.943	565.25
419.166	617.25
419.389	660.25
419.611	636.25
419.834	632.25
420.057	629.25
420.28	627.25
420.503	612.25
420.726	610.25
420.948	650.25
421.171	678.25
421.394	718.25
421.617	658.25
421.839	638.25
422.062	621.25
422.285	632.25
422.507	695.25
422.73	798.25
422.953	742.25
423.175	669.25
423.398	660.25
423.621	632.25
423.843	694.25
424.066	645.25
424.288	659.25
424.511	650.25
424.733	765.25
424.956	896.25
425.178	846.25
425.401	806.25
425.623	834.25
425.846	733.25
426.068	690.25
426.291	679.25
426.513	654.25
426.735	660.25
426.958	690.25
427.18	841.25
427.402	965.25
427.625	1092.25
427.847	960.25
428.069	826.25
428.292	726.25
428.514	678.25
428.736	641.25
428.958	644.25
429.181	642.25
429.403	608.25
429.625	605.25
429.847	666.25
430.069	764.25
430.292	752.25
430.514	653.25
430.736	619.25
430.958	617.25
431.18	597.25
431.402	598.25
431.624	563.25
431.846	570.25
432.068	590.25
432.29	584.25
432.512	592.25
432.734	603.25
432.956	585.25
433.178	596.25
433.4	624.25
433.622	585.25
433.844	595.25
434.066	594.25
434.287	585.25
434.509	601.25
434.731	625.25
434.953	603.25
435.175	610.25
435.397	666.25
435.618	684.25
435.84	719.25
436.062	837.25
436.284	926.25
436.505	764.25
436.727	664.25
436.949	663.25
437.17	609.25
437.392	630.25
437.614	633.25
437.835	690.25
438.057	791.25
438.278	936.25
438.5	915.25
438.721	1008.25
438.943	948.25
439.165	748.25
439.386	686.25
439.608	695.25
439.829	686.25
440.05	718.25
440.272	755.25
440.493	730.25
440.715	651.25
440.936	653.25
441.158	636.25
441.379	622.25
441.6	617.25
441.822	672.25
442.043	739.25
442.264	825.25
442.486	861.25
442.707	742.25
442.928	700.25
443.149	696.25
443.371	721.25
443.592	768.25
443.813	878.25
444.034	942.25
444.255	768.25
444.476	696.25
444.698	681.25
444.919	682.25
445.14	795.25
445.361	753.25
445.582	732.25
445.803	814.25
446.024	938.25
446.245	940.25
446.466	842.25
446.687	701.25
446.908	684.25
447.129	650.25
447.35	600.25
447.571	625.25
447.792	611.25
448.013	608.25
448.234	628.25
448.455	722.25
448.675	832.25
448.896	974.25
449.117	835.25
449.338	768.25
449.559	920.25
449.779	1057.25
450	798.25
450.221	689.25
450.442	614.25
450.662	640.25
450.883	618.25
451.104	621.25
451.324	603.25
451.545	580.25
451.766	569.25
451.986	563.25
452.207	558.25
452.428	572.25
452.648	558.25
452.869	555.25
453.089	572.25
453.31	569.25
453.53	562.25
453.751	556.25
453.971	567.25
454.192	590.25
454.412	564.25
454.633	544.25
454.853	574.25
455.073	557.25
455.294	597.25
455.514	642.25
455.734	651.25
455.955	566.25
456.175	540.25
456.395	533.25
456.616	494.25
456.836	502.25
457.056	512.25
457.276	518.25
457.497	542.25
457.717	534.25
457.937	552.25
458.157	545.25
458.377	550.25
458.598	576.25
458.818	643.25
459.038	731.25
459.258	757.25
459.478	648.25
459.698	609.25
459.918	586.25
460.138	584.25
460.358	589.25
460.578	605.25
460.798	605.25
461.018	587.25
461.238	595.25
461.458	608.25
461.678	592.25
461.898	617.25
462.118	609.25
462.338	611.25
462.558	622.25
462.777	636.25
462.997	627.25
463.217	652.25
463.437	647.25
463.657	647.25
463.876	671.25
464.096	642.25
464.316	627.25
464.536	655.25
464.755	644.25
464.975	642.25
465.195	695.25
465.414	785.25
465.634	697.25
465.854	644.25
466.073	590.25
466.293	590.25
466.512	576.25
466.732	573.25
466.951	574.25
467.171	555.25
467.391	584.25
467.61	626.25
467.829	597.25
468.049	582.25
468.268	583.25
468.488	554.25
468.707	573.25
468.927	544.25
469.146	541.25
469.365	556.25
469.585	555.25
469.804	568.25
470.023	570.25
470.243	579.25
470.462	577.25
470.681	648.25
470.901	613.25
471.12	592.25
471.339	582.25
471.558	586.25
471.777	582.25
471.997	549.25
472.216	558.25
472.435	596.25
472.654	562.25
472.873	574.25
473.092	562.25
473.311	574.25
473.53	568.25
473.749	600.25
473.968	624.25
474.187	748.25
474.406	790.25
474.625	663.25
474.844	591.25
475.063	597.25
475.282	575.25
475.501	590.25
475.72	589.25
475.939	574.25
476.158	619.25
476.377	609.25
476.596	573.25
476.814	624.25
477.033	613.25
477.252	628.25
477.471	603.25
477.69	616.25
477.908	613.25
478.127	634.25
478.346	630.25
478.564	651.25
478.783	641.25
479.002	644.25
479.22	651.25
479.439	669.25
479.658	689.25
479.876	704.25
480.095	697.25
480.313	731.25
480.532	714.25
480.751	696.25
480.969	699.25
481.188	745.25
481.406	753.25
481.624	692.25
481.843	703.25
482.061	692.25
482.28	689.25
482.498	682.25
482.717	660.25
482.935	668.25
483.153	677.25
483.372	669.25
483.59	661.25
483.808	670.25
484.027	680.25
484.245	686.25
484.463	691.25
484.681	668.25
484.9	685.25
485.118	700.25
485.336	698.25
485.554	695.25
485.772	741.25
485.99	752.25
486.209	710.25
486.427	712.25
486.645	713.25
486.863	740.25
487.081	757.25
487.299	742.25
487.517	733.25
487.735	742.25
487.953	728.25
488.171	742.25
488.389	696.25
488.607	718.25
488.825	734.25
489.043	724.25
489.261	712.25
489.479	713.25
489.696	728.25
489.914	750.25
490.132	761.25
490.35	778.25
490.568	764.25
490.786	770.25
491.003	800.25
491.221	805.25
491.439	800.25
491.657	841.25
491.874	825.25
492.092	825.25
492.31	837.25
492.527	836.25
492.745	826.25
492.963	838.25
493.18	844.25
493.398	853.25
493.615	863.25
493.833	837.25
494.05	853.25
494.268	836.25
494.485	848.25
494.703	846.25
494.92	843.25
495.138	866.25
495.355	862.25
495.573	872.25
495.79	862.25
496.008	854.25
496.225	877.25
496.442	878.25
496.66	883.25
496.877	884.25
497.094	884.25
497.312	871.25
497.529	909.25
497.746	917.25
497.963	930.25
498.181	941.25
498.398	976.25
498.615	960.25
498.832	990.25
499.049	991.25
499.267	1012.25
499.484	1086.25
499.701	1098.25
499.918	1170.25
500.135	1189.25
500.352	1248.25
500.569	1235.25
500.786	1269.25
501.003	1287.25
501.22	1196.25
501.437	1184.25
501.654	1155.25
