Data from 1988.PennyLincolnUp.Lamp.En5.5.200Scan.071819.P2_HRD10591_17-19-22-976.txt Node
Date: Thu Jul 18 17:19:22 EDT 2019
User: cochatt
Spectrometer: HR+D1059
Trigger mode: 1
Integration Time (sec): 1.000000E-1
Scans to average: 1
Electric dark correction enabled: true
Nonlinearity correction enabled: false
Boxcar width: 0
XAxis mode: Wavelengths
Number of Pixels in Spectrum: 2048
>>>>>Begin Spectral Data<<<<<
223.165	-22.06
223.4	-22.06
223.635	-22.06
223.869	-21.06
224.104	-14.06
224.338	-5.06
224.573	-7.06
224.808	-14.06
225.042	-8.06
225.277	-12.06
225.511	-2.06
225.746	1.94
225.98	-0.06
226.215	6.94
226.449	27.94
226.683	28.94
226.918	17.94
227.152	21.94
227.387	22.94
227.621	36.94
227.856	39.94
228.09	47.94
228.324	49.94
228.559	55.94
228.793	68.94
229.027	107.94
229.262	108.94
229.496	115.94
229.73	124.94
229.964	155.94
230.199	123.94
230.433	134.94
230.667	123.94
230.901	123.94
231.136	106.94
231.37	106.94
231.604	98.94
231.838	121.94
232.072	115.94
232.306	111.94
232.541	101.94
232.775	115.94
233.009	119.94
233.243	114.94
233.477	119.94
233.711	110.94
233.945	120.94
234.179	123.94
234.413	125.94
234.647	111.94
234.881	121.94
235.115	103.94
235.349	113.94
235.583	116.94
235.817	118.94
236.051	135.94
236.285	120.94
236.519	121.94
236.753	136.94
236.987	139.94
237.221	178.94
237.455	245.94
237.689	191.94
237.922	135.94
238.156	133.94
238.39	130.94
238.624	127.94
238.858	120.94
239.091	120.94
239.325	126.94
239.559	129.94
239.793	132.94
240.027	128.94
240.26	148.94
240.494	161.94
240.728	147.94
240.961	147.94
241.195	143.94
241.429	127.94
241.662	131.94
241.896	129.94
242.13	143.94
242.363	136.94
242.597	127.94
242.83	141.94
243.064	136.94
243.298	122.94
243.531	126.94
243.765	139.94
243.998	145.94
244.232	129.94
244.465	139.94
244.699	143.94
244.932	147.94
245.166	142.94
245.399	155.94
245.633	143.94
245.866	142.94
246.099	121.94
246.333	139.94
246.566	147.94
246.8	146.94
247.033	161.94
247.266	158.94
247.5	148.94
247.733	157.94
247.966	150.94
248.2	176.94
248.433	163.94
248.666	171.94
248.899	177.94
249.133	197.94
249.366	221.94
249.599	196.94
249.832	178.94
250.066	181.94
250.299	170.94
250.532	176.94
250.765	204.94
250.998	223.94
251.231	208.94
251.465	206.94
251.698	194.94
251.931	193.94
252.164	191.94
252.397	187.94
252.63	197.94
252.863	206.94
253.096	210.94
253.329	228.94
253.562	222.94
253.795	213.94
254.028	204.94
254.261	204.94
254.494	202.94
254.727	257.94
254.96	277.94
255.193	276.94
255.426	253.94
255.659	225.94
255.892	236.94
256.124	181.94
256.357	218.94
256.59	203.94
256.823	206.94
257.056	191.94
257.289	200.94
257.521	222.94
257.754	204.94
257.987	202.94
258.22	206.94
258.452	202.94
258.685	210.94
258.918	194.94
259.151	212.94
259.383	205.94
259.616	207.94
259.849	232.94
260.081	232.94
260.314	247.94
260.547	259.94
260.779	247.94
261.012	233.94
261.244	235.94
261.477	228.94
261.71	212.94
261.942	227.94
262.175	229.94
262.407	216.94
262.64	229.94
262.872	208.94
263.105	214.94
263.337	228.94
263.57	214.94
263.802	219.94
264.035	230.94
264.267	205.94
264.499	209.94
264.732	214.94
264.964	217.94
265.197	195.94
265.429	206.94
265.661	217.94
265.894	211.94
266.126	221.94
266.358	217.94
266.591	221.94
266.823	225.94
267.055	225.94
267.287	220.94
267.52	236.94
267.752	218.94
267.984	224.94
268.216	217.94
268.448	229.94
268.681	241.94
268.913	233.94
269.145	272.94
269.377	266.94
269.609	263.94
269.841	249.94
270.073	267.94
270.306	262.94
270.538	316.94
270.77	311.94
271.002	297.94
271.234	301.94
271.466	306.94
271.698	311.94
271.93	325.94
272.162	322.94
272.394	315.94
272.626	296.94
272.858	289.94
273.09	281.94
273.322	258.94
273.553	257.94
273.785	270.94
274.017	265.94
274.249	263.94
274.481	260.94
274.713	267.94
274.945	264.94
275.176	265.94
275.408	233.94
275.64	268.94
275.872	273.94
276.104	267.94
276.335	285.94
276.567	279.94
276.799	292.94
277.031	295.94
277.262	322.94
277.494	316.94
277.726	298.94
277.957	289.94
278.189	274.94
278.421	259.94
278.652	246.94
278.884	245.94
279.115	260.94
279.347	285.94
279.579	290.94
279.81	273.94
280.042	258.94
280.273	273.94
280.505	264.94
280.736	279.94
280.968	267.94
281.199	262.94
281.431	265.94
281.662	261.94
281.894	285.94
282.125	277.94
282.356	297.94
282.588	307.94
282.819	290.94
283.051	276.94
283.282	281.94
283.513	287.94
283.745	293.94
283.976	270.94
284.207	292.94
284.439	286.94
284.67	294.94
284.901	286.94
285.132	291.94
285.364	277.94
285.595	299.94
285.826	286.94
286.057	300.94
286.288	290.94
286.52	282.94
286.751	285.94
286.982	281.94
287.213	296.94
287.444	307.94
287.675	291.94
287.906	292.94
288.138	294.94
288.369	324.94
288.6	313.94
288.831	319.94
289.062	298.94
289.293	295.94
289.524	294.94
289.755	290.94
289.986	279.94
290.217	297.94
290.448	285.94
290.679	298.94
290.91	294.94
291.141	307.94
291.371	291.94
291.602	314.94
291.833	294.94
292.064	293.94
292.295	289.94
292.526	282.94
292.757	309.94
292.987	273.94
293.218	310.94
293.449	287.94
293.68	284.94
293.91	298.94
294.141	319.94
294.372	271.94
294.603	302.94
294.833	313.94
295.064	302.94
295.295	319.94
295.525	285.94
295.756	299.94
295.987	313.94
296.217	317.94
296.448	342.94
296.679	303.94
296.909	284.94
297.14	295.94
297.37	289.94
297.601	305.94
297.831	299.94
298.062	302.94
298.292	325.94
298.523	317.94
298.753	319.94
298.984	311.94
299.214	312.94
299.445	318.94
299.675	285.94
299.905	339.94
300.136	334.94
300.366	328.94
300.597	308.94
300.827	331.94
301.057	330.94
301.288	334.94
301.518	330.94
301.748	322.94
301.979	343.94
302.209	335.94
302.439	337.94
302.669	339.94
302.9	326.94
303.13	326.94
303.36	327.94
303.59	339.94
303.82	350.94
304.051	345.94
304.281	354.94
304.511	346.94
304.741	350.94
304.971	339.94
305.201	355.94
305.431	356.94
305.661	327.94
305.891	366.94
306.121	347.94
306.352	327.94
306.582	348.94
306.812	333.94
307.042	332.94
307.272	340.94
307.502	369.94
307.731	351.94
307.961	347.94
308.191	349.94
308.421	359.94
308.651	357.94
308.881	363.94
309.111	340.94
309.341	363.94
309.571	359.94
309.8	394.94
310.03	361.94
310.26	387.94
310.49	388.94
310.72	403.94
310.949	398.94
311.179	419.94
311.409	405.94
311.639	388.94
311.868	385.94
312.098	380.94
312.328	391.94
312.557	413.94
312.787	427.94
313.017	407.94
313.246	399.94
313.476	399.94
313.706	378.94
313.935	403.94
314.165	400.94
314.394	409.94
314.624	417.94
314.853	404.94
315.083	397.94
315.312	408.94
315.542	398.94
315.771	387.94
316.001	379.94
316.23	397.94
316.46	387.94
316.689	398.94
316.919	405.94
317.148	388.94
317.377	409.94
317.607	387.94
317.836	416.94
318.065	389.94
318.295	383.94
318.524	375.94
318.753	373.94
318.983	386.94
319.212	392.94
319.441	400.94
319.67	410.94
319.9	400.94
320.129	387.94
320.358	392.94
320.587	395.94
320.816	409.94
321.046	417.94
321.275	430.94
321.504	425.94
321.733	432.94
321.962	445.94
322.191	419.94
322.42	451.94
322.649	460.94
322.878	481.94
323.108	487.94
323.337	513.94
323.566	528.94
323.795	551.94
324.024	604.94
324.253	744.94
324.482	1046.94
324.71	1606.94
324.939	2371.94
325.168	2019.94
325.397	1029.94
325.626	679.94
325.855	582.94
326.084	529.94
326.313	534.94
326.542	546.94
326.77	594.94
326.999	697.94
327.228	933.94
327.457	1457.94
327.686	1749.94
327.914	1139.94
328.143	752.94
328.372	651.94
328.6	593.94
328.829	577.94
329.058	576.94
329.287	603.94
329.515	555.94
329.744	537.94
329.972	519.94
330.201	515.94
330.43	537.94
330.658	577.94
330.887	614.94
331.115	638.94
331.344	531.94
331.572	501.94
331.801	517.94
332.03	522.94
332.258	485.94
332.486	483.94
332.715	470.94
332.943	458.94
333.172	470.94
333.4	470.94
333.629	477.94
333.857	501.94
334.085	507.94
334.314	471.94
334.542	475.94
334.771	493.94
334.999	500.94
335.227	483.94
335.455	471.94
335.684	466.94
335.912	465.94
336.14	454.94
336.369	460.94
336.597	487.94
336.825	467.94
337.053	445.94
337.281	469.94
337.51	450.94
337.738	445.94
337.966	474.94
338.194	473.94
338.422	466.94
338.65	449.94
338.878	463.94
339.106	457.94
339.334	446.94
339.562	454.94
339.79	438.94
340.018	457.94
340.246	451.94
340.474	466.94
340.702	454.94
340.93	457.94
341.158	465.94
341.386	465.94
341.614	448.94
341.842	456.94
342.07	455.94
342.298	450.94
342.526	445.94
342.754	445.94
342.981	443.94
343.209	459.94
343.437	442.94
343.665	433.94
343.893	451.94
344.12	462.94
344.348	451.94
344.576	439.94
344.804	471.94
345.031	459.94
345.259	475.94
345.487	450.94
345.714	450.94
345.942	439.94
346.17	441.94
346.397	422.94
346.625	439.94
346.853	429.94
347.08	435.94
347.308	448.94
347.535	463.94
347.763	445.94
347.99	446.94
348.218	443.94
348.445	437.94
348.673	447.94
348.9	443.94
349.128	425.94
349.355	425.94
349.583	428.94
349.81	424.94
350.037	430.94
350.265	423.94
350.492	419.94
350.72	413.94
350.947	415.94
351.174	430.94
351.402	441.94
351.629	442.94
351.856	445.94
352.083	460.94
352.311	457.94
352.538	457.94
352.765	439.94
352.992	436.94
353.22	426.94
353.447	451.94
353.674	434.94
353.901	419.94
354.128	408.94
354.355	427.94
354.583	411.94
354.81	406.94
355.037	398.94
355.264	411.94
355.491	412.94
355.718	400.94
355.945	388.94
356.172	405.94
356.399	427.94
356.626	409.94
356.853	417.94
357.08	402.94
357.307	397.94
357.534	390.94
357.761	411.94
357.988	385.94
358.215	402.94
358.441	419.94
358.668	414.94
358.895	413.94
359.122	419.94
359.349	432.94
359.576	443.94
359.802	449.94
360.029	481.94
360.256	495.94
360.483	482.94
360.709	449.94
360.936	441.94
361.163	441.94
361.39	455.94
361.616	431.94
361.843	410.94
362.07	427.94
362.296	426.94
362.523	436.94
362.749	429.94
362.976	424.94
363.203	453.94
363.429	409.94
363.656	422.94
363.882	427.94
364.109	419.94
364.335	435.94
364.562	435.94
364.788	425.94
365.015	430.94
365.241	423.94
365.468	422.94
365.694	406.94
365.92	412.94
366.147	422.94
366.373	418.94
366.599	422.94
366.826	410.94
367.052	408.94
367.278	439.94
367.505	406.94
367.731	409.94
367.957	427.94
368.184	435.94
368.41	428.94
368.636	428.94
368.862	454.94
369.089	435.94
369.315	413.94
369.541	431.94
369.767	435.94
369.993	433.94
370.219	412.94
370.445	432.94
370.672	394.94
370.898	424.94
371.124	423.94
371.35	421.94
371.576	422.94
371.802	411.94
372.028	427.94
372.254	413.94
372.48	437.94
372.706	418.94
372.932	411.94
373.158	418.94
373.384	439.94
373.61	423.94
373.835	430.94
374.061	431.94
374.287	427.94
374.513	428.94
374.739	426.94
374.965	447.94
375.191	421.94
375.416	428.94
375.642	418.94
375.868	431.94
376.094	416.94
376.319	422.94
376.545	415.94
376.771	430.94
376.997	425.94
377.222	413.94
377.448	408.94
377.674	417.94
377.899	402.94
378.125	398.94
378.35	419.94
378.576	419.94
378.802	409.94
379.027	415.94
379.253	420.94
379.478	439.94
379.704	399.94
379.929	426.94
380.155	433.94
380.38	417.94
380.606	403.94
380.831	415.94
381.057	418.94
381.282	412.94
381.507	414.94
381.733	421.94
381.958	427.94
382.184	428.94
382.409	425.94
382.634	422.94
382.86	443.94
383.085	446.94
383.31	442.94
383.535	425.94
383.761	434.94
383.986	437.94
384.211	437.94
384.436	434.94
384.662	449.94
384.887	470.94
385.112	456.94
385.337	441.94
385.562	445.94
385.787	469.94
386.013	458.94
386.238	480.94
386.463	477.94
386.688	458.94
386.913	468.94
387.138	444.94
387.363	462.94
387.588	458.94
387.813	471.94
388.038	461.94
388.263	454.94
388.488	461.94
388.713	460.94
388.938	471.94
389.163	456.94
389.387	469.94
389.612	454.94
389.837	454.94
390.062	452.94
390.287	481.94
390.512	452.94
390.736	459.94
390.961	447.94
391.186	454.94
391.411	455.94
391.636	466.94
391.86	475.94
392.085	491.94
392.31	459.94
392.534	464.94
392.759	467.94
392.984	477.94
393.208	470.94
393.433	465.94
393.658	465.94
393.882	448.94
394.107	450.94
394.331	456.94
394.556	457.94
394.78	481.94
395.005	486.94
395.229	470.94
395.454	485.94
395.678	487.94
395.903	482.94
396.127	508.94
396.352	518.94
396.576	486.94
396.801	476.94
397.025	494.94
397.249	502.94
397.474	491.94
397.698	472.94
397.922	513.94
398.147	527.94
398.371	531.94
398.595	519.94
398.82	511.94
399.044	502.94
399.268	543.94
399.492	584.94
399.717	622.94
399.941	625.94
400.165	657.94
400.389	662.94
400.613	606.94
400.837	577.94
401.062	561.94
401.286	549.94
401.51	553.94
401.734	529.94
401.958	541.94
402.182	552.94
402.406	555.94
402.63	540.94
402.854	532.94
403.078	549.94
403.302	541.94
403.526	546.94
403.75	549.94
403.974	553.94
404.198	550.94
404.422	536.94
404.645	545.94
404.869	555.94
405.093	566.94
405.317	602.94
405.541	595.94
405.765	577.94
405.988	565.94
406.212	574.94
406.436	587.94
406.66	629.94
406.883	590.94
407.107	600.94
407.331	654.94
407.555	726.94
407.778	719.94
408.002	683.94
408.226	629.94
408.449	615.94
408.673	609.94
408.896	622.94
409.12	693.94
409.344	633.94
409.567	573.94
409.791	531.94
410.014	543.94
410.238	564.94
410.461	550.94
410.685	570.94
410.908	557.94
411.132	600.94
411.355	629.94
411.578	606.94
411.802	572.94
412.025	548.94
412.249	542.94
412.472	566.94
412.695	550.94
412.919	545.94
413.142	540.94
413.365	524.94
413.589	526.94
413.812	526.94
414.035	494.94
414.258	519.94
414.482	497.94
414.705	525.94
414.928	548.94
415.151	507.94
415.374	506.94
415.597	505.94
415.821	526.94
416.044	498.94
416.267	526.94
416.49	522.94
416.713	521.94
416.936	527.94
417.159	529.94
417.382	516.94
417.605	502.94
417.828	525.94
418.051	554.94
418.274	522.94
418.497	507.94
418.72	521.94
418.943	504.94
419.166	532.94
419.389	540.94
419.611	528.94
419.834	543.94
420.057	542.94
420.28	539.94
420.503	530.94
420.726	542.94
420.948	543.94
421.171	589.94
421.394	617.94
421.617	589.94
421.839	529.94
422.062	556.94
422.285	532.94
422.507	615.94
422.73	701.94
422.953	672.94
423.175	593.94
423.398	583.94
423.621	562.94
423.843	566.94
424.066	589.94
424.288	587.94
424.511	586.94
424.733	646.94
424.956	746.94
425.178	718.94
425.401	691.94
425.623	739.94
425.846	629.94
426.068	590.94
426.291	583.94
426.513	600.94
426.735	570.94
426.958	630.94
427.18	750.94
427.402	846.94
427.625	939.94
427.847	831.94
428.069	683.94
428.292	620.94
428.514	578.94
428.736	537.94
428.958	536.94
429.181	529.94
429.403	521.94
429.625	542.94
429.847	609.94
430.069	691.94
430.292	653.94
430.514	547.94
430.736	535.94
430.958	536.94
431.18	521.94
431.402	519.94
431.624	501.94
431.846	511.94
432.068	502.94
432.29	498.94
432.512	494.94
432.734	520.94
432.956	515.94
433.178	519.94
433.4	541.94
433.622	519.94
433.844	515.94
434.066	513.94
434.287	503.94
434.509	507.94
434.731	550.94
434.953	529.94
435.175	561.94
435.397	568.94
435.618	574.94
435.84	643.94
436.062	753.94
436.284	814.94
436.505	674.94
436.727	581.94
436.949	548.94
437.17	551.94
437.392	545.94
437.614	552.94
437.835	614.94
438.057	696.94
438.278	787.94
438.5	773.94
438.721	847.94
438.943	839.94
439.165	651.94
439.386	583.94
439.608	597.94
439.829	606.94
440.05	620.94
440.272	682.94
440.493	633.94
440.715	561.94
440.936	541.94
441.158	547.94
441.379	548.94
441.6	556.94
441.822	579.94
442.043	629.94
442.264	741.94
442.486	781.94
442.707	651.94
442.928	598.94
443.149	621.94
443.371	635.94
443.592	696.94
443.813	754.94
444.034	806.94
444.255	689.94
444.476	602.94
444.698	597.94
444.919	598.94
445.14	684.94
445.361	651.94
445.582	638.94
445.803	697.94
446.024	818.94
446.245	787.94
446.466	728.94
446.687	630.94
446.908	596.94
447.129	561.94
447.35	551.94
447.571	554.94
447.792	535.94
448.013	528.94
448.234	584.94
448.455	608.94
448.675	721.94
448.896	843.94
449.117	715.94
449.338	691.94
449.559	799.94
449.779	903.94
450	719.94
450.221	598.94
450.442	533.94
450.662	533.94
450.883	546.94
451.104	539.94
451.324	539.94
451.545	521.94
451.766	513.94
451.986	488.94
452.207	484.94
452.428	470.94
452.648	472.94
452.869	478.94
453.089	470.94
453.31	498.94
453.53	491.94
453.751	509.94
453.971	501.94
454.192	532.94
454.412	507.94
454.633	483.94
454.853	465.94
455.073	492.94
455.294	520.94
455.514	547.94
455.734	580.94
455.955	519.94
456.175	459.94
456.395	452.94
456.616	447.94
456.836	455.94
457.056	474.94
457.276	445.94
457.497	460.94
457.717	479.94
457.937	452.94
458.157	468.94
458.377	468.94
458.598	501.94
458.818	566.94
459.038	655.94
459.258	669.94
459.478	553.94
459.698	517.94
459.918	484.94
460.138	519.94
460.358	525.94
460.578	515.94
460.798	530.94
461.018	549.94
461.238	517.94
461.458	532.94
461.678	497.94
461.898	523.94
462.118	518.94
462.338	537.94
462.558	556.94
462.777	542.94
462.997	570.94
463.217	573.94
463.437	596.94
463.657	568.94
463.876	582.94
464.096	575.94
464.316	579.94
464.536	563.94
464.755	566.94
464.975	563.94
465.195	586.94
465.414	667.94
465.634	605.94
465.854	554.94
466.073	563.94
466.293	539.94
466.512	519.94
466.732	501.94
466.951	495.94
467.171	500.94
467.391	502.94
467.61	506.94
467.829	508.94
468.049	498.94
468.268	487.94
468.488	480.94
468.707	472.94
468.927	457.94
469.146	498.94
469.365	485.94
469.585	497.94
469.804	509.94
470.023	510.94
470.243	504.94
470.462	519.94
470.681	545.94
470.901	527.94
471.12	477.94
471.339	494.94
471.558	500.94
471.777	520.94
471.997	500.94
472.216	485.94
472.435	477.94
472.654	487.94
472.873	494.94
473.092	474.94
473.311	499.94
473.53	512.94
473.749	503.94
473.968	544.94
474.187	681.94
474.406	695.94
474.625	576.94
474.844	543.94
475.063	503.94
475.282	513.94
475.501	501.94
475.72	525.94
475.939	518.94
476.158	515.94
476.377	507.94
476.596	518.94
476.814	539.94
477.033	531.94
477.252	539.94
477.471	542.94
477.69	552.94
477.908	549.94
478.127	562.94
478.346	562.94
478.564	559.94
478.783	559.94
479.002	578.94
479.22	584.94
479.439	577.94
479.658	612.94
479.876	590.94
480.095	609.94
480.313	643.94
480.532	631.94
480.751	616.94
480.969	618.94
481.188	621.94
481.406	631.94
481.624	613.94
481.843	603.94
482.061	618.94
482.28	581.94
482.498	569.94
482.717	567.94
482.935	587.94
483.153	585.94
483.372	587.94
483.59	583.94
483.808	584.94
484.027	611.94
484.245	606.94
484.463	594.94
484.681	595.94
484.9	614.94
485.118	606.94
485.336	604.94
485.554	597.94
485.772	607.94
485.99	600.94
486.209	617.94
486.427	606.94
486.645	639.94
486.863	633.94
487.081	649.94
487.299	632.94
487.517	612.94
487.735	600.94
487.953	628.94
488.171	647.94
488.389	621.94
488.607	638.94
488.825	645.94
489.043	632.94
489.261	621.94
489.479	637.94
489.696	627.94
489.914	641.94
490.132	659.94
490.35	652.94
490.568	667.94
490.786	674.94
491.003	676.94
491.221	699.94
491.439	699.94
491.657	688.94
491.874	690.94
492.092	715.94
492.31	680.94
492.527	708.94
492.745	703.94
492.963	705.94
493.18	719.94
493.398	747.94
493.615	714.94
493.833	749.94
494.05	754.94
494.268	737.94
494.485	713.94
494.703	750.94
494.92	733.94
495.138	740.94
495.355	760.94
495.573	745.94
495.79	749.94
496.008	763.94
496.225	734.94
496.442	744.94
496.66	777.94
496.877	789.94
497.094	781.94
497.312	763.94
497.529	750.94
497.746	789.94
497.963	804.94
498.181	804.94
498.398	838.94
498.615	827.94
498.832	883.94
499.049	859.94
499.267	891.94
499.484	917.94
499.701	970.94
499.918	974.94
500.135	1010.94
500.352	1071.94
500.569	1068.94
500.786	1087.94
501.003	1052.94
501.22	1007.94
501.437	1025.94
501.654	1013.94
501.871	975.94
