Data from 1988.PennyLincolnUp.Lamp.En5.5.200Scan.071819.P2_HRD10591_17-21-15-972.txt Node
Date: Thu Jul 18 17:21:15 EDT 2019
User: cochatt
Spectrometer: HR+D1059
Trigger mode: 1
Integration Time (sec): 1.000000E-1
Scans to average: 1
Electric dark correction enabled: true
Nonlinearity correction enabled: false
Boxcar width: 0
XAxis mode: Wavelengths
Number of Pixels in Spectrum: 2048
>>>>>Begin Spectral Data<<<<<
223.165	-23.5
223.4	-23.5
223.635	-23.5
223.869	-17.5
224.104	-24.5
224.338	-6.5
224.573	-7.5
224.808	-15.5
225.042	-12.5
225.277	-9.5
225.511	10.5
225.746	0.5
225.98	10.5
226.215	3.5
226.449	21.5
226.683	13.5
226.918	12.5
227.152	44.5
227.387	27.5
227.621	47.5
227.856	51.5
228.09	37.5
228.324	41.5
228.559	73.5
228.793	55.5
229.027	110.5
229.262	95.5
229.496	115.5
229.73	138.5
229.964	168.5
230.199	133.5
230.433	102.5
230.667	116.5
230.901	123.5
231.136	120.5
231.37	130.5
231.604	112.5
231.838	112.5
232.072	121.5
232.306	119.5
232.541	120.5
232.775	123.5
233.009	117.5
233.243	125.5
233.477	120.5
233.711	133.5
233.945	115.5
234.179	128.5
234.413	113.5
234.647	121.5
234.881	128.5
235.115	122.5
235.349	134.5
235.583	127.5
235.817	126.5
236.051	125.5
236.285	134.5
236.519	145.5
236.753	148.5
236.987	154.5
237.221	177.5
237.455	248.5
237.689	203.5
237.922	144.5
238.156	153.5
238.39	129.5
238.624	139.5
238.858	130.5
239.091	136.5
239.325	129.5
239.559	148.5
239.793	133.5
240.027	140.5
240.26	153.5
240.494	176.5
240.728	159.5
240.961	159.5
241.195	148.5
241.429	137.5
241.662	125.5
241.896	144.5
242.13	147.5
242.363	138.5
242.597	146.5
242.83	152.5
243.064	150.5
243.298	149.5
243.531	148.5
243.765	159.5
243.998	148.5
244.232	150.5
244.465	147.5
244.699	139.5
244.932	148.5
245.166	161.5
245.399	166.5
245.633	156.5
245.866	151.5
246.099	149.5
246.333	162.5
246.566	158.5
246.8	147.5
247.033	160.5
247.266	175.5
247.5	183.5
247.733	182.5
247.966	177.5
248.2	183.5
248.433	180.5
248.666	168.5
248.899	196.5
249.133	205.5
249.366	210.5
249.599	219.5
249.832	195.5
250.066	207.5
250.299	184.5
250.532	190.5
250.765	227.5
250.998	215.5
251.231	234.5
251.465	220.5
251.698	209.5
251.931	201.5
252.164	204.5
252.397	215.5
252.63	223.5
252.863	205.5
253.096	213.5
253.329	232.5
253.562	225.5
253.795	243.5
254.028	228.5
254.261	234.5
254.494	263.5
254.727	254.5
254.96	293.5
255.193	288.5
255.426	279.5
255.659	247.5
255.892	234.5
256.124	233.5
256.357	244.5
256.59	247.5
256.823	219.5
257.056	224.5
257.289	223.5
257.521	216.5
257.754	201.5
257.987	205.5
258.22	225.5
258.452	224.5
258.685	228.5
258.918	207.5
259.151	224.5
259.383	230.5
259.616	244.5
259.849	245.5
260.081	260.5
260.314	275.5
260.547	292.5
260.779	265.5
261.012	265.5
261.244	235.5
261.477	248.5
261.71	243.5
261.942	242.5
262.175	251.5
262.407	273.5
262.64	236.5
262.872	224.5
263.105	246.5
263.337	225.5
263.57	209.5
263.802	218.5
264.035	223.5
264.267	228.5
264.499	232.5
264.732	236.5
264.964	222.5
265.197	211.5
265.429	244.5
265.661	218.5
265.894	236.5
266.126	228.5
266.358	232.5
266.591	243.5
266.823	237.5
267.055	235.5
267.287	229.5
267.52	239.5
267.752	252.5
267.984	239.5
268.216	239.5
268.448	269.5
268.681	245.5
268.913	277.5
269.145	285.5
269.377	322.5
269.609	298.5
269.841	310.5
270.073	296.5
270.306	325.5
270.538	339.5
270.77	342.5
271.002	319.5
271.234	328.5
271.466	327.5
271.698	332.5
271.93	322.5
272.162	339.5
272.394	342.5
272.626	326.5
272.858	308.5
273.09	293.5
273.322	307.5
273.553	288.5
273.785	293.5
274.017	287.5
274.249	282.5
274.481	266.5
274.713	267.5
274.945	269.5
275.176	280.5
275.408	291.5
275.64	290.5
275.872	280.5
276.104	287.5
276.335	274.5
276.567	285.5
276.799	311.5
277.031	315.5
277.262	356.5
277.494	362.5
277.726	323.5
277.957	313.5
278.189	309.5
278.421	297.5
278.652	299.5
278.884	297.5
279.115	286.5
279.347	281.5
279.579	280.5
279.81	290.5
280.042	293.5
280.273	304.5
280.505	283.5
280.736	281.5
280.968	272.5
281.199	265.5
281.431	288.5
281.662	281.5
281.894	288.5
282.125	295.5
282.356	307.5
282.588	326.5
282.819	339.5
283.051	310.5
283.282	292.5
283.513	285.5
283.745	302.5
283.976	304.5
284.207	281.5
284.439	305.5
284.67	287.5
284.901	309.5
285.132	289.5
285.364	293.5
285.595	288.5
285.826	305.5
286.057	303.5
286.288	292.5
286.52	304.5
286.751	319.5
286.982	305.5
287.213	313.5
287.444	296.5
287.675	304.5
287.906	315.5
288.138	315.5
288.369	319.5
288.6	324.5
288.831	327.5
289.062	327.5
289.293	309.5
289.524	324.5
289.755	301.5
289.986	312.5
290.217	310.5
290.448	302.5
290.679	312.5
290.91	299.5
291.141	311.5
291.371	291.5
291.602	313.5
291.833	292.5
292.064	301.5
292.295	323.5
292.526	310.5
292.757	303.5
292.987	324.5
293.218	308.5
293.449	329.5
293.68	308.5
293.91	306.5
294.141	320.5
294.372	314.5
294.603	293.5
294.833	297.5
295.064	328.5
295.295	323.5
295.525	334.5
295.756	328.5
295.987	341.5
296.217	360.5
296.448	344.5
296.679	358.5
296.909	334.5
297.14	289.5
297.37	328.5
297.601	339.5
297.831	305.5
298.062	320.5
298.292	324.5
298.523	349.5
298.753	342.5
298.984	347.5
299.214	348.5
299.445	349.5
299.675	329.5
299.905	347.5
300.136	351.5
300.366	338.5
300.597	347.5
300.827	347.5
301.057	351.5
301.288	370.5
301.518	346.5
301.748	361.5
301.979	353.5
302.209	369.5
302.439	369.5
302.669	361.5
302.9	344.5
303.13	360.5
303.36	372.5
303.59	368.5
303.82	357.5
304.051	377.5
304.281	351.5
304.511	358.5
304.741	357.5
304.971	352.5
305.201	345.5
305.431	351.5
305.661	354.5
305.891	359.5
306.121	378.5
306.352	375.5
306.582	381.5
306.812	365.5
307.042	361.5
307.272	376.5
307.502	390.5
307.731	369.5
307.961	372.5
308.191	362.5
308.421	360.5
308.651	358.5
308.881	374.5
309.111	374.5
309.341	391.5
309.571	395.5
309.8	412.5
310.03	423.5
310.26	401.5
310.49	407.5
310.72	426.5
310.949	439.5
311.179	452.5
311.409	437.5
311.639	425.5
311.868	395.5
312.098	426.5
312.328	402.5
312.557	441.5
312.787	444.5
313.017	451.5
313.246	443.5
313.476	402.5
313.706	421.5
313.935	434.5
314.165	447.5
314.394	445.5
314.624	449.5
314.853	442.5
315.083	420.5
315.312	433.5
315.542	402.5
315.771	413.5
316.001	409.5
316.23	423.5
316.46	422.5
316.689	408.5
316.919	412.5
317.148	460.5
317.377	431.5
317.607	428.5
317.836	446.5
318.065	440.5
318.295	421.5
318.524	435.5
318.753	437.5
318.983	424.5
319.212	426.5
319.441	409.5
319.67	437.5
319.9	424.5
320.129	409.5
320.358	414.5
320.587	427.5
320.816	440.5
321.046	445.5
321.275	460.5
321.504	445.5
321.733	433.5
321.962	441.5
322.191	467.5
322.42	485.5
322.649	484.5
322.878	493.5
323.108	535.5
323.337	539.5
323.566	551.5
323.795	609.5
324.024	661.5
324.253	772.5
324.482	1121.5
324.71	1820.5
324.939	2765.5
325.168	2322.5
325.397	1161.5
325.626	797.5
325.855	641.5
326.084	584.5
326.313	561.5
326.542	580.5
326.77	648.5
326.999	734.5
327.228	1008.5
327.457	1583.5
327.686	1989.5
327.914	1303.5
328.143	841.5
328.372	709.5
328.6	669.5
328.829	645.5
329.058	643.5
329.287	676.5
329.515	612.5
329.744	583.5
329.972	564.5
330.201	585.5
330.43	610.5
330.658	656.5
330.887	704.5
331.115	655.5
331.344	581.5
331.572	565.5
331.801	568.5
332.03	544.5
332.258	536.5
332.486	523.5
332.715	495.5
332.943	497.5
333.172	517.5
333.4	505.5
333.629	502.5
333.857	536.5
334.085	531.5
334.314	528.5
334.542	539.5
334.771	562.5
334.999	547.5
335.227	519.5
335.455	524.5
335.684	521.5
335.912	502.5
336.14	507.5
336.369	493.5
336.597	531.5
336.825	502.5
337.053	520.5
337.281	506.5
337.51	489.5
337.738	480.5
337.966	508.5
338.194	512.5
338.422	489.5
338.65	497.5
338.878	493.5
339.106	481.5
339.334	469.5
339.562	490.5
339.79	466.5
340.018	493.5
340.246	485.5
340.474	472.5
340.702	479.5
340.93	468.5
341.158	500.5
341.386	497.5
341.614	500.5
341.842	503.5
342.07	491.5
342.298	486.5
342.526	490.5
342.754	475.5
342.981	461.5
343.209	457.5
343.437	480.5
343.665	484.5
343.893	482.5
344.12	489.5
344.348	477.5
344.576	492.5
344.804	496.5
345.031	495.5
345.259	506.5
345.487	513.5
345.714	508.5
345.942	473.5
346.17	477.5
346.397	475.5
346.625	473.5
346.853	463.5
347.08	474.5
347.308	478.5
347.535	506.5
347.763	496.5
347.99	485.5
348.218	484.5
348.445	486.5
348.673	477.5
348.9	490.5
349.128	437.5
349.355	448.5
349.583	455.5
349.81	463.5
350.037	450.5
350.265	469.5
350.492	453.5
350.72	461.5
350.947	463.5
351.174	494.5
351.402	475.5
351.629	457.5
351.856	465.5
352.083	492.5
352.311	482.5
352.538	510.5
352.765	498.5
352.992	506.5
353.22	484.5
353.447	485.5
353.674	471.5
353.901	456.5
354.128	468.5
354.355	465.5
354.583	429.5
354.81	455.5
355.037	433.5
355.264	454.5
355.491	455.5
355.718	438.5
355.945	444.5
356.172	429.5
356.399	438.5
356.626	445.5
356.853	451.5
357.08	434.5
357.307	455.5
357.534	437.5
357.761	459.5
357.988	452.5
358.215	435.5
358.441	455.5
358.668	446.5
358.895	444.5
359.122	450.5
359.349	465.5
359.576	464.5
359.802	509.5
360.029	520.5
360.256	543.5
360.483	530.5
360.709	488.5
360.936	488.5
361.163	479.5
361.39	488.5
361.616	474.5
361.843	483.5
362.07	460.5
362.296	507.5
362.523	472.5
362.749	488.5
362.976	489.5
363.203	467.5
363.429	475.5
363.656	458.5
363.882	459.5
364.109	466.5
364.335	458.5
364.562	461.5
364.788	438.5
365.015	457.5
365.241	457.5
365.468	466.5
365.694	472.5
365.92	480.5
366.147	461.5
366.373	443.5
366.599	460.5
366.826	452.5
367.052	429.5
367.278	463.5
367.505	468.5
367.731	461.5
367.957	467.5
368.184	470.5
368.41	458.5
368.636	480.5
368.862	477.5
369.089	491.5
369.315	465.5
369.541	442.5
369.767	452.5
369.993	447.5
370.219	455.5
370.445	468.5
370.672	465.5
370.898	462.5
371.124	469.5
371.35	468.5
371.576	461.5
371.802	463.5
372.028	452.5
372.254	467.5
372.48	434.5
372.706	485.5
372.932	452.5
373.158	456.5
373.384	478.5
373.61	454.5
373.835	475.5
374.061	471.5
374.287	478.5
374.513	471.5
374.739	485.5
374.965	471.5
375.191	468.5
375.416	470.5
375.642	463.5
375.868	476.5
376.094	497.5
376.319	447.5
376.545	468.5
376.771	467.5
376.997	449.5
377.222	471.5
377.448	464.5
377.674	465.5
377.899	428.5
378.125	455.5
378.35	456.5
378.576	461.5
378.802	467.5
379.027	475.5
379.253	455.5
379.478	459.5
379.704	460.5
379.929	441.5
380.155	461.5
380.38	486.5
380.606	461.5
380.831	465.5
381.057	483.5
381.282	456.5
381.507	452.5
381.733	451.5
381.958	471.5
382.184	453.5
382.409	474.5
382.634	480.5
382.86	461.5
383.085	477.5
383.31	463.5
383.535	480.5
383.761	467.5
383.986	485.5
384.211	500.5
384.436	486.5
384.662	493.5
384.887	498.5
385.112	515.5
385.337	519.5
385.562	502.5
385.787	483.5
386.013	529.5
386.238	523.5
386.463	519.5
386.688	512.5
386.913	519.5
387.138	522.5
387.363	524.5
387.588	496.5
387.813	515.5
388.038	498.5
388.263	503.5
388.488	515.5
388.713	520.5
388.938	497.5
389.163	515.5
389.387	525.5
389.612	492.5
389.837	492.5
390.062	500.5
390.287	536.5
390.512	514.5
390.736	497.5
390.961	520.5
391.186	492.5
391.411	516.5
391.636	532.5
391.86	524.5
392.085	511.5
392.31	529.5
392.534	526.5
392.759	553.5
392.984	533.5
393.208	529.5
393.433	522.5
393.658	520.5
393.882	515.5
394.107	507.5
394.331	517.5
394.556	526.5
394.78	531.5
395.005	518.5
395.229	509.5
395.454	539.5
395.678	541.5
395.903	562.5
396.127	566.5
396.352	576.5
396.576	537.5
396.801	542.5
397.025	524.5
397.249	531.5
397.474	531.5
397.698	548.5
397.922	576.5
398.147	576.5
398.371	590.5
398.595	583.5
398.82	604.5
399.044	621.5
399.268	603.5
399.492	645.5
399.717	691.5
399.941	733.5
400.165	743.5
400.389	743.5
400.613	662.5
400.837	653.5
401.062	617.5
401.286	599.5
401.51	583.5
401.734	592.5
401.958	608.5
402.182	603.5
402.406	614.5
402.63	633.5
402.854	602.5
403.078	612.5
403.302	611.5
403.526	608.5
403.75	620.5
403.974	624.5
404.198	601.5
404.422	626.5
404.645	624.5
404.869	608.5
405.093	642.5
405.317	677.5
405.541	730.5
405.765	675.5
405.988	641.5
406.212	658.5
406.436	689.5
406.66	689.5
406.883	662.5
407.107	703.5
407.331	738.5
407.555	843.5
407.778	823.5
408.002	754.5
408.226	699.5
408.449	681.5
408.673	704.5
408.896	723.5
409.12	767.5
409.344	714.5
409.567	663.5
409.791	633.5
410.014	623.5
410.238	621.5
410.461	647.5
410.685	649.5
410.908	644.5
411.132	682.5
411.355	740.5
411.578	693.5
411.802	642.5
412.025	609.5
412.249	629.5
412.472	641.5
412.695	627.5
412.919	657.5
413.142	614.5
413.365	609.5
413.589	604.5
413.812	585.5
414.035	589.5
414.258	600.5
414.482	579.5
414.705	556.5
414.928	581.5
415.151	600.5
415.374	592.5
415.597	588.5
415.821	585.5
416.044	577.5
416.267	567.5
416.49	600.5
416.713	575.5
416.936	571.5
417.159	610.5
417.382	613.5
417.605	601.5
417.828	600.5
418.051	607.5
418.274	615.5
418.497	597.5
418.72	564.5
418.943	579.5
419.166	630.5
419.389	627.5
419.611	631.5
419.834	611.5
420.057	608.5
420.28	605.5
420.503	591.5
420.726	605.5
420.948	616.5
421.171	667.5
421.394	711.5
421.617	643.5
421.839	610.5
422.062	611.5
422.285	651.5
422.507	711.5
422.73	801.5
422.953	771.5
423.175	689.5
423.398	632.5
423.621	636.5
423.843	658.5
424.066	663.5
424.288	660.5
424.511	685.5
424.733	753.5
424.956	835.5
425.178	834.5
425.401	816.5
425.623	854.5
425.846	726.5
426.068	695.5
426.291	662.5
426.513	645.5
426.735	669.5
426.958	703.5
427.18	801.5
427.402	992.5
427.625	1089.5
427.847	932.5
428.069	799.5
428.292	689.5
428.514	677.5
428.736	641.5
428.958	631.5
429.181	627.5
429.403	615.5
429.625	634.5
429.847	663.5
430.069	746.5
430.292	769.5
430.514	673.5
430.736	628.5
430.958	589.5
431.18	591.5
431.402	576.5
431.624	584.5
431.846	589.5
432.068	587.5
432.29	584.5
432.512	571.5
432.734	591.5
432.956	599.5
433.178	608.5
433.4	584.5
433.622	589.5
433.844	582.5
434.066	571.5
434.287	586.5
434.509	606.5
434.731	578.5
434.953	603.5
435.175	620.5
435.397	664.5
435.618	666.5
435.84	701.5
436.062	835.5
436.284	917.5
436.505	749.5
436.727	711.5
436.949	649.5
437.17	632.5
437.392	615.5
437.614	625.5
437.835	709.5
438.057	775.5
438.278	909.5
438.5	938.5
438.721	998.5
438.943	969.5
439.165	742.5
439.386	661.5
439.608	707.5
439.829	657.5
440.05	716.5
440.272	785.5
440.493	718.5
440.715	663.5
440.936	632.5
441.158	609.5
441.379	631.5
441.6	629.5
441.822	657.5
442.043	711.5
442.264	829.5
442.486	872.5
442.707	746.5
442.928	687.5
443.149	675.5
443.371	701.5
443.592	776.5
443.813	856.5
444.034	966.5
444.255	795.5
444.476	697.5
444.698	676.5
444.919	671.5
445.14	763.5
445.361	739.5
445.582	741.5
445.803	804.5
446.024	945.5
446.245	960.5
446.466	873.5
446.687	743.5
446.908	647.5
447.129	648.5
447.35	639.5
447.571	604.5
447.792	606.5
448.013	627.5
448.234	648.5
448.455	684.5
448.675	800.5
448.896	985.5
449.117	821.5
449.338	753.5
449.559	943.5
449.779	1063.5
450	830.5
450.221	676.5
450.442	627.5
450.662	617.5
450.883	602.5
451.104	611.5
451.324	615.5
451.545	573.5
451.766	561.5
451.986	568.5
452.207	546.5
452.428	535.5
452.648	559.5
452.869	537.5
453.089	546.5
453.31	552.5
453.53	573.5
453.751	543.5
453.971	537.5
454.192	581.5
454.412	569.5
454.633	551.5
454.853	543.5
455.073	567.5
455.294	567.5
455.514	635.5
455.734	650.5
455.955	560.5
456.175	529.5
456.395	514.5
456.616	509.5
456.836	506.5
457.056	525.5
457.276	534.5
457.497	498.5
457.717	515.5
457.937	509.5
458.157	525.5
458.377	533.5
458.598	568.5
458.818	631.5
459.038	733.5
459.258	778.5
459.478	637.5
459.698	584.5
459.918	593.5
460.138	582.5
460.358	583.5
460.578	585.5
460.798	589.5
461.018	606.5
461.238	617.5
461.458	603.5
461.678	593.5
461.898	599.5
462.118	577.5
462.338	613.5
462.558	613.5
462.777	633.5
462.997	644.5
463.217	650.5
463.437	680.5
463.657	637.5
463.876	625.5
464.096	655.5
464.316	659.5
464.536	604.5
464.755	636.5
464.975	652.5
465.195	694.5
465.414	774.5
465.634	693.5
465.854	640.5
466.073	625.5
466.293	592.5
466.512	554.5
466.732	554.5
466.951	562.5
467.171	563.5
467.391	567.5
467.61	589.5
467.829	591.5
468.049	581.5
468.268	573.5
468.488	569.5
468.707	550.5
468.927	532.5
469.146	551.5
469.365	552.5
469.585	548.5
469.804	563.5
470.023	578.5
470.243	557.5
470.462	609.5
470.681	607.5
470.901	596.5
471.12	594.5
471.339	582.5
471.558	585.5
471.777	569.5
471.997	552.5
472.216	561.5
472.435	571.5
472.654	586.5
472.873	581.5
473.092	576.5
473.311	547.5
473.53	563.5
473.749	606.5
473.968	620.5
474.187	748.5
474.406	794.5
474.625	647.5
474.844	610.5
475.063	574.5
475.282	580.5
475.501	577.5
475.72	588.5
475.939	596.5
476.158	588.5
476.377	613.5
476.596	599.5
476.814	604.5
477.033	600.5
477.252	614.5
477.471	616.5
477.69	625.5
477.908	625.5
478.127	632.5
478.346	621.5
478.564	625.5
478.783	639.5
479.002	661.5
479.22	654.5
479.439	671.5
479.658	706.5
479.876	688.5
480.095	706.5
480.313	743.5
480.532	743.5
480.751	691.5
480.969	710.5
481.188	732.5
481.406	745.5
481.624	696.5
481.843	697.5
482.061	673.5
482.28	660.5
482.498	658.5
482.717	666.5
482.935	676.5
483.153	691.5
483.372	659.5
483.59	662.5
483.808	673.5
484.027	675.5
484.245	699.5
484.463	682.5
484.681	689.5
484.9	670.5
485.118	667.5
485.336	672.5
485.554	697.5
485.772	699.5
485.99	693.5
486.209	710.5
486.427	703.5
486.645	710.5
486.863	731.5
487.081	734.5
487.299	721.5
487.517	710.5
487.735	725.5
487.953	742.5
488.171	743.5
488.389	702.5
488.607	737.5
488.825	714.5
489.043	741.5
489.261	729.5
489.479	746.5
489.696	747.5
489.914	774.5
490.132	730.5
490.35	746.5
490.568	765.5
490.786	753.5
491.003	809.5
491.221	809.5
491.439	796.5
491.657	809.5
491.874	833.5
492.092	824.5
492.31	833.5
492.527	830.5
492.745	832.5
492.963	849.5
493.18	821.5
493.398	844.5
493.615	864.5
493.833	835.5
494.05	856.5
494.268	860.5
494.485	838.5
494.703	850.5
494.92	849.5
495.138	847.5
495.355	873.5
495.573	874.5
495.79	852.5
496.008	870.5
496.225	868.5
496.442	840.5
496.66	870.5
496.877	873.5
497.094	874.5
497.312	901.5
497.529	915.5
497.746	917.5
497.963	939.5
498.181	948.5
498.398	964.5
498.615	988.5
498.832	1023.5
499.049	1019.5
499.267	1023.5
499.484	1046.5
499.701	1092.5
499.918	1132.5
500.135	1196.5
500.352	1197.5
500.569	1235.5
500.786	1222.5
501.003	1243.5
501.22	1195.5
501.437	1184.5
501.654	1136.5
501.871	1119.5
502.088	1083.5
502.305	1056.5
502.522	999.5
502.739	994.5
502.956	988.5
503.172	919.5
503.389	903.5
503.606	956.5
503.823	922.5
504.04	912.5
504.256	895.5
504.473	895.5
504.69	884.5
504.907	909.5
505.123	875.5
505.34	849.5
505.557	845.5
505.773	844.5
505.99	841.5
506.207	843.5
506.423	834.5
506.64	836.5
506.856	805.5
507.073	796.5
507.289	817.5
507.506	812.5
507.722	841.5
507.939	834.5
508.155	812.5
508.372	788.5
508.588	787.5
508.805	795.5
509.021	788.5
509.238	793.5
509.454	817.5
509.67	801.5
509.887	792.5
510.103	781.5
510.319	781.5
510.536	908.5
510.752	1463.5
510.968	1240.5
511.184	813.5
511.401	781.5
511.617	742.5
511.833	746.5
512.049	727.5
512.265	746.5
512.481	751.5
512.698	747.5
512.914	727.5
513.13	729.5
513.346	747.5
513.562	761.5
513.778	763.5
513.994	745.5
514.21	744.5
514.426	792.5
514.642	849.5
514.858	883.5
515.074	913.5
515.29	1036.5
515.506	1505.5
515.721	1281.5
515.937	917.5
516.153	843.5
516.369	807.5
516.585	804.5
516.801	806.5
517.016	773.5
517.232	797.5
517.448	793.5
517.664	755.5
517.879	760.5
518.095	783.5
518.311	770.5
518.527	793.5
518.742	792.5
518.958	764.5
519.173	752.5
519.389	773.5
