Data from 1988.PennyLincolnUp.Lamp.En5.5.200Scan.071819.P2_HRD10591_17-20-20-972.txt Node
Date: Thu Jul 18 17:20:20 EDT 2019
User: cochatt
Spectrometer: HR+D1059
Trigger mode: 1
Integration Time (sec): 1.000000E-1
Scans to average: 1
Electric dark correction enabled: true
Nonlinearity correction enabled: false
Boxcar width: 0
XAxis mode: Wavelengths
Number of Pixels in Spectrum: 2048
>>>>>Begin Spectral Data<<<<<
223.165	-15.25
223.4	-15.25
223.635	-15.25
223.869	-23.25
224.104	-19.25
224.338	-16.25
224.573	-2.25
224.808	-8.25
225.042	-12.25
225.277	-14.25
225.511	-16.25
225.746	1.75
225.98	20.75
226.215	4.75
226.449	20.75
226.683	28.75
226.918	26.75
227.152	23.75
227.387	31.75
227.621	39.75
227.856	45.75
228.09	48.75
228.324	51.75
228.559	52.75
228.793	80.75
229.027	107.75
229.262	105.75
229.496	115.75
229.73	133.75
229.964	173.75
230.199	131.75
230.433	113.75
230.667	124.75
230.901	119.75
231.136	108.75
231.37	106.75
231.604	123.75
231.838	119.75
232.072	104.75
232.306	121.75
232.541	116.75
232.775	120.75
233.009	137.75
233.243	127.75
233.477	113.75
233.711	122.75
233.945	139.75
234.179	129.75
234.413	128.75
234.647	125.75
234.881	128.75
235.115	132.75
235.349	130.75
235.583	139.75
235.817	126.75
236.051	127.75
236.285	146.75
236.519	154.75
236.753	124.75
236.987	148.75
237.221	195.75
237.455	245.75
237.689	213.75
237.922	154.75
238.156	145.75
238.39	155.75
238.624	117.75
238.858	124.75
239.091	117.75
239.325	133.75
239.559	127.75
239.793	147.75
240.027	143.75
240.26	175.75
240.494	177.75
240.728	156.75
240.961	151.75
241.195	156.75
241.429	148.75
241.662	142.75
241.896	135.75
242.13	135.75
242.363	147.75
242.597	143.75
242.83	163.75
243.064	140.75
243.298	144.75
243.531	137.75
243.765	160.75
243.998	151.75
244.232	140.75
244.465	152.75
244.699	156.75
244.932	160.75
245.166	152.75
245.399	143.75
245.633	147.75
245.866	162.75
246.099	142.75
246.333	170.75
246.566	172.75
246.8	154.75
247.033	139.75
247.266	161.75
247.5	166.75
247.733	172.75
247.966	195.75
248.2	177.75
248.433	203.75
248.666	172.75
248.899	191.75
249.133	225.75
249.366	225.75
249.599	206.75
249.832	196.75
250.066	179.75
250.299	191.75
250.532	195.75
250.765	218.75
250.998	217.75
251.231	224.75
251.465	213.75
251.698	220.75
251.931	204.75
252.164	197.75
252.397	216.75
252.63	213.75
252.863	218.75
253.096	244.75
253.329	232.75
253.562	235.75
253.795	237.75
254.028	235.75
254.261	242.75
254.494	257.75
254.727	268.75
254.96	273.75
255.193	295.75
255.426	255.75
255.659	248.75
255.892	247.75
256.124	228.75
256.357	227.75
256.59	220.75
256.823	234.75
257.056	225.75
257.289	221.75
257.521	212.75
257.754	232.75
257.987	228.75
258.22	213.75
258.452	230.75
258.685	202.75
258.918	220.75
259.151	223.75
259.383	215.75
259.616	253.75
259.849	259.75
260.081	223.75
260.314	258.75
260.547	265.75
260.779	250.75
261.012	248.75
261.244	247.75
261.477	246.75
261.71	223.75
261.942	242.75
262.175	234.75
262.407	242.75
262.64	231.75
262.872	223.75
263.105	237.75
263.337	226.75
263.57	220.75
263.802	236.75
264.035	212.75
264.267	220.75
264.499	225.75
264.732	219.75
264.964	231.75
265.197	248.75
265.429	225.75
265.661	230.75
265.894	229.75
266.126	239.75
266.358	239.75
266.591	233.75
266.823	246.75
267.055	223.75
267.287	243.75
267.52	232.75
267.752	254.75
267.984	263.75
268.216	249.75
268.448	246.75
268.681	258.75
268.913	276.75
269.145	281.75
269.377	292.75
269.609	292.75
269.841	289.75
270.073	281.75
270.306	321.75
270.538	328.75
270.77	326.75
271.002	314.75
271.234	299.75
271.466	345.75
271.698	323.75
271.93	338.75
272.162	330.75
272.394	321.75
272.626	307.75
272.858	306.75
273.09	289.75
273.322	305.75
273.553	280.75
273.785	278.75
274.017	286.75
274.249	289.75
274.481	304.75
274.713	265.75
274.945	265.75
275.176	285.75
275.408	261.75
275.64	291.75
275.872	284.75
276.104	291.75
276.335	279.75
276.567	283.75
276.799	307.75
277.031	303.75
277.262	339.75
277.494	343.75
277.726	316.75
277.957	310.75
278.189	315.75
278.421	303.75
278.652	300.75
278.884	297.75
279.115	288.75
279.347	292.75
279.579	285.75
279.81	294.75
280.042	277.75
280.273	266.75
280.505	288.75
280.736	288.75
280.968	264.75
281.199	287.75
281.431	276.75
281.662	289.75
281.894	291.75
282.125	303.75
282.356	303.75
282.588	349.75
282.819	340.75
283.051	315.75
283.282	287.75
283.513	288.75
283.745	292.75
283.976	292.75
284.207	298.75
284.439	301.75
284.67	307.75
284.901	295.75
285.132	288.75
285.364	285.75
285.595	288.75
285.826	298.75
286.057	294.75
286.288	291.75
286.52	309.75
286.751	311.75
286.982	324.75
287.213	294.75
287.444	311.75
287.675	327.75
287.906	314.75
288.138	332.75
288.369	334.75
288.6	318.75
288.831	331.75
289.062	314.75
289.293	311.75
289.524	306.75
289.755	316.75
289.986	315.75
290.217	317.75
290.448	308.75
290.679	331.75
290.91	317.75
291.141	296.75
291.371	298.75
291.602	310.75
291.833	309.75
292.064	309.75
292.295	299.75
292.526	327.75
292.757	326.75
292.987	313.75
293.218	318.75
293.449	319.75
293.68	310.75
293.91	306.75
294.141	314.75
294.372	311.75
294.603	323.75
294.833	319.75
295.064	316.75
295.295	316.75
295.525	309.75
295.756	324.75
295.987	339.75
296.217	350.75
296.448	355.75
296.679	325.75
296.909	331.75
297.14	323.75
297.37	322.75
297.601	316.75
297.831	322.75
298.062	333.75
298.292	343.75
298.523	324.75
298.753	345.75
298.984	350.75
299.214	350.75
299.445	338.75
299.675	331.75
299.905	358.75
300.136	334.75
300.366	355.75
300.597	335.75
300.827	345.75
301.057	371.75
301.288	367.75
301.518	334.75
301.748	356.75
301.979	356.75
302.209	353.75
302.439	352.75
302.669	349.75
302.9	357.75
303.13	362.75
303.36	370.75
303.59	360.75
303.82	378.75
304.051	363.75
304.281	358.75
304.511	364.75
304.741	372.75
304.971	345.75
305.201	353.75
305.431	349.75
305.661	359.75
305.891	355.75
306.121	367.75
306.352	379.75
306.582	375.75
306.812	349.75
307.042	349.75
307.272	363.75
307.502	361.75
307.731	356.75
307.961	372.75
308.191	364.75
308.421	353.75
308.651	373.75
308.881	351.75
309.111	362.75
309.341	367.75
309.571	379.75
309.8	391.75
310.03	415.75
310.26	408.75
310.49	394.75
310.72	428.75
310.949	456.75
311.179	426.75
311.409	415.75
311.639	403.75
311.868	419.75
312.098	407.75
312.328	430.75
312.557	428.75
312.787	447.75
313.017	451.75
313.246	424.75
313.476	418.75
313.706	424.75
313.935	417.75
314.165	442.75
314.394	442.75
314.624	428.75
314.853	412.75
315.083	417.75
315.312	431.75
315.542	428.75
315.771	431.75
316.001	403.75
316.23	417.75
316.46	423.75
316.689	428.75
316.919	425.75
317.148	451.75
317.377	431.75
317.607	421.75
317.836	428.75
318.065	423.75
318.295	425.75
318.524	409.75
318.753	419.75
318.983	408.75
319.212	431.75
319.441	433.75
319.67	452.75
319.9	426.75
320.129	406.75
320.358	424.75
320.587	441.75
320.816	435.75
321.046	435.75
321.275	442.75
321.504	439.75
321.733	440.75
321.962	443.75
322.191	479.75
322.42	487.75
322.649	499.75
322.878	489.75
323.108	492.75
323.337	550.75
323.566	551.75
323.795	584.75
324.024	625.75
324.253	772.75
324.482	1068.75
324.71	1718.75
324.939	2551.75
325.168	2173.75
325.397	1114.75
325.626	745.75
325.855	628.75
326.084	590.75
326.313	566.75
326.542	587.75
326.77	612.75
326.999	713.75
327.228	984.75
327.457	1514.75
327.686	1880.75
327.914	1238.75
328.143	782.75
328.372	690.75
328.6	645.75
328.829	617.75
329.058	649.75
329.287	649.75
329.515	617.75
329.744	541.75
329.972	547.75
330.201	552.75
330.43	580.75
330.658	616.75
330.887	660.75
331.115	657.75
331.344	568.75
331.572	565.75
331.801	552.75
332.03	543.75
332.258	514.75
332.486	510.75
332.715	489.75
332.943	479.75
333.172	486.75
333.4	490.75
333.629	525.75
333.857	520.75
334.085	512.75
334.314	503.75
334.542	543.75
334.771	547.75
334.999	518.75
335.227	528.75
335.455	513.75
335.684	504.75
335.912	511.75
336.14	496.75
336.369	499.75
336.597	512.75
336.825	535.75
337.053	524.75
337.281	497.75
337.51	498.75
337.738	495.75
337.966	502.75
338.194	482.75
338.422	493.75
338.65	493.75
338.878	479.75
339.106	487.75
339.334	490.75
339.562	467.75
339.79	476.75
340.018	474.75
340.246	467.75
340.474	481.75
340.702	499.75
340.93	482.75
341.158	498.75
341.386	477.75
341.614	484.75
341.842	483.75
342.07	476.75
342.298	469.75
342.526	466.75
342.754	483.75
342.981	471.75
343.209	471.75
343.437	485.75
343.665	496.75
343.893	498.75
344.12	498.75
344.348	485.75
344.576	483.75
344.804	507.75
345.031	506.75
345.259	523.75
345.487	508.75
345.714	501.75
345.942	485.75
346.17	484.75
346.397	480.75
346.625	460.75
346.853	473.75
347.08	477.75
347.308	467.75
347.535	495.75
347.763	486.75
347.99	495.75
348.218	493.75
348.445	496.75
348.673	496.75
348.9	472.75
349.128	462.75
349.355	451.75
349.583	448.75
349.81	456.75
350.037	466.75
350.265	453.75
350.492	458.75
350.72	445.75
350.947	459.75
351.174	457.75
351.402	501.75
351.629	472.75
351.856	487.75
352.083	466.75
352.311	497.75
352.538	470.75
352.765	483.75
352.992	504.75
353.22	481.75
353.447	478.75
353.674	468.75
353.901	445.75
354.128	450.75
354.355	443.75
354.583	456.75
354.81	455.75
355.037	445.75
355.264	446.75
355.491	440.75
355.718	416.75
355.945	440.75
356.172	424.75
356.399	429.75
356.626	421.75
356.853	432.75
357.08	421.75
357.307	433.75
357.534	449.75
357.761	443.75
357.988	446.75
358.215	433.75
358.441	456.75
358.668	468.75
358.895	457.75
359.122	443.75
359.349	458.75
359.576	479.75
359.802	479.75
360.029	514.75
360.256	548.75
360.483	531.75
360.709	484.75
360.936	473.75
361.163	473.75
361.39	487.75
361.616	480.75
361.843	456.75
362.07	454.75
362.296	484.75
362.523	472.75
362.749	476.75
362.976	453.75
363.203	467.75
363.429	439.75
363.656	461.75
363.882	465.75
364.109	475.75
364.335	446.75
364.562	449.75
364.788	452.75
365.015	452.75
365.241	463.75
365.468	442.75
365.694	465.75
365.92	467.75
366.147	460.75
366.373	463.75
366.599	461.75
366.826	433.75
367.052	415.75
367.278	463.75
367.505	438.75
367.731	473.75
367.957	447.75
368.184	452.75
368.41	454.75
368.636	472.75
368.862	460.75
369.089	465.75
369.315	447.75
369.541	475.75
369.767	450.75
369.993	455.75
370.219	427.75
370.445	444.75
370.672	447.75
370.898	449.75
371.124	459.75
371.35	464.75
371.576	439.75
371.802	462.75
372.028	443.75
372.254	452.75
372.48	443.75
372.706	473.75
372.932	474.75
373.158	460.75
373.384	467.75
373.61	459.75
373.835	460.75
374.061	467.75
374.287	466.75
374.513	500.75
374.739	470.75
374.965	442.75
375.191	455.75
375.416	473.75
375.642	469.75
375.868	485.75
376.094	471.75
376.319	455.75
376.545	468.75
376.771	459.75
376.997	455.75
377.222	453.75
377.448	453.75
377.674	448.75
377.899	452.75
378.125	456.75
378.35	452.75
378.576	469.75
378.802	433.75
379.027	448.75
379.253	456.75
379.478	439.75
379.704	465.75
379.929	453.75
380.155	465.75
380.38	464.75
380.606	460.75
380.831	459.75
381.057	449.75
381.282	449.75
381.507	459.75
381.733	472.75
381.958	444.75
382.184	458.75
382.409	495.75
382.634	480.75
382.86	453.75
383.085	487.75
383.31	484.75
383.535	479.75
383.761	481.75
383.986	472.75
384.211	490.75
384.436	515.75
384.662	489.75
384.887	489.75
385.112	489.75
385.337	495.75
385.562	489.75
385.787	496.75
386.013	503.75
386.238	529.75
386.463	509.75
386.688	511.75
386.913	513.75
387.138	499.75
387.363	536.75
387.588	512.75
387.813	515.75
388.038	502.75
388.263	518.75
388.488	492.75
388.713	505.75
388.938	511.75
389.163	524.75
389.387	525.75
389.612	513.75
389.837	527.75
390.062	489.75
390.287	487.75
390.512	501.75
390.736	507.75
390.961	509.75
391.186	490.75
391.411	501.75
391.636	525.75
391.86	521.75
392.085	537.75
392.31	542.75
392.534	507.75
392.759	522.75
392.984	525.75
393.208	518.75
393.433	532.75
393.658	536.75
393.882	497.75
394.107	543.75
394.331	527.75
394.556	492.75
394.78	520.75
395.005	519.75
395.229	505.75
395.454	512.75
395.678	516.75
395.903	584.75
396.127	570.75
396.352	568.75
396.576	538.75
396.801	527.75
397.025	561.75
397.249	535.75
397.474	555.75
397.698	555.75
397.922	569.75
398.147	591.75
398.371	582.75
398.595	560.75
398.82	590.75
399.044	623.75
399.268	641.75
399.492	645.75
399.717	666.75
399.941	707.75
400.165	701.75
400.389	771.75
400.613	670.75
400.837	646.75
401.062	629.75
401.286	618.75
401.51	602.75
401.734	588.75
401.958	602.75
402.182	604.75
402.406	595.75
402.63	620.75
402.854	614.75
403.078	609.75
403.302	610.75
403.526	635.75
403.75	593.75
403.974	619.75
404.198	633.75
404.422	608.75
404.645	611.75
404.869	637.75
405.093	655.75
405.317	665.75
405.541	709.75
405.765	667.75
405.988	647.75
406.212	652.75
406.436	671.75
406.66	689.75
406.883	664.75
407.107	688.75
407.331	758.75
407.555	795.75
407.778	819.75
408.002	757.75
408.226	701.75
408.449	687.75
408.673	668.75
408.896	688.75
409.12	753.75
409.344	714.75
409.567	658.75
409.791	632.75
410.014	631.75
410.238	626.75
410.461	619.75
410.685	618.75
410.908	639.75
411.132	667.75
411.355	716.75
411.578	684.75
411.802	627.75
412.025	619.75
412.249	624.75
412.472	645.75
412.695	640.75
412.919	625.75
413.142	604.75
413.365	565.75
413.589	587.75
413.812	596.75
414.035	580.75
414.258	574.75
414.482	599.75
414.705	591.75
414.928	578.75
415.151	600.75
415.374	601.75
415.597	599.75
415.821	572.75
416.044	585.75
416.267	580.75
416.49	577.75
416.713	580.75
416.936	577.75
417.159	567.75
417.382	584.75
417.605	594.75
417.828	600.75
418.051	602.75
418.274	604.75
418.497	593.75
418.72	609.75
418.943	571.75
419.166	617.75
419.389	643.75
419.611	596.75
419.834	586.75
420.057	626.75
420.28	603.75
420.503	599.75
420.726	570.75
420.948	612.75
421.171	671.75
421.394	703.75
421.617	637.75
421.839	620.75
422.062	599.75
422.285	649.75
422.507	707.75
422.73	783.75
422.953	785.75
423.175	662.75
423.398	641.75
423.621	628.75
423.843	665.75
424.066	658.75
424.288	668.75
424.511	666.75
424.733	731.75
424.956	828.75
425.178	799.75
425.401	783.75
425.623	818.75
425.846	714.75
426.068	670.75
426.291	649.75
426.513	647.75
426.735	694.75
426.958	731.75
427.18	820.75
427.402	973.75
427.625	1086.75
427.847	926.75
428.069	770.75
428.292	692.75
428.514	649.75
428.736	627.75
428.958	631.75
429.181	617.75
429.403	624.75
429.625	637.75
429.847	645.75
430.069	728.75
430.292	720.75
430.514	646.75
430.736	616.75
430.958	576.75
431.18	586.75
431.402	573.75
431.624	596.75
431.846	555.75
432.068	559.75
432.29	580.75
432.512	572.75
432.734	583.75
432.956	584.75
433.178	627.75
433.4	603.75
433.622	587.75
433.844	581.75
434.066	589.75
434.287	597.75
434.509	601.75
434.731	612.75
434.953	589.75
435.175	631.75
435.397	651.75
435.618	661.75
435.84	707.75
436.062	848.75
436.284	900.75
436.505	767.75
436.727	654.75
436.949	630.75
437.17	616.75
437.392	627.75
437.614	634.75
437.835	651.75
438.057	756.75
438.278	908.75
438.5	889.75
438.721	984.75
438.943	929.75
439.165	738.75
439.386	663.75
439.608	673.75
439.829	653.75
440.05	703.75
440.272	746.75
440.493	724.75
440.715	669.75
440.936	642.75
441.158	618.75
441.379	617.75
441.6	635.75
441.822	682.75
442.043	722.75
442.264	797.75
442.486	865.75
442.707	747.75
442.928	676.75
443.149	696.75
443.371	714.75
443.592	749.75
443.813	860.75
444.034	952.75
444.255	781.75
444.476	702.75
444.698	687.75
444.919	672.75
445.14	783.75
445.361	755.75
445.582	698.75
445.803	791.75
446.024	923.75
446.245	927.75
446.466	839.75
446.687	703.75
446.908	660.75
447.129	614.75
447.35	603.75
447.571	610.75
447.792	601.75
448.013	596.75
448.234	612.75
448.455	676.75
448.675	854.75
448.896	954.75
449.117	817.75
449.338	778.75
449.559	902.75
449.779	1029.75
450	827.75
450.221	667.75
450.442	627.75
450.662	596.75
450.883	587.75
451.104	609.75
451.324	617.75
451.545	585.75
451.766	557.75
451.986	530.75
452.207	546.75
452.428	547.75
452.648	560.75
452.869	558.75
453.089	565.75
453.31	584.75
453.53	531.75
453.751	552.75
453.971	538.75
454.192	556.75
454.412	543.75
454.633	563.75
454.853	558.75
455.073	527.75
455.294	588.75
455.514	649.75
455.734	632.75
455.955	549.75
456.175	527.75
456.395	516.75
456.616	496.75
456.836	490.75
457.056	519.75
457.276	510.75
457.497	537.75
457.717	479.75
457.937	541.75
458.157	539.75
458.377	554.75
458.598	564.75
458.818	594.75
459.038	737.75
459.258	727.75
459.478	639.75
459.698	598.75
459.918	580.75
460.138	577.75
460.358	576.75
460.578	579.75
460.798	602.75
461.018	605.75
461.238	582.75
461.458	590.75
461.678	581.75
461.898	602.75
462.118	594.75
462.338	618.75
462.558	609.75
462.777	610.75
462.997	631.75
463.217	631.75
463.437	668.75
463.657	628.75
463.876	611.75
464.096	659.75
464.316	650.75
464.536	658.75
464.755	641.75
464.975	650.75
465.195	663.75
465.414	759.75
465.634	687.75
465.854	641.75
466.073	599.75
466.293	561.75
466.512	575.75
466.732	564.75
466.951	559.75
467.171	564.75
467.391	568.75
467.61	562.75
467.829	573.75
468.049	572.75
468.268	560.75
468.488	547.75
468.707	548.75
468.927	532.75
469.146	543.75
469.365	559.75
469.585	541.75
469.804	569.75
470.023	552.75
470.243	579.75
470.462	554.75
470.681	602.75
470.901	596.75
471.12	550.75
471.339	559.75
471.558	570.75
471.777	577.75
471.997	569.75
472.216	556.75
472.435	542.75
472.654	543.75
472.873	544.75
473.092	547.75
473.311	545.75
473.53	583.75
473.749	579.75
473.968	611.75
474.187	726.75
474.406	757.75
474.625	632.75
474.844	588.75
475.063	593.75
475.282	579.75
475.501	561.75
475.72	591.75
475.939	588.75
476.158	583.75
476.377	569.75
476.596	599.75
476.814	608.75
477.033	616.75
477.252	604.75
477.471	620.75
477.69	616.75
477.908	628.75
478.127	603.75
478.346	637.75
478.564	641.75
478.783	633.75
479.002	633.75
479.22	649.75
479.439	672.75
479.658	689.75
479.876	685.75
480.095	704.75
480.313	721.75
480.532	691.75
480.751	711.75
480.969	703.75
481.188	694.75
481.406	724.75
481.624	687.75
481.843	683.75
482.061	673.75
482.28	659.75
482.498	658.75
482.717	660.75
482.935	665.75
483.153	660.75
483.372	665.75
483.59	665.75
483.808	661.75
484.027	663.75
484.245	683.75
484.463	672.75
484.681	676.75
484.9	679.75
485.118	668.75
485.336	699.75
485.554	723.75
485.772	696.75
485.99	675.75
486.209	686.75
486.427	709.75
486.645	722.75
486.863	727.75
487.081	724.75
487.299	748.75
487.517	731.75
487.735	735.75
487.953	736.75
488.171	732.75
488.389	707.75
488.607	740.75
488.825	719.75
489.043	734.75
489.261	713.75
489.479	736.75
489.696	736.75
489.914	735.75
490.132	729.75
490.35	749.75
490.568	756.75
490.786	743.75
491.003	769.75
491.221	781.75
491.439	802.75
491.657	779.75
491.874	824.75
492.092	777.75
492.31	797.75
492.527	818.75
492.745	807.75
492.963	812.75
493.18	812.75
493.398	831.75
493.615	850.75
493.833	822.75
494.05	864.75
494.268	838.75
494.485	831.75
494.703	817.75
494.92	837.75
495.138	854.75
495.355	850.75
495.573	856.75
495.79	839.75
496.008	848.75
496.225	846.75
496.442	843.75
496.66	860.75
496.877	868.75
497.094	888.75
497.312	886.75
497.529	870.75
497.746	913.75
497.963	903.75
498.181	938.75
498.398	976.75
498.615	960.75
498.832	980.75
499.049	985.75
499.267	1023.75
499.484	1043.75
499.701	1084.75
499.918	1111.75
500.135	1171.75
500.352	1233.75
500.569	1236.75
500.786	1220.75
501.003	1219.75
501.22	1195.75
501.437	1177.75
501.654	1130.75
