Data from 1988.PennyLincolnUp.Lamp.En5.5.200Scan.071819.P2_HRD10591_17-21-28-972.txt Node
Date: Thu Jul 18 17:21:28 EDT 2019
User: cochatt
Spectrometer: HR+D1059
Trigger mode: 1
Integration Time (sec): 1.000000E-1
Scans to average: 1
Electric dark correction enabled: true
Nonlinearity correction enabled: false
Boxcar width: 0
XAxis mode: Wavelengths
Number of Pixels in Spectrum: 2048
>>>>>Begin Spectral Data<<<<<
223.165	-15.75
223.4	-15.75
223.635	-15.75
223.869	-24.75
224.104	-13.75
224.338	-18.75
224.573	-18.75
224.808	-12.75
225.042	-8.75
225.277	-2.75
225.511	3.25
225.746	8.25
225.98	7.25
226.215	10.25
226.449	17.25
226.683	19.25
226.918	21.25
227.152	29.25
227.387	55.25
227.621	34.25
227.856	45.25
228.09	41.25
228.324	38.25
228.559	53.25
228.793	80.25
229.027	102.25
229.262	99.25
229.496	111.25
229.73	146.25
229.964	178.25
230.199	150.25
230.433	128.25
230.667	122.25
230.901	116.25
231.136	110.25
231.37	123.25
231.604	118.25
231.838	124.25
232.072	124.25
232.306	116.25
232.541	126.25
232.775	117.25
233.009	114.25
233.243	107.25
233.477	114.25
233.711	119.25
233.945	120.25
234.179	124.25
234.413	127.25
234.647	124.25
234.881	127.25
235.115	127.25
235.349	132.25
235.583	139.25
235.817	139.25
236.051	145.25
236.285	140.25
236.519	128.25
236.753	128.25
236.987	163.25
237.221	207.25
237.455	257.25
237.689	222.25
237.922	173.25
238.156	152.25
238.39	152.25
238.624	126.25
238.858	126.25
239.091	147.25
239.325	138.25
239.559	127.25
239.793	143.25
240.027	138.25
240.26	158.25
240.494	174.25
240.728	174.25
240.961	163.25
241.195	162.25
241.429	146.25
241.662	148.25
241.896	143.25
242.13	138.25
242.363	157.25
242.597	152.25
242.83	155.25
243.064	146.25
243.298	152.25
243.531	151.25
243.765	155.25
243.998	161.25
244.232	150.25
244.465	152.25
244.699	146.25
244.932	165.25
245.166	173.25
245.399	173.25
245.633	146.25
245.866	150.25
246.099	150.25
246.333	154.25
246.566	158.25
246.8	160.25
247.033	171.25
247.266	176.25
247.5	173.25
247.733	175.25
247.966	176.25
248.2	175.25
248.433	175.25
248.666	175.25
248.899	204.25
249.133	222.25
249.366	224.25
249.599	222.25
249.832	194.25
250.066	193.25
250.299	186.25
250.532	191.25
250.765	212.25
250.998	232.25
251.231	249.25
251.465	219.25
251.698	209.25
251.931	225.25
252.164	216.25
252.397	207.25
252.63	213.25
252.863	214.25
253.096	219.25
253.329	242.25
253.562	238.25
253.795	249.25
254.028	236.25
254.261	240.25
254.494	253.25
254.727	286.25
254.96	301.25
255.193	296.25
255.426	287.25
255.659	251.25
255.892	253.25
256.124	252.25
256.357	249.25
256.59	213.25
256.823	243.25
257.056	219.25
257.289	205.25
257.521	219.25
257.754	216.25
257.987	229.25
258.22	207.25
258.452	209.25
258.685	214.25
258.918	227.25
259.151	197.25
259.383	235.25
259.616	253.25
259.849	242.25
260.081	264.25
260.314	260.25
260.547	276.25
260.779	266.25
261.012	246.25
261.244	253.25
261.477	248.25
261.71	253.25
261.942	243.25
262.175	261.25
262.407	266.25
262.64	233.25
262.872	228.25
263.105	223.25
263.337	235.25
263.57	236.25
263.802	229.25
264.035	239.25
264.267	244.25
264.499	248.25
264.732	224.25
264.964	242.25
265.197	226.25
265.429	215.25
265.661	228.25
265.894	239.25
266.126	228.25
266.358	247.25
266.591	247.25
266.823	248.25
267.055	243.25
267.287	242.25
267.52	250.25
267.752	262.25
267.984	250.25
268.216	251.25
268.448	263.25
268.681	247.25
268.913	266.25
269.145	274.25
269.377	288.25
269.609	309.25
269.841	293.25
270.073	294.25
270.306	303.25
270.538	327.25
270.77	336.25
271.002	326.25
271.234	315.25
271.466	318.25
271.698	338.25
271.93	335.25
272.162	338.25
272.394	358.25
272.626	335.25
272.858	317.25
273.09	313.25
273.322	318.25
273.553	297.25
273.785	288.25
274.017	302.25
274.249	297.25
274.481	291.25
274.713	293.25
274.945	271.25
275.176	291.25
275.408	277.25
275.64	291.25
275.872	296.25
276.104	284.25
276.335	286.25
276.567	285.25
276.799	321.25
277.031	326.25
277.262	339.25
277.494	347.25
277.726	344.25
277.957	317.25
278.189	315.25
278.421	301.25
278.652	295.25
278.884	300.25
279.115	279.25
279.347	288.25
279.579	308.25
279.81	286.25
280.042	283.25
280.273	293.25
280.505	311.25
280.736	310.25
280.968	286.25
281.199	296.25
281.431	294.25
281.662	302.25
281.894	290.25
282.125	316.25
282.356	323.25
282.588	337.25
282.819	337.25
283.051	336.25
283.282	285.25
283.513	302.25
283.745	294.25
283.976	313.25
284.207	312.25
284.439	308.25
284.67	313.25
284.901	312.25
285.132	314.25
285.364	314.25
285.595	302.25
285.826	303.25
286.057	316.25
286.288	301.25
286.52	324.25
286.751	304.25
286.982	318.25
287.213	310.25
287.444	324.25
287.675	320.25
287.906	323.25
288.138	328.25
288.369	326.25
288.6	344.25
288.831	329.25
289.062	318.25
289.293	339.25
289.524	307.25
289.755	315.25
289.986	311.25
290.217	308.25
290.448	321.25
290.679	332.25
290.91	310.25
291.141	327.25
291.371	323.25
291.602	316.25
291.833	313.25
292.064	315.25
292.295	323.25
292.526	325.25
292.757	331.25
292.987	305.25
293.218	310.25
293.449	313.25
293.68	331.25
293.91	329.25
294.141	321.25
294.372	319.25
294.603	310.25
294.833	316.25
295.064	330.25
295.295	329.25
295.525	327.25
295.756	342.25
295.987	326.25
296.217	373.25
296.448	373.25
296.679	333.25
296.909	326.25
297.14	325.25
297.37	332.25
297.601	325.25
297.831	361.25
298.062	328.25
298.292	331.25
298.523	357.25
298.753	346.25
298.984	335.25
299.214	319.25
299.445	351.25
299.675	337.25
299.905	347.25
300.136	346.25
300.366	341.25
300.597	350.25
300.827	344.25
301.057	347.25
301.288	371.25
301.518	362.25
301.748	353.25
301.979	368.25
302.209	378.25
302.439	370.25
302.669	380.25
302.9	365.25
303.13	360.25
303.36	361.25
303.59	362.25
303.82	377.25
304.051	391.25
304.281	371.25
304.511	376.25
304.741	364.25
304.971	360.25
305.201	359.25
305.431	359.25
305.661	375.25
305.891	357.25
306.121	361.25
306.352	363.25
306.582	359.25
306.812	362.25
307.042	376.25
307.272	380.25
307.502	366.25
307.731	354.25
307.961	357.25
308.191	390.25
308.421	370.25
308.651	381.25
308.881	388.25
309.111	384.25
309.341	387.25
309.571	380.25
309.8	426.25
310.03	410.25
310.26	423.25
310.49	434.25
310.72	424.25
310.949	441.25
311.179	450.25
311.409	418.25
311.639	432.25
311.868	428.25
312.098	435.25
312.328	444.25
312.557	457.25
312.787	463.25
313.017	453.25
313.246	442.25
313.476	450.25
313.706	423.25
313.935	443.25
314.165	438.25
314.394	447.25
314.624	451.25
314.853	444.25
315.083	428.25
315.312	422.25
315.542	446.25
315.771	431.25
316.001	416.25
316.23	415.25
316.46	429.25
316.689	436.25
316.919	436.25
317.148	446.25
317.377	436.25
317.607	445.25
317.836	414.25
318.065	429.25
318.295	427.25
318.524	434.25
318.753	419.25
318.983	438.25
319.212	402.25
319.441	438.25
319.67	458.25
319.9	440.25
320.129	439.25
320.358	435.25
320.587	448.25
320.816	474.25
321.046	456.25
321.275	456.25
321.504	474.25
321.733	458.25
321.962	468.25
322.191	484.25
322.42	484.25
322.649	509.25
322.878	511.25
323.108	538.25
323.337	567.25
323.566	564.25
323.795	608.25
324.024	686.25
324.253	814.25
324.482	1182.25
324.71	1867.25
324.939	2760.25
325.168	2383.25
325.397	1190.25
325.626	799.25
325.855	652.25
326.084	628.25
326.313	591.25
326.542	607.25
326.77	648.25
326.999	780.25
327.228	1054.25
327.457	1626.25
327.686	2072.25
327.914	1362.25
328.143	858.25
328.372	743.25
328.6	681.25
328.829	660.25
329.058	658.25
329.287	679.25
329.515	613.25
329.744	571.25
329.972	585.25
330.201	584.25
330.43	609.25
330.658	643.25
330.887	696.25
331.115	685.25
331.344	598.25
331.572	571.25
331.801	560.25
332.03	551.25
332.258	551.25
332.486	528.25
332.715	504.25
332.943	499.25
333.172	531.25
333.4	521.25
333.629	518.25
333.857	538.25
334.085	560.25
334.314	550.25
334.542	563.25
334.771	564.25
334.999	527.25
335.227	551.25
335.455	516.25
335.684	508.25
335.912	503.25
336.14	500.25
336.369	518.25
336.597	529.25
336.825	537.25
337.053	500.25
337.281	520.25
337.51	497.25
337.738	496.25
337.966	506.25
338.194	492.25
338.422	516.25
338.65	515.25
338.878	494.25
339.106	518.25
339.334	482.25
339.562	488.25
339.79	494.25
340.018	515.25
340.246	493.25
340.474	504.25
340.702	501.25
340.93	491.25
341.158	481.25
341.386	484.25
341.614	497.25
341.842	502.25
342.07	487.25
342.298	493.25
342.526	482.25
342.754	487.25
342.981	495.25
343.209	494.25
343.437	471.25
343.665	502.25
343.893	478.25
344.12	505.25
344.348	517.25
344.576	491.25
344.804	520.25
345.031	511.25
345.259	525.25
345.487	512.25
345.714	504.25
345.942	508.25
346.17	483.25
346.397	476.25
346.625	483.25
346.853	464.25
347.08	485.25
347.308	493.25
347.535	487.25
347.763	516.25
347.99	479.25
348.218	499.25
348.445	495.25
348.673	483.25
348.9	503.25
349.128	499.25
349.355	476.25
349.583	472.25
349.81	470.25
350.037	458.25
350.265	453.25
350.492	487.25
350.72	462.25
350.947	479.25
351.174	500.25
351.402	493.25
351.629	495.25
351.856	470.25
352.083	488.25
352.311	498.25
352.538	502.25
352.765	495.25
352.992	472.25
353.22	487.25
353.447	486.25
353.674	472.25
353.901	441.25
354.128	446.25
354.355	434.25
354.583	445.25
354.81	461.25
355.037	464.25
355.264	455.25
355.491	453.25
355.718	468.25
355.945	447.25
356.172	457.25
356.399	446.25
356.626	439.25
356.853	449.25
357.08	467.25
357.307	452.25
357.534	460.25
357.761	457.25
357.988	464.25
358.215	447.25
358.441	454.25
358.668	454.25
358.895	455.25
359.122	457.25
359.349	485.25
359.576	496.25
359.802	504.25
360.029	538.25
360.256	552.25
360.483	529.25
360.709	493.25
360.936	502.25
361.163	489.25
361.39	485.25
361.616	500.25
361.843	468.25
362.07	492.25
362.296	488.25
362.523	499.25
362.749	474.25
362.976	474.25
363.203	474.25
363.429	445.25
363.656	479.25
363.882	471.25
364.109	457.25
364.335	477.25
364.562	483.25
364.788	462.25
365.015	460.25
365.241	480.25
365.468	484.25
365.694	486.25
365.92	491.25
366.147	457.25
366.373	472.25
366.599	454.25
366.826	468.25
367.052	464.25
367.278	464.25
367.505	460.25
367.731	467.25
367.957	473.25
368.184	460.25
368.41	475.25
368.636	474.25
368.862	507.25
369.089	462.25
369.315	467.25
369.541	463.25
369.767	469.25
369.993	476.25
370.219	482.25
370.445	487.25
370.672	453.25
370.898	455.25
371.124	461.25
371.35	487.25
371.576	475.25
371.802	472.25
372.028	457.25
372.254	459.25
372.48	485.25
372.706	451.25
372.932	460.25
373.158	459.25
373.384	484.25
373.61	463.25
373.835	485.25
374.061	465.25
374.287	486.25
374.513	479.25
374.739	484.25
374.965	490.25
375.191	470.25
375.416	477.25
375.642	476.25
375.868	453.25
376.094	476.25
376.319	456.25
376.545	476.25
376.771	486.25
376.997	494.25
377.222	456.25
377.448	468.25
377.674	479.25
377.899	476.25
378.125	461.25
378.35	452.25
378.576	453.25
378.802	467.25
379.027	480.25
379.253	459.25
379.478	475.25
379.704	451.25
379.929	470.25
380.155	478.25
380.38	437.25
380.606	454.25
380.831	473.25
381.057	490.25
381.282	472.25
381.507	474.25
381.733	479.25
381.958	478.25
382.184	480.25
382.409	473.25
382.634	466.25
382.86	483.25
383.085	494.25
383.31	473.25
383.535	489.25
383.761	482.25
383.986	491.25
384.211	487.25
384.436	486.25
384.662	502.25
384.887	508.25
385.112	491.25
385.337	506.25
385.562	506.25
385.787	518.25
386.013	524.25
386.238	548.25
386.463	534.25
386.688	529.25
386.913	492.25
387.138	515.25
387.363	515.25
387.588	494.25
387.813	512.25
388.038	506.25
388.263	500.25
388.488	507.25
388.713	537.25
388.938	521.25
389.163	527.25
389.387	537.25
389.612	525.25
389.837	522.25
390.062	513.25
390.287	530.25
390.512	522.25
390.736	490.25
390.961	526.25
391.186	523.25
391.411	532.25
391.636	546.25
391.86	540.25
392.085	544.25
392.31	528.25
392.534	524.25
392.759	506.25
392.984	518.25
393.208	540.25
393.433	528.25
393.658	534.25
393.882	519.25
394.107	501.25
394.331	515.25
394.556	511.25
394.78	512.25
395.005	540.25
395.229	550.25
395.454	527.25
395.678	556.25
395.903	550.25
396.127	589.25
396.352	589.25
396.576	556.25
396.801	577.25
397.025	542.25
397.249	552.25
397.474	574.25
397.698	544.25
397.922	570.25
398.147	599.25
398.371	613.25
398.595	595.25
398.82	598.25
399.044	606.25
399.268	614.25
399.492	650.25
399.717	683.25
399.941	721.25
400.165	728.25
400.389	774.25
400.613	685.25
400.837	658.25
401.062	613.25
401.286	602.25
401.51	594.25
401.734	630.25
401.958	604.25
402.182	601.25
402.406	627.25
402.63	620.25
402.854	635.25
403.078	621.25
403.302	606.25
403.526	635.25
403.75	628.25
403.974	613.25
404.198	622.25
404.422	606.25
404.645	640.25
404.869	661.25
405.093	675.25
405.317	699.25
405.541	744.25
405.765	699.25
405.988	653.25
406.212	675.25
406.436	706.25
406.66	698.25
406.883	696.25
407.107	707.25
407.331	743.25
407.555	867.25
407.778	837.25
408.002	765.25
408.226	694.25
408.449	707.25
408.673	708.25
408.896	749.25
409.12	782.25
409.344	719.25
409.567	648.25
409.791	630.25
410.014	646.25
410.238	640.25
410.461	636.25
410.685	662.25
410.908	646.25
411.132	696.25
411.355	754.25
411.578	723.25
411.802	637.25
412.025	637.25
412.249	638.25
412.472	668.25
412.695	684.25
412.919	671.25
413.142	636.25
413.365	608.25
413.589	590.25
413.812	591.25
414.035	612.25
414.258	567.25
414.482	586.25
414.705	591.25
414.928	596.25
415.151	591.25
415.374	590.25
415.597	602.25
415.821	582.25
416.044	580.25
416.267	605.25
416.49	584.25
416.713	562.25
416.936	589.25
417.159	578.25
417.382	610.25
417.605	605.25
417.828	610.25
418.051	623.25
418.274	623.25
418.497	586.25
418.72	618.25
418.943	608.25
419.166	615.25
419.389	644.25
419.611	626.25
419.834	643.25
420.057	652.25
420.28	616.25
420.503	612.25
420.726	639.25
420.948	623.25
421.171	666.25
421.394	730.25
421.617	638.25
421.839	638.25
422.062	633.25
422.285	675.25
422.507	690.25
422.73	803.25
422.953	770.25
423.175	674.25
423.398	664.25
423.621	640.25
423.843	681.25
424.066	690.25
424.288	666.25
424.511	698.25
424.733	765.25
424.956	870.25
425.178	837.25
425.401	830.25
425.623	845.25
425.846	727.25
426.068	686.25
426.291	672.25
426.513	651.25
426.735	679.25
426.958	715.25
427.18	796.25
427.402	996.25
427.625	1090.25
427.847	966.25
428.069	823.25
428.292	741.25
428.514	662.25
428.736	654.25
428.958	650.25
429.181	621.25
429.403	632.25
429.625	639.25
429.847	685.25
430.069	758.25
430.292	744.25
430.514	657.25
430.736	637.25
430.958	602.25
431.18	580.25
431.402	595.25
431.624	582.25
431.846	569.25
432.068	580.25
432.29	583.25
432.512	590.25
432.734	613.25
432.956	588.25
433.178	603.25
433.4	632.25
433.622	602.25
433.844	593.25
434.066	566.25
434.287	596.25
434.509	594.25
434.731	597.25
434.953	621.25
435.175	639.25
435.397	680.25
435.618	654.25
435.84	720.25
436.062	856.25
436.284	935.25
436.505	759.25
436.727	716.25
436.949	652.25
437.17	635.25
437.392	607.25
437.614	647.25
437.835	661.25
438.057	805.25
438.278	920.25
438.5	932.25
438.721	1016.25
438.943	978.25
439.165	771.25
439.386	722.25
439.608	674.25
439.829	671.25
440.05	704.25
440.272	778.25
440.493	717.25
440.715	675.25
440.936	667.25
441.158	641.25
441.379	620.25
441.6	660.25
441.822	676.25
442.043	752.25
442.264	822.25
442.486	870.25
442.707	761.25
442.928	706.25
443.149	711.25
443.371	725.25
443.592	785.25
443.813	873.25
444.034	957.25
444.255	806.25
444.476	712.25
444.698	675.25
444.919	695.25
445.14	777.25
445.361	730.25
445.582	720.25
445.803	821.25
446.024	922.25
446.245	967.25
446.466	887.25
446.687	739.25
446.908	670.25
447.129	623.25
447.35	602.25
447.571	604.25
447.792	610.25
448.013	618.25
448.234	664.25
448.455	725.25
448.675	854.25
448.896	999.25
449.117	850.25
449.338	790.25
449.559	934.25
449.779	1056.25
450	824.25
450.221	698.25
450.442	644.25
450.662	611.25
450.883	608.25
451.104	638.25
451.324	600.25
451.545	607.25
451.766	598.25
451.986	563.25
452.207	546.25
452.428	541.25
452.648	549.25
452.869	559.25
453.089	585.25
453.31	601.25
453.53	587.25
453.751	538.25
453.971	553.25
454.192	597.25
454.412	575.25
454.633	565.25
454.853	550.25
455.073	552.25
455.294	583.25
455.514	690.25
455.734	669.25
455.955	578.25
456.175	523.25
456.395	520.25
456.616	521.25
456.836	522.25
457.056	515.25
457.276	513.25
457.497	534.25
457.717	531.25
457.937	522.25
458.157	546.25
458.377	555.25
458.598	576.25
458.818	638.25
459.038	723.25
459.258	758.25
459.478	648.25
459.698	618.25
459.918	579.25
460.138	597.25
460.358	597.25
460.578	592.25
460.798	621.25
461.018	607.25
461.238	582.25
461.458	605.25
461.678	606.25
461.898	605.25
462.118	599.25
462.338	632.25
462.558	636.25
462.777	638.25
462.997	636.25
463.217	659.25
463.437	669.25
463.657	660.25
463.876	651.25
464.096	640.25
464.316	629.25
464.536	646.25
464.755	632.25
464.975	636.25
465.195	718.25
465.414	774.25
465.634	690.25
465.854	659.25
466.073	628.25
466.293	607.25
466.512	560.25
466.732	587.25
466.951	546.25
467.171	579.25
467.391	562.25
467.61	615.25
467.829	591.25
468.049	564.25
468.268	551.25
468.488	560.25
468.707	562.25
468.927	564.25
469.146	576.25
469.365	557.25
469.585	540.25
469.804	551.25
470.023	584.25
470.243	579.25
470.462	598.25
470.681	605.25
470.901	600.25
471.12	595.25
471.339	590.25
471.558	587.25
471.777	574.25
471.997	564.25
472.216	571.25
472.435	589.25
472.654	566.25
472.873	585.25
473.092	578.25
473.311	574.25
473.53	580.25
473.749	564.25
473.968	620.25
474.187	749.25
474.406	793.25
474.625	636.25
474.844	601.25
475.063	580.25
475.282	604.25
475.501	596.25
475.72	590.25
475.939	589.25
476.158	598.25
476.377	609.25
476.596	585.25
476.814	598.25
477.033	617.25
477.252	604.25
477.471	613.25
477.69	621.25
477.908	639.25
478.127	640.25
478.346	625.25
478.564	635.25
478.783	638.25
479.002	651.25
479.22	654.25
479.439	678.25
479.658	710.25
479.876	713.25
480.095	688.25
480.313	731.25
480.532	747.25
480.751	715.25
480.969	712.25
481.188	739.25
481.406	770.25
481.624	704.25
481.843	720.25
482.061	710.25
482.28	692.25
482.498	668.25
482.717	670.25
482.935	680.25
483.153	673.25
483.372	676.25
483.59	707.25
483.808	677.25
484.027	694.25
484.245	682.25
484.463	679.25
484.681	716.25
484.9	692.25
485.118	708.25
485.336	687.25
485.554	687.25
485.772	712.25
485.99	711.25
486.209	706.25
486.427	717.25
486.645	721.25
486.863	744.25
487.081	727.25
487.299	746.25
487.517	758.25
487.735	742.25
487.953	739.25
488.171	734.25
488.389	750.25
488.607	755.25
488.825	738.25
489.043	756.25
489.261	750.25
489.479	739.25
489.696	730.25
489.914	748.25
490.132	760.25
490.35	750.25
490.568	755.25
490.786	756.25
491.003	784.25
491.221	818.25
491.439	802.25
491.657	832.25
491.874	828.25
492.092	819.25
492.31	845.25
492.527	837.25
492.745	842.25
492.963	852.25
493.18	874.25
493.398	871.25
493.615	874.25
493.833	863.25
494.05	857.25
494.268	862.25
494.485	877.25
494.703	861.25
494.92	853.25
495.138	855.25
495.355	866.25
495.573	894.25
495.79	854.25
496.008	867.25
496.225	870.25
496.442	890.25
496.66	896.25
496.877	873.25
497.094	897.25
497.312	914.25
497.529	911.25
497.746	941.25
497.963	943.25
498.181	987.25
498.398	960.25
498.615	986.25
498.832	1021.25
499.049	1001.25
499.267	1037.25
499.484	1065.25
499.701	1109.25
499.918	1143.25
500.135	1181.25
500.352	1260.25
500.569	1238.25
500.786	1278.25
501.003	1226.25
501.22	1215.25
501.437	1195.25
501.654	1110.25
