Data from 1988.PennyLincolnUp.Lamp.En5.5.200Scan.071819.P2_HRD10591_17-19-45-972.txt Node
Date: Thu Jul 18 17:19:45 EDT 2019
User: cochatt
Spectrometer: HR+D1059
Trigger mode: 1
Integration Time (sec): 1.000000E-1
Scans to average: 1
Electric dark correction enabled: true
Nonlinearity correction enabled: false
Boxcar width: 0
XAxis mode: Wavelengths
Number of Pixels in Spectrum: 2048
>>>>>Begin Spectral Data<<<<<
223.165	-4.19
223.4	-4.19
223.635	-4.19
223.869	-34.19
224.104	-7.19
224.338	-23.19
224.573	-10.19
224.808	-10.19
225.042	-4.19
225.277	-16.19
225.511	2.81
225.746	3.81
225.98	10.81
226.215	5.81
226.449	23.81
226.683	22.81
226.918	16.81
227.152	22.81
227.387	11.81
227.621	28.81
227.856	31.81
228.09	51.81
228.324	51.81
228.559	50.81
228.793	64.81
229.027	107.81
229.262	100.81
229.496	104.81
229.73	137.81
229.964	151.81
230.199	128.81
230.433	119.81
230.667	117.81
230.901	113.81
231.136	121.81
231.37	117.81
231.604	111.81
231.838	120.81
232.072	115.81
232.306	120.81
232.541	119.81
232.775	122.81
233.009	109.81
233.243	104.81
233.477	104.81
233.711	101.81
233.945	116.81
234.179	108.81
234.413	119.81
234.647	111.81
234.881	92.81
235.115	115.81
235.349	116.81
235.583	125.81
235.817	133.81
236.051	135.81
236.285	121.81
236.519	120.81
236.753	121.81
236.987	157.81
237.221	183.81
237.455	259.81
237.689	190.81
237.922	137.81
238.156	128.81
238.39	132.81
238.624	131.81
238.858	134.81
239.091	135.81
239.325	117.81
239.559	143.81
239.793	140.81
240.027	143.81
240.26	154.81
240.494	161.81
240.728	147.81
240.961	148.81
241.195	160.81
241.429	144.81
241.662	135.81
241.896	141.81
242.13	133.81
242.363	153.81
242.597	132.81
242.83	141.81
243.064	143.81
243.298	153.81
243.531	148.81
243.765	145.81
243.998	143.81
244.232	137.81
244.465	150.81
244.699	144.81
244.932	156.81
245.166	133.81
245.399	148.81
245.633	152.81
245.866	135.81
246.099	171.81
246.333	139.81
246.566	150.81
246.8	155.81
247.033	143.81
247.266	164.81
247.5	173.81
247.733	172.81
247.966	163.81
248.2	175.81
248.433	179.81
248.666	191.81
248.899	193.81
249.133	200.81
249.366	208.81
249.599	197.81
249.832	185.81
250.066	202.81
250.299	183.81
250.532	180.81
250.765	192.81
250.998	215.81
251.231	241.81
251.465	247.81
251.698	230.81
251.931	211.81
252.164	187.81
252.397	213.81
252.63	217.81
252.863	218.81
253.096	223.81
253.329	236.81
253.562	255.81
253.795	215.81
254.028	202.81
254.261	230.81
254.494	235.81
254.727	257.81
254.96	287.81
255.193	295.81
255.426	274.81
255.659	242.81
255.892	212.81
256.124	197.81
256.357	220.81
256.59	221.81
256.823	229.81
257.056	220.81
257.289	204.81
257.521	218.81
257.754	213.81
257.987	210.81
258.22	221.81
258.452	209.81
258.685	211.81
258.918	201.81
259.151	229.81
259.383	222.81
259.616	219.81
259.849	213.81
260.081	222.81
260.314	270.81
260.547	283.81
260.779	263.81
261.012	246.81
261.244	224.81
261.477	226.81
261.71	214.81
261.942	251.81
262.175	252.81
262.407	239.81
262.64	229.81
262.872	213.81
263.105	225.81
263.337	219.81
263.57	224.81
263.802	228.81
264.035	220.81
264.267	230.81
264.499	214.81
264.732	236.81
264.964	228.81
265.197	216.81
265.429	214.81
265.661	216.81
265.894	217.81
266.126	214.81
266.358	221.81
266.591	215.81
266.823	237.81
267.055	242.81
267.287	230.81
267.52	223.81
267.752	240.81
267.984	219.81
268.216	241.81
268.448	231.81
268.681	240.81
268.913	251.81
269.145	261.81
269.377	300.81
269.609	289.81
269.841	284.81
270.073	270.81
270.306	307.81
270.538	315.81
270.77	324.81
271.002	288.81
271.234	295.81
271.466	326.81
271.698	325.81
271.93	344.81
272.162	319.81
272.394	329.81
272.626	305.81
272.858	315.81
273.09	287.81
273.322	288.81
273.553	273.81
273.785	268.81
274.017	268.81
274.249	270.81
274.481	284.81
274.713	252.81
274.945	273.81
275.176	288.81
275.408	285.81
275.64	286.81
275.872	276.81
276.104	277.81
276.335	284.81
276.567	302.81
276.799	297.81
277.031	316.81
277.262	337.81
277.494	340.81
277.726	335.81
277.957	308.81
278.189	303.81
278.421	309.81
278.652	291.81
278.884	273.81
279.115	293.81
279.347	286.81
279.579	276.81
279.81	272.81
280.042	275.81
280.273	269.81
280.505	288.81
280.736	288.81
280.968	269.81
281.199	262.81
281.431	262.81
281.662	279.81
281.894	272.81
282.125	269.81
282.356	300.81
282.588	333.81
282.819	324.81
283.051	317.81
283.282	289.81
283.513	283.81
283.745	300.81
283.976	296.81
284.207	301.81
284.439	277.81
284.67	281.81
284.901	294.81
285.132	291.81
285.364	294.81
285.595	295.81
285.826	291.81
286.057	288.81
286.288	295.81
286.52	295.81
286.751	270.81
286.982	304.81
287.213	307.81
287.444	311.81
287.675	283.81
287.906	301.81
288.138	328.81
288.369	324.81
288.6	315.81
288.831	299.81
289.062	321.81
289.293	303.81
289.524	296.81
289.755	318.81
289.986	319.81
290.217	304.81
290.448	309.81
290.679	301.81
290.91	312.81
291.141	301.81
291.371	288.81
291.602	300.81
291.833	303.81
292.064	299.81
292.295	311.81
292.526	309.81
292.757	304.81
292.987	304.81
293.218	315.81
293.449	313.81
293.68	301.81
293.91	313.81
294.141	299.81
294.372	316.81
294.603	301.81
294.833	292.81
295.064	321.81
295.295	313.81
295.525	316.81
295.756	327.81
295.987	324.81
296.217	357.81
296.448	352.81
296.679	334.81
296.909	310.81
297.14	313.81
297.37	333.81
297.601	311.81
297.831	316.81
298.062	328.81
298.292	328.81
298.523	322.81
298.753	339.81
298.984	343.81
299.214	318.81
299.445	341.81
299.675	313.81
299.905	324.81
300.136	337.81
300.366	332.81
300.597	342.81
300.827	332.81
301.057	357.81
301.288	342.81
301.518	344.81
301.748	339.81
301.979	355.81
302.209	337.81
302.439	352.81
302.669	356.81
302.9	348.81
303.13	349.81
303.36	351.81
303.59	371.81
303.82	366.81
304.051	365.81
304.281	369.81
304.511	355.81
304.741	360.81
304.971	349.81
305.201	335.81
305.431	358.81
305.661	358.81
305.891	366.81
306.121	357.81
306.352	347.81
306.582	345.81
306.812	363.81
307.042	365.81
307.272	372.81
307.502	346.81
307.731	353.81
307.961	348.81
308.191	364.81
308.421	356.81
308.651	352.81
308.881	347.81
309.111	382.81
309.341	357.81
309.571	394.81
309.8	383.81
310.03	381.81
310.26	401.81
310.49	409.81
310.72	389.81
310.949	449.81
311.179	449.81
311.409	399.81
311.639	418.81
311.868	428.81
312.098	413.81
312.328	439.81
312.557	434.81
312.787	426.81
313.017	430.81
313.246	427.81
313.476	412.81
313.706	410.81
313.935	414.81
314.165	419.81
314.394	448.81
314.624	433.81
314.853	421.81
315.083	411.81
315.312	387.81
315.542	396.81
315.771	383.81
316.001	397.81
316.23	414.81
316.46	414.81
316.689	412.81
316.919	429.81
317.148	418.81
317.377	391.81
317.607	409.81
317.836	407.81
318.065	412.81
318.295	435.81
318.524	401.81
318.753	407.81
318.983	400.81
319.212	420.81
319.441	406.81
319.67	422.81
319.9	413.81
320.129	415.81
320.358	417.81
320.587	425.81
320.816	429.81
321.046	427.81
321.275	428.81
321.504	438.81
321.733	457.81
321.962	435.81
322.191	433.81
322.42	467.81
322.649	482.81
322.878	493.81
323.108	509.81
323.337	527.81
323.566	566.81
323.795	567.81
324.024	622.81
324.253	763.81
324.482	1053.81
324.71	1669.81
324.939	2519.81
325.168	2129.81
325.397	1075.81
325.626	737.81
325.855	619.81
326.084	593.81
326.313	556.81
326.542	548.81
326.77	616.81
326.999	707.81
327.228	945.81
327.457	1507.81
327.686	1854.81
327.914	1203.81
328.143	792.81
328.372	645.81
328.6	632.81
328.829	612.81
329.058	616.81
329.287	631.81
329.515	595.81
329.744	557.81
329.972	514.81
330.201	523.81
330.43	557.81
330.658	613.81
330.887	640.81
331.115	644.81
331.344	561.81
331.572	529.81
331.801	550.81
332.03	519.81
332.258	512.81
332.486	495.81
332.715	485.81
332.943	492.81
333.172	505.81
333.4	504.81
333.629	498.81
333.857	517.81
334.085	516.81
334.314	533.81
334.542	521.81
334.771	486.81
334.999	515.81
335.227	515.81
335.455	496.81
335.684	507.81
335.912	469.81
336.14	499.81
336.369	473.81
336.597	501.81
336.825	488.81
337.053	491.81
337.281	495.81
337.51	483.81
337.738	488.81
337.966	495.81
338.194	500.81
338.422	463.81
338.65	497.81
338.878	468.81
339.106	459.81
339.334	492.81
339.562	466.81
339.79	486.81
340.018	484.81
340.246	458.81
340.474	485.81
340.702	488.81
340.93	469.81
341.158	472.81
341.386	475.81
341.614	481.81
341.842	476.81
342.07	459.81
342.298	455.81
342.526	484.81
342.754	443.81
342.981	452.81
343.209	471.81
343.437	454.81
343.665	468.81
343.893	475.81
344.12	488.81
344.348	496.81
344.576	480.81
344.804	491.81
345.031	508.81
345.259	507.81
345.487	499.81
345.714	485.81
345.942	442.81
346.17	460.81
346.397	463.81
346.625	447.81
346.853	453.81
347.08	457.81
347.308	463.81
347.535	489.81
347.763	480.81
347.99	471.81
348.218	476.81
348.445	488.81
348.673	467.81
348.9	459.81
349.128	461.81
349.355	440.81
349.583	439.81
349.81	444.81
350.037	442.81
350.265	452.81
350.492	425.81
350.72	441.81
350.947	470.81
351.174	459.81
351.402	479.81
351.629	484.81
351.856	467.81
352.083	493.81
352.311	497.81
352.538	502.81
352.765	499.81
352.992	469.81
353.22	468.81
353.447	460.81
353.674	454.81
353.901	437.81
354.128	443.81
354.355	461.81
354.583	445.81
354.81	446.81
355.037	446.81
355.264	420.81
355.491	451.81
355.718	427.81
355.945	446.81
356.172	451.81
356.399	435.81
356.626	424.81
356.853	420.81
357.08	420.81
357.307	428.81
357.534	438.81
357.761	420.81
357.988	438.81
358.215	423.81
358.441	424.81
358.668	426.81
358.895	444.81
359.122	440.81
359.349	424.81
359.576	450.81
359.802	509.81
360.029	520.81
360.256	529.81
360.483	517.81
360.709	474.81
360.936	467.81
361.163	455.81
361.39	453.81
361.616	468.81
361.843	470.81
362.07	458.81
362.296	468.81
362.523	471.81
362.749	480.81
362.976	441.81
363.203	448.81
363.429	448.81
363.656	439.81
363.882	461.81
364.109	445.81
364.335	441.81
364.562	427.81
364.788	460.81
365.015	434.81
365.241	458.81
365.468	461.81
365.694	456.81
365.92	469.81
366.147	461.81
366.373	461.81
366.599	455.81
366.826	435.81
367.052	441.81
367.278	453.81
367.505	463.81
367.731	463.81
367.957	451.81
368.184	440.81
368.41	452.81
368.636	461.81
368.862	465.81
369.089	478.81
369.315	443.81
369.541	464.81
369.767	450.81
369.993	450.81
370.219	450.81
370.445	458.81
370.672	439.81
370.898	448.81
371.124	450.81
371.35	445.81
371.576	432.81
371.802	435.81
372.028	424.81
372.254	463.81
372.48	469.81
372.706	434.81
372.932	448.81
373.158	450.81
373.384	457.81
373.61	452.81
373.835	457.81
374.061	445.81
374.287	460.81
374.513	464.81
374.739	461.81
374.965	468.81
375.191	468.81
375.416	469.81
375.642	452.81
375.868	451.81
376.094	454.81
376.319	433.81
376.545	427.81
376.771	444.81
376.997	450.81
377.222	443.81
377.448	467.81
377.674	466.81
377.899	429.81
378.125	430.81
378.35	433.81
378.576	439.81
378.802	432.81
379.027	452.81
379.253	433.81
379.478	440.81
379.704	428.81
379.929	452.81
380.155	451.81
380.38	440.81
380.606	445.81
380.831	451.81
381.057	472.81
381.282	466.81
381.507	432.81
381.733	466.81
381.958	461.81
382.184	475.81
382.409	451.81
382.634	470.81
382.86	469.81
383.085	450.81
383.31	470.81
383.535	449.81
383.761	470.81
383.986	475.81
384.211	475.81
384.436	485.81
384.662	484.81
384.887	500.81
385.112	480.81
385.337	474.81
385.562	487.81
385.787	483.81
386.013	495.81
386.238	487.81
386.463	515.81
386.688	509.81
386.913	500.81
387.138	517.81
387.363	501.81
387.588	478.81
387.813	511.81
388.038	495.81
388.263	513.81
388.488	492.81
388.713	493.81
388.938	502.81
389.163	520.81
389.387	508.81
389.612	492.81
389.837	506.81
390.062	500.81
390.287	485.81
390.512	511.81
390.736	499.81
390.961	505.81
391.186	493.81
391.411	492.81
391.636	488.81
391.86	505.81
392.085	532.81
392.31	498.81
392.534	524.81
392.759	534.81
392.984	511.81
393.208	499.81
393.433	501.81
393.658	526.81
393.882	515.81
394.107	536.81
394.331	508.81
394.556	493.81
394.78	499.81
395.005	521.81
395.229	523.81
395.454	519.81
395.678	521.81
395.903	521.81
396.127	560.81
396.352	542.81
396.576	541.81
396.801	537.81
397.025	531.81
397.249	545.81
397.474	547.81
397.698	544.81
397.922	567.81
398.147	565.81
398.371	556.81
398.595	572.81
398.82	573.81
399.044	605.81
399.268	605.81
399.492	642.81
399.717	659.81
399.941	699.81
400.165	740.81
400.389	734.81
400.613	701.81
400.837	628.81
401.062	599.81
401.286	584.81
401.51	611.81
401.734	567.81
401.958	598.81
402.182	607.81
402.406	604.81
402.63	587.81
402.854	605.81
403.078	595.81
403.302	616.81
403.526	617.81
403.75	609.81
403.974	614.81
404.198	591.81
404.422	592.81
404.645	587.81
404.869	591.81
405.093	609.81
405.317	667.81
405.541	701.81
405.765	625.81
405.988	634.81
406.212	656.81
406.436	683.81
406.66	695.81
406.883	659.81
407.107	680.81
407.331	719.81
407.555	820.81
407.778	837.81
408.002	742.81
408.226	670.81
408.449	673.81
408.673	663.81
408.896	689.81
409.12	782.81
409.344	698.81
409.567	647.81
409.791	630.81
410.014	604.81
410.238	611.81
410.461	621.81
410.685	631.81
410.908	660.81
411.132	671.81
411.355	702.81
411.578	689.81
411.802	604.81
412.025	610.81
412.249	606.81
412.472	583.81
412.695	620.81
412.919	608.81
413.142	613.81
413.365	581.81
413.589	600.81
413.812	596.81
414.035	594.81
414.258	573.81
414.482	584.81
414.705	575.81
414.928	566.81
415.151	577.81
415.374	593.81
415.597	582.81
415.821	549.81
416.044	576.81
416.267	557.81
416.49	574.81
416.713	569.81
416.936	578.81
417.159	565.81
417.382	556.81
417.605	580.81
417.828	588.81
418.051	583.81
418.274	577.81
418.497	554.81
418.72	567.81
418.943	572.81
419.166	619.81
419.389	625.81
419.611	604.81
419.834	601.81
420.057	601.81
420.28	574.81
420.503	588.81
420.726	577.81
420.948	605.81
421.171	670.81
421.394	694.81
421.617	637.81
421.839	595.81
422.062	600.81
422.285	599.81
422.507	717.81
422.73	777.81
422.953	761.81
423.175	652.81
423.398	620.81
423.621	646.81
423.843	659.81
424.066	641.81
424.288	649.81
424.511	686.81
424.733	728.81
424.956	805.81
425.178	808.81
425.401	822.81
425.623	843.81
425.846	703.81
426.068	653.81
426.291	628.81
426.513	636.81
426.735	631.81
426.958	707.81
427.18	782.81
427.402	959.81
427.625	1053.81
427.847	897.81
428.069	787.81
428.292	683.81
428.514	645.81
428.736	631.81
428.958	623.81
429.181	593.81
429.403	601.81
429.625	607.81
429.847	646.81
430.069	724.81
430.292	724.81
430.514	630.81
430.736	619.81
430.958	589.81
431.18	596.81
431.402	584.81
431.624	569.81
431.846	545.81
432.068	583.81
432.29	563.81
432.512	582.81
432.734	571.81
432.956	588.81
433.178	585.81
433.4	563.81
433.622	567.81
433.844	578.81
434.066	581.81
434.287	568.81
434.509	573.81
434.731	584.81
434.953	588.81
435.175	595.81
435.397	646.81
435.618	634.81
435.84	715.81
436.062	835.81
436.284	888.81
436.505	715.81
436.727	689.81
436.949	605.81
437.17	592.81
437.392	600.81
437.614	625.81
437.835	639.81
438.057	747.81
438.278	906.81
438.5	889.81
438.721	993.81
438.943	923.81
439.165	735.81
439.386	657.81
439.608	673.81
439.829	638.81
440.05	694.81
440.272	730.81
440.493	692.81
440.715	623.81
440.936	626.81
441.158	605.81
441.379	606.81
441.6	636.81
441.822	641.81
442.043	680.81
442.264	775.81
442.486	857.81
442.707	691.81
442.928	656.81
443.149	686.81
443.371	716.81
443.592	730.81
443.813	851.81
444.034	934.81
444.255	772.81
444.476	686.81
444.698	679.81
444.919	660.81
445.14	731.81
445.361	728.81
445.582	695.81
445.803	771.81
446.024	888.81
446.245	891.81
446.466	818.81
446.687	699.81
446.908	674.81
447.129	629.81
447.35	623.81
447.571	609.81
447.792	593.81
448.013	578.81
448.234	613.81
448.455	686.81
448.675	829.81
448.896	945.81
449.117	829.81
449.338	757.81
449.559	884.81
449.779	1001.81
450	814.81
450.221	661.81
450.442	634.81
450.662	607.81
450.883	612.81
451.104	598.81
451.324	613.81
451.545	573.81
451.766	552.81
451.986	549.81
452.207	534.81
452.428	514.81
452.648	519.81
452.869	537.81
453.089	552.81
453.31	555.81
453.53	545.81
453.751	545.81
453.971	541.81
454.192	571.81
454.412	557.81
454.633	559.81
454.853	529.81
455.073	524.81
455.294	563.81
455.514	635.81
455.734	631.81
455.955	533.81
456.175	517.81
456.395	522.81
456.616	524.81
456.836	520.81
457.056	515.81
457.276	504.81
457.497	507.81
457.717	517.81
457.937	519.81
458.157	519.81
458.377	521.81
458.598	565.81
458.818	599.81
459.038	726.81
459.258	726.81
459.478	630.81
459.698	580.81
459.918	563.81
460.138	580.81
460.358	581.81
460.578	583.81
460.798	578.81
461.018	594.81
461.238	576.81
461.458	588.81
461.678	572.81
461.898	596.81
462.118	573.81
462.338	606.81
462.558	614.81
462.777	601.81
462.997	634.81
463.217	644.81
463.437	647.81
463.657	631.81
463.876	628.81
464.096	636.81
464.316	611.81
464.536	612.81
464.755	658.81
464.975	641.81
465.195	671.81
465.414	755.81
465.634	673.81
465.854	630.81
466.073	591.81
466.293	582.81
466.512	571.81
466.732	539.81
466.951	567.81
467.171	559.81
467.391	568.81
467.61	558.81
467.829	590.81
468.049	561.81
468.268	552.81
468.488	557.81
468.707	559.81
468.927	543.81
469.146	528.81
469.365	526.81
469.585	549.81
469.804	552.81
470.023	579.81
470.243	551.81
470.462	549.81
470.681	593.81
470.901	599.81
471.12	576.81
471.339	559.81
471.558	551.81
471.777	554.81
471.997	539.81
472.216	553.81
472.435	542.81
472.654	538.81
472.873	550.81
473.092	542.81
473.311	551.81
473.53	549.81
473.749	563.81
473.968	592.81
474.187	712.81
474.406	731.81
474.625	622.81
474.844	583.81
475.063	577.81
475.282	564.81
475.501	587.81
475.72	569.81
475.939	576.81
476.158	567.81
476.377	579.81
476.596	560.81
476.814	603.81
477.033	595.81
477.252	610.81
477.471	596.81
477.69	604.81
477.908	605.81
478.127	613.81
478.346	641.81
478.564	629.81
478.783	662.81
479.002	666.81
479.22	660.81
479.439	641.81
479.658	678.81
479.876	658.81
480.095	691.81
480.313	742.81
480.532	710.81
480.751	680.81
480.969	693.81
481.188	685.81
481.406	696.81
481.624	685.81
481.843	672.81
482.061	661.81
482.28	669.81
482.498	655.81
482.717	646.81
482.935	676.81
483.153	668.81
483.372	624.81
483.59	640.81
483.808	651.81
484.027	649.81
484.245	684.81
484.463	672.81
484.681	662.81
484.9	676.81
485.118	704.81
485.336	673.81
485.554	677.81
485.772	676.81
485.99	684.81
486.209	683.81
486.427	689.81
486.645	679.81
486.863	701.81
487.081	722.81
487.299	719.81
487.517	734.81
487.735	711.81
487.953	701.81
488.171	677.81
488.389	709.81
488.607	699.81
488.825	700.81
489.043	703.81
489.261	723.81
489.479	727.81
489.696	729.81
489.914	718.81
490.132	737.81
490.35	709.81
490.568	732.81
490.786	764.81
491.003	763.81
491.221	784.81
491.439	768.81
491.657	794.81
491.874	793.81
492.092	800.81
492.31	819.81
492.527	806.81
492.745	829.81
492.963	787.81
493.18	839.81
493.398	825.81
493.615	813.81
493.833	815.81
494.05	838.81
494.268	862.81
494.485	820.81
494.703	853.81
494.92	849.81
495.138	832.81
495.355	841.81
495.573	855.81
495.79	849.81
496.008	879.81
496.225	849.81
496.442	863.81
496.66	833.81
496.877	838.81
497.094	846.81
497.312	862.81
497.529	878.81
497.746	895.81
497.963	918.81
498.181	940.81
498.398	949.81
498.615	962.81
498.832	994.81
499.049	978.81
499.267	1022.81
499.484	1028.81
499.701	1084.81
499.918	1113.81
500.135	1165.81
500.352	1235.81
500.569	1226.81
500.786	1221.81
501.003	1199.81
501.22	1163.81
501.437	1133.81
501.654	1129.81
