Data from 1988.PennyLincolnUp.Lamp.En5.5.200Scan.071819.P2_HRD10591_17-20-38-972.txt Node
Date: Thu Jul 18 17:20:38 EDT 2019
User: cochatt
Spectrometer: HR+D1059
Trigger mode: 1
Integration Time (sec): 1.000000E-1
Scans to average: 1
Electric dark correction enabled: true
Nonlinearity correction enabled: false
Boxcar width: 0
XAxis mode: Wavelengths
Number of Pixels in Spectrum: 2048
>>>>>Begin Spectral Data<<<<<
223.165	-14.69
223.4	-14.69
223.635	-14.69
223.869	-15.69
224.104	-21.69
224.338	-6.69
224.573	-8.69
224.808	-16.69
225.042	-8.69
225.277	-5.69
225.511	-14.69
225.746	7.31
225.98	10.31
226.215	16.31
226.449	-0.69
226.683	19.31
226.918	22.31
227.152	38.31
227.387	31.31
227.621	46.31
227.856	49.31
228.09	45.31
228.324	50.31
228.559	57.31
228.793	73.31
229.027	110.31
229.262	98.31
229.496	117.31
229.73	150.31
229.964	181.31
230.199	139.31
230.433	126.31
230.667	121.31
230.901	123.31
231.136	121.31
231.37	118.31
231.604	121.31
231.838	125.31
232.072	125.31
232.306	130.31
232.541	113.31
232.775	112.31
233.009	104.31
233.243	119.31
233.477	121.31
233.711	121.31
233.945	118.31
234.179	121.31
234.413	123.31
234.647	118.31
234.881	120.31
235.115	116.31
235.349	108.31
235.583	117.31
235.817	116.31
236.051	130.31
236.285	126.31
236.519	127.31
236.753	133.31
236.987	147.31
237.221	191.31
237.455	245.31
237.689	191.31
237.922	163.31
238.156	145.31
238.39	139.31
238.624	124.31
238.858	131.31
239.091	133.31
239.325	138.31
239.559	140.31
239.793	135.31
240.027	143.31
240.26	154.31
240.494	162.31
240.728	163.31
240.961	159.31
241.195	151.31
241.429	139.31
241.662	160.31
241.896	131.31
242.13	136.31
242.363	156.31
242.597	138.31
242.83	134.31
243.064	140.31
243.298	135.31
243.531	143.31
243.765	149.31
243.998	147.31
244.232	156.31
244.465	151.31
244.699	152.31
244.932	151.31
245.166	162.31
245.399	171.31
245.633	143.31
245.866	162.31
246.099	145.31
246.333	159.31
246.566	166.31
246.8	155.31
247.033	167.31
247.266	166.31
247.5	167.31
247.733	169.31
247.966	182.31
248.2	177.31
248.433	191.31
248.666	194.31
248.899	187.31
249.133	202.31
249.366	247.31
249.599	217.31
249.832	195.31
250.066	193.31
250.299	193.31
250.532	191.31
250.765	204.31
250.998	227.31
251.231	245.31
251.465	233.31
251.698	216.31
251.931	215.31
252.164	213.31
252.397	215.31
252.63	200.31
252.863	225.31
253.096	225.31
253.329	237.31
253.562	241.31
253.795	222.31
254.028	235.31
254.261	232.31
254.494	230.31
254.727	275.31
254.96	294.31
255.193	271.31
255.426	253.31
255.659	269.31
255.892	242.31
256.124	229.31
256.357	235.31
256.59	215.31
256.823	216.31
257.056	237.31
257.289	232.31
257.521	216.31
257.754	216.31
257.987	222.31
258.22	213.31
258.452	215.31
258.685	206.31
258.918	226.31
259.151	216.31
259.383	231.31
259.616	250.31
259.849	253.31
260.081	271.31
260.314	270.31
260.547	285.31
260.779	274.31
261.012	238.31
261.244	227.31
261.477	249.31
261.71	231.31
261.942	228.31
262.175	243.31
262.407	240.31
262.64	233.31
262.872	247.31
263.105	238.31
263.337	230.31
263.57	238.31
263.802	228.31
264.035	226.31
264.267	230.31
264.499	234.31
264.732	225.31
264.964	242.31
265.197	239.31
265.429	229.31
265.661	238.31
265.894	233.31
266.126	236.31
266.358	219.31
266.591	207.31
266.823	224.31
267.055	222.31
267.287	250.31
267.52	238.31
267.752	252.31
267.984	234.31
268.216	231.31
268.448	250.31
268.681	259.31
268.913	253.31
269.145	285.31
269.377	283.31
269.609	292.31
269.841	291.31
270.073	292.31
270.306	299.31
270.538	341.31
270.77	340.31
271.002	333.31
271.234	309.31
271.466	321.31
271.698	332.31
271.93	338.31
272.162	310.31
272.394	336.31
272.626	319.31
272.858	312.31
273.09	294.31
273.322	304.31
273.553	276.31
273.785	300.31
274.017	277.31
274.249	281.31
274.481	285.31
274.713	283.31
274.945	274.31
275.176	279.31
275.408	279.31
275.64	272.31
275.872	294.31
276.104	281.31
276.335	297.31
276.567	305.31
276.799	312.31
277.031	347.31
277.262	339.31
277.494	346.31
277.726	317.31
277.957	320.31
278.189	320.31
278.421	306.31
278.652	301.31
278.884	277.31
279.115	270.31
279.347	287.31
279.579	292.31
279.81	277.31
280.042	280.31
280.273	297.31
280.505	301.31
280.736	278.31
280.968	279.31
281.199	310.31
281.431	299.31
281.662	287.31
281.894	300.31
282.125	308.31
282.356	318.31
282.588	327.31
282.819	344.31
283.051	307.31
283.282	307.31
283.513	289.31
283.745	307.31
283.976	287.31
284.207	291.31
284.439	307.31
284.67	317.31
284.901	309.31
285.132	293.31
285.364	297.31
285.595	303.31
285.826	306.31
286.057	303.31
286.288	293.31
286.52	298.31
286.751	301.31
286.982	309.31
287.213	313.31
287.444	295.31
287.675	295.31
287.906	318.31
288.138	342.31
288.369	320.31
288.6	325.31
288.831	330.31
289.062	308.31
289.293	336.31
289.524	313.31
289.755	307.31
289.986	317.31
290.217	306.31
290.448	308.31
290.679	308.31
290.91	309.31
291.141	314.31
291.371	324.31
291.602	309.31
291.833	298.31
292.064	315.31
292.295	310.31
292.526	329.31
292.757	311.31
292.987	327.31
293.218	317.31
293.449	321.31
293.68	326.31
293.91	317.31
294.141	313.31
294.372	324.31
294.603	318.31
294.833	326.31
295.064	335.31
295.295	319.31
295.525	317.31
295.756	327.31
295.987	325.31
296.217	351.31
296.448	376.31
296.679	335.31
296.909	353.31
297.14	329.31
297.37	342.31
297.601	331.31
297.831	331.31
298.062	318.31
298.292	327.31
298.523	353.31
298.753	334.31
298.984	353.31
299.214	347.31
299.445	352.31
299.675	346.31
299.905	335.31
300.136	345.31
300.366	337.31
300.597	347.31
300.827	322.31
301.057	349.31
301.288	347.31
301.518	358.31
301.748	353.31
301.979	361.31
302.209	366.31
302.439	353.31
302.669	348.31
302.9	369.31
303.13	373.31
303.36	346.31
303.59	363.31
303.82	378.31
304.051	369.31
304.281	369.31
304.511	351.31
304.741	370.31
304.971	359.31
305.201	354.31
305.431	351.31
305.661	370.31
305.891	364.31
306.121	354.31
306.352	369.31
306.582	373.31
306.812	349.31
307.042	371.31
307.272	357.31
307.502	367.31
307.731	367.31
307.961	382.31
308.191	360.31
308.421	369.31
308.651	373.31
308.881	365.31
309.111	374.31
309.341	371.31
309.571	413.31
309.8	409.31
310.03	407.31
310.26	435.31
310.49	403.31
310.72	399.31
310.949	426.31
311.179	440.31
311.409	413.31
311.639	404.31
311.868	425.31
312.098	412.31
312.328	423.31
312.557	435.31
312.787	445.31
313.017	452.31
313.246	445.31
313.476	405.31
313.706	419.31
313.935	433.31
314.165	443.31
314.394	435.31
314.624	435.31
314.853	419.31
315.083	423.31
315.312	409.31
315.542	406.31
315.771	400.31
316.001	408.31
316.23	429.31
316.46	419.31
316.689	413.31
316.919	396.31
317.148	417.31
317.377	443.31
317.607	417.31
317.836	415.31
318.065	415.31
318.295	425.31
318.524	429.31
318.753	423.31
318.983	422.31
319.212	420.31
319.441	431.31
319.67	426.31
319.9	408.31
320.129	422.31
320.358	427.31
320.587	406.31
320.816	453.31
321.046	425.31
321.275	453.31
321.504	447.31
321.733	460.31
321.962	474.31
322.191	472.31
322.42	487.31
322.649	482.31
322.878	486.31
323.108	521.31
323.337	559.31
323.566	570.31
323.795	587.31
324.024	663.31
324.253	762.31
324.482	1118.31
324.71	1761.31
324.939	2638.31
325.168	2263.31
325.397	1112.31
325.626	761.31
325.855	663.31
326.084	581.31
326.313	549.31
326.542	569.31
326.77	602.31
326.999	740.31
327.228	973.31
327.457	1541.31
327.686	1979.31
327.914	1268.31
328.143	826.31
328.372	703.31
328.6	641.31
328.829	631.31
329.058	635.31
329.287	645.31
329.515	614.31
329.744	562.31
329.972	561.31
330.201	539.31
330.43	582.31
330.658	625.31
330.887	669.31
331.115	659.31
331.344	601.31
331.572	541.31
331.801	544.31
332.03	542.31
332.258	539.31
332.486	525.31
332.715	481.31
332.943	502.31
333.172	514.31
333.4	517.31
333.629	524.31
333.857	535.31
334.085	534.31
334.314	523.31
334.542	524.31
334.771	555.31
334.999	535.31
335.227	504.31
335.455	493.31
335.684	501.31
335.912	490.31
336.14	505.31
336.369	523.31
336.597	500.31
336.825	520.31
337.053	514.31
337.281	472.31
337.51	525.31
337.738	497.31
337.966	479.31
338.194	495.31
338.422	494.31
338.65	504.31
338.878	479.31
339.106	490.31
339.334	477.31
339.562	474.31
339.79	501.31
340.018	483.31
340.246	482.31
340.474	491.31
340.702	490.31
340.93	479.31
341.158	490.31
341.386	484.31
341.614	488.31
341.842	482.31
342.07	484.31
342.298	477.31
342.526	458.31
342.754	451.31
342.981	460.31
343.209	484.31
343.437	477.31
343.665	495.31
343.893	492.31
344.12	500.31
344.348	494.31
344.576	487.31
344.804	488.31
345.031	493.31
345.259	513.31
345.487	522.31
345.714	506.31
345.942	487.31
346.17	489.31
346.397	478.31
346.625	469.31
346.853	472.31
347.08	485.31
347.308	486.31
347.535	466.31
347.763	491.31
347.99	478.31
348.218	473.31
348.445	482.31
348.673	477.31
348.9	490.31
349.128	486.31
349.355	461.31
349.583	444.31
349.81	448.31
350.037	450.31
350.265	463.31
350.492	462.31
350.72	480.31
350.947	467.31
351.174	478.31
351.402	486.31
351.629	477.31
351.856	479.31
352.083	486.31
352.311	472.31
352.538	475.31
352.765	486.31
352.992	487.31
353.22	497.31
353.447	455.31
353.674	448.31
353.901	454.31
354.128	464.31
354.355	429.31
354.583	472.31
354.81	460.31
355.037	456.31
355.264	455.31
355.491	409.31
355.718	441.31
355.945	455.31
356.172	429.31
356.399	452.31
356.626	446.31
356.853	443.31
357.08	446.31
357.307	456.31
357.534	449.31
357.761	435.31
357.988	446.31
358.215	429.31
358.441	456.31
358.668	457.31
358.895	453.31
359.122	451.31
359.349	444.31
359.576	477.31
359.802	483.31
360.029	526.31
360.256	539.31
360.483	522.31
360.709	486.31
360.936	455.31
361.163	483.31
361.39	490.31
361.616	479.31
361.843	480.31
362.07	463.31
362.296	469.31
362.523	477.31
362.749	486.31
362.976	459.31
363.203	472.31
363.429	467.31
363.656	445.31
363.882	463.31
364.109	445.31
364.335	471.31
364.562	473.31
364.788	443.31
365.015	469.31
365.241	465.31
365.468	459.31
365.694	451.31
365.92	466.31
366.147	455.31
366.373	454.31
366.599	460.31
366.826	450.31
367.052	457.31
367.278	463.31
367.505	455.31
367.731	462.31
367.957	471.31
368.184	453.31
368.41	473.31
368.636	477.31
368.862	478.31
369.089	470.31
369.315	454.31
369.541	460.31
369.767	458.31
369.993	451.31
370.219	449.31
370.445	457.31
370.672	476.31
370.898	451.31
371.124	452.31
371.35	454.31
371.576	478.31
371.802	445.31
372.028	459.31
372.254	449.31
372.48	439.31
372.706	455.31
372.932	471.31
373.158	468.31
373.384	476.31
373.61	450.31
373.835	478.31
374.061	482.31
374.287	485.31
374.513	483.31
374.739	470.31
374.965	485.31
375.191	476.31
375.416	472.31
375.642	443.31
375.868	467.31
376.094	482.31
376.319	468.31
376.545	485.31
376.771	470.31
376.997	476.31
377.222	436.31
377.448	446.31
377.674	454.31
377.899	475.31
378.125	454.31
378.35	450.31
378.576	456.31
378.802	457.31
379.027	429.31
379.253	456.31
379.478	441.31
379.704	475.31
379.929	450.31
380.155	455.31
380.38	451.31
380.606	466.31
380.831	457.31
381.057	457.31
381.282	459.31
381.507	474.31
381.733	478.31
381.958	459.31
382.184	502.31
382.409	474.31
382.634	490.31
382.86	481.31
383.085	459.31
383.31	445.31
383.535	472.31
383.761	460.31
383.986	486.31
384.211	483.31
384.436	503.31
384.662	479.31
384.887	479.31
385.112	489.31
385.337	498.31
385.562	521.31
385.787	499.31
386.013	534.31
386.238	531.31
386.463	530.31
386.688	500.31
386.913	507.31
387.138	491.31
387.363	505.31
387.588	502.31
387.813	519.31
388.038	514.31
388.263	491.31
388.488	494.31
388.713	527.31
388.938	518.31
389.163	515.31
389.387	521.31
389.612	515.31
389.837	506.31
390.062	486.31
390.287	521.31
390.512	525.31
390.736	519.31
390.961	516.31
391.186	525.31
391.411	511.31
391.636	511.31
391.86	527.31
392.085	537.31
392.31	518.31
392.534	529.31
392.759	527.31
392.984	506.31
393.208	519.31
393.433	518.31
393.658	522.31
393.882	510.31
394.107	531.31
394.331	509.31
394.556	505.31
394.78	527.31
395.005	532.31
395.229	517.31
395.454	508.31
395.678	531.31
395.903	558.31
396.127	573.31
396.352	566.31
396.576	534.31
396.801	572.31
397.025	541.31
397.249	559.31
397.474	558.31
397.698	559.31
397.922	591.31
398.147	599.31
398.371	584.31
398.595	548.31
398.82	630.31
399.044	604.31
399.268	634.31
399.492	655.31
399.717	692.31
399.941	717.31
400.165	732.31
400.389	725.31
400.613	681.31
400.837	641.31
401.062	627.31
401.286	591.31
401.51	591.31
401.734	591.31
401.958	603.31
402.182	605.31
402.406	610.31
402.63	611.31
402.854	587.31
403.078	600.31
403.302	608.31
403.526	629.31
403.75	634.31
403.974	619.31
404.198	621.31
404.422	625.31
404.645	629.31
404.869	616.31
405.093	644.31
405.317	691.31
405.541	695.31
405.765	669.31
405.988	632.31
406.212	654.31
406.436	675.31
406.66	714.31
406.883	680.31
407.107	669.31
407.331	734.31
407.555	800.31
407.778	834.31
408.002	763.31
408.226	715.31
408.449	684.31
408.673	676.31
408.896	721.31
409.12	777.31
409.344	728.31
409.567	657.31
409.791	634.31
410.014	635.31
410.238	621.31
410.461	638.31
410.685	623.31
410.908	663.31
411.132	673.31
411.355	718.31
411.578	724.31
411.802	644.31
412.025	610.31
412.249	618.31
412.472	604.31
412.695	644.31
412.919	632.31
413.142	602.31
413.365	607.31
413.589	604.31
413.812	620.31
414.035	604.31
414.258	571.31
414.482	579.31
414.705	593.31
414.928	572.31
415.151	583.31
415.374	581.31
415.597	603.31
415.821	605.31
416.044	568.31
416.267	610.31
416.49	579.31
416.713	582.31
416.936	582.31
417.159	571.31
417.382	601.31
417.605	574.31
417.828	610.31
418.051	602.31
418.274	609.31
418.497	595.31
418.72	571.31
418.943	580.31
419.166	605.31
419.389	634.31
419.611	627.31
419.834	644.31
420.057	614.31
420.28	617.31
420.503	608.31
420.726	625.31
420.948	635.31
421.171	662.31
421.394	712.31
421.617	637.31
421.839	605.31
422.062	592.31
422.285	630.31
422.507	683.31
422.73	782.31
422.953	741.31
423.175	661.31
423.398	651.31
423.621	660.31
423.843	665.31
424.066	671.31
424.288	647.31
424.511	660.31
424.733	736.31
424.956	853.31
425.178	793.31
425.401	802.31
425.623	839.31
425.846	744.31
426.068	689.31
426.291	673.31
426.513	648.31
426.735	673.31
426.958	708.31
427.18	794.31
427.402	955.31
427.625	1083.31
427.847	922.31
428.069	777.31
428.292	703.31
428.514	643.31
428.736	637.31
428.958	635.31
429.181	617.31
429.403	606.31
429.625	628.31
429.847	673.31
430.069	755.31
430.292	739.31
430.514	631.31
430.736	598.31
430.958	620.31
431.18	583.31
431.402	595.31
431.624	549.31
431.846	556.31
432.068	571.31
432.29	585.31
432.512	576.31
432.734	599.31
432.956	592.31
433.178	598.31
433.4	597.31
433.622	569.31
433.844	583.31
434.066	562.31
434.287	582.31
434.509	593.31
434.731	614.31
434.953	603.31
435.175	613.31
435.397	653.31
435.618	673.31
435.84	703.31
436.062	823.31
436.284	922.31
436.505	737.31
436.727	669.31
436.949	637.31
437.17	628.31
437.392	612.31
437.614	644.31
437.835	681.31
438.057	761.31
438.278	905.31
438.5	880.31
438.721	953.31
438.943	941.31
439.165	740.31
439.386	678.31
439.608	691.31
439.829	670.31
440.05	705.31
440.272	753.31
440.493	703.31
440.715	668.31
440.936	649.31
441.158	649.31
441.379	598.31
441.6	629.31
441.822	660.31
442.043	709.31
442.264	806.31
442.486	853.31
442.707	720.31
442.928	684.31
443.149	683.31
443.371	728.31
443.592	770.31
443.813	909.31
444.034	953.31
444.255	795.31
444.476	713.31
444.698	701.31
444.919	661.31
445.14	771.31
445.361	739.31
445.582	723.31
445.803	778.31
446.024	929.31
446.245	932.31
446.466	838.31
446.687	726.31
446.908	683.31
447.129	623.31
447.35	632.31
447.571	613.31
447.792	601.31
448.013	628.31
448.234	639.31
448.455	675.31
448.675	807.31
448.896	987.31
449.117	808.31
449.338	757.31
449.559	907.31
449.779	1005.31
450	812.31
450.221	686.31
450.442	597.31
450.662	567.31
450.883	606.31
451.104	610.31
451.324	608.31
451.545	595.31
451.766	574.31
451.986	549.31
452.207	559.31
452.428	539.31
452.648	547.31
452.869	566.31
453.089	557.31
453.31	561.31
453.53	551.31
453.751	575.31
453.971	566.31
454.192	571.31
454.412	549.31
454.633	524.31
454.853	553.31
455.073	559.31
455.294	587.31
455.514	665.31
455.734	637.31
455.955	549.31
456.175	528.31
456.395	483.31
456.616	501.31
456.836	533.31
457.056	524.31
457.276	517.31
457.497	524.31
457.717	520.31
457.937	508.31
458.157	540.31
458.377	553.31
458.598	575.31
458.818	655.31
459.038	746.31
459.258	757.31
459.478	649.31
459.698	608.31
459.918	602.31
460.138	595.31
460.358	584.31
460.578	593.31
460.798	594.31
461.018	618.31
461.238	591.31
461.458	609.31
461.678	588.31
461.898	628.31
462.118	621.31
462.338	631.31
462.558	609.31
462.777	631.31
462.997	618.31
463.217	625.31
463.437	654.31
463.657	641.31
463.876	630.31
464.096	632.31
464.316	638.31
464.536	633.31
464.755	612.31
464.975	642.31
465.195	695.31
465.414	781.31
465.634	667.31
465.854	620.31
466.073	603.31
466.293	598.31
466.512	576.31
466.732	583.31
466.951	569.31
467.171	579.31
467.391	577.31
467.61	566.31
467.829	598.31
468.049	583.31
468.268	569.31
468.488	540.31
468.707	561.31
468.927	537.31
469.146	537.31
469.365	551.31
469.585	555.31
469.804	562.31
470.023	590.31
470.243	592.31
470.462	577.31
470.681	595.31
470.901	607.31
471.12	581.31
471.339	578.31
471.558	599.31
471.777	582.31
471.997	563.31
472.216	577.31
472.435	547.31
472.654	570.31
472.873	559.31
473.092	575.31
473.311	577.31
473.53	553.31
473.749	586.31
473.968	635.31
474.187	719.31
474.406	783.31
474.625	651.31
474.844	572.31
475.063	578.31
475.282	584.31
475.501	567.31
475.72	602.31
475.939	590.31
476.158	584.31
476.377	593.31
476.596	583.31
476.814	611.31
477.033	622.31
477.252	613.31
477.471	605.31
477.69	623.31
477.908	627.31
478.127	630.31
478.346	634.31
478.564	633.31
478.783	636.31
479.002	642.31
479.22	643.31
479.439	649.31
479.658	684.31
479.876	695.31
480.095	683.31
480.313	710.31
480.532	711.31
480.751	672.31
480.969	687.31
481.188	714.31
481.406	740.31
481.624	709.31
481.843	669.31
482.061	691.31
482.28	678.31
482.498	660.31
482.717	687.31
482.935	660.31
483.153	646.31
483.372	690.31
483.59	662.31
483.808	669.31
484.027	661.31
484.245	665.31
484.463	670.31
484.681	698.31
484.9	706.31
485.118	695.31
485.336	694.31
485.554	685.31
485.772	684.31
485.99	700.31
486.209	691.31
486.427	701.31
486.645	721.31
486.863	729.31
487.081	750.31
487.299	737.31
487.517	719.31
487.735	713.31
487.953	729.31
488.171	722.31
488.389	706.31
488.607	722.31
488.825	714.31
489.043	712.31
489.261	739.31
489.479	739.31
489.696	732.31
489.914	729.31
490.132	735.31
490.35	782.31
490.568	769.31
490.786	756.31
491.003	793.31
491.221	784.31
491.439	784.31
491.657	808.31
491.874	807.31
492.092	830.31
492.31	807.31
492.527	811.31
492.745	801.31
492.963	822.31
493.18	815.31
493.398	833.31
493.615	847.31
493.833	851.31
494.05	858.31
494.268	841.31
494.485	840.31
494.703	840.31
494.92	862.31
495.138	857.31
495.355	861.31
495.573	851.31
495.79	846.31
496.008	878.31
496.225	862.31
496.442	889.31
496.66	872.31
496.877	851.31
497.094	870.31
497.312	843.31
497.529	894.31
497.746	901.31
497.963	891.31
498.181	942.31
498.398	946.31
498.615	954.31
498.832	976.31
499.049	1006.31
499.267	1034.31
499.484	1073.31
499.701	1070.31
499.918	1129.31
500.135	1206.31
500.352	1218.31
500.569	1260.31
500.786	1253.31
501.003	1230.31
501.22	1213.31
501.437	1161.31
501.654	1120.31
