Data from 1988.PennyLincolnUp.Lamp.En5.5.200Scan.071819.P2_HRD10591_17-21-34-972.txt Node
Date: Thu Jul 18 17:21:34 EDT 2019
User: cochatt
Spectrometer: HR+D1059
Trigger mode: 1
Integration Time (sec): 1.000000E-1
Scans to average: 1
Electric dark correction enabled: true
Nonlinearity correction enabled: false
Boxcar width: 0
XAxis mode: Wavelengths
Number of Pixels in Spectrum: 2048
>>>>>Begin Spectral Data<<<<<
223.165	-19.44
223.4	-19.44
223.635	-19.44
223.869	-18.44
224.104	-13.44
224.338	-3.44
224.573	-12.44
224.808	-9.44
225.042	-12.44
225.277	-18.44
225.511	-0.44
225.746	-8.44
225.98	17.56
226.215	2.56
226.449	20.56
226.683	16.56
226.918	19.56
227.152	39.56
227.387	34.56
227.621	31.56
227.856	44.56
228.09	40.56
228.324	57.56
228.559	50.56
228.793	71.56
229.027	106.56
229.262	118.56
229.496	122.56
229.73	138.56
229.964	188.56
230.199	153.56
230.433	124.56
230.667	125.56
230.901	126.56
231.136	112.56
231.37	124.56
231.604	116.56
231.838	127.56
232.072	119.56
232.306	119.56
232.541	106.56
232.775	107.56
233.009	115.56
233.243	118.56
233.477	121.56
233.711	116.56
233.945	121.56
234.179	107.56
234.413	124.56
234.647	116.56
234.881	128.56
235.115	115.56
235.349	129.56
235.583	130.56
235.817	133.56
236.051	132.56
236.285	133.56
236.519	140.56
236.753	148.56
236.987	161.56
237.221	204.56
237.455	272.56
237.689	214.56
237.922	154.56
238.156	148.56
238.39	127.56
238.624	123.56
238.858	131.56
239.091	139.56
239.325	137.56
239.559	140.56
239.793	146.56
240.027	150.56
240.26	160.56
240.494	179.56
240.728	160.56
240.961	166.56
241.195	150.56
241.429	159.56
241.662	144.56
241.896	153.56
242.13	146.56
242.363	162.56
242.597	131.56
242.83	160.56
243.064	148.56
243.298	142.56
243.531	145.56
243.765	148.56
243.998	154.56
244.232	162.56
244.465	140.56
244.699	174.56
244.932	159.56
245.166	143.56
245.399	144.56
245.633	156.56
245.866	164.56
246.099	149.56
246.333	157.56
246.566	162.56
246.8	174.56
247.033	168.56
247.266	188.56
247.5	175.56
247.733	176.56
247.966	197.56
248.2	171.56
248.433	183.56
248.666	182.56
248.899	201.56
249.133	220.56
249.366	228.56
249.599	214.56
249.832	194.56
250.066	176.56
250.299	198.56
250.532	197.56
250.765	221.56
250.998	227.56
251.231	251.56
251.465	230.56
251.698	223.56
251.931	195.56
252.164	200.56
252.397	213.56
252.63	224.56
252.863	229.56
253.096	230.56
253.329	258.56
253.562	260.56
253.795	233.56
254.028	237.56
254.261	232.56
254.494	256.56
254.727	282.56
254.96	322.56
255.193	304.56
255.426	263.56
255.659	245.56
255.892	244.56
256.124	243.56
256.357	247.56
256.59	264.56
256.823	238.56
257.056	231.56
257.289	227.56
257.521	210.56
257.754	224.56
257.987	249.56
258.22	223.56
258.452	225.56
258.685	233.56
258.918	219.56
259.151	239.56
259.383	234.56
259.616	254.56
259.849	258.56
260.081	245.56
260.314	270.56
260.547	284.56
260.779	286.56
261.012	268.56
261.244	244.56
261.477	251.56
261.71	243.56
261.942	260.56
262.175	222.56
262.407	250.56
262.64	235.56
262.872	237.56
263.105	239.56
263.337	216.56
263.57	235.56
263.802	218.56
264.035	232.56
264.267	229.56
264.499	236.56
264.732	241.56
264.964	223.56
265.197	232.56
265.429	227.56
265.661	243.56
265.894	243.56
266.126	234.56
266.358	235.56
266.591	241.56
266.823	254.56
267.055	258.56
267.287	233.56
267.52	253.56
267.752	238.56
267.984	250.56
268.216	268.56
268.448	244.56
268.681	259.56
268.913	266.56
269.145	294.56
269.377	300.56
269.609	299.56
269.841	304.56
270.073	295.56
270.306	332.56
270.538	342.56
270.77	343.56
271.002	333.56
271.234	316.56
271.466	329.56
271.698	339.56
271.93	340.56
272.162	359.56
272.394	332.56
272.626	351.56
272.858	312.56
273.09	326.56
273.322	293.56
273.553	298.56
273.785	306.56
274.017	287.56
274.249	284.56
274.481	292.56
274.713	286.56
274.945	312.56
275.176	281.56
275.408	308.56
275.64	286.56
275.872	301.56
276.104	288.56
276.335	280.56
276.567	290.56
276.799	297.56
277.031	337.56
277.262	351.56
277.494	345.56
277.726	337.56
277.957	316.56
278.189	292.56
278.421	297.56
278.652	314.56
278.884	287.56
279.115	294.56
279.347	285.56
279.579	281.56
279.81	286.56
280.042	310.56
280.273	293.56
280.505	295.56
280.736	293.56
280.968	289.56
281.199	301.56
281.431	297.56
281.662	293.56
281.894	280.56
282.125	302.56
282.356	329.56
282.588	344.56
282.819	346.56
283.051	308.56
283.282	301.56
283.513	295.56
283.745	318.56
283.976	320.56
284.207	326.56
284.439	312.56
284.67	304.56
284.901	317.56
285.132	327.56
285.364	316.56
285.595	307.56
285.826	317.56
286.057	314.56
286.288	316.56
286.52	312.56
286.751	318.56
286.982	311.56
287.213	307.56
287.444	316.56
287.675	326.56
287.906	321.56
288.138	345.56
288.369	343.56
288.6	336.56
288.831	326.56
289.062	317.56
289.293	320.56
289.524	328.56
289.755	325.56
289.986	322.56
290.217	342.56
290.448	308.56
290.679	312.56
290.91	336.56
291.141	331.56
291.371	341.56
291.602	328.56
291.833	317.56
292.064	344.56
292.295	322.56
292.526	344.56
292.757	329.56
292.987	333.56
293.218	317.56
293.449	339.56
293.68	325.56
293.91	316.56
294.141	306.56
294.372	309.56
294.603	324.56
294.833	344.56
295.064	325.56
295.295	316.56
295.525	352.56
295.756	339.56
295.987	330.56
296.217	360.56
296.448	372.56
296.679	364.56
296.909	343.56
297.14	338.56
297.37	353.56
297.601	344.56
297.831	319.56
298.062	346.56
298.292	347.56
298.523	339.56
298.753	315.56
298.984	347.56
299.214	327.56
299.445	347.56
299.675	357.56
299.905	355.56
300.136	369.56
300.366	346.56
300.597	357.56
300.827	357.56
301.057	399.56
301.288	384.56
301.518	358.56
301.748	361.56
301.979	377.56
302.209	374.56
302.439	365.56
302.669	390.56
302.9	354.56
303.13	384.56
303.36	379.56
303.59	371.56
303.82	387.56
304.051	378.56
304.281	374.56
304.511	383.56
304.741	378.56
304.971	362.56
305.201	365.56
305.431	374.56
305.661	368.56
305.891	377.56
306.121	369.56
306.352	379.56
306.582	379.56
306.812	373.56
307.042	388.56
307.272	370.56
307.502	365.56
307.731	394.56
307.961	388.56
308.191	377.56
308.421	393.56
308.651	381.56
308.881	385.56
309.111	383.56
309.341	391.56
309.571	396.56
309.8	417.56
310.03	417.56
310.26	430.56
310.49	418.56
310.72	452.56
310.949	445.56
311.179	462.56
311.409	417.56
311.639	435.56
311.868	434.56
312.098	434.56
312.328	434.56
312.557	441.56
312.787	463.56
313.017	468.56
313.246	443.56
313.476	418.56
313.706	422.56
313.935	432.56
314.165	446.56
314.394	457.56
314.624	477.56
314.853	463.56
315.083	451.56
315.312	452.56
315.542	430.56
315.771	428.56
316.001	418.56
316.23	433.56
316.46	420.56
316.689	436.56
316.919	441.56
317.148	416.56
317.377	459.56
317.607	452.56
317.836	450.56
318.065	420.56
318.295	434.56
318.524	438.56
318.753	419.56
318.983	428.56
319.212	414.56
319.441	432.56
319.67	419.56
319.9	437.56
320.129	439.56
320.358	423.56
320.587	443.56
320.816	445.56
321.046	473.56
321.275	458.56
321.504	453.56
321.733	468.56
321.962	465.56
322.191	501.56
322.42	503.56
322.649	520.56
322.878	539.56
323.108	510.56
323.337	570.56
323.566	605.56
323.795	628.56
324.024	676.56
324.253	817.56
324.482	1157.56
324.71	1850.56
324.939	2758.56
325.168	2391.56
325.397	1187.56
325.626	802.56
325.855	634.56
326.084	621.56
326.313	598.56
326.542	593.56
326.77	655.56
326.999	760.56
327.228	1056.56
327.457	1653.56
327.686	2066.56
327.914	1357.56
328.143	845.56
328.372	717.56
328.6	695.56
328.829	668.56
329.058	671.56
329.287	678.56
329.515	652.56
329.744	584.56
329.972	571.56
330.201	612.56
330.43	608.56
330.658	641.56
330.887	714.56
331.115	678.56
331.344	607.56
331.572	578.56
331.801	585.56
332.03	581.56
332.258	571.56
332.486	517.56
332.715	546.56
332.943	528.56
333.172	524.56
333.4	544.56
333.629	545.56
333.857	538.56
334.085	554.56
334.314	532.56
334.542	587.56
334.771	594.56
334.999	578.56
335.227	547.56
335.455	538.56
335.684	527.56
335.912	548.56
336.14	544.56
336.369	515.56
336.597	521.56
336.825	518.56
337.053	510.56
337.281	505.56
337.51	526.56
337.738	517.56
337.966	502.56
338.194	526.56
338.422	520.56
338.65	522.56
338.878	505.56
339.106	503.56
339.334	487.56
339.562	504.56
339.79	485.56
340.018	513.56
340.246	504.56
340.474	488.56
340.702	504.56
340.93	509.56
341.158	516.56
341.386	496.56
341.614	500.56
341.842	518.56
342.07	509.56
342.298	491.56
342.526	505.56
342.754	490.56
342.981	487.56
343.209	488.56
343.437	481.56
343.665	491.56
343.893	520.56
344.12	526.56
344.348	520.56
344.576	516.56
344.804	514.56
345.031	532.56
345.259	530.56
345.487	531.56
345.714	500.56
345.942	486.56
346.17	495.56
346.397	486.56
346.625	490.56
346.853	500.56
347.08	470.56
347.308	500.56
347.535	498.56
347.763	529.56
347.99	520.56
348.218	526.56
348.445	498.56
348.673	515.56
348.9	463.56
349.128	481.56
349.355	475.56
349.583	472.56
349.81	470.56
350.037	473.56
350.265	467.56
350.492	478.56
350.72	478.56
350.947	489.56
351.174	478.56
351.402	489.56
351.629	489.56
351.856	514.56
352.083	514.56
352.311	507.56
352.538	501.56
352.765	498.56
352.992	502.56
353.22	493.56
353.447	478.56
353.674	458.56
353.901	449.56
354.128	463.56
354.355	475.56
354.583	483.56
354.81	462.56
355.037	461.56
355.264	456.56
355.491	422.56
355.718	444.56
355.945	466.56
356.172	423.56
356.399	460.56
356.626	450.56
356.853	471.56
357.08	459.56
357.307	461.56
357.534	437.56
357.761	469.56
357.988	460.56
358.215	463.56
358.441	432.56
358.668	462.56
358.895	464.56
359.122	469.56
359.349	489.56
359.576	500.56
359.802	508.56
360.029	567.56
360.256	564.56
360.483	558.56
360.709	505.56
360.936	494.56
361.163	497.56
361.39	496.56
361.616	514.56
361.843	492.56
362.07	502.56
362.296	518.56
362.523	479.56
362.749	500.56
362.976	488.56
363.203	474.56
363.429	460.56
363.656	478.56
363.882	475.56
364.109	455.56
364.335	462.56
364.562	450.56
364.788	472.56
365.015	488.56
365.241	470.56
365.468	513.56
365.694	488.56
365.92	484.56
366.147	477.56
366.373	466.56
366.599	480.56
366.826	466.56
367.052	458.56
367.278	470.56
367.505	466.56
367.731	496.56
367.957	457.56
368.184	471.56
368.41	469.56
368.636	495.56
368.862	458.56
369.089	481.56
369.315	460.56
369.541	450.56
369.767	472.56
369.993	473.56
370.219	481.56
370.445	461.56
370.672	467.56
370.898	468.56
371.124	475.56
371.35	478.56
371.576	474.56
371.802	472.56
372.028	453.56
372.254	476.56
372.48	474.56
372.706	469.56
372.932	478.56
373.158	490.56
373.384	465.56
373.61	491.56
373.835	481.56
374.061	473.56
374.287	468.56
374.513	478.56
374.739	497.56
374.965	478.56
375.191	514.56
375.416	498.56
375.642	477.56
375.868	473.56
376.094	458.56
376.319	474.56
376.545	473.56
376.771	486.56
376.997	454.56
377.222	454.56
377.448	470.56
377.674	467.56
377.899	474.56
378.125	465.56
378.35	484.56
378.576	446.56
378.802	472.56
379.027	450.56
379.253	468.56
379.478	463.56
379.704	465.56
379.929	472.56
380.155	489.56
380.38	492.56
380.606	479.56
380.831	470.56
381.057	464.56
381.282	481.56
381.507	469.56
381.733	475.56
381.958	462.56
382.184	493.56
382.409	493.56
382.634	488.56
382.86	478.56
383.085	484.56
383.31	480.56
383.535	484.56
383.761	482.56
383.986	500.56
384.211	486.56
384.436	524.56
384.662	479.56
384.887	519.56
385.112	518.56
385.337	532.56
385.562	519.56
385.787	510.56
386.013	533.56
386.238	530.56
386.463	535.56
386.688	533.56
386.913	525.56
387.138	530.56
387.363	525.56
387.588	507.56
387.813	503.56
388.038	538.56
388.263	509.56
388.488	525.56
388.713	549.56
388.938	534.56
389.163	527.56
389.387	560.56
389.612	516.56
389.837	510.56
390.062	517.56
390.287	543.56
390.512	537.56
390.736	522.56
390.961	537.56
391.186	543.56
391.411	540.56
391.636	528.56
391.86	564.56
392.085	543.56
392.31	537.56
392.534	535.56
392.759	549.56
392.984	546.56
393.208	536.56
393.433	516.56
393.658	538.56
393.882	542.56
394.107	548.56
394.331	531.56
394.556	532.56
394.78	532.56
395.005	552.56
395.229	565.56
395.454	569.56
395.678	564.56
395.903	539.56
396.127	576.56
396.352	592.56
396.576	557.56
396.801	549.56
397.025	549.56
397.249	558.56
397.474	587.56
397.698	562.56
397.922	579.56
398.147	593.56
398.371	610.56
398.595	596.56
398.82	602.56
399.044	615.56
399.268	617.56
399.492	664.56
399.717	685.56
399.941	752.56
400.165	772.56
400.389	765.56
400.613	701.56
400.837	673.56
401.062	612.56
401.286	608.56
401.51	588.56
401.734	600.56
401.958	620.56
402.182	623.56
402.406	663.56
402.63	641.56
402.854	631.56
403.078	628.56
403.302	637.56
403.526	642.56
403.75	608.56
403.974	653.56
404.198	653.56
404.422	614.56
404.645	654.56
404.869	636.56
405.093	655.56
405.317	706.56
405.541	752.56
405.765	710.56
405.988	670.56
406.212	688.56
406.436	715.56
406.66	676.56
406.883	684.56
407.107	737.56
407.331	762.56
407.555	877.56
407.778	880.56
408.002	800.56
408.226	743.56
408.449	732.56
408.673	704.56
408.896	741.56
409.12	796.56
409.344	755.56
409.567	673.56
409.791	664.56
410.014	644.56
410.238	634.56
410.461	662.56
410.685	664.56
410.908	675.56
411.132	713.56
411.355	762.56
411.578	735.56
411.802	663.56
412.025	636.56
412.249	642.56
412.472	662.56
412.695	672.56
412.919	677.56
413.142	640.56
413.365	634.56
413.589	625.56
413.812	610.56
414.035	596.56
414.258	605.56
414.482	601.56
414.705	598.56
414.928	604.56
415.151	617.56
415.374	592.56
415.597	616.56
415.821	589.56
416.044	589.56
416.267	606.56
416.49	606.56
416.713	589.56
416.936	586.56
417.159	608.56
417.382	598.56
417.605	637.56
417.828	604.56
418.051	626.56
418.274	618.56
418.497	615.56
418.72	602.56
418.943	589.56
419.166	621.56
419.389	653.56
419.611	637.56
419.834	611.56
420.057	638.56
420.28	608.56
420.503	604.56
420.726	620.56
420.948	623.56
421.171	691.56
421.394	731.56
421.617	671.56
421.839	644.56
422.062	637.56
422.285	639.56
422.507	728.56
422.73	812.56
422.953	765.56
423.175	681.56
423.398	640.56
423.621	668.56
423.843	683.56
424.066	665.56
424.288	684.56
424.511	703.56
424.733	743.56
424.956	875.56
425.178	850.56
425.401	848.56
425.623	841.56
425.846	740.56
426.068	685.56
426.291	694.56
426.513	688.56
426.735	699.56
426.958	745.56
427.18	860.56
427.402	1020.56
427.625	1138.56
427.847	965.56
428.069	824.56
428.292	747.56
428.514	683.56
428.736	686.56
428.958	655.56
429.181	635.56
429.403	616.56
429.625	644.56
429.847	684.56
430.069	772.56
430.292	768.56
430.514	679.56
430.736	660.56
430.958	610.56
431.18	611.56
431.402	599.56
431.624	575.56
431.846	598.56
432.068	586.56
432.29	602.56
432.512	621.56
432.734	597.56
432.956	636.56
433.178	601.56
433.4	640.56
433.622	619.56
433.844	613.56
434.066	593.56
434.287	600.56
434.509	620.56
434.731	619.56
434.953	616.56
435.175	632.56
435.397	672.56
435.618	688.56
435.84	724.56
436.062	862.56
436.284	939.56
436.505	786.56
436.727	704.56
436.949	665.56
437.17	633.56
437.392	642.56
437.614	632.56
437.835	716.56
438.057	797.56
438.278	916.56
438.5	930.56
438.721	1024.56
438.943	1000.56
439.165	758.56
439.386	694.56
439.608	708.56
439.829	694.56
440.05	741.56
440.272	805.56
440.493	725.56
440.715	680.56
440.936	633.56
441.158	663.56
441.379	640.56
441.6	655.56
441.822	680.56
442.043	733.56
442.264	842.56
442.486	881.56
442.707	760.56
442.928	733.56
443.149	733.56
443.371	733.56
443.592	787.56
443.813	892.56
444.034	981.56
444.255	820.56
444.476	718.56
444.698	701.56
444.919	697.56
445.14	801.56
445.361	743.56
445.582	738.56
445.803	820.56
446.024	962.56
446.245	971.56
446.466	896.56
446.687	751.56
446.908	702.56
447.129	672.56
447.35	631.56
447.571	626.56
447.792	616.56
448.013	630.56
448.234	668.56
448.455	717.56
448.675	837.56
448.896	1034.56
449.117	856.56
449.338	806.56
449.559	916.56
449.779	1075.56
450	853.56
450.221	685.56
450.442	629.56
450.662	625.56
450.883	608.56
451.104	658.56
451.324	631.56
451.545	603.56
451.766	589.56
451.986	586.56
452.207	561.56
452.428	584.56
452.648	553.56
452.869	580.56
453.089	579.56
453.31	596.56
453.53	586.56
453.751	574.56
453.971	559.56
454.192	619.56
454.412	595.56
454.633	570.56
454.853	566.56
455.073	545.56
455.294	630.56
455.514	688.56
455.734	679.56
455.955	568.56
456.175	557.56
456.395	548.56
456.616	550.56
456.836	522.56
457.056	537.56
457.276	525.56
457.497	521.56
457.717	532.56
457.937	533.56
458.157	539.56
458.377	579.56
458.598	589.56
458.818	618.56
459.038	758.56
459.258	754.56
459.478	664.56
459.698	622.56
459.918	612.56
460.138	597.56
460.358	600.56
460.578	618.56
460.798	606.56
461.018	610.56
461.238	617.56
461.458	594.56
461.678	597.56
461.898	611.56
462.118	617.56
462.338	626.56
462.558	656.56
462.777	622.56
462.997	668.56
463.217	670.56
463.437	674.56
463.657	653.56
463.876	647.56
464.096	646.56
464.316	661.56
464.536	665.56
464.755	694.56
464.975	648.56
465.195	720.56
465.414	795.56
465.634	735.56
465.854	646.56
466.073	633.56
466.293	594.56
466.512	597.56
466.732	590.56
466.951	606.56
467.171	592.56
467.391	597.56
467.61	602.56
467.829	604.56
468.049	576.56
468.268	591.56
468.488	578.56
468.707	584.56
468.927	565.56
469.146	552.56
469.365	563.56
469.585	569.56
469.804	581.56
470.023	599.56
470.243	589.56
470.462	602.56
470.681	603.56
470.901	630.56
471.12	592.56
471.339	584.56
471.558	602.56
471.777	582.56
471.997	581.56
472.216	589.56
472.435	615.56
472.654	568.56
472.873	584.56
473.092	577.56
473.311	576.56
473.53	575.56
473.749	616.56
473.968	630.56
474.187	755.56
474.406	790.56
474.625	660.56
474.844	617.56
475.063	599.56
475.282	597.56
475.501	597.56
475.72	625.56
475.939	584.56
476.158	609.56
476.377	600.56
476.596	590.56
476.814	617.56
477.033	619.56
477.252	607.56
477.471	618.56
477.69	646.56
477.908	624.56
478.127	645.56
478.346	665.56
478.564	638.56
478.783	651.56
479.002	682.56
479.22	697.56
479.439	696.56
479.658	733.56
479.876	723.56
480.095	722.56
480.313	765.56
480.532	724.56
480.751	731.56
480.969	746.56
481.188	758.56
481.406	762.56
481.624	725.56
481.843	738.56
482.061	690.56
482.28	691.56
482.498	716.56
482.717	686.56
482.935	680.56
483.153	669.56
483.372	697.56
483.59	710.56
483.808	695.56
484.027	712.56
484.245	709.56
484.463	697.56
484.681	713.56
484.9	692.56
485.118	726.56
485.336	692.56
485.554	725.56
485.772	708.56
485.99	723.56
486.209	739.56
486.427	730.56
486.645	724.56
486.863	738.56
487.081	728.56
487.299	766.56
487.517	768.56
487.735	764.56
487.953	753.56
488.171	747.56
488.389	756.56
488.607	758.56
488.825	759.56
489.043	767.56
489.261	770.56
489.479	748.56
489.696	774.56
489.914	747.56
490.132	788.56
490.35	804.56
490.568	780.56
490.786	789.56
491.003	801.56
491.221	842.56
491.439	832.56
491.657	828.56
491.874	868.56
492.092	856.56
492.31	823.56
492.527	869.56
492.745	860.56
492.963	856.56
493.18	867.56
493.398	885.56
493.615	865.56
493.833	887.56
494.05	868.56
494.268	880.56
494.485	869.56
494.703	887.56
494.92	918.56
495.138	899.56
495.355	902.56
495.573	899.56
495.79	872.56
496.008	893.56
496.225	900.56
496.442	886.56
496.66	921.56
496.877	903.56
497.094	895.56
497.312	921.56
497.529	930.56
497.746	938.56
497.963	968.56
498.181	961.56
498.398	1003.56
498.615	998.56
498.832	1068.56
499.049	1042.56
499.267	1082.56
499.484	1130.56
499.701	1120.56
499.918	1170.56
500.135	1245.56
500.352	1257.56
500.569	1293.56
500.786	1290.56
501.003	1286.56
501.22	1246.56
501.437	1229.56
501.654	1158.56
