Data from 1988.PennyLincolnUp.Lamp.En5.5.200Scan.071819.P2_HRD10591_17-20-57-000.txt Node
Date: Thu Jul 18 17:20:57 EDT 2019
User: cochatt
Spectrometer: HR+D1059
Trigger mode: 1
Integration Time (sec): 1.000000E-1
Scans to average: 1
Electric dark correction enabled: true
Nonlinearity correction enabled: false
Boxcar width: 0
XAxis mode: Wavelengths
Number of Pixels in Spectrum: 2048
>>>>>Begin Spectral Data<<<<<
223.165	-10.69
223.4	-10.69
223.635	-10.69
223.869	-23.69
224.104	-28.69
224.338	-9.69
224.573	-6.69
224.808	-15.69
225.042	-7.69
225.277	-8.69
225.511	-1.69
225.746	-5.69
225.98	1.31
226.215	13.31
226.449	13.31
226.683	21.31
226.918	32.31
227.152	37.31
227.387	44.31
227.621	29.31
227.856	50.31
228.09	43.31
228.324	44.31
228.559	51.31
228.793	66.31
229.027	98.31
229.262	108.31
229.496	135.31
229.73	156.31
229.964	166.31
230.199	148.31
230.433	127.31
230.667	115.31
230.901	118.31
231.136	128.31
231.37	126.31
231.604	119.31
231.838	107.31
232.072	114.31
232.306	122.31
232.541	108.31
232.775	120.31
233.009	123.31
233.243	125.31
233.477	119.31
233.711	109.31
233.945	110.31
234.179	118.31
234.413	131.31
234.647	126.31
234.881	126.31
235.115	107.31
235.349	135.31
235.583	132.31
235.817	138.31
236.051	132.31
236.285	127.31
236.519	149.31
236.753	147.31
236.987	144.31
237.221	186.31
237.455	242.31
237.689	203.31
237.922	143.31
238.156	137.31
238.39	136.31
238.624	132.31
238.858	122.31
239.091	133.31
239.325	119.31
239.559	132.31
239.793	135.31
240.027	134.31
240.26	149.31
240.494	170.31
240.728	163.31
240.961	150.31
241.195	148.31
241.429	144.31
241.662	136.31
241.896	159.31
242.13	154.31
242.363	145.31
242.597	134.31
242.83	136.31
243.064	146.31
243.298	158.31
243.531	147.31
243.765	164.31
243.998	164.31
244.232	162.31
244.465	159.31
244.699	164.31
244.932	172.31
245.166	160.31
245.399	170.31
245.633	146.31
245.866	151.31
246.099	150.31
246.333	153.31
246.566	153.31
246.8	172.31
247.033	166.31
247.266	155.31
247.5	160.31
247.733	186.31
247.966	198.31
248.2	182.31
248.433	176.31
248.666	190.31
248.899	185.31
249.133	200.31
249.366	218.31
249.599	219.31
249.832	197.31
250.066	197.31
250.299	199.31
250.532	195.31
250.765	219.31
250.998	223.31
251.231	229.31
251.465	239.31
251.698	222.31
251.931	227.31
252.164	231.31
252.397	201.31
252.63	227.31
252.863	223.31
253.096	231.31
253.329	255.31
253.562	237.31
253.795	238.31
254.028	221.31
254.261	212.31
254.494	235.31
254.727	285.31
254.96	296.31
255.193	283.31
255.426	252.31
255.659	235.31
255.892	233.31
256.124	262.31
256.357	237.31
256.59	230.31
256.823	228.31
257.056	222.31
257.289	243.31
257.521	246.31
257.754	219.31
257.987	226.31
258.22	215.31
258.452	231.31
258.685	227.31
258.918	226.31
259.151	224.31
259.383	235.31
259.616	230.31
259.849	238.31
260.081	262.31
260.314	281.31
260.547	279.31
260.779	281.31
261.012	235.31
261.244	238.31
261.477	249.31
261.71	236.31
261.942	252.31
262.175	229.31
262.407	262.31
262.64	231.31
262.872	237.31
263.105	246.31
263.337	239.31
263.57	218.31
263.802	230.31
264.035	230.31
264.267	212.31
264.499	238.31
264.732	217.31
264.964	234.31
265.197	237.31
265.429	240.31
265.661	241.31
265.894	243.31
266.126	237.31
266.358	223.31
266.591	234.31
266.823	244.31
267.055	231.31
267.287	242.31
267.52	243.31
267.752	224.31
267.984	248.31
268.216	265.31
268.448	250.31
268.681	246.31
268.913	264.31
269.145	267.31
269.377	294.31
269.609	294.31
269.841	292.31
270.073	293.31
270.306	323.31
270.538	336.31
270.77	330.31
271.002	332.31
271.234	303.31
271.466	301.31
271.698	328.31
271.93	331.31
272.162	342.31
272.394	354.31
272.626	326.31
272.858	319.31
273.09	285.31
273.322	284.31
273.553	286.31
273.785	288.31
274.017	296.31
274.249	277.31
274.481	272.31
274.713	292.31
274.945	291.31
275.176	281.31
275.408	292.31
275.64	289.31
275.872	285.31
276.104	276.31
276.335	286.31
276.567	292.31
276.799	309.31
277.031	336.31
277.262	330.31
277.494	341.31
277.726	339.31
277.957	310.31
278.189	291.31
278.421	293.31
278.652	278.31
278.884	283.31
279.115	287.31
279.347	283.31
279.579	296.31
279.81	287.31
280.042	284.31
280.273	303.31
280.505	284.31
280.736	288.31
280.968	290.31
281.199	282.31
281.431	292.31
281.662	288.31
281.894	290.31
282.125	286.31
282.356	322.31
282.588	338.31
282.819	336.31
283.051	307.31
283.282	291.31
283.513	293.31
283.745	295.31
283.976	307.31
284.207	297.31
284.439	303.31
284.67	287.31
284.901	288.31
285.132	317.31
285.364	314.31
285.595	304.31
285.826	307.31
286.057	281.31
286.288	291.31
286.52	296.31
286.751	303.31
286.982	320.31
287.213	314.31
287.444	304.31
287.675	304.31
287.906	302.31
288.138	328.31
288.369	337.31
288.6	328.31
288.831	316.31
289.062	334.31
289.293	313.31
289.524	314.31
289.755	303.31
289.986	316.31
290.217	320.31
290.448	313.31
290.679	322.31
290.91	325.31
291.141	328.31
291.371	335.31
291.602	312.31
291.833	307.31
292.064	314.31
292.295	326.31
292.526	325.31
292.757	328.31
292.987	313.31
293.218	306.31
293.449	322.31
293.68	320.31
293.91	322.31
294.141	322.31
294.372	302.31
294.603	327.31
294.833	321.31
295.064	322.31
295.295	336.31
295.525	329.31
295.756	322.31
295.987	340.31
296.217	379.31
296.448	363.31
296.679	326.31
296.909	326.31
297.14	326.31
297.37	346.31
297.601	324.31
297.831	333.31
298.062	327.31
298.292	338.31
298.523	329.31
298.753	328.31
298.984	331.31
299.214	334.31
299.445	336.31
299.675	338.31
299.905	356.31
300.136	341.31
300.366	341.31
300.597	336.31
300.827	349.31
301.057	341.31
301.288	366.31
301.518	346.31
301.748	367.31
301.979	351.31
302.209	364.31
302.439	376.31
302.669	375.31
302.9	363.31
303.13	374.31
303.36	375.31
303.59	371.31
303.82	363.31
304.051	370.31
304.281	368.31
304.511	353.31
304.741	365.31
304.971	366.31
305.201	367.31
305.431	367.31
305.661	352.31
305.891	359.31
306.121	372.31
306.352	370.31
306.582	359.31
306.812	370.31
307.042	365.31
307.272	376.31
307.502	377.31
307.731	376.31
307.961	379.31
308.191	366.31
308.421	373.31
308.651	366.31
308.881	374.31
309.111	390.31
309.341	400.31
309.571	404.31
309.8	431.31
310.03	392.31
310.26	400.31
310.49	403.31
310.72	440.31
310.949	441.31
311.179	458.31
311.409	422.31
311.639	424.31
311.868	396.31
312.098	397.31
312.328	448.31
312.557	428.31
312.787	461.31
313.017	454.31
313.246	436.31
313.476	420.31
313.706	400.31
313.935	436.31
314.165	446.31
314.394	446.31
314.624	451.31
314.853	424.31
315.083	424.31
315.312	422.31
315.542	423.31
315.771	412.31
316.001	403.31
316.23	411.31
316.46	396.31
316.689	414.31
316.919	421.31
317.148	429.31
317.377	418.31
317.607	427.31
317.836	423.31
318.065	412.31
318.295	425.31
318.524	417.31
318.753	437.31
318.983	421.31
319.212	426.31
319.441	442.31
319.67	455.31
319.9	452.31
320.129	436.31
320.358	420.31
320.587	422.31
320.816	430.31
321.046	451.31
321.275	462.31
321.504	460.31
321.733	456.31
321.962	463.31
322.191	472.31
322.42	473.31
322.649	502.31
322.878	500.31
323.108	505.31
323.337	546.31
323.566	560.31
323.795	592.31
324.024	656.31
324.253	813.31
324.482	1124.31
324.71	1772.31
324.939	2684.31
325.168	2268.31
325.397	1143.31
325.626	766.31
325.855	666.31
326.084	588.31
326.313	563.31
326.542	574.31
326.77	627.31
326.999	748.31
327.228	1020.31
327.457	1610.31
327.686	1978.31
327.914	1281.31
328.143	824.31
328.372	690.31
328.6	659.31
328.829	634.31
329.058	645.31
329.287	654.31
329.515	599.31
329.744	566.31
329.972	546.31
330.201	554.31
330.43	615.31
330.658	647.31
330.887	705.31
331.115	662.31
331.344	572.31
331.572	530.31
331.801	557.31
332.03	556.31
332.258	528.31
332.486	519.31
332.715	529.31
332.943	501.31
333.172	506.31
333.4	520.31
333.629	514.31
333.857	542.31
334.085	508.31
334.314	534.31
334.542	524.31
334.771	561.31
334.999	521.31
335.227	522.31
335.455	531.31
335.684	506.31
335.912	485.31
336.14	493.31
336.369	511.31
336.597	507.31
336.825	539.31
337.053	502.31
337.281	498.31
337.51	496.31
337.738	499.31
337.966	488.31
338.194	506.31
338.422	494.31
338.65	492.31
338.878	495.31
339.106	484.31
339.334	495.31
339.562	489.31
339.79	452.31
340.018	483.31
340.246	485.31
340.474	495.31
340.702	477.31
340.93	485.31
341.158	498.31
341.386	518.31
341.614	494.31
341.842	485.31
342.07	467.31
342.298	490.31
342.526	458.31
342.754	467.31
342.981	478.31
343.209	476.31
343.437	486.31
343.665	478.31
343.893	495.31
344.12	503.31
344.348	488.31
344.576	500.31
344.804	480.31
345.031	498.31
345.259	527.31
345.487	486.31
345.714	498.31
345.942	498.31
346.17	479.31
346.397	489.31
346.625	471.31
346.853	463.31
347.08	485.31
347.308	476.31
347.535	502.31
347.763	495.31
347.99	478.31
348.218	477.31
348.445	486.31
348.673	501.31
348.9	477.31
349.128	486.31
349.355	473.31
349.583	454.31
349.81	463.31
350.037	472.31
350.265	458.31
350.492	449.31
350.72	477.31
350.947	463.31
351.174	473.31
351.402	472.31
351.629	482.31
351.856	487.31
352.083	468.31
352.311	489.31
352.538	488.31
352.765	485.31
352.992	484.31
353.22	463.31
353.447	463.31
353.674	471.31
353.901	448.31
354.128	470.31
354.355	451.31
354.583	447.31
354.81	448.31
355.037	455.31
355.264	454.31
355.491	444.31
355.718	440.31
355.945	429.31
356.172	431.31
356.399	460.31
356.626	438.31
356.853	443.31
357.08	439.31
357.307	442.31
357.534	456.31
357.761	470.31
357.988	436.31
358.215	460.31
358.441	424.31
358.668	442.31
358.895	442.31
359.122	446.31
359.349	468.31
359.576	479.31
359.802	494.31
360.029	503.31
360.256	539.31
360.483	522.31
360.709	517.31
360.936	474.31
361.163	483.31
361.39	463.31
361.616	483.31
361.843	480.31
362.07	476.31
362.296	468.31
362.523	483.31
362.749	448.31
362.976	454.31
363.203	479.31
363.429	460.31
363.656	466.31
363.882	445.31
364.109	465.31
364.335	453.31
364.562	451.31
364.788	458.31
365.015	481.31
365.241	464.31
365.468	478.31
365.694	487.31
365.92	483.31
366.147	464.31
366.373	447.31
366.599	463.31
366.826	442.31
367.052	462.31
367.278	451.31
367.505	440.31
367.731	452.31
367.957	468.31
368.184	469.31
368.41	478.31
368.636	460.31
368.862	485.31
369.089	473.31
369.315	469.31
369.541	454.31
369.767	454.31
369.993	467.31
370.219	459.31
370.445	456.31
370.672	471.31
370.898	443.31
371.124	463.31
371.35	452.31
371.576	458.31
371.802	463.31
372.028	475.31
372.254	459.31
372.48	451.31
372.706	458.31
372.932	432.31
373.158	469.31
373.384	472.31
373.61	477.31
373.835	459.31
374.061	459.31
374.287	456.31
374.513	459.31
374.739	460.31
374.965	458.31
375.191	475.31
375.416	467.31
375.642	490.31
375.868	478.31
376.094	454.31
376.319	468.31
376.545	460.31
376.771	469.31
376.997	452.31
377.222	496.31
377.448	459.31
377.674	445.31
377.899	459.31
378.125	458.31
378.35	464.31
378.576	435.31
378.802	446.31
379.027	469.31
379.253	464.31
379.478	457.31
379.704	454.31
379.929	452.31
380.155	456.31
380.38	454.31
380.606	469.31
380.831	452.31
381.057	436.31
381.282	467.31
381.507	468.31
381.733	463.31
381.958	480.31
382.184	474.31
382.409	469.31
382.634	462.31
382.86	476.31
383.085	471.31
383.31	470.31
383.535	496.31
383.761	478.31
383.986	476.31
384.211	484.31
384.436	502.31
384.662	493.31
384.887	484.31
385.112	502.31
385.337	498.31
385.562	506.31
385.787	510.31
386.013	499.31
386.238	533.31
386.463	500.31
386.688	518.31
386.913	505.31
387.138	489.31
387.363	516.31
387.588	515.31
387.813	506.31
388.038	496.31
388.263	535.31
388.488	515.31
388.713	502.31
388.938	517.31
389.163	521.31
389.387	523.31
389.612	523.31
389.837	517.31
390.062	494.31
390.287	508.31
390.512	507.31
390.736	521.31
390.961	501.31
391.186	495.31
391.411	524.31
391.636	526.31
391.86	520.31
392.085	531.31
392.31	522.31
392.534	541.31
392.759	540.31
392.984	537.31
393.208	502.31
393.433	487.31
393.658	510.31
393.882	505.31
394.107	508.31
394.331	518.31
394.556	514.31
394.78	543.31
395.005	532.31
395.229	535.31
395.454	540.31
395.678	534.31
395.903	546.31
396.127	582.31
396.352	565.31
396.576	556.31
396.801	546.31
397.025	550.31
397.249	533.31
397.474	567.31
397.698	560.31
397.922	580.31
398.147	588.31
398.371	584.31
398.595	589.31
398.82	579.31
399.044	597.31
399.268	610.31
399.492	655.31
399.717	684.31
399.941	707.31
400.165	733.31
400.389	722.31
400.613	651.31
400.837	650.31
401.062	614.31
401.286	592.31
401.51	567.31
401.734	581.31
401.958	608.31
402.182	616.31
402.406	601.31
402.63	618.31
402.854	624.31
403.078	610.31
403.302	617.31
403.526	623.31
403.75	607.31
403.974	618.31
404.198	619.31
404.422	616.31
404.645	591.31
404.869	618.31
405.093	645.31
405.317	691.31
405.541	722.31
405.765	676.31
405.988	652.31
406.212	663.31
406.436	684.31
406.66	714.31
406.883	674.31
407.107	671.31
407.331	762.31
407.555	822.31
407.778	806.31
408.002	767.31
408.226	701.31
408.449	696.31
408.673	686.31
408.896	722.31
409.12	733.31
409.344	716.31
409.567	617.31
409.791	638.31
410.014	627.31
410.238	605.31
410.461	627.31
410.685	637.31
410.908	666.31
411.132	687.31
411.355	738.31
411.578	698.31
411.802	634.31
412.025	624.31
412.249	637.31
412.472	622.31
412.695	651.31
412.919	652.31
413.142	605.31
413.365	607.31
413.589	588.31
413.812	590.31
414.035	591.31
414.258	558.31
414.482	607.31
414.705	586.31
414.928	585.31
415.151	566.31
415.374	590.31
415.597	585.31
415.821	567.31
416.044	591.31
416.267	602.31
416.49	612.31
416.713	580.31
416.936	581.31
417.159	574.31
417.382	592.31
417.605	575.31
417.828	596.31
418.051	601.31
418.274	613.31
418.497	583.31
418.72	602.31
418.943	599.31
419.166	627.31
419.389	644.31
419.611	643.31
419.834	612.31
420.057	623.31
420.28	608.31
420.503	616.31
420.726	594.31
420.948	631.31
421.171	690.31
421.394	717.31
421.617	642.31
421.839	604.31
422.062	598.31
422.285	628.31
422.507	710.31
422.73	784.31
422.953	751.31
423.175	677.31
423.398	649.31
423.621	629.31
423.843	631.31
424.066	643.31
424.288	654.31
424.511	666.31
424.733	732.31
424.956	853.31
425.178	800.31
425.401	804.31
425.623	803.31
425.846	728.31
426.068	668.31
426.291	643.31
426.513	662.31
426.735	697.31
426.958	713.31
427.18	815.31
427.402	992.31
427.625	1074.31
427.847	921.31
428.069	774.31
428.292	676.31
428.514	649.31
428.736	668.31
428.958	618.31
429.181	619.31
429.403	602.31
429.625	638.31
429.847	684.31
430.069	751.31
430.292	741.31
430.514	615.31
430.736	616.31
430.958	606.31
431.18	577.31
431.402	582.31
431.624	568.31
431.846	577.31
432.068	587.31
432.29	584.31
432.512	563.31
432.734	598.31
432.956	599.31
433.178	587.31
433.4	589.31
433.622	577.31
433.844	569.31
434.066	573.31
434.287	573.31
434.509	587.31
434.731	602.31
434.953	608.31
435.175	617.31
435.397	653.31
435.618	666.31
435.84	702.31
436.062	827.31
436.284	909.31
436.505	762.31
436.727	658.31
436.949	616.31
437.17	626.31
437.392	628.31
437.614	641.31
437.835	679.31
438.057	788.31
438.278	914.31
438.5	914.31
438.721	1001.31
438.943	954.31
439.165	770.31
439.386	690.31
439.608	676.31
439.829	666.31
440.05	709.31
440.272	748.31
440.493	738.31
440.715	667.31
440.936	646.31
441.158	621.31
441.379	624.31
441.6	623.31
441.822	650.31
442.043	694.31
442.264	806.31
442.486	849.31
442.707	738.31
442.928	677.31
443.149	683.31
443.371	710.31
443.592	776.31
443.813	874.31
444.034	948.31
444.255	792.31
444.476	688.31
444.698	676.31
444.919	657.31
445.14	780.31
445.361	723.31
445.582	740.31
445.803	793.31
446.024	894.31
446.245	907.31
446.466	835.31
446.687	716.31
446.908	666.31
447.129	620.31
447.35	622.31
447.571	625.31
447.792	610.31
448.013	629.31
448.234	639.31
448.455	723.31
448.675	829.31
448.896	964.31
449.117	815.31
449.338	794.31
449.559	914.31
449.779	1019.31
450	842.31
450.221	666.31
450.442	654.31
450.662	590.31
450.883	596.31
451.104	621.31
451.324	596.31
451.545	601.31
451.766	549.31
451.986	552.31
452.207	560.31
452.428	563.31
452.648	549.31
452.869	564.31
453.089	543.31
453.31	576.31
453.53	571.31
453.751	544.31
453.971	564.31
454.192	558.31
454.412	563.31
454.633	544.31
454.853	560.31
455.073	533.31
455.294	596.31
455.514	652.31
455.734	642.31
455.955	532.31
456.175	535.31
456.395	518.31
456.616	522.31
456.836	519.31
457.056	516.31
457.276	493.31
457.497	509.31
457.717	532.31
457.937	525.31
458.157	533.31
458.377	531.31
458.598	572.31
458.818	630.31
459.038	714.31
459.258	751.31
459.478	646.31
459.698	594.31
459.918	630.31
460.138	576.31
460.358	594.31
460.578	575.31
460.798	597.31
461.018	616.31
461.238	573.31
461.458	570.31
461.678	596.31
461.898	580.31
462.118	567.31
462.338	611.31
462.558	617.31
462.777	617.31
462.997	639.31
463.217	628.31
463.437	646.31
463.657	643.31
463.876	631.31
464.096	648.31
464.316	619.31
464.536	653.31
464.755	669.31
464.975	645.31
465.195	696.31
465.414	748.31
465.634	678.31
465.854	621.31
466.073	616.31
466.293	594.31
466.512	568.31
466.732	554.31
466.951	571.31
467.171	566.31
467.391	565.31
467.61	583.31
467.829	590.31
468.049	595.31
468.268	578.31
468.488	553.31
468.707	568.31
468.927	573.31
469.146	546.31
469.365	552.31
469.585	534.31
469.804	574.31
470.023	588.31
470.243	592.31
470.462	579.31
470.681	579.31
470.901	597.31
471.12	579.31
471.339	563.31
471.558	567.31
471.777	580.31
471.997	559.31
472.216	577.31
472.435	583.31
472.654	563.31
472.873	555.31
473.092	582.31
473.311	562.31
473.53	551.31
473.749	570.31
473.968	620.31
474.187	760.31
474.406	759.31
474.625	630.31
474.844	604.31
475.063	574.31
475.282	547.31
475.501	572.31
475.72	573.31
475.939	604.31
476.158	584.31
476.377	591.31
476.596	573.31
476.814	567.31
477.033	616.31
477.252	597.31
477.471	611.31
477.69	621.31
477.908	607.31
478.127	628.31
478.346	639.31
478.564	635.31
478.783	630.31
479.002	664.31
479.22	653.31
479.439	650.31
479.658	670.31
479.876	691.31
480.095	690.31
480.313	720.31
480.532	701.31
480.751	695.31
480.969	700.31
481.188	720.31
481.406	692.31
481.624	686.31
481.843	655.31
482.061	684.31
482.28	692.31
482.498	680.31
482.717	669.31
482.935	683.31
483.153	670.31
483.372	667.31
483.59	672.31
483.808	650.31
484.027	660.31
484.245	670.31
484.463	692.31
484.681	684.31
484.9	677.31
485.118	676.31
485.336	672.31
485.554	686.31
485.772	699.31
485.99	706.31
486.209	707.31
486.427	702.31
486.645	706.31
486.863	725.31
487.081	723.31
487.299	726.31
487.517	726.31
487.735	717.31
487.953	687.31
488.171	705.31
488.389	730.31
488.607	744.31
488.825	728.31
489.043	715.31
489.261	743.31
489.479	714.31
489.696	742.31
489.914	732.31
490.132	734.31
490.35	782.31
490.568	767.31
490.786	779.31
491.003	761.31
491.221	827.31
491.439	805.31
491.657	820.31
491.874	812.31
492.092	818.31
492.31	808.31
492.527	812.31
492.745	854.31
492.963	824.31
493.18	809.31
493.398	847.31
493.615	862.31
493.833	843.31
494.05	875.31
494.268	851.31
494.485	859.31
494.703	840.31
494.92	855.31
495.138	842.31
495.355	855.31
495.573	868.31
495.79	879.31
496.008	861.31
496.225	869.31
496.442	862.31
496.66	835.31
496.877	846.31
497.094	883.31
497.312	870.31
497.529	890.31
497.746	887.31
497.963	909.31
498.181	962.31
498.398	947.31
498.615	952.31
498.832	984.31
499.049	979.31
499.267	1024.31
499.484	1055.31
499.701	1077.31
499.918	1104.31
500.135	1187.31
500.352	1189.31
500.569	1235.31
500.786	1242.31
501.003	1207.31
501.22	1192.31
501.437	1123.31
501.654	1126.31
