Data from 1988.PennyLincolnUp.Lamp.En5.5.200Scan.071819.P2_HRD10591_17-19-41-972.txt Node
Date: Thu Jul 18 17:19:41 EDT 2019
User: cochatt
Spectrometer: HR+D1059
Trigger mode: 1
Integration Time (sec): 1.000000E-1
Scans to average: 1
Electric dark correction enabled: true
Nonlinearity correction enabled: false
Boxcar width: 0
XAxis mode: Wavelengths
Number of Pixels in Spectrum: 2048
>>>>>Begin Spectral Data<<<<<
223.165	-16.12
223.4	-16.12
223.635	-16.12
223.869	-24.12
224.104	-5.12
224.338	-21.12
224.573	-13.12
224.808	-4.12
225.042	-5.12
225.277	-9.12
225.511	-0.12
225.746	3.88
225.98	6.88
226.215	8.88
226.449	14.88
226.683	11.88
226.918	25.88
227.152	25.88
227.387	30.88
227.621	35.88
227.856	39.88
228.09	51.88
228.324	51.88
228.559	47.88
228.793	67.88
229.027	101.88
229.262	106.88
229.496	112.88
229.73	145.88
229.964	150.88
230.199	135.88
230.433	121.88
230.667	110.88
230.901	120.88
231.136	104.88
231.37	124.88
231.604	104.88
231.838	118.88
232.072	122.88
232.306	121.88
232.541	118.88
232.775	124.88
233.009	118.88
233.243	116.88
233.477	128.88
233.711	118.88
233.945	124.88
234.179	118.88
234.413	131.88
234.647	125.88
234.881	128.88
235.115	120.88
235.349	126.88
235.583	130.88
235.817	139.88
236.051	119.88
236.285	134.88
236.519	133.88
236.753	138.88
236.987	145.88
237.221	191.88
237.455	258.88
237.689	195.88
237.922	147.88
238.156	147.88
238.39	128.88
238.624	130.88
238.858	130.88
239.091	130.88
239.325	128.88
239.559	134.88
239.793	140.88
240.027	139.88
240.26	134.88
240.494	166.88
240.728	159.88
240.961	148.88
241.195	166.88
241.429	158.88
241.662	156.88
241.896	148.88
242.13	120.88
242.363	152.88
242.597	137.88
242.83	130.88
243.064	149.88
243.298	142.88
243.531	130.88
243.765	164.88
243.998	136.88
244.232	152.88
244.465	134.88
244.699	143.88
244.932	154.88
245.166	142.88
245.399	166.88
245.633	170.88
245.866	149.88
246.099	153.88
246.333	149.88
246.566	157.88
246.8	164.88
247.033	164.88
247.266	166.88
247.5	179.88
247.733	156.88
247.966	169.88
248.2	182.88
248.433	174.88
248.666	191.88
248.899	199.88
249.133	233.88
249.366	225.88
249.599	210.88
249.832	195.88
250.066	188.88
250.299	201.88
250.532	204.88
250.765	215.88
250.998	223.88
251.231	241.88
251.465	228.88
251.698	200.88
251.931	208.88
252.164	203.88
252.397	213.88
252.63	210.88
252.863	200.88
253.096	237.88
253.329	247.88
253.562	228.88
253.795	222.88
254.028	223.88
254.261	214.88
254.494	238.88
254.727	247.88
254.96	274.88
255.193	291.88
255.426	262.88
255.659	250.88
255.892	216.88
256.124	231.88
256.357	237.88
256.59	238.88
256.823	239.88
257.056	212.88
257.289	234.88
257.521	218.88
257.754	224.88
257.987	206.88
258.22	214.88
258.452	223.88
258.685	223.88
258.918	218.88
259.151	217.88
259.383	217.88
259.616	250.88
259.849	244.88
260.081	239.88
260.314	278.88
260.547	269.88
260.779	280.88
261.012	242.88
261.244	237.88
261.477	235.88
261.71	230.88
261.942	244.88
262.175	258.88
262.407	264.88
262.64	217.88
262.872	237.88
263.105	212.88
263.337	211.88
263.57	237.88
263.802	221.88
264.035	226.88
264.267	232.88
264.499	243.88
264.732	235.88
264.964	229.88
265.197	236.88
265.429	229.88
265.661	224.88
265.894	230.88
266.126	248.88
266.358	243.88
266.591	235.88
266.823	244.88
267.055	246.88
267.287	238.88
267.52	236.88
267.752	230.88
267.984	227.88
268.216	262.88
268.448	239.88
268.681	255.88
268.913	281.88
269.145	283.88
269.377	296.88
269.609	275.88
269.841	282.88
270.073	270.88
270.306	322.88
270.538	327.88
270.77	333.88
271.002	310.88
271.234	302.88
271.466	325.88
271.698	340.88
271.93	336.88
272.162	315.88
272.394	341.88
272.626	331.88
272.858	318.88
273.09	291.88
273.322	306.88
273.553	275.88
273.785	283.88
274.017	282.88
274.249	273.88
274.481	292.88
274.713	278.88
274.945	278.88
275.176	271.88
275.408	277.88
275.64	282.88
275.872	281.88
276.104	278.88
276.335	284.88
276.567	292.88
276.799	307.88
277.031	314.88
277.262	328.88
277.494	335.88
277.726	338.88
277.957	293.88
278.189	292.88
278.421	288.88
278.652	285.88
278.884	307.88
279.115	286.88
279.347	274.88
279.579	291.88
279.81	276.88
280.042	287.88
280.273	286.88
280.505	276.88
280.736	272.88
280.968	291.88
281.199	262.88
281.431	297.88
281.662	309.88
281.894	295.88
282.125	296.88
282.356	307.88
282.588	325.88
282.819	315.88
283.051	296.88
283.282	284.88
283.513	284.88
283.745	298.88
283.976	296.88
284.207	317.88
284.439	307.88
284.67	314.88
284.901	310.88
285.132	306.88
285.364	303.88
285.595	291.88
285.826	276.88
286.057	317.88
286.288	316.88
286.52	302.88
286.751	297.88
286.982	308.88
287.213	282.88
287.444	300.88
287.675	324.88
287.906	312.88
288.138	324.88
288.369	326.88
288.6	314.88
288.831	320.88
289.062	314.88
289.293	310.88
289.524	323.88
289.755	327.88
289.986	287.88
290.217	301.88
290.448	307.88
290.679	306.88
290.91	319.88
291.141	306.88
291.371	314.88
291.602	316.88
291.833	315.88
292.064	303.88
292.295	306.88
292.526	294.88
292.757	316.88
292.987	303.88
293.218	308.88
293.449	303.88
293.68	322.88
293.91	324.88
294.141	323.88
294.372	294.88
294.603	325.88
294.833	325.88
295.064	313.88
295.295	317.88
295.525	318.88
295.756	338.88
295.987	332.88
296.217	350.88
296.448	348.88
296.679	323.88
296.909	341.88
297.14	335.88
297.37	339.88
297.601	340.88
297.831	354.88
298.062	324.88
298.292	339.88
298.523	333.88
298.753	343.88
298.984	340.88
299.214	335.88
299.445	333.88
299.675	330.88
299.905	338.88
300.136	345.88
300.366	326.88
300.597	345.88
300.827	335.88
301.057	346.88
301.288	354.88
301.518	357.88
301.748	344.88
301.979	342.88
302.209	373.88
302.439	347.88
302.669	354.88
302.9	364.88
303.13	353.88
303.36	364.88
303.59	351.88
303.82	365.88
304.051	361.88
304.281	350.88
304.511	352.88
304.741	366.88
304.971	370.88
305.201	345.88
305.431	360.88
305.661	365.88
305.891	341.88
306.121	359.88
306.352	376.88
306.582	360.88
306.812	359.88
307.042	356.88
307.272	360.88
307.502	350.88
307.731	374.88
307.961	356.88
308.191	361.88
308.421	367.88
308.651	362.88
308.881	371.88
309.111	378.88
309.341	372.88
309.571	387.88
309.8	380.88
310.03	397.88
310.26	404.88
310.49	419.88
310.72	437.88
310.949	437.88
311.179	421.88
311.409	404.88
311.639	409.88
311.868	399.88
312.098	410.88
312.328	416.88
312.557	431.88
312.787	429.88
313.017	452.88
313.246	432.88
313.476	410.88
313.706	378.88
313.935	395.88
314.165	429.88
314.394	425.88
314.624	423.88
314.853	423.88
315.083	441.88
315.312	411.88
315.542	412.88
315.771	408.88
316.001	406.88
316.23	412.88
316.46	409.88
316.689	419.88
316.919	407.88
317.148	429.88
317.377	416.88
317.607	396.88
317.836	432.88
318.065	419.88
318.295	400.88
318.524	425.88
318.753	404.88
318.983	428.88
319.212	420.88
319.441	420.88
319.67	429.88
319.9	436.88
320.129	426.88
320.358	411.88
320.587	441.88
320.816	430.88
321.046	445.88
321.275	450.88
321.504	438.88
321.733	443.88
321.962	458.88
322.191	477.88
322.42	464.88
322.649	474.88
322.878	500.88
323.108	510.88
323.337	525.88
323.566	560.88
323.795	600.88
324.024	639.88
324.253	760.88
324.482	1066.88
324.71	1679.88
324.939	2490.88
325.168	2122.88
325.397	1073.88
325.626	748.88
325.855	627.88
326.084	582.88
326.313	562.88
326.542	578.88
326.77	594.88
326.999	727.88
327.228	972.88
327.457	1497.88
327.686	1886.88
327.914	1231.88
328.143	805.88
328.372	682.88
328.6	638.88
328.829	635.88
329.058	624.88
329.287	632.88
329.515	588.88
329.744	578.88
329.972	518.88
330.201	527.88
330.43	571.88
330.658	602.88
330.887	666.88
331.115	661.88
331.344	576.88
331.572	517.88
331.801	536.88
332.03	526.88
332.258	517.88
332.486	514.88
332.715	482.88
332.943	468.88
333.172	513.88
333.4	520.88
333.629	505.88
333.857	519.88
334.085	496.88
334.314	494.88
334.542	510.88
334.771	534.88
334.999	503.88
335.227	506.88
335.455	505.88
335.684	508.88
335.912	486.88
336.14	484.88
336.369	486.88
336.597	480.88
336.825	492.88
337.053	479.88
337.281	495.88
337.51	492.88
337.738	488.88
337.966	484.88
338.194	481.88
338.422	495.88
338.65	481.88
338.878	472.88
339.106	477.88
339.334	498.88
339.562	473.88
339.79	481.88
340.018	474.88
340.246	507.88
340.474	489.88
340.702	491.88
340.93	470.88
341.158	489.88
341.386	478.88
341.614	487.88
341.842	485.88
342.07	473.88
342.298	467.88
342.526	457.88
342.754	460.88
342.981	463.88
343.209	461.88
343.437	488.88
343.665	473.88
343.893	490.88
344.12	512.88
344.348	495.88
344.576	486.88
344.804	502.88
345.031	485.88
345.259	475.88
345.487	502.88
345.714	482.88
345.942	482.88
346.17	490.88
346.397	485.88
346.625	462.88
346.853	486.88
347.08	459.88
347.308	464.88
347.535	493.88
347.763	486.88
347.99	487.88
348.218	484.88
348.445	484.88
348.673	479.88
348.9	466.88
349.128	461.88
349.355	442.88
349.583	464.88
349.81	467.88
350.037	452.88
350.265	450.88
350.492	450.88
350.72	463.88
350.947	463.88
351.174	463.88
351.402	485.88
351.629	458.88
351.856	469.88
352.083	481.88
352.311	477.88
352.538	497.88
352.765	490.88
352.992	480.88
353.22	479.88
353.447	479.88
353.674	451.88
353.901	429.88
354.128	438.88
354.355	419.88
354.583	446.88
354.81	445.88
355.037	436.88
355.264	431.88
355.491	450.88
355.718	420.88
355.945	442.88
356.172	425.88
356.399	425.88
356.626	435.88
356.853	444.88
357.08	415.88
357.307	425.88
357.534	438.88
357.761	436.88
357.988	446.88
358.215	438.88
358.441	431.88
358.668	425.88
358.895	446.88
359.122	453.88
359.349	473.88
359.576	467.88
359.802	483.88
360.029	519.88
360.256	505.88
360.483	517.88
360.709	483.88
360.936	490.88
361.163	472.88
361.39	473.88
361.616	475.88
361.843	463.88
362.07	458.88
362.296	482.88
362.523	472.88
362.749	469.88
362.976	466.88
363.203	459.88
363.429	474.88
363.656	440.88
363.882	446.88
364.109	433.88
364.335	456.88
364.562	458.88
364.788	453.88
365.015	439.88
365.241	436.88
365.468	451.88
365.694	464.88
365.92	467.88
366.147	451.88
366.373	458.88
366.599	453.88
366.826	433.88
367.052	448.88
367.278	440.88
367.505	453.88
367.731	441.88
367.957	434.88
368.184	441.88
368.41	454.88
368.636	464.88
368.862	453.88
369.089	487.88
369.315	472.88
369.541	449.88
369.767	463.88
369.993	455.88
370.219	483.88
370.445	446.88
370.672	475.88
370.898	448.88
371.124	456.88
371.35	448.88
371.576	461.88
371.802	455.88
372.028	455.88
372.254	458.88
372.48	449.88
372.706	435.88
372.932	435.88
373.158	452.88
373.384	482.88
373.61	463.88
373.835	460.88
374.061	456.88
374.287	466.88
374.513	476.88
374.739	473.88
374.965	481.88
375.191	479.88
375.416	442.88
375.642	460.88
375.868	461.88
376.094	460.88
376.319	448.88
376.545	454.88
376.771	476.88
376.997	453.88
377.222	436.88
377.448	459.88
377.674	454.88
377.899	446.88
378.125	430.88
378.35	467.88
378.576	461.88
378.802	433.88
379.027	442.88
379.253	463.88
379.478	450.88
379.704	446.88
379.929	447.88
380.155	455.88
380.38	459.88
380.606	450.88
380.831	454.88
381.057	442.88
381.282	444.88
381.507	456.88
381.733	450.88
381.958	466.88
382.184	491.88
382.409	475.88
382.634	478.88
382.86	461.88
383.085	460.88
383.31	484.88
383.535	475.88
383.761	480.88
383.986	470.88
384.211	479.88
384.436	513.88
384.662	494.88
384.887	490.88
385.112	504.88
385.337	499.88
385.562	513.88
385.787	500.88
386.013	518.88
386.238	484.88
386.463	490.88
386.688	494.88
386.913	490.88
387.138	494.88
387.363	508.88
387.588	499.88
387.813	491.88
388.038	502.88
388.263	514.88
388.488	512.88
388.713	510.88
388.938	518.88
389.163	518.88
389.387	491.88
389.612	488.88
389.837	505.88
390.062	498.88
390.287	496.88
390.512	511.88
390.736	502.88
390.961	525.88
391.186	514.88
391.411	516.88
391.636	513.88
391.86	523.88
392.085	545.88
392.31	541.88
392.534	521.88
392.759	522.88
392.984	535.88
393.208	517.88
393.433	503.88
393.658	526.88
393.882	518.88
394.107	503.88
394.331	535.88
394.556	496.88
394.78	524.88
395.005	516.88
395.229	539.88
395.454	520.88
395.678	518.88
395.903	546.88
396.127	587.88
396.352	568.88
396.576	544.88
396.801	537.88
397.025	548.88
397.249	544.88
397.474	542.88
397.698	551.88
397.922	584.88
398.147	582.88
398.371	577.88
398.595	586.88
398.82	597.88
399.044	617.88
399.268	592.88
399.492	653.88
399.717	674.88
399.941	706.88
400.165	707.88
400.389	722.88
400.613	678.88
400.837	605.88
401.062	594.88
401.286	606.88
401.51	607.88
401.734	600.88
401.958	608.88
402.182	610.88
402.406	608.88
402.63	613.88
402.854	615.88
403.078	589.88
403.302	601.88
403.526	595.88
403.75	595.88
403.974	593.88
404.198	597.88
404.422	629.88
404.645	626.88
404.869	611.88
405.093	636.88
405.317	656.88
405.541	692.88
405.765	637.88
405.988	633.88
406.212	642.88
406.436	681.88
406.66	693.88
406.883	678.88
407.107	690.88
407.331	745.88
407.555	806.88
407.778	811.88
408.002	752.88
408.226	709.88
408.449	663.88
408.673	668.88
408.896	701.88
409.12	751.88
409.344	698.88
409.567	655.88
409.791	644.88
410.014	617.88
410.238	619.88
410.461	631.88
410.685	622.88
410.908	644.88
411.132	687.88
411.355	712.88
411.578	692.88
411.802	636.88
412.025	619.88
412.249	606.88
412.472	604.88
412.695	640.88
412.919	608.88
413.142	612.88
413.365	575.88
413.589	603.88
413.812	571.88
414.035	574.88
414.258	580.88
414.482	583.88
414.705	576.88
414.928	580.88
415.151	564.88
415.374	587.88
415.597	598.88
415.821	580.88
416.044	580.88
416.267	564.88
416.49	559.88
416.713	565.88
416.936	582.88
417.159	585.88
417.382	573.88
417.605	585.88
417.828	615.88
418.051	613.88
418.274	612.88
418.497	575.88
418.72	589.88
418.943	558.88
419.166	619.88
419.389	638.88
419.611	612.88
419.834	609.88
420.057	624.88
420.28	586.88
420.503	580.88
420.726	587.88
420.948	606.88
421.171	655.88
421.394	700.88
421.617	612.88
421.839	588.88
422.062	634.88
422.285	634.88
422.507	689.88
422.73	764.88
422.953	767.88
423.175	655.88
423.398	654.88
423.621	613.88
423.843	652.88
424.066	656.88
424.288	647.88
424.511	696.88
424.733	729.88
424.956	829.88
425.178	793.88
425.401	805.88
425.623	814.88
425.846	702.88
426.068	652.88
426.291	660.88
426.513	655.88
426.735	670.88
426.958	710.88
427.18	815.88
427.402	939.88
427.625	1044.88
427.847	892.88
428.069	768.88
428.292	690.88
428.514	643.88
428.736	628.88
428.958	616.88
429.181	578.88
429.403	616.88
429.625	611.88
429.847	644.88
430.069	719.88
430.292	722.88
430.514	614.88
430.736	619.88
430.958	613.88
431.18	591.88
431.402	577.88
431.624	568.88
431.846	562.88
432.068	575.88
432.29	579.88
432.512	566.88
432.734	572.88
432.956	572.88
433.178	579.88
433.4	590.88
433.622	576.88
433.844	574.88
434.066	589.88
434.287	571.88
434.509	564.88
434.731	579.88
434.953	598.88
435.175	637.88
435.397	624.88
435.618	616.88
435.84	713.88
436.062	826.88
436.284	890.88
436.505	760.88
436.727	650.88
436.949	626.88
437.17	627.88
437.392	621.88
437.614	640.88
437.835	671.88
438.057	788.88
438.278	911.88
438.5	888.88
438.721	992.88
438.943	969.88
439.165	741.88
439.386	685.88
439.608	680.88
439.829	661.88
440.05	701.88
440.272	746.88
440.493	710.88
440.715	635.88
440.936	619.88
441.158	626.88
441.379	620.88
441.6	634.88
441.822	644.88
442.043	690.88
442.264	772.88
442.486	819.88
442.707	720.88
442.928	657.88
443.149	654.88
443.371	694.88
443.592	763.88
443.813	848.88
444.034	916.88
444.255	777.88
444.476	684.88
444.698	676.88
444.919	675.88
445.14	760.88
445.361	705.88
445.582	713.88
445.803	792.88
446.024	887.88
446.245	901.88
446.466	821.88
446.687	716.88
446.908	668.88
447.129	632.88
447.35	622.88
447.571	599.88
447.792	615.88
448.013	617.88
448.234	630.88
448.455	676.88
448.675	844.88
448.896	943.88
449.117	798.88
449.338	766.88
449.559	891.88
449.779	1006.88
450	801.88
450.221	662.88
450.442	591.88
450.662	583.88
450.883	598.88
451.104	629.88
451.324	594.88
451.545	589.88
451.766	582.88
451.986	562.88
452.207	540.88
452.428	535.88
452.648	551.88
452.869	544.88
453.089	572.88
453.31	565.88
453.53	566.88
453.751	540.88
453.971	544.88
454.192	566.88
454.412	558.88
454.633	558.88
454.853	538.88
455.073	565.88
455.294	578.88
455.514	638.88
455.734	624.88
455.955	566.88
456.175	512.88
456.395	513.88
456.616	527.88
456.836	511.88
457.056	518.88
457.276	521.88
457.497	508.88
457.717	505.88
457.937	504.88
458.157	514.88
458.377	521.88
458.598	553.88
458.818	595.88
459.038	705.88
459.258	728.88
459.478	638.88
459.698	594.88
459.918	570.88
460.138	593.88
460.358	576.88
460.578	594.88
460.798	610.88
461.018	611.88
461.238	599.88
461.458	565.88
461.678	584.88
461.898	590.88
462.118	593.88
462.338	593.88
462.558	611.88
462.777	602.88
462.997	630.88
463.217	630.88
463.437	654.88
463.657	637.88
463.876	633.88
464.096	644.88
464.316	629.88
464.536	643.88
464.755	643.88
464.975	641.88
465.195	645.88
465.414	756.88
465.634	692.88
465.854	620.88
466.073	605.88
466.293	592.88
466.512	564.88
466.732	566.88
466.951	545.88
467.171	529.88
467.391	568.88
467.61	570.88
467.829	587.88
468.049	579.88
468.268	553.88
468.488	539.88
468.707	554.88
468.927	543.88
469.146	533.88
469.365	547.88
469.585	541.88
469.804	547.88
470.023	554.88
470.243	548.88
470.462	572.88
470.681	593.88
470.901	575.88
471.12	574.88
471.339	567.88
471.558	560.88
471.777	572.88
471.997	564.88
472.216	524.88
472.435	550.88
472.654	550.88
472.873	572.88
473.092	544.88
473.311	548.88
473.53	567.88
473.749	578.88
473.968	606.88
474.187	721.88
474.406	756.88
474.625	630.88
474.844	598.88
475.063	588.88
475.282	566.88
475.501	574.88
475.72	572.88
475.939	576.88
476.158	581.88
476.377	590.88
476.596	581.88
476.814	596.88
477.033	582.88
477.252	581.88
477.471	600.88
477.69	608.88
477.908	627.88
478.127	638.88
478.346	613.88
478.564	628.88
478.783	640.88
479.002	622.88
479.22	646.88
479.439	674.88
479.658	668.88
479.876	686.88
480.095	704.88
480.313	695.88
480.532	700.88
480.751	676.88
480.969	673.88
481.188	699.88
481.406	716.88
481.624	703.88
481.843	694.88
482.061	669.88
482.28	683.88
482.498	655.88
482.717	646.88
482.935	691.88
483.153	635.88
483.372	656.88
483.59	669.88
483.808	646.88
484.027	666.88
484.245	675.88
484.463	674.88
484.681	661.88
484.9	688.88
485.118	682.88
485.336	662.88
485.554	701.88
485.772	710.88
485.99	697.88
486.209	674.88
486.427	674.88
486.645	702.88
486.863	706.88
487.081	723.88
487.299	728.88
487.517	731.88
487.735	689.88
487.953	694.88
488.171	726.88
488.389	700.88
488.607	722.88
488.825	695.88
489.043	700.88
489.261	724.88
489.479	721.88
489.696	725.88
489.914	721.88
490.132	732.88
490.35	723.88
490.568	736.88
490.786	759.88
491.003	770.88
491.221	760.88
491.439	800.88
491.657	805.88
491.874	795.88
492.092	806.88
492.31	796.88
492.527	815.88
492.745	821.88
492.963	810.88
493.18	819.88
493.398	840.88
493.615	804.88
493.833	818.88
494.05	832.88
494.268	817.88
494.485	826.88
494.703	830.88
494.92	867.88
495.138	833.88
495.355	836.88
495.573	852.88
495.79	845.88
496.008	830.88
496.225	856.88
496.442	830.88
496.66	849.88
496.877	831.88
497.094	868.88
497.312	851.88
497.529	895.88
497.746	902.88
497.963	923.88
498.181	936.88
498.398	941.88
498.615	931.88
498.832	992.88
499.049	998.88
499.267	1028.88
499.484	1051.88
499.701	1061.88
499.918	1097.88
500.135	1166.88
500.352	1228.88
500.569	1214.88
500.786	1250.88
501.003	1224.88
501.22	1172.88
501.437	1124.88
501.654	1138.88
