Data from 1988.PennyLincolnUp.Lamp.En5.5.200Scan.071819.P2_HRD10591_17-19-24-975.txt Node
Date: Thu Jul 18 17:19:24 EDT 2019
User: cochatt
Spectrometer: HR+D1059
Trigger mode: 1
Integration Time (sec): 1.000000E-1
Scans to average: 1
Electric dark correction enabled: true
Nonlinearity correction enabled: false
Boxcar width: 0
XAxis mode: Wavelengths
Number of Pixels in Spectrum: 2048
>>>>>Begin Spectral Data<<<<<
223.165	-24.31
223.4	-24.31
223.635	-24.31
223.869	-11.31
224.104	-25.31
224.338	-14.31
224.573	-23.31
224.808	-16.31
225.042	-22.31
225.277	0.69
225.511	4.69
225.746	-18.31
225.98	14.69
226.215	14.69
226.449	15.69
226.683	32.69
226.918	28.69
227.152	43.69
227.387	37.69
227.621	34.69
227.856	45.69
228.09	48.69
228.324	48.69
228.559	40.69
228.793	72.69
229.027	94.69
229.262	108.69
229.496	106.69
229.73	145.69
229.964	164.69
230.199	144.69
230.433	113.69
230.667	109.69
230.901	109.69
231.136	115.69
231.37	99.69
231.604	106.69
231.838	101.69
232.072	112.69
232.306	94.69
232.541	112.69
232.775	108.69
233.009	103.69
233.243	124.69
233.477	116.69
233.711	110.69
233.945	125.69
234.179	111.69
234.413	118.69
234.647	115.69
234.881	114.69
235.115	114.69
235.349	128.69
235.583	134.69
235.817	126.69
236.051	128.69
236.285	101.69
236.519	124.69
236.753	119.69
236.987	147.69
237.221	190.69
237.455	229.69
237.689	199.69
237.922	157.69
238.156	144.69
238.39	137.69
238.624	132.69
238.858	127.69
239.091	136.69
239.325	126.69
239.559	134.69
239.793	136.69
240.027	140.69
240.26	139.69
240.494	154.69
240.728	154.69
240.961	147.69
241.195	152.69
241.429	137.69
241.662	145.69
241.896	146.69
242.13	139.69
242.363	138.69
242.597	138.69
242.83	132.69
243.064	145.69
243.298	135.69
243.531	156.69
243.765	154.69
243.998	132.69
244.232	142.69
244.465	137.69
244.699	146.69
244.932	137.69
245.166	134.69
245.399	139.69
245.633	125.69
245.866	145.69
246.099	135.69
246.333	137.69
246.566	157.69
246.8	153.69
247.033	160.69
247.266	156.69
247.5	156.69
247.733	170.69
247.966	169.69
248.2	179.69
248.433	170.69
248.666	175.69
248.899	186.69
249.133	210.69
249.366	206.69
249.599	196.69
249.832	180.69
250.066	164.69
250.299	172.69
250.532	193.69
250.765	191.69
250.998	201.69
251.231	229.69
251.465	209.69
251.698	186.69
251.931	208.69
252.164	180.69
252.397	194.69
252.63	190.69
252.863	191.69
253.096	200.69
253.329	227.69
253.562	219.69
253.795	220.69
254.028	217.69
254.261	213.69
254.494	229.69
254.727	252.69
254.96	259.69
255.193	263.69
255.426	240.69
255.659	225.69
255.892	208.69
256.124	203.69
256.357	212.69
256.59	204.69
256.823	212.69
257.056	215.69
257.289	222.69
257.521	218.69
257.754	206.69
257.987	197.69
258.22	206.69
258.452	212.69
258.685	203.69
258.918	195.69
259.151	218.69
259.383	224.69
259.616	209.69
259.849	215.69
260.081	231.69
260.314	251.69
260.547	246.69
260.779	244.69
261.012	237.69
261.244	228.69
261.477	220.69
261.71	209.69
261.942	231.69
262.175	241.69
262.407	230.69
262.64	215.69
262.872	209.69
263.105	220.69
263.337	227.69
263.57	222.69
263.802	208.69
264.035	222.69
264.267	211.69
264.499	206.69
264.732	232.69
264.964	216.69
265.197	215.69
265.429	217.69
265.661	227.69
265.894	216.69
266.126	218.69
266.358	211.69
266.591	222.69
266.823	225.69
267.055	237.69
267.287	226.69
267.52	220.69
267.752	233.69
267.984	242.69
268.216	200.69
268.448	247.69
268.681	235.69
268.913	242.69
269.145	243.69
269.377	257.69
269.609	264.69
269.841	285.69
270.073	266.69
270.306	292.69
270.538	331.69
270.77	328.69
271.002	303.69
271.234	287.69
271.466	281.69
271.698	305.69
271.93	318.69
272.162	320.69
272.394	311.69
272.626	301.69
272.858	298.69
273.09	283.69
273.322	277.69
273.553	262.69
273.785	265.69
274.017	271.69
274.249	279.69
274.481	280.69
274.713	271.69
274.945	278.69
275.176	281.69
275.408	283.69
275.64	266.69
275.872	257.69
276.104	246.69
276.335	281.69
276.567	278.69
276.799	291.69
277.031	312.69
277.262	326.69
277.494	317.69
277.726	299.69
277.957	301.69
278.189	289.69
278.421	278.69
278.652	289.69
278.884	288.69
279.115	282.69
279.347	281.69
279.579	269.69
279.81	274.69
280.042	278.69
280.273	282.69
280.505	268.69
280.736	284.69
280.968	266.69
281.199	282.69
281.431	282.69
281.662	277.69
281.894	251.69
282.125	278.69
282.356	292.69
282.588	308.69
282.819	305.69
283.051	278.69
283.282	292.69
283.513	268.69
283.745	280.69
283.976	288.69
284.207	293.69
284.439	277.69
284.67	294.69
284.901	286.69
285.132	299.69
285.364	298.69
285.595	288.69
285.826	295.69
286.057	302.69
286.288	272.69
286.52	291.69
286.751	279.69
286.982	306.69
287.213	290.69
287.444	293.69
287.675	286.69
287.906	310.69
288.138	311.69
288.369	324.69
288.6	325.69
288.831	301.69
289.062	322.69
289.293	301.69
289.524	281.69
289.755	304.69
289.986	313.69
290.217	300.69
290.448	300.69
290.679	310.69
290.91	299.69
291.141	290.69
291.371	304.69
291.602	295.69
291.833	300.69
292.064	301.69
292.295	306.69
292.526	286.69
292.757	310.69
292.987	311.69
293.218	310.69
293.449	304.69
293.68	287.69
293.91	320.69
294.141	292.69
294.372	304.69
294.603	289.69
294.833	307.69
295.064	314.69
295.295	298.69
295.525	310.69
295.756	316.69
295.987	329.69
296.217	341.69
296.448	362.69
296.679	320.69
296.909	312.69
297.14	293.69
297.37	297.69
297.601	309.69
297.831	317.69
298.062	315.69
298.292	306.69
298.523	319.69
298.753	326.69
298.984	312.69
299.214	305.69
299.445	317.69
299.675	316.69
299.905	338.69
300.136	330.69
300.366	322.69
300.597	313.69
300.827	348.69
301.057	340.69
301.288	351.69
301.518	327.69
301.748	333.69
301.979	340.69
302.209	344.69
302.439	340.69
302.669	318.69
302.9	356.69
303.13	329.69
303.36	334.69
303.59	363.69
303.82	341.69
304.051	359.69
304.281	354.69
304.511	347.69
304.741	335.69
304.971	358.69
305.201	360.69
305.431	333.69
305.661	350.69
305.891	341.69
306.121	334.69
306.352	348.69
306.582	349.69
306.812	354.69
307.042	344.69
307.272	339.69
307.502	339.69
307.731	353.69
307.961	345.69
308.191	344.69
308.421	341.69
308.651	376.69
308.881	368.69
309.111	360.69
309.341	370.69
309.571	363.69
309.8	378.69
310.03	398.69
310.26	380.69
310.49	390.69
310.72	426.69
310.949	398.69
311.179	428.69
311.409	388.69
311.639	389.69
311.868	398.69
312.098	416.69
312.328	413.69
312.557	428.69
312.787	446.69
313.017	430.69
313.246	411.69
313.476	388.69
313.706	390.69
313.935	406.69
314.165	418.69
314.394	429.69
314.624	414.69
314.853	411.69
315.083	408.69
315.312	405.69
315.542	401.69
315.771	397.69
316.001	380.69
316.23	400.69
316.46	390.69
316.689	379.69
316.919	416.69
317.148	400.69
317.377	408.69
317.607	416.69
317.836	392.69
318.065	414.69
318.295	399.69
318.524	379.69
318.753	391.69
318.983	402.69
319.212	384.69
319.441	406.69
319.67	425.69
319.9	422.69
320.129	393.69
320.358	394.69
320.587	394.69
320.816	409.69
321.046	428.69
321.275	408.69
321.504	433.69
321.733	409.69
321.962	427.69
322.191	435.69
322.42	463.69
322.649	463.69
322.878	473.69
323.108	480.69
323.337	525.69
323.566	544.69
323.795	553.69
324.024	602.69
324.253	751.69
324.482	1050.69
324.71	1600.69
324.939	2335.69
325.168	1956.69
325.397	1009.69
325.626	696.69
325.855	594.69
326.084	558.69
326.313	529.69
326.542	541.69
326.77	574.69
326.999	682.69
327.228	933.69
327.457	1461.69
327.686	1732.69
327.914	1131.69
328.143	724.69
328.372	648.69
328.6	605.69
328.829	587.69
329.058	605.69
329.287	599.69
329.515	575.69
329.744	522.69
329.972	516.69
330.201	509.69
330.43	548.69
330.658	593.69
330.887	612.69
331.115	621.69
331.344	557.69
331.572	537.69
331.801	511.69
332.03	512.69
332.258	496.69
332.486	478.69
332.715	479.69
332.943	478.69
333.172	482.69
333.4	481.69
333.629	479.69
333.857	485.69
334.085	487.69
334.314	499.69
334.542	485.69
334.771	514.69
334.999	492.69
335.227	500.69
335.455	490.69
335.684	481.69
335.912	485.69
336.14	457.69
336.369	484.69
336.597	490.69
336.825	496.69
337.053	477.69
337.281	472.69
337.51	445.69
337.738	468.69
337.966	457.69
338.194	471.69
338.422	468.69
338.65	466.69
338.878	462.69
339.106	457.69
339.334	466.69
339.562	450.69
339.79	439.69
340.018	471.69
340.246	442.69
340.474	457.69
340.702	458.69
340.93	450.69
341.158	453.69
341.386	458.69
341.614	472.69
341.842	443.69
342.07	441.69
342.298	449.69
342.526	448.69
342.754	454.69
342.981	413.69
343.209	447.69
343.437	453.69
343.665	446.69
343.893	472.69
344.12	456.69
344.348	490.69
344.576	473.69
344.804	470.69
345.031	466.69
345.259	482.69
345.487	488.69
345.714	450.69
345.942	444.69
346.17	452.69
346.397	441.69
346.625	464.69
346.853	414.69
347.08	439.69
347.308	448.69
347.535	429.69
347.763	452.69
347.99	461.69
348.218	444.69
348.445	468.69
348.673	457.69
348.9	448.69
349.128	448.69
349.355	432.69
349.583	446.69
349.81	424.69
350.037	419.69
350.265	439.69
350.492	436.69
350.72	429.69
350.947	438.69
351.174	431.69
351.402	438.69
351.629	457.69
351.856	421.69
352.083	463.69
352.311	456.69
352.538	468.69
352.765	456.69
352.992	457.69
353.22	431.69
353.447	446.69
353.674	439.69
353.901	427.69
354.128	422.69
354.355	412.69
354.583	409.69
354.81	426.69
355.037	428.69
355.264	404.69
355.491	401.69
355.718	398.69
355.945	405.69
356.172	418.69
356.399	408.69
356.626	406.69
356.853	405.69
357.08	395.69
357.307	398.69
357.534	420.69
357.761	405.69
357.988	397.69
358.215	398.69
358.441	408.69
358.668	394.69
358.895	421.69
359.122	409.69
359.349	432.69
359.576	425.69
359.802	464.69
360.029	489.69
360.256	515.69
360.483	488.69
360.709	451.69
360.936	469.69
361.163	439.69
361.39	438.69
361.616	424.69
361.843	436.69
362.07	459.69
362.296	441.69
362.523	452.69
362.749	449.69
362.976	450.69
363.203	440.69
363.429	434.69
363.656	408.69
363.882	430.69
364.109	430.69
364.335	421.69
364.562	445.69
364.788	424.69
365.015	428.69
365.241	405.69
365.468	414.69
365.694	430.69
365.92	449.69
366.147	416.69
366.373	428.69
366.599	425.69
366.826	433.69
367.052	425.69
367.278	419.69
367.505	420.69
367.731	426.69
367.957	416.69
368.184	420.69
368.41	424.69
368.636	445.69
368.862	442.69
369.089	425.69
369.315	435.69
369.541	432.69
369.767	420.69
369.993	424.69
370.219	422.69
370.445	432.69
370.672	408.69
370.898	434.69
371.124	417.69
371.35	406.69
371.576	408.69
371.802	417.69
372.028	417.69
372.254	415.69
372.48	418.69
372.706	423.69
372.932	403.69
373.158	421.69
373.384	422.69
373.61	405.69
373.835	428.69
374.061	417.69
374.287	420.69
374.513	433.69
374.739	424.69
374.965	413.69
375.191	424.69
375.416	430.69
375.642	437.69
375.868	443.69
376.094	421.69
376.319	414.69
376.545	421.69
376.771	421.69
376.997	415.69
377.222	395.69
377.448	415.69
377.674	419.69
377.899	406.69
378.125	417.69
378.35	417.69
378.576	422.69
378.802	427.69
379.027	417.69
379.253	424.69
379.478	413.69
379.704	419.69
379.929	418.69
380.155	413.69
380.38	424.69
380.606	424.69
380.831	417.69
381.057	428.69
381.282	408.69
381.507	419.69
381.733	427.69
381.958	410.69
382.184	406.69
382.409	418.69
382.634	452.69
382.86	415.69
383.085	430.69
383.31	449.69
383.535	441.69
383.761	443.69
383.986	420.69
384.211	421.69
384.436	440.69
384.662	431.69
384.887	443.69
385.112	442.69
385.337	450.69
385.562	462.69
385.787	456.69
386.013	482.69
386.238	467.69
386.463	448.69
386.688	462.69
386.913	464.69
387.138	486.69
387.363	461.69
387.588	461.69
387.813	475.69
388.038	465.69
388.263	471.69
388.488	455.69
388.713	461.69
388.938	444.69
389.163	462.69
389.387	476.69
389.612	446.69
389.837	467.69
390.062	464.69
390.287	447.69
390.512	466.69
390.736	472.69
390.961	447.69
391.186	450.69
391.411	471.69
391.636	474.69
391.86	485.69
392.085	493.69
392.31	481.69
392.534	478.69
392.759	482.69
392.984	469.69
393.208	489.69
393.433	479.69
393.658	476.69
393.882	467.69
394.107	457.69
394.331	496.69
394.556	466.69
394.78	467.69
395.005	471.69
395.229	483.69
395.454	474.69
395.678	477.69
395.903	482.69
396.127	518.69
396.352	532.69
396.576	491.69
396.801	488.69
397.025	501.69
397.249	479.69
397.474	472.69
397.698	487.69
397.922	516.69
398.147	539.69
398.371	517.69
398.595	535.69
398.82	541.69
399.044	528.69
399.268	564.69
399.492	601.69
399.717	632.69
399.941	653.69
400.165	678.69
400.389	661.69
400.613	603.69
400.837	567.69
401.062	554.69
401.286	564.69
401.51	522.69
401.734	562.69
401.958	554.69
402.182	544.69
402.406	568.69
402.63	540.69
402.854	547.69
403.078	558.69
403.302	553.69
403.526	567.69
403.75	545.69
403.974	551.69
404.198	540.69
404.422	573.69
404.645	553.69
404.869	566.69
405.093	592.69
405.317	611.69
405.541	633.69
405.765	591.69
405.988	580.69
406.212	576.69
406.436	599.69
406.66	610.69
406.883	597.69
407.107	624.69
407.331	660.69
407.555	749.69
407.778	717.69
408.002	655.69
408.226	611.69
408.449	620.69
408.673	598.69
408.896	651.69
409.12	695.69
409.344	687.69
409.567	603.69
409.791	580.69
410.014	548.69
410.238	560.69
410.461	542.69
410.685	562.69
410.908	564.69
411.132	629.69
411.355	654.69
411.578	626.69
411.802	572.69
412.025	541.69
412.249	560.69
412.472	568.69
412.695	558.69
412.919	568.69
413.142	563.69
413.365	532.69
413.589	533.69
413.812	540.69
414.035	553.69
414.258	540.69
414.482	526.69
414.705	532.69
414.928	517.69
415.151	536.69
415.374	529.69
415.597	537.69
415.821	498.69
416.044	522.69
416.267	540.69
416.49	550.69
416.713	506.69
416.936	532.69
417.159	514.69
417.382	512.69
417.605	527.69
417.828	540.69
418.051	540.69
418.274	542.69
418.497	530.69
418.72	521.69
418.943	502.69
419.166	551.69
419.389	547.69
419.611	568.69
419.834	552.69
420.057	552.69
420.28	535.69
420.503	513.69
420.726	534.69
420.948	560.69
421.171	621.69
421.394	626.69
421.617	590.69
421.839	544.69
422.062	544.69
422.285	573.69
422.507	634.69
422.73	715.69
422.953	681.69
423.175	583.69
423.398	581.69
423.621	575.69
423.843	560.69
424.066	585.69
424.288	560.69
424.511	615.69
424.733	677.69
424.956	745.69
425.178	727.69
425.401	705.69
425.623	739.69
425.846	645.69
426.068	568.69
426.291	574.69
426.513	593.69
426.735	602.69
426.958	627.69
427.18	714.69
427.402	866.69
427.625	941.69
427.847	795.69
428.069	714.69
428.292	606.69
428.514	578.69
428.736	567.69
428.958	563.69
429.181	539.69
429.403	563.69
429.625	533.69
429.847	585.69
430.069	644.69
430.292	642.69
430.514	573.69
430.736	537.69
430.958	510.69
431.18	501.69
431.402	521.69
431.624	518.69
431.846	522.69
432.068	517.69
432.29	517.69
432.512	524.69
432.734	510.69
432.956	534.69
433.178	546.69
433.4	531.69
433.622	552.69
433.844	508.69
434.066	531.69
434.287	535.69
434.509	518.69
434.731	525.69
434.953	541.69
435.175	551.69
435.397	577.69
435.618	604.69
435.84	635.69
436.062	726.69
436.284	827.69
436.505	658.69
436.727	626.69
436.949	555.69
437.17	566.69
437.392	544.69
437.614	555.69
437.835	603.69
438.057	719.69
438.278	802.69
438.5	811.69
438.721	875.69
438.943	838.69
439.165	646.69
439.386	612.69
439.608	602.69
439.829	580.69
440.05	637.69
440.272	662.69
440.493	617.69
440.715	578.69
440.936	572.69
441.158	571.69
441.379	562.69
441.6	560.69
441.822	583.69
442.043	633.69
442.264	713.69
442.486	772.69
442.707	647.69
442.928	610.69
443.149	609.69
443.371	636.69
443.592	677.69
443.813	771.69
444.034	842.69
444.255	688.69
444.476	620.69
444.698	567.69
444.919	580.69
445.14	676.69
445.361	631.69
445.582	632.69
445.803	692.69
446.024	815.69
446.245	786.69
446.466	715.69
446.687	644.69
446.908	610.69
447.129	569.69
447.35	527.69
447.571	548.69
447.792	552.69
448.013	549.69
448.234	588.69
448.455	604.69
448.675	752.69
448.896	872.69
449.117	731.69
449.338	697.69
449.559	788.69
449.779	901.69
450	725.69
450.221	580.69
450.442	538.69
450.662	548.69
450.883	556.69
451.104	541.69
451.324	539.69
451.545	522.69
451.766	509.69
451.986	497.69
452.207	458.69
452.428	463.69
452.648	514.69
452.869	480.69
453.089	512.69
453.31	509.69
453.53	479.69
453.751	487.69
453.971	478.69
454.192	489.69
454.412	515.69
454.633	496.69
454.853	485.69
455.073	491.69
455.294	530.69
455.514	589.69
455.734	558.69
455.955	506.69
456.175	471.69
456.395	445.69
456.616	452.69
456.836	440.69
457.056	473.69
457.276	448.69
457.497	442.69
457.717	471.69
457.937	476.69
458.157	458.69
458.377	478.69
458.598	494.69
458.818	557.69
459.038	642.69
459.258	652.69
459.478	567.69
459.698	533.69
459.918	498.69
460.138	510.69
460.358	514.69
460.578	529.69
460.798	560.69
461.018	535.69
461.238	532.69
461.458	533.69
461.678	511.69
461.898	544.69
462.118	533.69
462.338	545.69
462.558	556.69
462.777	546.69
462.997	568.69
463.217	564.69
463.437	594.69
463.657	583.69
463.876	577.69
464.096	583.69
464.316	573.69
464.536	581.69
464.755	584.69
464.975	582.69
465.195	591.69
465.414	680.69
465.634	599.69
465.854	568.69
466.073	542.69
466.293	531.69
466.512	534.69
466.732	514.69
466.951	507.69
467.171	490.69
467.391	523.69
467.61	534.69
467.829	525.69
468.049	510.69
468.268	504.69
468.488	512.69
468.707	493.69
468.927	480.69
469.146	513.69
469.365	497.69
469.585	503.69
469.804	510.69
470.023	506.69
470.243	505.69
470.462	517.69
470.681	524.69
470.901	544.69
471.12	518.69
471.339	512.69
471.558	501.69
471.777	490.69
471.997	492.69
472.216	496.69
472.435	509.69
472.654	510.69
472.873	496.69
473.092	480.69
473.311	501.69
473.53	510.69
473.749	514.69
473.968	540.69
474.187	660.69
474.406	657.69
474.625	580.69
474.844	522.69
475.063	491.69
475.282	524.69
475.501	505.69
475.72	522.69
475.939	527.69
476.158	518.69
476.377	546.69
476.596	527.69
476.814	541.69
477.033	525.69
477.252	531.69
477.471	537.69
477.69	537.69
477.908	538.69
478.127	543.69
478.346	555.69
478.564	563.69
478.783	581.69
479.002	607.69
479.22	590.69
479.439	608.69
479.658	609.69
479.876	614.69
480.095	633.69
480.313	638.69
480.532	648.69
480.751	635.69
480.969	615.69
481.188	613.69
481.406	626.69
481.624	588.69
481.843	609.69
482.061	600.69
482.28	597.69
482.498	583.69
482.717	586.69
482.935	578.69
483.153	589.69
483.372	618.69
483.59	599.69
483.808	619.69
484.027	599.69
484.245	601.69
484.463	600.69
484.681	611.69
484.9	605.69
485.118	596.69
485.336	597.69
485.554	640.69
485.772	596.69
485.99	609.69
486.209	600.69
486.427	633.69
486.645	628.69
486.863	642.69
487.081	656.69
487.299	629.69
487.517	630.69
487.735	626.69
487.953	636.69
488.171	625.69
488.389	636.69
488.607	644.69
488.825	626.69
489.043	641.69
489.261	633.69
489.479	640.69
489.696	642.69
489.914	624.69
490.132	654.69
490.35	660.69
490.568	670.69
490.786	677.69
491.003	681.69
491.221	708.69
491.439	696.69
491.657	714.69
491.874	722.69
492.092	712.69
492.31	691.69
492.527	703.69
492.745	730.69
492.963	715.69
493.18	728.69
493.398	697.69
493.615	763.69
493.833	737.69
494.05	733.69
494.268	713.69
494.485	736.69
494.703	738.69
494.92	755.69
495.138	760.69
495.355	741.69
495.573	761.69
495.79	726.69
496.008	767.69
496.225	756.69
496.442	756.69
496.66	779.69
496.877	755.69
497.094	787.69
497.312	762.69
497.529	766.69
497.746	753.69
497.963	818.69
498.181	817.69
498.398	853.69
498.615	860.69
498.832	894.69
499.049	864.69
499.267	885.69
499.484	920.69
499.701	964.69
499.918	987.69
500.135	1045.69
500.352	1094.69
500.569	1075.69
500.786	1097.69
501.003	1092.69
501.22	1056.69
501.437	1024.69
501.654	1016.69
501.871	994.69
