Data from 1988.PennyLincolnUp.Lamp.En5.5.200Scan.071819.P2_HRD10591_17-21-33-972.txt Node
Date: Thu Jul 18 17:21:33 EDT 2019
User: cochatt
Spectrometer: HR+D1059
Trigger mode: 1
Integration Time (sec): 1.000000E-1
Scans to average: 1
Electric dark correction enabled: true
Nonlinearity correction enabled: false
Boxcar width: 0
XAxis mode: Wavelengths
Number of Pixels in Spectrum: 2048
>>>>>Begin Spectral Data<<<<<
223.165	-18.75
223.4	-18.75
223.635	-18.75
223.869	-21.75
224.104	-27.75
224.338	-0.75
224.573	-19.75
224.808	-7.75
225.042	-17.75
225.277	-9.75
225.511	-16.75
225.746	9.25
225.98	16.25
226.215	9.25
226.449	20.25
226.683	18.25
226.918	29.25
227.152	38.25
227.387	28.25
227.621	35.25
227.856	48.25
228.09	44.25
228.324	70.25
228.559	56.25
228.793	88.25
229.027	116.25
229.262	120.25
229.496	122.25
229.73	144.25
229.964	186.25
230.199	117.25
230.433	133.25
230.667	127.25
230.901	110.25
231.136	109.25
231.37	127.25
231.604	119.25
231.838	125.25
232.072	140.25
232.306	113.25
232.541	128.25
232.775	123.25
233.009	122.25
233.243	129.25
233.477	107.25
233.711	122.25
233.945	117.25
234.179	134.25
234.413	131.25
234.647	127.25
234.881	119.25
235.115	132.25
235.349	125.25
235.583	131.25
235.817	125.25
236.051	134.25
236.285	141.25
236.519	153.25
236.753	132.25
236.987	139.25
237.221	219.25
237.455	248.25
237.689	200.25
237.922	149.25
238.156	146.25
238.39	150.25
238.624	145.25
238.858	135.25
239.091	125.25
239.325	145.25
239.559	148.25
239.793	149.25
240.027	146.25
240.26	151.25
240.494	171.25
240.728	175.25
240.961	176.25
241.195	173.25
241.429	157.25
241.662	140.25
241.896	141.25
242.13	149.25
242.363	138.25
242.597	146.25
242.83	155.25
243.064	149.25
243.298	158.25
243.531	153.25
243.765	145.25
243.998	155.25
244.232	145.25
244.465	152.25
244.699	167.25
244.932	155.25
245.166	159.25
245.399	170.25
245.633	155.25
245.866	140.25
246.099	153.25
246.333	172.25
246.566	167.25
246.8	152.25
247.033	163.25
247.266	159.25
247.5	183.25
247.733	183.25
247.966	185.25
248.2	172.25
248.433	180.25
248.666	193.25
248.899	203.25
249.133	221.25
249.366	231.25
249.599	213.25
249.832	205.25
250.066	206.25
250.299	197.25
250.532	188.25
250.765	223.25
250.998	240.25
251.231	253.25
251.465	230.25
251.698	240.25
251.931	205.25
252.164	216.25
252.397	203.25
252.63	208.25
252.863	244.25
253.096	230.25
253.329	240.25
253.562	262.25
253.795	233.25
254.028	255.25
254.261	238.25
254.494	251.25
254.727	271.25
254.96	315.25
255.193	303.25
255.426	264.25
255.659	267.25
255.892	243.25
256.124	243.25
256.357	239.25
256.59	229.25
256.823	224.25
257.056	236.25
257.289	232.25
257.521	227.25
257.754	234.25
257.987	220.25
258.22	201.25
258.452	220.25
258.685	225.25
258.918	225.25
259.151	225.25
259.383	244.25
259.616	250.25
259.849	260.25
260.081	259.25
260.314	261.25
260.547	272.25
260.779	285.25
261.012	263.25
261.244	245.25
261.477	241.25
261.71	265.25
261.942	255.25
262.175	245.25
262.407	260.25
262.64	235.25
262.872	265.25
263.105	222.25
263.337	220.25
263.57	224.25
263.802	264.25
264.035	253.25
264.267	230.25
264.499	247.25
264.732	228.25
264.964	224.25
265.197	244.25
265.429	231.25
265.661	239.25
265.894	237.25
266.126	245.25
266.358	230.25
266.591	245.25
266.823	251.25
267.055	230.25
267.287	257.25
267.52	249.25
267.752	237.25
267.984	243.25
268.216	245.25
268.448	261.25
268.681	281.25
268.913	267.25
269.145	287.25
269.377	305.25
269.609	302.25
269.841	297.25
270.073	304.25
270.306	318.25
270.538	352.25
270.77	358.25
271.002	320.25
271.234	324.25
271.466	331.25
271.698	333.25
271.93	332.25
272.162	356.25
272.394	358.25
272.626	334.25
272.858	325.25
273.09	297.25
273.322	289.25
273.553	288.25
273.785	277.25
274.017	285.25
274.249	291.25
274.481	293.25
274.713	280.25
274.945	296.25
275.176	303.25
275.408	297.25
275.64	299.25
275.872	298.25
276.104	317.25
276.335	296.25
276.567	297.25
276.799	318.25
277.031	312.25
277.262	347.25
277.494	352.25
277.726	326.25
277.957	296.25
278.189	289.25
278.421	292.25
278.652	303.25
278.884	301.25
279.115	307.25
279.347	305.25
279.579	281.25
279.81	287.25
280.042	313.25
280.273	303.25
280.505	281.25
280.736	296.25
280.968	284.25
281.199	301.25
281.431	296.25
281.662	296.25
281.894	310.25
282.125	287.25
282.356	310.25
282.588	348.25
282.819	359.25
283.051	305.25
283.282	315.25
283.513	296.25
283.745	299.25
283.976	311.25
284.207	292.25
284.439	311.25
284.67	311.25
284.901	309.25
285.132	320.25
285.364	307.25
285.595	308.25
285.826	287.25
286.057	309.25
286.288	307.25
286.52	320.25
286.751	304.25
286.982	311.25
287.213	310.25
287.444	303.25
287.675	317.25
287.906	313.25
288.138	346.25
288.369	330.25
288.6	313.25
288.831	348.25
289.062	325.25
289.293	302.25
289.524	319.25
289.755	312.25
289.986	315.25
290.217	334.25
290.448	333.25
290.679	330.25
290.91	315.25
291.141	299.25
291.371	314.25
291.602	315.25
291.833	326.25
292.064	328.25
292.295	318.25
292.526	318.25
292.757	326.25
292.987	328.25
293.218	330.25
293.449	307.25
293.68	325.25
293.91	316.25
294.141	315.25
294.372	333.25
294.603	325.25
294.833	330.25
295.064	327.25
295.295	335.25
295.525	334.25
295.756	319.25
295.987	348.25
296.217	360.25
296.448	365.25
296.679	341.25
296.909	324.25
297.14	318.25
297.37	323.25
297.601	320.25
297.831	333.25
298.062	329.25
298.292	324.25
298.523	355.25
298.753	327.25
298.984	333.25
299.214	362.25
299.445	339.25
299.675	356.25
299.905	348.25
300.136	341.25
300.366	354.25
300.597	347.25
300.827	360.25
301.057	367.25
301.288	376.25
301.518	358.25
301.748	374.25
301.979	370.25
302.209	380.25
302.439	357.25
302.669	381.25
302.9	371.25
303.13	369.25
303.36	355.25
303.59	352.25
303.82	386.25
304.051	373.25
304.281	361.25
304.511	356.25
304.741	363.25
304.971	362.25
305.201	370.25
305.431	359.25
305.661	371.25
305.891	361.25
306.121	360.25
306.352	386.25
306.582	383.25
306.812	370.25
307.042	361.25
307.272	368.25
307.502	387.25
307.731	383.25
307.961	366.25
308.191	362.25
308.421	392.25
308.651	364.25
308.881	391.25
309.111	365.25
309.341	371.25
309.571	404.25
309.8	405.25
310.03	414.25
310.26	410.25
310.49	412.25
310.72	433.25
310.949	443.25
311.179	433.25
311.409	443.25
311.639	419.25
311.868	435.25
312.098	435.25
312.328	428.25
312.557	453.25
312.787	475.25
313.017	461.25
313.246	452.25
313.476	431.25
313.706	425.25
313.935	424.25
314.165	428.25
314.394	462.25
314.624	470.25
314.853	420.25
315.083	429.25
315.312	417.25
315.542	446.25
315.771	422.25
316.001	418.25
316.23	421.25
316.46	422.25
316.689	442.25
316.919	436.25
317.148	444.25
317.377	424.25
317.607	437.25
317.836	453.25
318.065	427.25
318.295	433.25
318.524	433.25
318.753	424.25
318.983	413.25
319.212	404.25
319.441	454.25
319.67	445.25
319.9	434.25
320.129	436.25
320.358	447.25
320.587	441.25
320.816	435.25
321.046	460.25
321.275	461.25
321.504	432.25
321.733	458.25
321.962	472.25
322.191	477.25
322.42	474.25
322.649	488.25
322.878	515.25
323.108	508.25
323.337	552.25
323.566	562.25
323.795	621.25
324.024	657.25
324.253	801.25
324.482	1155.25
324.71	1801.25
324.939	2703.25
325.168	2334.25
325.397	1156.25
325.626	789.25
325.855	651.25
326.084	605.25
326.313	574.25
326.542	579.25
326.77	635.25
326.999	750.25
327.228	1066.25
327.457	1623.25
327.686	2025.25
327.914	1310.25
328.143	803.25
328.372	695.25
328.6	672.25
328.829	639.25
329.058	667.25
329.287	676.25
329.515	623.25
329.744	601.25
329.972	588.25
330.201	582.25
330.43	602.25
330.658	647.25
330.887	685.25
331.115	674.25
331.344	610.25
331.572	568.25
331.801	566.25
332.03	569.25
332.258	572.25
332.486	526.25
332.715	517.25
332.943	508.25
333.172	517.25
333.4	520.25
333.629	533.25
333.857	517.25
334.085	533.25
334.314	534.25
334.542	559.25
334.771	558.25
334.999	544.25
335.227	526.25
335.455	531.25
335.684	519.25
335.912	503.25
336.14	499.25
336.369	524.25
336.597	505.25
336.825	503.25
337.053	511.25
337.281	485.25
337.51	499.25
337.738	515.25
337.966	496.25
338.194	530.25
338.422	522.25
338.65	506.25
338.878	500.25
339.106	515.25
339.334	489.25
339.562	487.25
339.79	499.25
340.018	499.25
340.246	493.25
340.474	527.25
340.702	486.25
340.93	501.25
341.158	495.25
341.386	499.25
341.614	487.25
341.842	486.25
342.07	481.25
342.298	486.25
342.526	449.25
342.754	474.25
342.981	488.25
343.209	457.25
343.437	488.25
343.665	484.25
343.893	504.25
344.12	518.25
344.348	516.25
344.576	515.25
344.804	515.25
345.031	522.25
345.259	527.25
345.487	513.25
345.714	475.25
345.942	491.25
346.17	492.25
346.397	495.25
346.625	480.25
346.853	492.25
347.08	479.25
347.308	464.25
347.535	500.25
347.763	490.25
347.99	491.25
348.218	498.25
348.445	515.25
348.673	494.25
348.9	470.25
349.128	475.25
349.355	445.25
349.583	474.25
349.81	451.25
350.037	480.25
350.265	477.25
350.492	462.25
350.72	471.25
350.947	471.25
351.174	492.25
351.402	512.25
351.629	496.25
351.856	480.25
352.083	483.25
352.311	492.25
352.538	470.25
352.765	502.25
352.992	508.25
353.22	492.25
353.447	468.25
353.674	462.25
353.901	460.25
354.128	466.25
354.355	451.25
354.583	464.25
354.81	462.25
355.037	456.25
355.264	457.25
355.491	437.25
355.718	437.25
355.945	441.25
356.172	441.25
356.399	469.25
356.626	466.25
356.853	442.25
357.08	446.25
357.307	439.25
357.534	435.25
357.761	440.25
357.988	471.25
358.215	440.25
358.441	445.25
358.668	443.25
358.895	445.25
359.122	454.25
359.349	476.25
359.576	482.25
359.802	501.25
360.029	528.25
360.256	544.25
360.483	526.25
360.709	476.25
360.936	489.25
361.163	503.25
361.39	472.25
361.616	493.25
361.843	496.25
362.07	465.25
362.296	487.25
362.523	500.25
362.749	488.25
362.976	471.25
363.203	459.25
363.429	446.25
363.656	455.25
363.882	465.25
364.109	444.25
364.335	472.25
364.562	462.25
364.788	443.25
365.015	467.25
365.241	466.25
365.468	474.25
365.694	504.25
365.92	472.25
366.147	477.25
366.373	475.25
366.599	474.25
366.826	475.25
367.052	450.25
367.278	469.25
367.505	467.25
367.731	471.25
367.957	485.25
368.184	479.25
368.41	453.25
368.636	487.25
368.862	514.25
369.089	469.25
369.315	457.25
369.541	465.25
369.767	459.25
369.993	464.25
370.219	448.25
370.445	463.25
370.672	450.25
370.898	446.25
371.124	454.25
371.35	472.25
371.576	444.25
371.802	450.25
372.028	448.25
372.254	468.25
372.48	477.25
372.706	484.25
372.932	449.25
373.158	472.25
373.384	461.25
373.61	482.25
373.835	464.25
374.061	459.25
374.287	479.25
374.513	465.25
374.739	480.25
374.965	473.25
375.191	451.25
375.416	460.25
375.642	470.25
375.868	466.25
376.094	459.25
376.319	462.25
376.545	472.25
376.771	461.25
376.997	475.25
377.222	458.25
377.448	459.25
377.674	454.25
377.899	449.25
378.125	476.25
378.35	455.25
378.576	466.25
378.802	472.25
379.027	466.25
379.253	443.25
379.478	468.25
379.704	441.25
379.929	469.25
380.155	445.25
380.38	473.25
380.606	461.25
380.831	448.25
381.057	465.25
381.282	469.25
381.507	475.25
381.733	481.25
381.958	472.25
382.184	449.25
382.409	462.25
382.634	475.25
382.86	487.25
383.085	500.25
383.31	479.25
383.535	490.25
383.761	477.25
383.986	481.25
384.211	503.25
384.436	500.25
384.662	504.25
384.887	480.25
385.112	499.25
385.337	505.25
385.562	502.25
385.787	517.25
386.013	516.25
386.238	535.25
386.463	534.25
386.688	516.25
386.913	514.25
387.138	501.25
387.363	503.25
387.588	512.25
387.813	509.25
388.038	492.25
388.263	519.25
388.488	519.25
388.713	522.25
388.938	513.25
389.163	505.25
389.387	527.25
389.612	515.25
389.837	518.25
390.062	496.25
390.287	511.25
390.512	515.25
390.736	554.25
390.961	517.25
391.186	528.25
391.411	528.25
391.636	537.25
391.86	540.25
392.085	524.25
392.31	550.25
392.534	543.25
392.759	533.25
392.984	508.25
393.208	517.25
393.433	534.25
393.658	516.25
393.882	525.25
394.107	524.25
394.331	534.25
394.556	545.25
394.78	524.25
395.005	523.25
395.229	526.25
395.454	548.25
395.678	549.25
395.903	576.25
396.127	581.25
396.352	571.25
396.576	551.25
396.801	539.25
397.025	525.25
397.249	536.25
397.474	558.25
397.698	541.25
397.922	570.25
398.147	582.25
398.371	597.25
398.595	574.25
398.82	572.25
399.044	606.25
399.268	604.25
399.492	654.25
399.717	715.25
399.941	736.25
400.165	730.25
400.389	744.25
400.613	698.25
400.837	633.25
401.062	634.25
401.286	590.25
401.51	614.25
401.734	610.25
401.958	583.25
402.182	617.25
402.406	628.25
402.63	623.25
402.854	603.25
403.078	612.25
403.302	624.25
403.526	634.25
403.75	640.25
403.974	617.25
404.198	607.25
404.422	603.25
404.645	627.25
404.869	650.25
405.093	677.25
405.317	719.25
405.541	737.25
405.765	670.25
405.988	649.25
406.212	673.25
406.436	687.25
406.66	713.25
406.883	693.25
407.107	737.25
407.331	748.25
407.555	825.25
407.778	836.25
408.002	767.25
408.226	699.25
408.449	687.25
408.673	686.25
408.896	720.25
409.12	774.25
409.344	739.25
409.567	669.25
409.791	643.25
410.014	629.25
410.238	641.25
410.461	636.25
410.685	649.25
410.908	663.25
411.132	684.25
411.355	735.25
411.578	724.25
411.802	661.25
412.025	647.25
412.249	636.25
412.472	637.25
412.695	682.25
412.919	672.25
413.142	624.25
413.365	579.25
413.589	603.25
413.812	591.25
414.035	583.25
414.258	592.25
414.482	565.25
414.705	597.25
414.928	592.25
415.151	582.25
415.374	582.25
415.597	591.25
415.821	587.25
416.044	606.25
416.267	591.25
416.49	572.25
416.713	584.25
416.936	617.25
417.159	580.25
417.382	594.25
417.605	588.25
417.828	601.25
418.051	614.25
418.274	607.25
418.497	589.25
418.72	613.25
418.943	575.25
419.166	605.25
419.389	630.25
419.611	627.25
419.834	598.25
420.057	619.25
420.28	623.25
420.503	604.25
420.726	617.25
420.948	620.25
421.171	679.25
421.394	709.25
421.617	609.25
421.839	635.25
422.062	641.25
422.285	632.25
422.507	684.25
422.73	816.25
422.953	775.25
423.175	668.25
423.398	673.25
423.621	628.25
423.843	667.25
424.066	648.25
424.288	651.25
424.511	672.25
424.733	756.25
424.956	854.25
425.178	831.25
425.401	801.25
425.623	860.25
425.846	724.25
426.068	671.25
426.291	671.25
426.513	645.25
426.735	678.25
426.958	707.25
427.18	825.25
427.402	977.25
427.625	1073.25
427.847	917.25
428.069	805.25
428.292	721.25
428.514	665.25
428.736	640.25
428.958	636.25
429.181	612.25
429.403	627.25
429.625	629.25
429.847	656.25
430.069	736.25
430.292	733.25
430.514	614.25
430.736	633.25
430.958	627.25
431.18	589.25
431.402	586.25
431.624	565.25
431.846	591.25
432.068	569.25
432.29	602.25
432.512	585.25
432.734	597.25
432.956	605.25
433.178	597.25
433.4	593.25
433.622	589.25
433.844	604.25
434.066	605.25
434.287	586.25
434.509	598.25
434.731	608.25
434.953	606.25
435.175	614.25
435.397	666.25
435.618	686.25
435.84	700.25
436.062	842.25
436.284	941.25
436.505	781.25
436.727	677.25
436.949	664.25
437.17	616.25
437.392	643.25
437.614	618.25
437.835	657.25
438.057	804.25
438.278	910.25
438.5	947.25
438.721	997.25
438.943	953.25
439.165	732.25
439.386	689.25
439.608	668.25
439.829	680.25
440.05	691.25
440.272	767.25
440.493	727.25
440.715	655.25
440.936	664.25
441.158	633.25
441.379	653.25
441.6	630.25
441.822	655.25
442.043	716.25
442.264	835.25
442.486	891.25
442.707	717.25
442.928	693.25
443.149	681.25
443.371	721.25
443.592	783.25
443.813	879.25
444.034	983.25
444.255	792.25
444.476	711.25
444.698	684.25
444.919	681.25
445.14	763.25
445.361	734.25
445.582	701.25
445.803	812.25
446.024	919.25
446.245	941.25
446.466	886.25
446.687	719.25
446.908	679.25
447.129	638.25
447.35	608.25
447.571	633.25
447.792	611.25
448.013	628.25
448.234	626.25
448.455	698.25
448.675	851.25
448.896	974.25
449.117	845.25
449.338	791.25
449.559	933.25
449.779	1085.25
450	833.25
450.221	678.25
450.442	638.25
450.662	620.25
450.883	630.25
451.104	639.25
451.324	627.25
451.545	589.25
451.766	558.25
451.986	565.25
452.207	557.25
452.428	557.25
452.648	538.25
452.869	557.25
453.089	569.25
453.31	582.25
453.53	551.25
453.751	535.25
453.971	564.25
454.192	573.25
454.412	564.25
454.633	557.25
454.853	547.25
455.073	557.25
455.294	591.25
455.514	665.25
455.734	653.25
455.955	559.25
456.175	547.25
456.395	524.25
456.616	508.25
456.836	501.25
457.056	538.25
457.276	528.25
457.497	503.25
457.717	529.25
457.937	519.25
458.157	528.25
458.377	558.25
458.598	574.25
458.818	640.25
459.038	767.25
459.258	763.25
459.478	641.25
459.698	609.25
459.918	591.25
460.138	604.25
460.358	599.25
460.578	611.25
460.798	581.25
461.018	609.25
461.238	602.25
461.458	598.25
461.678	585.25
461.898	597.25
462.118	597.25
462.338	592.25
462.558	618.25
462.777	619.25
462.997	653.25
463.217	650.25
463.437	662.25
463.657	634.25
463.876	649.25
464.096	643.25
464.316	614.25
464.536	635.25
464.755	649.25
464.975	637.25
465.195	707.25
465.414	780.25
465.634	702.25
465.854	630.25
466.073	624.25
466.293	606.25
466.512	573.25
466.732	565.25
466.951	600.25
467.171	580.25
467.391	592.25
467.61	576.25
467.829	592.25
468.049	591.25
468.268	545.25
468.488	561.25
468.707	547.25
468.927	566.25
469.146	551.25
469.365	589.25
469.585	548.25
469.804	558.25
470.023	550.25
470.243	566.25
470.462	580.25
470.681	590.25
470.901	604.25
471.12	592.25
471.339	572.25
471.558	588.25
471.777	583.25
471.997	577.25
472.216	573.25
472.435	589.25
472.654	567.25
472.873	581.25
473.092	584.25
473.311	560.25
473.53	587.25
473.749	571.25
473.968	621.25
474.187	736.25
474.406	779.25
474.625	629.25
474.844	603.25
475.063	578.25
475.282	579.25
475.501	587.25
475.72	585.25
475.939	588.25
476.158	584.25
476.377	598.25
476.596	593.25
476.814	613.25
477.033	629.25
477.252	615.25
477.471	613.25
477.69	623.25
477.908	626.25
478.127	627.25
478.346	603.25
478.564	657.25
478.783	649.25
479.002	639.25
479.22	667.25
479.439	689.25
479.658	709.25
479.876	691.25
480.095	693.25
480.313	735.25
480.532	729.25
480.751	707.25
480.969	704.25
481.188	727.25
481.406	725.25
481.624	727.25
481.843	707.25
482.061	682.25
482.28	656.25
482.498	675.25
482.717	679.25
482.935	673.25
483.153	661.25
483.372	677.25
483.59	667.25
483.808	666.25
484.027	679.25
484.245	692.25
484.463	695.25
484.681	678.25
484.9	685.25
485.118	703.25
485.336	693.25
485.554	704.25
485.772	685.25
485.99	700.25
486.209	708.25
486.427	722.25
486.645	733.25
486.863	744.25
487.081	748.25
487.299	719.25
487.517	725.25
487.735	747.25
487.953	719.25
488.171	697.25
488.389	722.25
488.607	721.25
488.825	726.25
489.043	728.25
489.261	727.25
489.479	727.25
489.696	752.25
489.914	720.25
490.132	737.25
490.35	772.25
490.568	765.25
490.786	780.25
491.003	794.25
491.221	793.25
491.439	801.25
491.657	831.25
491.874	812.25
492.092	831.25
492.31	817.25
492.527	847.25
492.745	827.25
492.963	837.25
493.18	857.25
493.398	871.25
493.615	878.25
493.833	877.25
494.05	869.25
494.268	849.25
494.485	834.25
494.703	855.25
494.92	867.25
495.138	896.25
495.355	880.25
495.573	899.25
495.79	880.25
496.008	845.25
496.225	902.25
496.442	909.25
496.66	880.25
496.877	888.25
497.094	903.25
497.312	925.25
497.529	896.25
497.746	920.25
497.963	918.25
498.181	976.25
498.398	940.25
498.615	963.25
498.832	1004.25
499.049	1020.25
499.267	1040.25
499.484	1063.25
499.701	1092.25
499.918	1129.25
500.135	1171.25
500.352	1214.25
500.569	1265.25
500.786	1248.25
501.003	1222.25
501.22	1216.25
501.437	1139.25
501.654	1128.25
