Data from 1988.PennyLincolnUp.Lamp.En5.5.200Scan.071819.P2_HRD10591_17-18-20-977.txt Node
Date: Thu Jul 18 17:18:20 EDT 2019
User: cochatt
Spectrometer: HR+D1059
Trigger mode: 1
Integration Time (sec): 1.000000E-1
Scans to average: 1
Electric dark correction enabled: true
Nonlinearity correction enabled: false
Boxcar width: 0
XAxis mode: Wavelengths
Number of Pixels in Spectrum: 2048
>>>>>Begin Spectral Data<<<<<
223.165	-20.19
223.4	-20.19
223.635	-20.19
223.869	-25.19
224.104	-18.19
224.338	-15.19
224.573	-7.19
224.808	-10.19
225.042	-9.19
225.277	-12.19
225.511	-7.19
225.746	-0.19
225.98	4.81
226.215	20.81
226.449	27.81
226.683	33.81
226.918	1.81
227.152	35.81
227.387	26.81
227.621	41.81
227.856	51.81
228.09	37.81
228.324	55.81
228.559	51.81
228.793	65.81
229.027	87.81
229.262	101.81
229.496	91.81
229.73	96.81
229.964	111.81
230.199	105.81
230.433	121.81
230.667	105.81
230.901	95.81
231.136	85.81
231.37	107.81
231.604	106.81
231.838	89.81
232.072	115.81
232.306	102.81
232.541	106.81
232.775	113.81
233.009	111.81
233.243	94.81
233.477	104.81
233.711	114.81
233.945	99.81
234.179	112.81
234.413	123.81
234.647	116.81
234.881	115.81
235.115	104.81
235.349	107.81
235.583	103.81
235.817	98.81
236.051	96.81
236.285	117.81
236.519	110.81
236.753	129.81
236.987	116.81
237.221	142.81
237.455	164.81
237.689	124.81
237.922	111.81
238.156	112.81
238.39	115.81
238.624	100.81
238.858	103.81
239.091	104.81
239.325	111.81
239.559	124.81
239.793	119.81
240.027	127.81
240.26	117.81
240.494	120.81
240.728	132.81
240.961	119.81
241.195	127.81
241.429	111.81
241.662	112.81
241.896	120.81
242.13	119.81
242.363	129.81
242.597	140.81
242.83	107.81
243.064	121.81
243.298	123.81
243.531	123.81
243.765	122.81
243.998	122.81
244.232	108.81
244.465	135.81
244.699	133.81
244.932	135.81
245.166	129.81
245.399	127.81
245.633	131.81
245.866	133.81
246.099	136.81
246.333	137.81
246.566	132.81
246.8	129.81
247.033	143.81
247.266	139.81
247.5	133.81
247.733	133.81
247.966	145.81
248.2	143.81
248.433	147.81
248.666	139.81
248.899	140.81
249.133	151.81
249.366	171.81
249.599	149.81
249.832	152.81
250.066	148.81
250.299	155.81
250.532	153.81
250.765	155.81
250.998	167.81
251.231	177.81
251.465	157.81
251.698	173.81
251.931	163.81
252.164	165.81
252.397	173.81
252.63	173.81
252.863	172.81
253.096	157.81
253.329	176.81
253.562	179.81
253.795	189.81
254.028	183.81
254.261	176.81
254.494	173.81
254.727	183.81
254.96	198.81
255.193	209.81
255.426	175.81
255.659	169.81
255.892	169.81
256.124	165.81
256.357	168.81
256.59	177.81
256.823	179.81
257.056	173.81
257.289	174.81
257.521	171.81
257.754	171.81
257.987	189.81
258.22	156.81
258.452	161.81
258.685	192.81
258.918	183.81
259.151	179.81
259.383	170.81
259.616	177.81
259.849	196.81
260.081	189.81
260.314	192.81
260.547	183.81
260.779	188.81
261.012	184.81
261.244	173.81
261.477	187.81
261.71	189.81
261.942	180.81
262.175	187.81
262.407	185.81
262.64	171.81
262.872	192.81
263.105	181.81
263.337	192.81
263.57	187.81
263.802	195.81
264.035	190.81
264.267	164.81
264.499	173.81
264.732	182.81
264.964	189.81
265.197	197.81
265.429	180.81
265.661	164.81
265.894	177.81
266.126	171.81
266.358	178.81
266.591	185.81
266.823	183.81
267.055	185.81
267.287	179.81
267.52	178.81
267.752	188.81
267.984	211.81
268.216	192.81
268.448	203.81
268.681	201.81
268.913	203.81
269.145	216.81
269.377	207.81
269.609	203.81
269.841	223.81
270.073	203.81
270.306	204.81
270.538	225.81
270.77	218.81
271.002	222.81
271.234	219.81
271.466	230.81
271.698	237.81
271.93	239.81
272.162	236.81
272.394	238.81
272.626	241.81
272.858	230.81
273.09	228.81
273.322	219.81
273.553	226.81
273.785	221.81
274.017	215.81
274.249	213.81
274.481	209.81
274.713	229.81
274.945	209.81
275.176	220.81
275.408	203.81
275.64	215.81
275.872	219.81
276.104	218.81
276.335	229.81
276.567	231.81
276.799	224.81
277.031	222.81
277.262	228.81
277.494	258.81
277.726	232.81
277.957	227.81
278.189	219.81
278.421	233.81
278.652	236.81
278.884	233.81
279.115	210.81
279.347	232.81
279.579	263.81
279.81	260.81
280.042	259.81
280.273	232.81
280.505	243.81
280.736	236.81
280.968	224.81
281.199	223.81
281.431	232.81
281.662	218.81
281.894	228.81
282.125	243.81
282.356	229.81
282.588	243.81
282.819	263.81
283.051	223.81
283.282	229.81
283.513	228.81
283.745	236.81
283.976	230.81
284.207	231.81
284.439	232.81
284.67	243.81
284.901	232.81
285.132	236.81
285.364	246.81
285.595	243.81
285.826	245.81
286.057	242.81
286.288	241.81
286.52	240.81
286.751	246.81
286.982	241.81
287.213	250.81
287.444	255.81
287.675	239.81
287.906	238.81
288.138	264.81
288.369	255.81
288.6	265.81
288.831	257.81
289.062	255.81
289.293	256.81
289.524	233.81
289.755	245.81
289.986	254.81
290.217	259.81
290.448	245.81
290.679	262.81
290.91	264.81
291.141	260.81
291.371	242.81
291.602	269.81
291.833	258.81
292.064	258.81
292.295	253.81
292.526	267.81
292.757	267.81
292.987	251.81
293.218	241.81
293.449	261.81
293.68	262.81
293.91	245.81
294.141	239.81
294.372	235.81
294.603	246.81
294.833	253.81
295.064	253.81
295.295	244.81
295.525	258.81
295.756	273.81
295.987	259.81
296.217	276.81
296.448	268.81
296.679	272.81
296.909	276.81
297.14	264.81
297.37	277.81
297.601	270.81
297.831	280.81
298.062	264.81
298.292	263.81
298.523	274.81
298.753	276.81
298.984	278.81
299.214	271.81
299.445	267.81
299.675	266.81
299.905	275.81
300.136	270.81
300.366	276.81
300.597	273.81
300.827	273.81
301.057	278.81
301.288	275.81
301.518	283.81
301.748	279.81
301.979	285.81
302.209	297.81
302.439	277.81
302.669	282.81
302.9	285.81
303.13	269.81
303.36	276.81
303.59	278.81
303.82	294.81
304.051	279.81
304.281	290.81
304.511	293.81
304.741	294.81
304.971	277.81
305.201	293.81
305.431	283.81
305.661	285.81
305.891	293.81
306.121	272.81
306.352	278.81
306.582	293.81
306.812	295.81
307.042	273.81
307.272	293.81
307.502	292.81
307.731	294.81
307.961	282.81
308.191	315.81
308.421	308.81
308.651	305.81
308.881	300.81
309.111	305.81
309.341	305.81
309.571	306.81
309.8	313.81
310.03	295.81
310.26	325.81
310.49	328.81
310.72	299.81
310.949	314.81
311.179	321.81
311.409	303.81
311.639	303.81
311.868	298.81
312.098	306.81
312.328	325.81
312.557	310.81
312.787	313.81
313.017	321.81
313.246	324.81
313.476	305.81
313.706	314.81
313.935	329.81
314.165	346.81
314.394	337.81
314.624	307.81
314.853	319.81
315.083	333.81
315.312	320.81
315.542	324.81
315.771	335.81
316.001	327.81
316.23	326.81
316.46	314.81
316.689	335.81
316.919	325.81
317.148	320.81
317.377	323.81
317.607	327.81
317.836	332.81
318.065	330.81
318.295	332.81
318.524	320.81
318.753	329.81
318.983	322.81
319.212	341.81
319.441	328.81
319.67	339.81
319.9	327.81
320.129	336.81
320.358	322.81
320.587	323.81
320.816	333.81
321.046	336.81
321.275	341.81
321.504	337.81
321.733	323.81
321.962	323.81
322.191	355.81
322.42	337.81
322.649	351.81
322.878	350.81
323.108	351.81
323.337	372.81
323.566	385.81
323.795	390.81
324.024	416.81
324.253	471.81
324.482	619.81
324.71	883.81
324.939	1283.81
325.168	1084.81
325.397	607.81
325.626	435.81
325.855	406.81
326.084	399.81
326.313	392.81
326.542	378.81
326.77	411.81
326.999	446.81
327.228	572.81
327.457	825.81
327.686	971.81
327.914	659.81
328.143	467.81
328.372	416.81
328.6	404.81
328.829	392.81
329.058	413.81
329.287	431.81
329.515	407.81
329.744	382.81
329.972	377.81
330.201	396.81
330.43	393.81
330.658	413.81
330.887	412.81
331.115	412.81
331.344	404.81
331.572	382.81
331.801	395.81
332.03	393.81
332.258	395.81
332.486	389.81
332.715	363.81
332.943	386.81
333.172	403.81
333.4	393.81
333.629	396.81
333.857	416.81
334.085	397.81
334.314	400.81
334.542	375.81
334.771	412.81
334.999	406.81
335.227	415.81
335.455	403.81
335.684	378.81
335.912	371.81
336.14	381.81
336.369	375.81
336.597	407.81
336.825	389.81
337.053	377.81
337.281	387.81
337.51	394.81
337.738	384.81
337.966	383.81
338.194	383.81
338.422	384.81
338.65	378.81
338.878	375.81
339.106	377.81
339.334	389.81
339.562	376.81
339.79	379.81
340.018	375.81
340.246	378.81
340.474	380.81
340.702	360.81
340.93	360.81
341.158	367.81
341.386	369.81
341.614	390.81
341.842	368.81
342.07	379.81
342.298	369.81
342.526	340.81
342.754	365.81
342.981	380.81
343.209	367.81
343.437	370.81
343.665	383.81
343.893	377.81
344.12	386.81
344.348	406.81
344.576	379.81
344.804	380.81
345.031	395.81
345.259	387.81
345.487	386.81
345.714	388.81
345.942	370.81
346.17	379.81
346.397	369.81
346.625	370.81
346.853	367.81
347.08	358.81
347.308	345.81
347.535	357.81
347.763	385.81
347.99	383.81
348.218	382.81
348.445	356.81
348.673	350.81
348.9	353.81
349.128	355.81
349.355	354.81
349.583	372.81
349.81	356.81
350.037	357.81
350.265	375.81
350.492	341.81
350.72	354.81
350.947	352.81
351.174	359.81
351.402	360.81
351.629	371.81
351.856	358.81
352.083	344.81
352.311	348.81
352.538	372.81
352.765	351.81
352.992	358.81
353.22	347.81
353.447	361.81
353.674	364.81
353.901	365.81
354.128	334.81
354.355	352.81
354.583	359.81
354.81	341.81
355.037	362.81
355.264	351.81
355.491	367.81
355.718	353.81
355.945	347.81
356.172	365.81
356.399	355.81
356.626	345.81
356.853	354.81
357.08	346.81
357.307	344.81
357.534	347.81
357.761	356.81
357.988	353.81
358.215	349.81
358.441	345.81
358.668	360.81
358.895	358.81
359.122	353.81
359.349	362.81
359.576	371.81
359.802	371.81
360.029	370.81
360.256	367.81
360.483	360.81
360.709	375.81
360.936	369.81
361.163	369.81
361.39	371.81
361.616	374.81
361.843	356.81
362.07	349.81
362.296	363.81
362.523	343.81
362.749	361.81
362.976	347.81
363.203	364.81
363.429	355.81
363.656	362.81
363.882	348.81
364.109	346.81
364.335	331.81
364.562	346.81
364.788	343.81
365.015	347.81
365.241	355.81
365.468	357.81
365.694	348.81
365.92	370.81
366.147	339.81
366.373	360.81
366.599	350.81
366.826	357.81
367.052	355.81
367.278	351.81
367.505	352.81
367.731	349.81
367.957	370.81
368.184	354.81
368.41	367.81
368.636	375.81
368.862	368.81
369.089	354.81
369.315	362.81
369.541	371.81
369.767	359.81
369.993	357.81
370.219	363.81
370.445	346.81
370.672	345.81
370.898	347.81
371.124	361.81
371.35	371.81
371.576	371.81
371.802	364.81
372.028	343.81
372.254	371.81
372.48	372.81
372.706	349.81
372.932	364.81
373.158	356.81
373.384	372.81
373.61	365.81
373.835	360.81
374.061	369.81
374.287	387.81
374.513	385.81
374.739	372.81
374.965	396.81
375.191	362.81
375.416	369.81
375.642	386.81
375.868	363.81
376.094	359.81
376.319	377.81
376.545	357.81
376.771	384.81
376.997	358.81
377.222	364.81
377.448	364.81
377.674	367.81
377.899	388.81
378.125	371.81
378.35	369.81
378.576	346.81
378.802	376.81
379.027	364.81
379.253	363.81
379.478	355.81
379.704	386.81
379.929	360.81
380.155	362.81
380.38	364.81
380.606	367.81
380.831	383.81
381.057	379.81
381.282	383.81
381.507	377.81
381.733	392.81
381.958	371.81
382.184	371.81
382.409	348.81
382.634	385.81
382.86	381.81
383.085	377.81
383.31	397.81
383.535	410.81
383.761	383.81
383.986	378.81
384.211	383.81
384.436	379.81
384.662	385.81
384.887	417.81
385.112	439.81
385.337	429.81
385.562	403.81
385.787	410.81
386.013	435.81
386.238	407.81
386.463	407.81
386.688	415.81
386.913	387.81
387.138	417.81
387.363	408.81
387.588	427.81
387.813	418.81
388.038	411.81
388.263	433.81
388.488	416.81
388.713	393.81
388.938	427.81
389.163	415.81
389.387	397.81
389.612	416.81
389.837	423.81
390.062	398.81
390.287	419.81
390.512	388.81
390.736	417.81
390.961	405.81
391.186	416.81
391.411	405.81
391.636	413.81
391.86	426.81
392.085	429.81
392.31	422.81
392.534	425.81
392.759	420.81
392.984	425.81
393.208	452.81
393.433	474.81
393.658	473.81
393.882	446.81
394.107	405.81
394.331	422.81
394.556	396.81
394.78	421.81
395.005	440.81
395.229	421.81
395.454	423.81
395.678	408.81
395.903	456.81
396.127	458.81
396.352	435.81
396.576	436.81
396.801	458.81
397.025	429.81
397.249	455.81
397.474	443.81
397.698	429.81
397.922	451.81
398.147	455.81
398.371	487.81
398.595	441.81
398.82	465.81
399.044	463.81
399.268	489.81
399.492	521.81
399.717	523.81
399.941	581.81
400.165	581.81
400.389	588.81
400.613	520.81
400.837	491.81
401.062	515.81
401.286	453.81
401.51	495.81
401.734	451.81
401.958	451.81
402.182	474.81
402.406	482.81
402.63	469.81
402.854	486.81
403.078	464.81
403.302	491.81
403.526	487.81
403.75	479.81
403.974	460.81
404.198	480.81
404.422	484.81
404.645	480.81
404.869	470.81
405.093	487.81
405.317	485.81
405.541	531.81
405.765	493.81
405.988	489.81
406.212	499.81
406.436	517.81
406.66	521.81
406.883	528.81
407.107	515.81
407.331	555.81
407.555	592.81
407.778	633.81
408.002	585.81
408.226	538.81
408.449	531.81
408.673	527.81
408.896	541.81
409.12	576.81
409.344	553.81
409.567	497.81
409.791	505.81
410.014	496.81
410.238	493.81
410.461	513.81
410.685	492.81
410.908	481.81
411.132	514.81
411.355	529.81
411.578	520.81
411.802	469.81
412.025	464.81
412.249	484.81
412.472	484.81
412.695	477.81
412.919	482.81
413.142	477.81
413.365	449.81
413.589	464.81
413.812	475.81
414.035	465.81
414.258	472.81
414.482	471.81
414.705	475.81
414.928	473.81
415.151	457.81
415.374	473.81
415.597	471.81
415.821	456.81
416.044	460.81
416.267	451.81
416.49	440.81
416.713	452.81
416.936	482.81
417.159	439.81
417.382	433.81
417.605	450.81
417.828	467.81
418.051	462.81
418.274	449.81
418.497	443.81
418.72	452.81
418.943	466.81
419.166	466.81
419.389	483.81
419.611	493.81
419.834	457.81
420.057	483.81
420.28	472.81
420.503	431.81
420.726	444.81
420.948	477.81
421.171	496.81
421.394	516.81
421.617	462.81
421.839	484.81
422.062	486.81
422.285	466.81
422.507	500.81
422.73	575.81
422.953	567.81
423.175	501.81
423.398	492.81
423.621	469.81
423.843	495.81
424.066	479.81
424.288	479.81
424.511	506.81
424.733	531.81
424.956	595.81
425.178	550.81
425.401	564.81
425.623	596.81
425.846	537.81
426.068	484.81
426.291	489.81
426.513	473.81
426.735	488.81
426.958	503.81
427.18	588.81
427.402	671.81
427.625	718.81
427.847	620.81
428.069	528.81
428.292	503.81
428.514	473.81
428.736	463.81
428.958	467.81
429.181	462.81
429.403	452.81
429.625	468.81
429.847	481.81
430.069	505.81
430.292	516.81
430.514	468.81
430.736	459.81
430.958	464.81
431.18	448.81
431.402	451.81
431.624	414.81
431.846	433.81
432.068	435.81
432.29	433.81
432.512	419.81
432.734	445.81
432.956	447.81
433.178	458.81
433.4	435.81
433.622	466.81
433.844	447.81
434.066	459.81
434.287	445.81
434.509	456.81
434.731	436.81
434.953	451.81
435.175	464.81
435.397	494.81
435.618	489.81
435.84	513.81
436.062	554.81
436.284	639.81
436.505	556.81
436.727	482.81
436.949	465.81
437.17	460.81
437.392	442.81
437.614	456.81
437.835	466.81
438.057	516.81
438.278	633.81
438.5	627.81
438.721	660.81
438.943	652.81
439.165	516.81
439.386	488.81
439.608	487.81
439.829	471.81
440.05	483.81
440.272	500.81
440.493	492.81
440.715	452.81
440.936	461.81
441.158	448.81
441.379	461.81
441.6	450.81
441.822	480.81
442.043	513.81
442.264	571.81
442.486	587.81
442.707	519.81
442.928	493.81
443.149	495.81
443.371	499.81
443.592	534.81
443.813	610.81
444.034	651.81
444.255	545.81
444.476	496.81
444.698	468.81
444.919	501.81
445.14	627.81
445.361	542.81
445.582	507.81
445.803	561.81
446.024	608.81
446.245	601.81
446.466	564.81
446.687	504.81
446.908	499.81
447.129	477.81
447.35	449.81
447.571	469.81
447.792	427.81
448.013	427.81
448.234	476.81
448.455	491.81
448.675	571.81
448.896	683.81
449.117	555.81
449.338	541.81
449.559	620.81
449.779	693.81
450	554.81
450.221	479.81
450.442	460.81
450.662	423.81
450.883	417.81
451.104	454.81
451.324	439.81
451.545	420.81
451.766	420.81
451.986	410.81
452.207	407.81
452.428	407.81
452.648	395.81
452.869	375.81
453.089	410.81
453.31	416.81
453.53	403.81
453.751	417.81
453.971	418.81
454.192	425.81
454.412	397.81
454.633	415.81
454.853	419.81
455.073	398.81
455.294	415.81
455.514	472.81
455.734	453.81
455.955	400.81
456.175	413.81
456.395	411.81
456.616	397.81
456.836	399.81
457.056	396.81
457.276	392.81
457.497	392.81
457.717	391.81
457.937	425.81
458.157	397.81
458.377	421.81
458.598	417.81
458.818	448.81
459.038	486.81
459.258	517.81
459.478	468.81
459.698	452.81
459.918	445.81
460.138	432.81
460.358	443.81
460.578	477.81
460.798	481.81
461.018	460.81
461.238	479.81
461.458	469.81
461.678	474.81
461.898	476.81
462.118	468.81
462.338	476.81
462.558	481.81
462.777	479.81
462.997	502.81
463.217	502.81
463.437	517.81
463.657	508.81
463.876	510.81
464.096	507.81
464.316	473.81
464.536	489.81
464.755	508.81
464.975	499.81
465.195	506.81
465.414	530.81
465.634	488.81
465.854	456.81
466.073	458.81
466.293	455.81
466.512	427.81
466.732	452.81
466.951	436.81
467.171	447.81
467.391	432.81
467.61	423.81
467.829	444.81
468.049	428.81
468.268	442.81
468.488	433.81
468.707	411.81
468.927	419.81
469.146	412.81
469.365	424.81
469.585	422.81
469.804	438.81
470.023	446.81
470.243	447.81
470.462	436.81
470.681	445.81
470.901	432.81
471.12	453.81
471.339	452.81
471.558	453.81
471.777	435.81
471.997	425.81
472.216	419.81
472.435	425.81
472.654	436.81
472.873	423.81
473.092	405.81
473.311	460.81
473.53	433.81
473.749	451.81
473.968	449.81
474.187	534.81
474.406	537.81
474.625	488.81
474.844	441.81
475.063	441.81
475.282	440.81
475.501	445.81
475.72	469.81
475.939	427.81
476.158	433.81
476.377	459.81
476.596	448.81
476.814	453.81
477.033	461.81
477.252	458.81
477.471	466.81
477.69	475.81
477.908	480.81
478.127	485.81
478.346	487.81
478.564	507.81
478.783	480.81
479.002	493.81
479.22	500.81
479.439	489.81
479.658	513.81
479.876	507.81
480.095	523.81
480.313	552.81
480.532	554.81
480.751	519.81
480.969	525.81
481.188	519.81
481.406	546.81
481.624	531.81
481.843	527.81
482.061	517.81
482.28	535.81
482.498	509.81
482.717	496.81
482.935	488.81
483.153	495.81
483.372	521.81
483.59	514.81
483.808	508.81
484.027	529.81
484.245	524.81
484.463	506.81
484.681	532.81
484.9	528.81
485.118	518.81
485.336	517.81
485.554	507.81
485.772	528.81
485.99	524.81
486.209	535.81
486.427	531.81
486.645	521.81
486.863	568.81
487.081	548.81
487.299	539.81
487.517	541.81
487.735	546.81
487.953	568.81
488.171	547.81
488.389	550.81
488.607	533.81
488.825	556.81
489.043	552.81
489.261	550.81
489.479	550.81
489.696	538.81
489.914	576.81
490.132	555.81
490.35	555.81
490.568	559.81
490.786	555.81
491.003	572.81
491.221	579.81
491.439	583.81
491.657	584.81
491.874	575.81
492.092	594.81
492.31	603.81
492.527	582.81
492.745	600.81
492.963	581.81
493.18	613.81
493.398	598.81
493.615	650.81
493.833	588.81
494.05	643.81
494.268	621.81
494.485	596.81
494.703	612.81
494.92	609.81
495.138	613.81
495.355	614.81
495.573	608.81
495.79	639.81
496.008	654.81
496.225	637.81
496.442	634.81
496.66	633.81
496.877	627.81
497.094	663.81
497.312	636.81
497.529	643.81
497.746	667.81
497.963	681.81
498.181	701.81
498.398	702.81
498.615	714.81
498.832	741.81
499.049	753.81
499.267	791.81
499.484	836.81
499.701	828.81
499.918	858.81
500.135	937.81
500.352	945.81
500.569	965.81
500.786	961.81
501.003	957.81
501.22	935.81
501.437	865.81
501.654	859.81
501.871	821.81
502.088	833.81
