Data from 1988.PennyLincolnUp.Lamp.En5.5.200Scan.071819.P2_HRD10591_17-20-16-971.txt Node
Date: Thu Jul 18 17:20:16 EDT 2019
User: cochatt
Spectrometer: HR+D1059
Trigger mode: 1
Integration Time (sec): 1.000000E-1
Scans to average: 1
Electric dark correction enabled: true
Nonlinearity correction enabled: false
Boxcar width: 0
XAxis mode: Wavelengths
Number of Pixels in Spectrum: 2048
>>>>>Begin Spectral Data<<<<<
223.165	-17.94
223.4	-17.94
223.635	-17.94
223.869	-28.94
224.104	-19.94
224.338	-9.94
224.573	-12.94
224.808	1.06
225.042	-1.94
225.277	-4.94
225.511	0.06
225.746	19.06
225.98	-2.94
226.215	4.06
226.449	13.06
226.683	6.06
226.918	30.06
227.152	26.06
227.387	31.06
227.621	47.06
227.856	32.06
228.09	49.06
228.324	37.06
228.559	41.06
228.793	69.06
229.027	101.06
229.262	108.06
229.496	118.06
229.73	144.06
229.964	155.06
230.199	139.06
230.433	116.06
230.667	126.06
230.901	118.06
231.136	120.06
231.37	110.06
231.604	125.06
231.838	113.06
232.072	128.06
232.306	106.06
232.541	115.06
232.775	102.06
233.009	125.06
233.243	118.06
233.477	115.06
233.711	113.06
233.945	115.06
234.179	101.06
234.413	124.06
234.647	108.06
234.881	135.06
235.115	131.06
235.349	129.06
235.583	119.06
235.817	125.06
236.051	127.06
236.285	144.06
236.519	129.06
236.753	126.06
236.987	146.06
237.221	199.06
237.455	246.06
237.689	200.06
237.922	148.06
238.156	136.06
238.39	159.06
238.624	150.06
238.858	124.06
239.091	140.06
239.325	125.06
239.559	134.06
239.793	123.06
240.027	143.06
240.26	147.06
240.494	155.06
240.728	154.06
240.961	151.06
241.195	171.06
241.429	150.06
241.662	141.06
241.896	125.06
242.13	137.06
242.363	146.06
242.597	145.06
242.83	143.06
243.064	162.06
243.298	141.06
243.531	126.06
243.765	152.06
243.998	135.06
244.232	140.06
244.465	158.06
244.699	153.06
244.932	160.06
245.166	167.06
245.399	155.06
245.633	151.06
245.866	139.06
246.099	142.06
246.333	163.06
246.566	150.06
246.8	162.06
247.033	153.06
247.266	152.06
247.5	156.06
247.733	189.06
247.966	173.06
248.2	182.06
248.433	171.06
248.666	177.06
248.899	199.06
249.133	212.06
249.366	215.06
249.599	206.06
249.832	184.06
250.066	181.06
250.299	196.06
250.532	204.06
250.765	179.06
250.998	221.06
251.231	232.06
251.465	225.06
251.698	199.06
251.931	222.06
252.164	201.06
252.397	198.06
252.63	207.06
252.863	222.06
253.096	219.06
253.329	260.06
253.562	230.06
253.795	232.06
254.028	225.06
254.261	223.06
254.494	229.06
254.727	272.06
254.96	293.06
255.193	295.06
255.426	259.06
255.659	250.06
255.892	234.06
256.124	229.06
256.357	232.06
256.59	227.06
256.823	209.06
257.056	241.06
257.289	226.06
257.521	227.06
257.754	232.06
257.987	228.06
258.22	229.06
258.452	229.06
258.685	217.06
258.918	226.06
259.151	249.06
259.383	234.06
259.616	217.06
259.849	251.06
260.081	242.06
260.314	261.06
260.547	258.06
260.779	262.06
261.012	252.06
261.244	242.06
261.477	241.06
261.71	239.06
261.942	248.06
262.175	223.06
262.407	240.06
262.64	233.06
262.872	226.06
263.105	220.06
263.337	233.06
263.57	213.06
263.802	240.06
264.035	221.06
264.267	246.06
264.499	219.06
264.732	219.06
264.964	237.06
265.197	238.06
265.429	231.06
265.661	224.06
265.894	226.06
266.126	237.06
266.358	235.06
266.591	232.06
266.823	234.06
267.055	243.06
267.287	226.06
267.52	230.06
267.752	244.06
267.984	230.06
268.216	245.06
268.448	241.06
268.681	258.06
268.913	266.06
269.145	288.06
269.377	301.06
269.609	286.06
269.841	278.06
270.073	294.06
270.306	306.06
270.538	339.06
270.77	325.06
271.002	340.06
271.234	326.06
271.466	319.06
271.698	313.06
271.93	321.06
272.162	333.06
272.394	346.06
272.626	317.06
272.858	302.06
273.09	294.06
273.322	283.06
273.553	297.06
273.785	289.06
274.017	275.06
274.249	282.06
274.481	285.06
274.713	284.06
274.945	279.06
275.176	269.06
275.408	286.06
275.64	289.06
275.872	273.06
276.104	274.06
276.335	273.06
276.567	302.06
276.799	294.06
277.031	320.06
277.262	345.06
277.494	323.06
277.726	316.06
277.957	319.06
278.189	282.06
278.421	292.06
278.652	300.06
278.884	272.06
279.115	308.06
279.347	287.06
279.579	269.06
279.81	295.06
280.042	279.06
280.273	268.06
280.505	289.06
280.736	275.06
280.968	298.06
281.199	298.06
281.431	286.06
281.662	303.06
281.894	289.06
282.125	300.06
282.356	303.06
282.588	313.06
282.819	334.06
283.051	309.06
283.282	294.06
283.513	274.06
283.745	291.06
283.976	302.06
284.207	296.06
284.439	294.06
284.67	300.06
284.901	291.06
285.132	293.06
285.364	280.06
285.595	275.06
285.826	303.06
286.057	309.06
286.288	294.06
286.52	305.06
286.751	301.06
286.982	300.06
287.213	296.06
287.444	314.06
287.675	314.06
287.906	327.06
288.138	329.06
288.369	335.06
288.6	324.06
288.831	321.06
289.062	326.06
289.293	308.06
289.524	312.06
289.755	310.06
289.986	319.06
290.217	309.06
290.448	310.06
290.679	316.06
290.91	317.06
291.141	314.06
291.371	328.06
291.602	310.06
291.833	308.06
292.064	321.06
292.295	303.06
292.526	317.06
292.757	316.06
292.987	314.06
293.218	312.06
293.449	314.06
293.68	302.06
293.91	316.06
294.141	314.06
294.372	312.06
294.603	310.06
294.833	328.06
295.064	314.06
295.295	313.06
295.525	337.06
295.756	333.06
295.987	327.06
296.217	347.06
296.448	362.06
296.679	335.06
296.909	324.06
297.14	327.06
297.37	335.06
297.601	331.06
297.831	347.06
298.062	332.06
298.292	341.06
298.523	331.06
298.753	346.06
298.984	330.06
299.214	327.06
299.445	333.06
299.675	349.06
299.905	352.06
300.136	341.06
300.366	347.06
300.597	341.06
300.827	337.06
301.057	330.06
301.288	372.06
301.518	370.06
301.748	339.06
301.979	349.06
302.209	338.06
302.439	366.06
302.669	372.06
302.9	357.06
303.13	358.06
303.36	356.06
303.59	366.06
303.82	353.06
304.051	376.06
304.281	375.06
304.511	358.06
304.741	348.06
304.971	341.06
305.201	338.06
305.431	340.06
305.661	342.06
305.891	367.06
306.121	363.06
306.352	379.06
306.582	377.06
306.812	379.06
307.042	357.06
307.272	373.06
307.502	366.06
307.731	353.06
307.961	367.06
308.191	369.06
308.421	359.06
308.651	372.06
308.881	366.06
309.111	387.06
309.341	381.06
309.571	390.06
309.8	379.06
310.03	397.06
310.26	424.06
310.49	400.06
310.72	399.06
310.949	425.06
311.179	444.06
311.409	429.06
311.639	425.06
311.868	429.06
312.098	420.06
312.328	435.06
312.557	449.06
312.787	465.06
313.017	458.06
313.246	440.06
313.476	401.06
313.706	429.06
313.935	422.06
314.165	421.06
314.394	442.06
314.624	433.06
314.853	439.06
315.083	411.06
315.312	403.06
315.542	407.06
315.771	421.06
316.001	399.06
316.23	411.06
316.46	428.06
316.689	447.06
316.919	427.06
317.148	401.06
317.377	412.06
317.607	403.06
317.836	429.06
318.065	437.06
318.295	402.06
318.524	409.06
318.753	407.06
318.983	416.06
319.212	430.06
319.441	411.06
319.67	451.06
319.9	414.06
320.129	417.06
320.358	411.06
320.587	421.06
320.816	445.06
321.046	435.06
321.275	435.06
321.504	434.06
321.733	431.06
321.962	438.06
322.191	460.06
322.42	463.06
322.649	486.06
322.878	500.06
323.108	522.06
323.337	523.06
323.566	543.06
323.795	574.06
324.024	649.06
324.253	789.06
324.482	1107.06
324.71	1733.06
324.939	2557.06
325.168	2216.06
325.397	1142.06
325.626	743.06
325.855	626.06
326.084	590.06
326.313	562.06
326.542	559.06
326.77	633.06
326.999	727.06
327.228	1035.06
327.457	1588.06
327.686	1939.06
327.914	1267.06
328.143	820.06
328.372	706.06
328.6	652.06
328.829	606.06
329.058	644.06
329.287	653.06
329.515	587.06
329.744	569.06
329.972	547.06
330.201	531.06
330.43	570.06
330.658	605.06
330.887	673.06
331.115	643.06
331.344	587.06
331.572	543.06
331.801	527.06
332.03	554.06
332.258	527.06
332.486	515.06
332.715	493.06
332.943	499.06
333.172	497.06
333.4	492.06
333.629	490.06
333.857	519.06
334.085	520.06
334.314	510.06
334.542	526.06
334.771	529.06
334.999	525.06
335.227	517.06
335.455	503.06
335.684	526.06
335.912	516.06
336.14	511.06
336.369	516.06
336.597	493.06
336.825	505.06
337.053	525.06
337.281	498.06
337.51	517.06
337.738	497.06
337.966	478.06
338.194	475.06
338.422	514.06
338.65	518.06
338.878	499.06
339.106	474.06
339.334	497.06
339.562	469.06
339.79	485.06
340.018	505.06
340.246	482.06
340.474	491.06
340.702	481.06
340.93	494.06
341.158	492.06
341.386	514.06
341.614	491.06
341.842	459.06
342.07	477.06
342.298	469.06
342.526	477.06
342.754	455.06
342.981	461.06
343.209	468.06
343.437	485.06
343.665	490.06
343.893	484.06
344.12	478.06
344.348	488.06
344.576	490.06
344.804	506.06
345.031	497.06
345.259	517.06
345.487	490.06
345.714	498.06
345.942	449.06
346.17	467.06
346.397	470.06
346.625	473.06
346.853	441.06
347.08	467.06
347.308	473.06
347.535	476.06
347.763	494.06
347.99	480.06
348.218	476.06
348.445	464.06
348.673	483.06
348.9	477.06
349.128	455.06
349.355	443.06
349.583	476.06
349.81	460.06
350.037	471.06
350.265	453.06
350.492	464.06
350.72	457.06
350.947	470.06
351.174	464.06
351.402	461.06
351.629	464.06
351.856	465.06
352.083	479.06
352.311	489.06
352.538	501.06
352.765	483.06
352.992	491.06
353.22	473.06
353.447	465.06
353.674	468.06
353.901	456.06
354.128	438.06
354.355	452.06
354.583	439.06
354.81	416.06
355.037	439.06
355.264	447.06
355.491	441.06
355.718	433.06
355.945	429.06
356.172	453.06
356.399	449.06
356.626	444.06
356.853	454.06
357.08	435.06
357.307	424.06
357.534	435.06
357.761	457.06
357.988	438.06
358.215	455.06
358.441	434.06
358.668	433.06
358.895	458.06
359.122	463.06
359.349	473.06
359.576	470.06
359.802	495.06
360.029	527.06
360.256	545.06
360.483	497.06
360.709	488.06
360.936	469.06
361.163	471.06
361.39	487.06
361.616	478.06
361.843	472.06
362.07	475.06
362.296	482.06
362.523	469.06
362.749	467.06
362.976	476.06
363.203	455.06
363.429	449.06
363.656	463.06
363.882	464.06
364.109	469.06
364.335	431.06
364.562	463.06
364.788	448.06
365.015	451.06
365.241	465.06
365.468	448.06
365.694	437.06
365.92	476.06
366.147	480.06
366.373	455.06
366.599	449.06
366.826	437.06
367.052	453.06
367.278	458.06
367.505	450.06
367.731	463.06
367.957	453.06
368.184	464.06
368.41	441.06
368.636	477.06
368.862	486.06
369.089	491.06
369.315	458.06
369.541	448.06
369.767	431.06
369.993	444.06
370.219	457.06
370.445	469.06
370.672	463.06
370.898	449.06
371.124	428.06
371.35	437.06
371.576	437.06
371.802	461.06
372.028	458.06
372.254	444.06
372.48	461.06
372.706	458.06
372.932	452.06
373.158	466.06
373.384	472.06
373.61	457.06
373.835	465.06
374.061	448.06
374.287	454.06
374.513	478.06
374.739	472.06
374.965	452.06
375.191	500.06
375.416	473.06
375.642	465.06
375.868	445.06
376.094	460.06
376.319	452.06
376.545	446.06
376.771	453.06
376.997	438.06
377.222	470.06
377.448	474.06
377.674	446.06
377.899	451.06
378.125	466.06
378.35	448.06
378.576	435.06
378.802	435.06
379.027	456.06
379.253	470.06
379.478	441.06
379.704	455.06
379.929	444.06
380.155	463.06
380.38	446.06
380.606	449.06
380.831	446.06
381.057	466.06
381.282	442.06
381.507	458.06
381.733	467.06
381.958	471.06
382.184	451.06
382.409	461.06
382.634	463.06
382.86	451.06
383.085	470.06
383.31	473.06
383.535	468.06
383.761	463.06
383.986	485.06
384.211	502.06
384.436	469.06
384.662	503.06
384.887	500.06
385.112	486.06
385.337	498.06
385.562	527.06
385.787	495.06
386.013	512.06
386.238	517.06
386.463	508.06
386.688	502.06
386.913	488.06
387.138	494.06
387.363	507.06
387.588	488.06
387.813	489.06
388.038	514.06
388.263	521.06
388.488	502.06
388.713	485.06
388.938	498.06
389.163	508.06
389.387	518.06
389.612	477.06
389.837	499.06
390.062	505.06
390.287	519.06
390.512	491.06
390.736	498.06
390.961	522.06
391.186	518.06
391.411	526.06
391.636	508.06
391.86	516.06
392.085	530.06
392.31	533.06
392.534	540.06
392.759	522.06
392.984	522.06
393.208	506.06
393.433	522.06
393.658	502.06
393.882	499.06
394.107	513.06
394.331	521.06
394.556	526.06
394.78	507.06
395.005	527.06
395.229	499.06
395.454	528.06
395.678	526.06
395.903	545.06
396.127	552.06
396.352	595.06
396.576	566.06
396.801	534.06
397.025	518.06
397.249	556.06
397.474	538.06
397.698	559.06
397.922	566.06
398.147	593.06
398.371	605.06
398.595	566.06
398.82	590.06
399.044	590.06
399.268	612.06
399.492	637.06
399.717	667.06
399.941	697.06
400.165	743.06
400.389	768.06
400.613	687.06
400.837	635.06
401.062	630.06
401.286	610.06
401.51	605.06
401.734	585.06
401.958	593.06
402.182	585.06
402.406	593.06
402.63	597.06
402.854	598.06
403.078	598.06
403.302	609.06
403.526	606.06
403.75	614.06
403.974	638.06
404.198	578.06
404.422	588.06
404.645	613.06
404.869	589.06
405.093	645.06
405.317	666.06
405.541	685.06
405.765	663.06
405.988	658.06
406.212	656.06
406.436	684.06
406.66	699.06
406.883	653.06
407.107	696.06
407.331	727.06
407.555	806.06
407.778	823.06
408.002	757.06
408.226	694.06
408.449	672.06
408.673	691.06
408.896	717.06
409.12	741.06
409.344	708.06
409.567	644.06
409.791	633.06
410.014	634.06
410.238	643.06
410.461	630.06
410.685	622.06
410.908	626.06
411.132	696.06
411.355	727.06
411.578	678.06
411.802	629.06
412.025	612.06
412.249	606.06
412.472	646.06
412.695	627.06
412.919	635.06
413.142	597.06
413.365	583.06
413.589	596.06
413.812	599.06
414.035	595.06
414.258	583.06
414.482	591.06
414.705	603.06
414.928	571.06
415.151	581.06
415.374	582.06
415.597	591.06
415.821	581.06
416.044	575.06
416.267	577.06
416.49	573.06
416.713	594.06
416.936	583.06
417.159	550.06
417.382	573.06
417.605	558.06
417.828	609.06
418.051	627.06
418.274	602.06
418.497	594.06
418.72	582.06
418.943	585.06
419.166	596.06
419.389	637.06
419.611	625.06
419.834	590.06
420.057	610.06
420.28	606.06
420.503	606.06
420.726	605.06
420.948	630.06
421.171	645.06
421.394	710.06
421.617	638.06
421.839	625.06
422.062	621.06
422.285	631.06
422.507	711.06
422.73	773.06
422.953	759.06
423.175	654.06
423.398	661.06
423.621	618.06
423.843	665.06
424.066	657.06
424.288	647.06
424.511	681.06
424.733	746.06
424.956	850.06
425.178	811.06
425.401	810.06
425.623	851.06
425.846	714.06
426.068	646.06
426.291	646.06
426.513	672.06
426.735	686.06
426.958	698.06
427.18	810.06
427.402	946.06
427.625	1094.06
427.847	926.06
428.069	751.06
428.292	707.06
428.514	682.06
428.736	620.06
428.958	634.06
429.181	602.06
429.403	616.06
429.625	615.06
429.847	647.06
430.069	724.06
430.292	723.06
430.514	647.06
430.736	607.06
430.958	586.06
431.18	588.06
431.402	584.06
431.624	564.06
431.846	549.06
432.068	569.06
432.29	611.06
432.512	579.06
432.734	586.06
432.956	600.06
433.178	588.06
433.4	590.06
433.622	612.06
433.844	591.06
434.066	582.06
434.287	582.06
434.509	591.06
434.731	610.06
434.953	616.06
435.175	632.06
435.397	637.06
435.618	643.06
435.84	707.06
436.062	811.06
436.284	907.06
436.505	730.06
436.727	695.06
436.949	663.06
437.17	599.06
437.392	609.06
437.614	617.06
437.835	655.06
438.057	791.06
438.278	883.06
438.5	895.06
438.721	986.06
438.943	942.06
439.165	749.06
439.386	684.06
439.608	649.06
439.829	676.06
440.05	694.06
440.272	753.06
440.493	704.06
440.715	661.06
440.936	646.06
441.158	632.06
441.379	599.06
441.6	635.06
441.822	652.06
442.043	706.06
442.264	803.06
442.486	837.06
442.707	742.06
442.928	687.06
443.149	692.06
443.371	733.06
443.592	775.06
443.813	867.06
444.034	919.06
444.255	783.06
444.476	679.06
444.698	661.06
444.919	670.06
445.14	777.06
445.361	728.06
445.582	720.06
445.803	805.06
446.024	904.06
446.245	931.06
446.466	845.06
446.687	733.06
446.908	685.06
447.129	646.06
447.35	608.06
447.571	611.06
447.792	628.06
448.013	618.06
448.234	609.06
448.455	690.06
448.675	813.06
448.896	982.06
449.117	821.06
449.338	762.06
449.559	898.06
449.779	998.06
450	812.06
450.221	669.06
450.442	614.06
450.662	591.06
450.883	617.06
451.104	615.06
451.324	611.06
451.545	564.06
451.766	553.06
451.986	563.06
452.207	522.06
452.428	528.06
452.648	527.06
452.869	545.06
453.089	539.06
453.31	556.06
453.53	546.06
453.751	552.06
453.971	547.06
454.192	559.06
454.412	552.06
454.633	547.06
454.853	543.06
455.073	534.06
455.294	589.06
455.514	657.06
455.734	645.06
455.955	582.06
456.175	525.06
456.395	509.06
456.616	513.06
456.836	501.06
457.056	509.06
457.276	498.06
457.497	515.06
457.717	520.06
457.937	515.06
458.157	517.06
458.377	546.06
458.598	569.06
458.818	626.06
459.038	690.06
459.258	710.06
459.478	641.06
459.698	589.06
459.918	572.06
460.138	575.06
460.358	590.06
460.578	583.06
460.798	586.06
461.018	609.06
461.238	596.06
461.458	568.06
461.678	589.06
461.898	621.06
462.118	574.06
462.338	604.06
462.558	604.06
462.777	612.06
462.997	627.06
463.217	616.06
463.437	637.06
463.657	619.06
463.876	626.06
464.096	630.06
464.316	615.06
464.536	645.06
464.755	637.06
464.975	641.06
465.195	664.06
465.414	746.06
465.634	682.06
465.854	623.06
466.073	616.06
466.293	602.06
466.512	566.06
466.732	567.06
466.951	538.06
467.171	559.06
467.391	575.06
467.61	606.06
467.829	606.06
468.049	567.06
468.268	559.06
468.488	528.06
468.707	546.06
468.927	534.06
469.146	519.06
469.365	546.06
469.585	542.06
469.804	553.06
470.023	571.06
470.243	571.06
470.462	577.06
470.681	574.06
470.901	599.06
471.12	582.06
471.339	542.06
471.558	581.06
471.777	576.06
471.997	550.06
472.216	555.06
472.435	548.06
472.654	590.06
472.873	547.06
473.092	543.06
473.311	543.06
473.53	564.06
473.749	555.06
473.968	614.06
474.187	723.06
474.406	740.06
474.625	663.06
474.844	580.06
475.063	586.06
475.282	565.06
475.501	587.06
475.72	588.06
475.939	582.06
476.158	592.06
476.377	595.06
476.596	576.06
476.814	602.06
477.033	624.06
477.252	632.06
477.471	635.06
477.69	635.06
477.908	602.06
478.127	632.06
478.346	641.06
478.564	624.06
478.783	627.06
479.002	650.06
479.22	677.06
479.439	668.06
479.658	691.06
479.876	687.06
480.095	707.06
480.313	717.06
480.532	713.06
480.751	727.06
480.969	691.06
481.188	694.06
481.406	708.06
481.624	679.06
481.843	667.06
482.061	659.06
482.28	689.06
482.498	661.06
482.717	664.06
482.935	670.06
483.153	651.06
483.372	674.06
483.59	664.06
483.808	658.06
484.027	648.06
484.245	655.06
484.463	667.06
484.681	662.06
484.9	693.06
485.118	676.06
485.336	675.06
485.554	705.06
485.772	691.06
485.99	700.06
486.209	695.06
486.427	695.06
486.645	702.06
486.863	723.06
487.081	730.06
487.299	753.06
487.517	732.06
487.735	705.06
487.953	698.06
488.171	694.06
488.389	692.06
488.607	712.06
488.825	713.06
489.043	722.06
489.261	765.06
489.479	729.06
489.696	729.06
489.914	719.06
490.132	716.06
490.35	741.06
490.568	739.06
490.786	754.06
491.003	747.06
491.221	775.06
491.439	793.06
491.657	802.06
491.874	832.06
492.092	828.06
492.31	827.06
492.527	825.06
492.745	811.06
492.963	815.06
493.18	805.06
493.398	818.06
493.615	798.06
493.833	814.06
494.05	827.06
494.268	828.06
494.485	826.06
494.703	830.06
494.92	825.06
495.138	833.06
495.355	870.06
495.573	854.06
495.79	842.06
496.008	843.06
496.225	854.06
496.442	833.06
496.66	847.06
496.877	870.06
497.094	875.06
497.312	883.06
497.529	901.06
497.746	896.06
497.963	903.06
498.181	920.06
498.398	940.06
498.615	950.06
498.832	970.06
499.049	1028.06
499.267	995.06
499.484	1027.06
499.701	1096.06
499.918	1139.06
500.135	1186.06
500.352	1248.06
500.569	1254.06
500.786	1229.06
501.003	1197.06
501.22	1197.06
501.437	1146.06
501.654	1102.06
