Data from 1988.PennyLincolnUp.Lamp.En5.5.200Scan.071819.P2_HRD10591_17-19-13-972.txt Node
Date: Thu Jul 18 17:19:13 EDT 2019
User: cochatt
Spectrometer: HR+D1059
Trigger mode: 1
Integration Time (sec): 1.000000E-1
Scans to average: 1
Electric dark correction enabled: true
Nonlinearity correction enabled: false
Boxcar width: 0
XAxis mode: Wavelengths
Number of Pixels in Spectrum: 2048
>>>>>Begin Spectral Data<<<<<
223.165	-10.81
223.4	-10.81
223.635	-10.81
223.869	-26.81
224.104	-17.81
224.338	-11.81
224.573	-8.81
224.808	-17.81
225.042	6.19
225.277	-13.81
225.511	-13.81
225.746	-6.81
225.98	12.19
226.215	7.19
226.449	13.19
226.683	23.19
226.918	31.19
227.152	35.19
227.387	32.19
227.621	34.19
227.856	50.19
228.09	47.19
228.324	45.19
228.559	38.19
228.793	66.19
229.027	88.19
229.262	86.19
229.496	111.19
229.73	124.19
229.964	149.19
230.199	130.19
230.433	112.19
230.667	114.19
230.901	94.19
231.136	97.19
231.37	100.19
231.604	118.19
231.838	105.19
232.072	112.19
232.306	104.19
232.541	115.19
232.775	109.19
233.009	122.19
233.243	111.19
233.477	119.19
233.711	119.19
233.945	108.19
234.179	105.19
234.413	107.19
234.647	109.19
234.881	98.19
235.115	122.19
235.349	115.19
235.583	110.19
235.817	119.19
236.051	126.19
236.285	112.19
236.519	123.19
236.753	120.19
236.987	149.19
237.221	182.19
237.455	238.19
237.689	189.19
237.922	132.19
238.156	124.19
238.39	120.19
238.624	120.19
238.858	124.19
239.091	120.19
239.325	114.19
239.559	120.19
239.793	131.19
240.027	121.19
240.26	132.19
240.494	174.19
240.728	144.19
240.961	144.19
241.195	143.19
241.429	134.19
241.662	142.19
241.896	118.19
242.13	125.19
242.363	128.19
242.597	120.19
242.83	131.19
243.064	128.19
243.298	139.19
243.531	140.19
243.765	131.19
243.998	131.19
244.232	126.19
244.465	152.19
244.699	135.19
244.932	151.19
245.166	158.19
245.399	140.19
245.633	146.19
245.866	151.19
246.099	138.19
246.333	130.19
246.566	129.19
246.8	157.19
247.033	162.19
247.266	152.19
247.5	170.19
247.733	162.19
247.966	174.19
248.2	167.19
248.433	174.19
248.666	164.19
248.899	162.19
249.133	194.19
249.366	187.19
249.599	197.19
249.832	186.19
250.066	168.19
250.299	177.19
250.532	188.19
250.765	190.19
250.998	196.19
251.231	200.19
251.465	218.19
251.698	200.19
251.931	185.19
252.164	178.19
252.397	184.19
252.63	188.19
252.863	201.19
253.096	215.19
253.329	220.19
253.562	216.19
253.795	220.19
254.028	218.19
254.261	202.19
254.494	218.19
254.727	229.19
254.96	268.19
255.193	277.19
255.426	228.19
255.659	233.19
255.892	218.19
256.124	209.19
256.357	212.19
256.59	202.19
256.823	209.19
257.056	208.19
257.289	207.19
257.521	218.19
257.754	202.19
257.987	221.19
258.22	209.19
258.452	210.19
258.685	208.19
258.918	196.19
259.151	213.19
259.383	206.19
259.616	225.19
259.849	214.19
260.081	228.19
260.314	252.19
260.547	256.19
260.779	229.19
261.012	229.19
261.244	211.19
261.477	213.19
261.71	207.19
261.942	224.19
262.175	228.19
262.407	227.19
262.64	212.19
262.872	207.19
263.105	213.19
263.337	214.19
263.57	198.19
263.802	199.19
264.035	224.19
264.267	209.19
264.499	210.19
264.732	209.19
264.964	195.19
265.197	219.19
265.429	197.19
265.661	214.19
265.894	201.19
266.126	219.19
266.358	222.19
266.591	212.19
266.823	223.19
267.055	205.19
267.287	217.19
267.52	233.19
267.752	222.19
267.984	214.19
268.216	216.19
268.448	243.19
268.681	225.19
268.913	262.19
269.145	282.19
269.377	284.19
269.609	279.19
269.841	261.19
270.073	260.19
270.306	274.19
270.538	300.19
270.77	296.19
271.002	293.19
271.234	284.19
271.466	281.19
271.698	296.19
271.93	318.19
272.162	312.19
272.394	321.19
272.626	302.19
272.858	265.19
273.09	278.19
273.322	268.19
273.553	260.19
273.785	251.19
274.017	274.19
274.249	252.19
274.481	276.19
274.713	266.19
274.945	245.19
275.176	263.19
275.408	273.19
275.64	261.19
275.872	258.19
276.104	268.19
276.335	261.19
276.567	280.19
276.799	271.19
277.031	307.19
277.262	320.19
277.494	302.19
277.726	303.19
277.957	281.19
278.189	274.19
278.421	267.19
278.652	249.19
278.884	274.19
279.115	274.19
279.347	264.19
279.579	256.19
279.81	263.19
280.042	263.19
280.273	257.19
280.505	282.19
280.736	282.19
280.968	256.19
281.199	264.19
281.431	264.19
281.662	271.19
281.894	254.19
282.125	271.19
282.356	299.19
282.588	304.19
282.819	311.19
283.051	286.19
283.282	255.19
283.513	280.19
283.745	270.19
283.976	287.19
284.207	249.19
284.439	284.19
284.67	269.19
284.901	279.19
285.132	278.19
285.364	290.19
285.595	295.19
285.826	290.19
286.057	269.19
286.288	273.19
286.52	280.19
286.751	289.19
286.982	270.19
287.213	288.19
287.444	279.19
287.675	279.19
287.906	279.19
288.138	304.19
288.369	306.19
288.6	304.19
288.831	296.19
289.062	306.19
289.293	285.19
289.524	295.19
289.755	302.19
289.986	297.19
290.217	286.19
290.448	294.19
290.679	292.19
290.91	295.19
291.141	282.19
291.371	297.19
291.602	281.19
291.833	298.19
292.064	295.19
292.295	280.19
292.526	280.19
292.757	281.19
292.987	290.19
293.218	298.19
293.449	303.19
293.68	296.19
293.91	293.19
294.141	297.19
294.372	288.19
294.603	299.19
294.833	291.19
295.064	293.19
295.295	297.19
295.525	301.19
295.756	313.19
295.987	300.19
296.217	338.19
296.448	330.19
296.679	329.19
296.909	311.19
297.14	328.19
297.37	313.19
297.601	316.19
297.831	302.19
298.062	305.19
298.292	322.19
298.523	328.19
298.753	310.19
298.984	311.19
299.214	306.19
299.445	314.19
299.675	321.19
299.905	321.19
300.136	311.19
300.366	317.19
300.597	315.19
300.827	331.19
301.057	339.19
301.288	323.19
301.518	332.19
301.748	334.19
301.979	335.19
302.209	327.19
302.439	327.19
302.669	341.19
302.9	337.19
303.13	319.19
303.36	338.19
303.59	343.19
303.82	342.19
304.051	340.19
304.281	349.19
304.511	337.19
304.741	329.19
304.971	326.19
305.201	333.19
305.431	322.19
305.661	340.19
305.891	343.19
306.121	345.19
306.352	334.19
306.582	328.19
306.812	348.19
307.042	336.19
307.272	341.19
307.502	332.19
307.731	358.19
307.961	345.19
308.191	338.19
308.421	339.19
308.651	343.19
308.881	339.19
309.111	344.19
309.341	343.19
309.571	348.19
309.8	368.19
310.03	368.19
310.26	373.19
310.49	371.19
310.72	399.19
310.949	401.19
311.179	394.19
311.409	384.19
311.639	390.19
311.868	392.19
312.098	393.19
312.328	368.19
312.557	405.19
312.787	401.19
313.017	423.19
313.246	413.19
313.476	398.19
313.706	387.19
313.935	382.19
314.165	404.19
314.394	428.19
314.624	400.19
314.853	380.19
315.083	386.19
315.312	399.19
315.542	378.19
315.771	375.19
316.001	385.19
316.23	385.19
316.46	383.19
316.689	392.19
316.919	375.19
317.148	399.19
317.377	397.19
317.607	410.19
317.836	382.19
318.065	388.19
318.295	386.19
318.524	379.19
318.753	392.19
318.983	390.19
319.212	382.19
319.441	398.19
319.67	401.19
319.9	387.19
320.129	394.19
320.358	418.19
320.587	419.19
320.816	413.19
321.046	424.19
321.275	416.19
321.504	437.19
321.733	421.19
321.962	412.19
322.191	446.19
322.42	428.19
322.649	458.19
322.878	476.19
323.108	465.19
323.337	505.19
323.566	526.19
323.795	552.19
324.024	585.19
324.253	713.19
324.482	983.19
324.71	1569.19
324.939	2253.19
325.168	1911.19
325.397	1000.19
325.626	685.19
325.855	558.19
326.084	520.19
326.313	502.19
326.542	512.19
326.77	556.19
326.999	659.19
327.228	920.19
327.457	1350.19
327.686	1672.19
327.914	1128.19
328.143	731.19
328.372	651.19
328.6	586.19
328.829	583.19
329.058	588.19
329.287	617.19
329.515	539.19
329.744	489.19
329.972	504.19
330.201	506.19
330.43	540.19
330.658	570.19
330.887	608.19
331.115	609.19
331.344	523.19
331.572	489.19
331.801	493.19
332.03	506.19
332.258	489.19
332.486	470.19
332.715	463.19
332.943	454.19
333.172	455.19
333.4	485.19
333.629	479.19
333.857	482.19
334.085	484.19
334.314	471.19
334.542	484.19
334.771	496.19
334.999	470.19
335.227	465.19
335.455	458.19
335.684	464.19
335.912	482.19
336.14	453.19
336.369	463.19
336.597	455.19
336.825	454.19
337.053	460.19
337.281	457.19
337.51	442.19
337.738	460.19
337.966	463.19
338.194	467.19
338.422	449.19
338.65	444.19
338.878	435.19
339.106	462.19
339.334	451.19
339.562	445.19
339.79	434.19
340.018	423.19
340.246	460.19
340.474	471.19
340.702	452.19
340.93	444.19
341.158	426.19
341.386	424.19
341.614	445.19
341.842	431.19
342.07	426.19
342.298	446.19
342.526	426.19
342.754	436.19
342.981	446.19
343.209	436.19
343.437	450.19
343.665	442.19
343.893	458.19
344.12	482.19
344.348	452.19
344.576	466.19
344.804	440.19
345.031	460.19
345.259	485.19
345.487	476.19
345.714	448.19
345.942	435.19
346.17	427.19
346.397	422.19
346.625	446.19
346.853	418.19
347.08	446.19
347.308	426.19
347.535	440.19
347.763	456.19
347.99	445.19
348.218	447.19
348.445	436.19
348.673	419.19
348.9	442.19
349.128	438.19
349.355	421.19
349.583	430.19
349.81	448.19
350.037	411.19
350.265	410.19
350.492	423.19
350.72	413.19
350.947	436.19
351.174	425.19
351.402	425.19
351.629	437.19
351.856	450.19
352.083	436.19
352.311	430.19
352.538	459.19
352.765	442.19
352.992	424.19
353.22	416.19
353.447	409.19
353.674	416.19
353.901	413.19
354.128	430.19
354.355	394.19
354.583	392.19
354.81	418.19
355.037	404.19
355.264	415.19
355.491	378.19
355.718	406.19
355.945	394.19
356.172	407.19
356.399	410.19
356.626	407.19
356.853	393.19
357.08	406.19
357.307	392.19
357.534	394.19
357.761	400.19
357.988	406.19
358.215	402.19
358.441	414.19
358.668	397.19
358.895	393.19
359.122	415.19
359.349	419.19
359.576	458.19
359.802	456.19
360.029	480.19
360.256	504.19
360.483	467.19
360.709	436.19
360.936	430.19
361.163	444.19
361.39	413.19
361.616	420.19
361.843	420.19
362.07	430.19
362.296	431.19
362.523	430.19
362.749	453.19
362.976	439.19
363.203	424.19
363.429	398.19
363.656	425.19
363.882	410.19
364.109	420.19
364.335	416.19
364.562	414.19
364.788	397.19
365.015	424.19
365.241	387.19
365.468	391.19
365.694	394.19
365.92	421.19
366.147	418.19
366.373	443.19
366.599	412.19
366.826	402.19
367.052	402.19
367.278	411.19
367.505	407.19
367.731	408.19
367.957	405.19
368.184	396.19
368.41	403.19
368.636	439.19
368.862	436.19
369.089	419.19
369.315	423.19
369.541	412.19
369.767	402.19
369.993	405.19
370.219	415.19
370.445	414.19
370.672	432.19
370.898	403.19
371.124	405.19
371.35	406.19
371.576	414.19
371.802	423.19
372.028	411.19
372.254	409.19
372.48	392.19
372.706	416.19
372.932	425.19
373.158	421.19
373.384	439.19
373.61	423.19
373.835	425.19
374.061	418.19
374.287	423.19
374.513	398.19
374.739	420.19
374.965	414.19
375.191	421.19
375.416	437.19
375.642	430.19
375.868	424.19
376.094	416.19
376.319	391.19
376.545	408.19
376.771	421.19
376.997	413.19
377.222	424.19
377.448	409.19
377.674	408.19
377.899	401.19
378.125	406.19
378.35	412.19
378.576	399.19
378.802	420.19
379.027	419.19
379.253	410.19
379.478	404.19
379.704	428.19
379.929	401.19
380.155	397.19
380.38	398.19
380.606	393.19
380.831	410.19
381.057	407.19
381.282	406.19
381.507	413.19
381.733	411.19
381.958	410.19
382.184	413.19
382.409	417.19
382.634	420.19
382.86	420.19
383.085	426.19
383.31	425.19
383.535	449.19
383.761	413.19
383.986	432.19
384.211	456.19
384.436	435.19
384.662	437.19
384.887	426.19
385.112	438.19
385.337	423.19
385.562	450.19
385.787	453.19
386.013	460.19
386.238	462.19
386.463	464.19
386.688	466.19
386.913	441.19
387.138	452.19
387.363	451.19
387.588	446.19
387.813	458.19
388.038	451.19
388.263	476.19
388.488	452.19
388.713	463.19
388.938	448.19
389.163	473.19
389.387	454.19
389.612	466.19
389.837	456.19
390.062	441.19
390.287	451.19
390.512	442.19
390.736	449.19
390.961	459.19
391.186	451.19
391.411	478.19
391.636	452.19
391.86	476.19
392.085	459.19
392.31	467.19
392.534	449.19
392.759	465.19
392.984	459.19
393.208	466.19
393.433	471.19
393.658	469.19
393.882	472.19
394.107	473.19
394.331	470.19
394.556	466.19
394.78	453.19
395.005	468.19
395.229	454.19
395.454	485.19
395.678	481.19
395.903	463.19
396.127	499.19
396.352	500.19
396.576	488.19
396.801	501.19
397.025	479.19
397.249	479.19
397.474	478.19
397.698	499.19
397.922	489.19
398.147	514.19
398.371	512.19
398.595	524.19
398.82	517.19
399.044	545.19
399.268	555.19
399.492	566.19
399.717	596.19
399.941	614.19
400.165	672.19
400.389	665.19
400.613	596.19
400.837	570.19
401.062	558.19
401.286	527.19
401.51	545.19
401.734	543.19
401.958	517.19
402.182	506.19
402.406	515.19
402.63	558.19
402.854	547.19
403.078	525.19
403.302	520.19
403.526	542.19
403.75	552.19
403.974	553.19
404.198	551.19
404.422	541.19
404.645	547.19
404.869	520.19
405.093	566.19
405.317	580.19
405.541	633.19
405.765	586.19
405.988	588.19
406.212	573.19
406.436	612.19
406.66	618.19
406.883	578.19
407.107	610.19
407.331	655.19
407.555	715.19
407.778	733.19
408.002	642.19
408.226	605.19
408.449	602.19
408.673	606.19
408.896	598.19
409.12	654.19
409.344	649.19
409.567	576.19
409.791	560.19
410.014	565.19
410.238	563.19
410.461	532.19
410.685	552.19
410.908	557.19
411.132	588.19
411.355	637.19
411.578	612.19
411.802	562.19
412.025	534.19
412.249	552.19
412.472	540.19
412.695	552.19
412.919	539.19
413.142	525.19
413.365	536.19
413.589	504.19
413.812	522.19
414.035	522.19
414.258	508.19
414.482	501.19
414.705	518.19
414.928	500.19
415.151	525.19
415.374	510.19
415.597	512.19
415.821	506.19
416.044	512.19
416.267	505.19
416.49	502.19
416.713	526.19
416.936	509.19
417.159	518.19
417.382	509.19
417.605	523.19
417.828	534.19
418.051	542.19
418.274	537.19
418.497	511.19
418.72	522.19
418.943	508.19
419.166	535.19
419.389	550.19
419.611	545.19
419.834	532.19
420.057	540.19
420.28	528.19
420.503	539.19
420.726	549.19
420.948	548.19
421.171	592.19
421.394	614.19
421.617	571.19
421.839	530.19
422.062	521.19
422.285	541.19
422.507	610.19
422.73	692.19
422.953	662.19
423.175	568.19
423.398	595.19
423.621	552.19
423.843	576.19
424.066	576.19
424.288	550.19
424.511	618.19
424.733	646.19
424.956	745.19
425.178	682.19
425.401	715.19
425.623	700.19
425.846	614.19
426.068	605.19
426.291	568.19
426.513	575.19
426.735	596.19
426.958	665.19
427.18	702.19
427.402	840.19
427.625	937.19
427.847	819.19
428.069	658.19
428.292	603.19
428.514	580.19
428.736	568.19
428.958	558.19
429.181	546.19
429.403	543.19
429.625	541.19
429.847	593.19
430.069	627.19
430.292	625.19
430.514	530.19
430.736	536.19
430.958	536.19
431.18	500.19
431.402	506.19
431.624	522.19
431.846	501.19
432.068	501.19
432.29	528.19
432.512	529.19
432.734	509.19
432.956	509.19
433.178	532.19
433.4	507.19
433.622	512.19
433.844	514.19
434.066	493.19
434.287	503.19
434.509	521.19
434.731	533.19
434.953	543.19
435.175	540.19
435.397	552.19
435.618	589.19
435.84	623.19
436.062	701.19
436.284	790.19
436.505	640.19
436.727	579.19
436.949	554.19
437.17	558.19
437.392	513.19
437.614	540.19
437.835	577.19
438.057	654.19
438.278	780.19
438.5	784.19
438.721	861.19
438.943	791.19
439.165	656.19
439.386	595.19
439.608	573.19
439.829	581.19
440.05	613.19
440.272	646.19
440.493	593.19
440.715	558.19
440.936	525.19
441.158	521.19
441.379	540.19
441.6	551.19
441.822	594.19
442.043	625.19
442.264	707.19
442.486	749.19
442.707	636.19
442.928	611.19
443.149	610.19
443.371	622.19
443.592	675.19
443.813	782.19
444.034	830.19
444.255	682.19
444.476	607.19
444.698	606.19
444.919	616.19
445.14	669.19
445.361	617.19
445.582	604.19
445.803	680.19
446.024	797.19
446.245	798.19
446.466	709.19
446.687	629.19
446.908	593.19
447.129	550.19
447.35	535.19
447.571	530.19
447.792	529.19
448.013	545.19
448.234	537.19
448.455	591.19
448.675	740.19
448.896	864.19
449.117	710.19
449.338	676.19
449.559	806.19
449.779	892.19
450	722.19
450.221	589.19
450.442	529.19
450.662	526.19
450.883	540.19
451.104	551.19
451.324	530.19
451.545	510.19
451.766	484.19
451.986	483.19
452.207	471.19
452.428	460.19
452.648	477.19
452.869	485.19
453.089	503.19
453.31	499.19
453.53	481.19
453.751	475.19
453.971	479.19
454.192	521.19
454.412	496.19
454.633	475.19
454.853	476.19
455.073	497.19
455.294	518.19
455.514	576.19
455.734	550.19
455.955	489.19
456.175	463.19
456.395	454.19
456.616	436.19
456.836	457.19
457.056	445.19
457.276	455.19
457.497	450.19
457.717	460.19
457.937	450.19
458.157	464.19
458.377	475.19
458.598	487.19
458.818	558.19
459.038	636.19
459.258	626.19
459.478	537.19
459.698	529.19
459.918	496.19
460.138	521.19
460.358	487.19
460.578	528.19
460.798	533.19
461.018	539.19
461.238	533.19
461.458	532.19
461.678	521.19
461.898	514.19
462.118	505.19
462.338	541.19
462.558	540.19
462.777	517.19
462.997	554.19
463.217	574.19
463.437	591.19
463.657	570.19
463.876	536.19
464.096	566.19
464.316	534.19
464.536	558.19
464.755	548.19
464.975	569.19
465.195	582.19
465.414	692.19
465.634	594.19
465.854	567.19
466.073	536.19
466.293	515.19
466.512	490.19
466.732	501.19
466.951	472.19
467.171	473.19
467.391	506.19
467.61	480.19
467.829	529.19
468.049	514.19
468.268	464.19
468.488	489.19
468.707	465.19
468.927	473.19
469.146	465.19
469.365	471.19
469.585	469.19
469.804	458.19
470.023	497.19
470.243	527.19
470.462	494.19
470.681	529.19
470.901	510.19
471.12	513.19
471.339	502.19
471.558	484.19
471.777	512.19
471.997	494.19
472.216	485.19
472.435	512.19
472.654	520.19
472.873	507.19
473.092	473.19
473.311	480.19
473.53	484.19
473.749	494.19
473.968	546.19
474.187	647.19
474.406	659.19
474.625	574.19
474.844	510.19
475.063	492.19
475.282	527.19
475.501	516.19
475.72	514.19
475.939	502.19
476.158	527.19
476.377	523.19
476.596	528.19
476.814	540.19
477.033	534.19
477.252	528.19
477.471	554.19
477.69	550.19
477.908	535.19
478.127	522.19
478.346	574.19
478.564	578.19
478.783	554.19
479.002	568.19
479.22	584.19
479.439	585.19
479.658	608.19
479.876	600.19
480.095	605.19
480.313	634.19
480.532	614.19
480.751	597.19
480.969	615.19
481.188	611.19
481.406	605.19
481.624	606.19
481.843	594.19
482.061	581.19
482.28	564.19
482.498	586.19
482.717	568.19
482.935	595.19
483.153	585.19
483.372	604.19
483.59	600.19
483.808	605.19
484.027	586.19
484.245	576.19
484.463	600.19
484.681	580.19
484.9	605.19
485.118	606.19
485.336	601.19
485.554	611.19
485.772	626.19
485.99	608.19
486.209	601.19
486.427	607.19
486.645	635.19
486.863	613.19
487.081	645.19
487.299	640.19
487.517	644.19
487.735	642.19
487.953	675.19
488.171	618.19
488.389	618.19
488.607	629.19
488.825	642.19
489.043	633.19
489.261	632.19
489.479	637.19
489.696	631.19
489.914	649.19
490.132	636.19
490.35	668.19
490.568	658.19
490.786	670.19
491.003	684.19
491.221	676.19
491.439	688.19
491.657	686.19
491.874	674.19
492.092	701.19
492.31	720.19
492.527	714.19
492.745	709.19
492.963	707.19
493.18	696.19
493.398	725.19
493.615	743.19
493.833	733.19
494.05	721.19
494.268	734.19
494.485	733.19
494.703	723.19
494.92	735.19
495.138	735.19
495.355	741.19
495.573	764.19
495.79	750.19
496.008	753.19
496.225	737.19
496.442	743.19
496.66	770.19
496.877	745.19
497.094	778.19
497.312	771.19
497.529	781.19
497.746	804.19
497.963	778.19
498.181	834.19
498.398	849.19
498.615	846.19
498.832	863.19
499.049	888.19
499.267	877.19
499.484	888.19
499.701	942.19
499.918	965.19
500.135	1026.19
500.352	1052.19
500.569	1061.19
500.786	1068.19
501.003	1063.19
501.22	1025.19
501.437	1011.19
501.654	980.19
501.871	942.19
