Data from 1988.PennyLincolnUp.Lamp.En5.5.200Scan.071819.P2_HRD10591_17-21-20-972.txt Node
Date: Thu Jul 18 17:21:20 EDT 2019
User: cochatt
Spectrometer: HR+D1059
Trigger mode: 1
Integration Time (sec): 1.000000E-1
Scans to average: 1
Electric dark correction enabled: true
Nonlinearity correction enabled: false
Boxcar width: 0
XAxis mode: Wavelengths
Number of Pixels in Spectrum: 2048
>>>>>Begin Spectral Data<<<<<
223.165	-13.44
223.4	-13.44
223.635	-13.44
223.869	-31.44
224.104	-9.44
224.338	-19.44
224.573	-21.44
224.808	-14.44
225.042	-5.44
225.277	1.56
225.511	-12.44
225.746	-8.44
225.98	19.56
226.215	16.56
226.449	27.56
226.683	15.56
226.918	23.56
227.152	31.56
227.387	25.56
227.621	39.56
227.856	40.56
228.09	42.56
228.324	54.56
228.559	51.56
228.793	77.56
229.027	103.56
229.262	114.56
229.496	124.56
229.73	149.56
229.964	170.56
230.199	133.56
230.433	127.56
230.667	118.56
230.901	113.56
231.136	114.56
231.37	120.56
231.604	125.56
231.838	120.56
232.072	114.56
232.306	120.56
232.541	118.56
232.775	107.56
233.009	122.56
233.243	114.56
233.477	118.56
233.711	132.56
233.945	121.56
234.179	119.56
234.413	119.56
234.647	114.56
234.881	117.56
235.115	130.56
235.349	125.56
235.583	116.56
235.817	130.56
236.051	145.56
236.285	140.56
236.519	121.56
236.753	132.56
236.987	147.56
237.221	194.56
237.455	248.56
237.689	205.56
237.922	155.56
238.156	153.56
238.39	137.56
238.624	129.56
238.858	152.56
239.091	146.56
239.325	138.56
239.559	126.56
239.793	126.56
240.027	151.56
240.26	153.56
240.494	168.56
240.728	177.56
240.961	157.56
241.195	162.56
241.429	158.56
241.662	136.56
241.896	133.56
242.13	145.56
242.363	142.56
242.597	153.56
242.83	155.56
243.064	166.56
243.298	138.56
243.531	147.56
243.765	140.56
243.998	145.56
244.232	154.56
244.465	164.56
244.699	166.56
244.932	150.56
245.166	154.56
245.399	159.56
245.633	169.56
245.866	153.56
246.099	155.56
246.333	152.56
246.566	153.56
246.8	169.56
247.033	162.56
247.266	171.56
247.5	165.56
247.733	192.56
247.966	180.56
248.2	190.56
248.433	189.56
248.666	205.56
248.899	191.56
249.133	214.56
249.366	231.56
249.599	217.56
249.832	209.56
250.066	195.56
250.299	207.56
250.532	203.56
250.765	218.56
250.998	226.56
251.231	243.56
251.465	235.56
251.698	225.56
251.931	202.56
252.164	206.56
252.397	221.56
252.63	203.56
252.863	200.56
253.096	244.56
253.329	243.56
253.562	245.56
253.795	226.56
254.028	245.56
254.261	220.56
254.494	243.56
254.727	267.56
254.96	290.56
255.193	305.56
255.426	267.56
255.659	242.56
255.892	258.56
256.124	247.56
256.357	244.56
256.59	228.56
256.823	216.56
257.056	206.56
257.289	227.56
257.521	230.56
257.754	223.56
257.987	235.56
258.22	239.56
258.452	227.56
258.685	231.56
258.918	228.56
259.151	234.56
259.383	219.56
259.616	236.56
259.849	231.56
260.081	222.56
260.314	269.56
260.547	290.56
260.779	255.56
261.012	235.56
261.244	236.56
261.477	239.56
261.71	243.56
261.942	227.56
262.175	257.56
262.407	227.56
262.64	225.56
262.872	231.56
263.105	235.56
263.337	220.56
263.57	244.56
263.802	230.56
264.035	235.56
264.267	212.56
264.499	212.56
264.732	221.56
264.964	218.56
265.197	220.56
265.429	246.56
265.661	233.56
265.894	241.56
266.126	233.56
266.358	235.56
266.591	236.56
266.823	237.56
267.055	234.56
267.287	252.56
267.52	244.56
267.752	235.56
267.984	244.56
268.216	252.56
268.448	246.56
268.681	260.56
268.913	262.56
269.145	275.56
269.377	294.56
269.609	282.56
269.841	282.56
270.073	309.56
270.306	303.56
270.538	331.56
270.77	329.56
271.002	330.56
271.234	298.56
271.466	334.56
271.698	345.56
271.93	327.56
272.162	351.56
272.394	328.56
272.626	313.56
272.858	318.56
273.09	309.56
273.322	300.56
273.553	271.56
273.785	282.56
274.017	287.56
274.249	274.56
274.481	283.56
274.713	278.56
274.945	288.56
275.176	266.56
275.408	282.56
275.64	280.56
275.872	269.56
276.104	286.56
276.335	271.56
276.567	294.56
276.799	332.56
277.031	347.56
277.262	345.56
277.494	343.56
277.726	325.56
277.957	316.56
278.189	299.56
278.421	284.56
278.652	284.56
278.884	277.56
279.115	277.56
279.347	294.56
279.579	286.56
279.81	306.56
280.042	291.56
280.273	282.56
280.505	306.56
280.736	289.56
280.968	286.56
281.199	275.56
281.431	274.56
281.662	287.56
281.894	284.56
282.125	290.56
282.356	285.56
282.588	338.56
282.819	329.56
283.051	301.56
283.282	312.56
283.513	298.56
283.745	290.56
283.976	296.56
284.207	305.56
284.439	301.56
284.67	290.56
284.901	295.56
285.132	300.56
285.364	305.56
285.595	286.56
285.826	327.56
286.057	295.56
286.288	313.56
286.52	289.56
286.751	309.56
286.982	292.56
287.213	307.56
287.444	313.56
287.675	294.56
287.906	317.56
288.138	336.56
288.369	333.56
288.6	327.56
288.831	321.56
289.062	329.56
289.293	311.56
289.524	302.56
289.755	317.56
289.986	314.56
290.217	313.56
290.448	317.56
290.679	322.56
290.91	335.56
291.141	309.56
291.371	305.56
291.602	305.56
291.833	320.56
292.064	329.56
292.295	321.56
292.526	317.56
292.757	322.56
292.987	300.56
293.218	309.56
293.449	326.56
293.68	320.56
293.91	313.56
294.141	321.56
294.372	314.56
294.603	294.56
294.833	302.56
295.064	326.56
295.295	323.56
295.525	318.56
295.756	310.56
295.987	309.56
296.217	337.56
296.448	366.56
296.679	338.56
296.909	316.56
297.14	333.56
297.37	333.56
297.601	335.56
297.831	296.56
298.062	335.56
298.292	319.56
298.523	331.56
298.753	341.56
298.984	346.56
299.214	336.56
299.445	330.56
299.675	353.56
299.905	351.56
300.136	353.56
300.366	330.56
300.597	346.56
300.827	340.56
301.057	359.56
301.288	375.56
301.518	371.56
301.748	354.56
301.979	356.56
302.209	375.56
302.439	365.56
302.669	371.56
302.9	363.56
303.13	355.56
303.36	351.56
303.59	354.56
303.82	359.56
304.051	369.56
304.281	369.56
304.511	347.56
304.741	358.56
304.971	348.56
305.201	371.56
305.431	375.56
305.661	366.56
305.891	370.56
306.121	370.56
306.352	354.56
306.582	398.56
306.812	361.56
307.042	371.56
307.272	355.56
307.502	371.56
307.731	341.56
307.961	372.56
308.191	349.56
308.421	371.56
308.651	341.56
308.881	379.56
309.111	394.56
309.341	374.56
309.571	379.56
309.8	381.56
310.03	419.56
310.26	412.56
310.49	419.56
310.72	409.56
310.949	430.56
311.179	459.56
311.409	420.56
311.639	413.56
311.868	428.56
312.098	400.56
312.328	439.56
312.557	442.56
312.787	447.56
313.017	455.56
313.246	416.56
313.476	428.56
313.706	409.56
313.935	437.56
314.165	446.56
314.394	441.56
314.624	427.56
314.853	434.56
315.083	429.56
315.312	405.56
315.542	424.56
315.771	408.56
316.001	405.56
316.23	427.56
316.46	411.56
316.689	400.56
316.919	415.56
317.148	433.56
317.377	419.56
317.607	438.56
317.836	420.56
318.065	442.56
318.295	419.56
318.524	404.56
318.753	422.56
318.983	409.56
319.212	426.56
319.441	402.56
319.67	450.56
319.9	419.56
320.129	417.56
320.358	426.56
320.587	437.56
320.816	436.56
321.046	442.56
321.275	460.56
321.504	427.56
321.733	460.56
321.962	477.56
322.191	462.56
322.42	467.56
322.649	490.56
322.878	506.56
323.108	493.56
323.337	529.56
323.566	585.56
323.795	568.56
324.024	651.56
324.253	792.56
324.482	1115.56
324.71	1769.56
324.939	2617.56
325.168	2297.56
325.397	1122.56
325.626	760.56
325.855	640.56
326.084	595.56
326.313	580.56
326.542	584.56
326.77	627.56
326.999	732.56
327.228	1022.56
327.457	1578.56
327.686	1953.56
327.914	1288.56
328.143	827.56
328.372	702.56
328.6	660.56
328.829	644.56
329.058	629.56
329.287	654.56
329.515	626.56
329.744	577.56
329.972	567.56
330.201	557.56
330.43	631.56
330.658	637.56
330.887	648.56
331.115	654.56
331.344	591.56
331.572	531.56
331.801	545.56
332.03	575.56
332.258	549.56
332.486	526.56
332.715	497.56
332.943	492.56
333.172	511.56
333.4	519.56
333.629	542.56
333.857	527.56
334.085	541.56
334.314	522.56
334.542	553.56
334.771	537.56
334.999	531.56
335.227	508.56
335.455	519.56
335.684	501.56
335.912	497.56
336.14	494.56
336.369	516.56
336.597	511.56
336.825	527.56
337.053	527.56
337.281	495.56
337.51	500.56
337.738	484.56
337.966	501.56
338.194	489.56
338.422	513.56
338.65	493.56
338.878	498.56
339.106	465.56
339.334	490.56
339.562	510.56
339.79	498.56
340.018	476.56
340.246	494.56
340.474	475.56
340.702	482.56
340.93	486.56
341.158	494.56
341.386	487.56
341.614	476.56
341.842	477.56
342.07	478.56
342.298	484.56
342.526	461.56
342.754	465.56
342.981	472.56
343.209	468.56
343.437	484.56
343.665	508.56
343.893	493.56
344.12	500.56
344.348	485.56
344.576	499.56
344.804	486.56
345.031	503.56
345.259	535.56
345.487	513.56
345.714	478.56
345.942	487.56
346.17	499.56
346.397	478.56
346.625	488.56
346.853	466.56
347.08	468.56
347.308	449.56
347.535	479.56
347.763	477.56
347.99	500.56
348.218	491.56
348.445	509.56
348.673	489.56
348.9	487.56
349.128	467.56
349.355	473.56
349.583	448.56
349.81	440.56
350.037	471.56
350.265	455.56
350.492	450.56
350.72	467.56
350.947	464.56
351.174	474.56
351.402	483.56
351.629	477.56
351.856	473.56
352.083	478.56
352.311	488.56
352.538	509.56
352.765	497.56
352.992	477.56
353.22	467.56
353.447	464.56
353.674	476.56
353.901	483.56
354.128	461.56
354.355	459.56
354.583	461.56
354.81	443.56
355.037	431.56
355.264	448.56
355.491	426.56
355.718	443.56
355.945	457.56
356.172	437.56
356.399	427.56
356.626	429.56
356.853	436.56
357.08	428.56
357.307	447.56
357.534	428.56
357.761	451.56
357.988	459.56
358.215	457.56
358.441	444.56
358.668	459.56
358.895	450.56
359.122	445.56
359.349	476.56
359.576	483.56
359.802	486.56
360.029	522.56
360.256	522.56
360.483	523.56
360.709	499.56
360.936	472.56
361.163	467.56
361.39	462.56
361.616	485.56
361.843	435.56
362.07	474.56
362.296	478.56
362.523	478.56
362.749	464.56
362.976	488.56
363.203	471.56
363.429	468.56
363.656	450.56
363.882	457.56
364.109	442.56
364.335	451.56
364.562	440.56
364.788	473.56
365.015	445.56
365.241	450.56
365.468	455.56
365.694	469.56
365.92	470.56
366.147	461.56
366.373	455.56
366.599	450.56
366.826	451.56
367.052	449.56
367.278	455.56
367.505	459.56
367.731	442.56
367.957	467.56
368.184	449.56
368.41	465.56
368.636	492.56
368.862	482.56
369.089	479.56
369.315	462.56
369.541	454.56
369.767	471.56
369.993	439.56
370.219	455.56
370.445	453.56
370.672	446.56
370.898	467.56
371.124	456.56
371.35	445.56
371.576	447.56
371.802	461.56
372.028	458.56
372.254	456.56
372.48	465.56
372.706	459.56
372.932	442.56
373.158	454.56
373.384	443.56
373.61	460.56
373.835	465.56
374.061	430.56
374.287	485.56
374.513	458.56
374.739	467.56
374.965	479.56
375.191	477.56
375.416	467.56
375.642	444.56
375.868	471.56
376.094	459.56
376.319	458.56
376.545	442.56
376.771	457.56
376.997	439.56
377.222	445.56
377.448	456.56
377.674	427.56
377.899	439.56
378.125	447.56
378.35	462.56
378.576	440.56
378.802	439.56
379.027	465.56
379.253	447.56
379.478	450.56
379.704	458.56
379.929	460.56
380.155	464.56
380.38	475.56
380.606	458.56
380.831	455.56
381.057	462.56
381.282	465.56
381.507	468.56
381.733	472.56
381.958	457.56
382.184	466.56
382.409	449.56
382.634	457.56
382.86	482.56
383.085	476.56
383.31	471.56
383.535	478.56
383.761	480.56
383.986	469.56
384.211	485.56
384.436	495.56
384.662	497.56
384.887	497.56
385.112	485.56
385.337	492.56
385.562	509.56
385.787	498.56
386.013	485.56
386.238	521.56
386.463	508.56
386.688	507.56
386.913	501.56
387.138	484.56
387.363	485.56
387.588	481.56
387.813	494.56
388.038	519.56
388.263	517.56
388.488	515.56
388.713	516.56
388.938	506.56
389.163	512.56
389.387	520.56
389.612	506.56
389.837	507.56
390.062	509.56
390.287	515.56
390.512	502.56
390.736	522.56
390.961	506.56
391.186	505.56
391.411	517.56
391.636	508.56
391.86	498.56
392.085	539.56
392.31	521.56
392.534	513.56
392.759	534.56
392.984	527.56
393.208	511.56
393.433	528.56
393.658	521.56
393.882	514.56
394.107	504.56
394.331	522.56
394.556	524.56
394.78	497.56
395.005	510.56
395.229	509.56
395.454	514.56
395.678	549.56
395.903	563.56
396.127	545.56
396.352	582.56
396.576	550.56
396.801	553.56
397.025	522.56
397.249	548.56
397.474	522.56
397.698	539.56
397.922	562.56
398.147	587.56
398.371	589.56
398.595	570.56
398.82	577.56
399.044	595.56
399.268	607.56
399.492	668.56
399.717	699.56
399.941	715.56
400.165	718.56
400.389	733.56
400.613	672.56
400.837	646.56
401.062	634.56
401.286	612.56
401.51	612.56
401.734	615.56
401.958	585.56
402.182	598.56
402.406	626.56
402.63	637.56
402.854	604.56
403.078	592.56
403.302	613.56
403.526	627.56
403.75	598.56
403.974	602.56
404.198	568.56
404.422	621.56
404.645	625.56
404.869	622.56
405.093	654.56
405.317	694.56
405.541	719.56
405.765	689.56
405.988	654.56
406.212	656.56
406.436	667.56
406.66	680.56
406.883	657.56
407.107	697.56
407.331	732.56
407.555	810.56
407.778	823.56
408.002	751.56
408.226	707.56
408.449	689.56
408.673	694.56
408.896	703.56
409.12	757.56
409.344	715.56
409.567	625.56
409.791	623.56
410.014	647.56
410.238	605.56
410.461	629.56
410.685	631.56
410.908	626.56
411.132	705.56
411.355	714.56
411.578	710.56
411.802	639.56
412.025	645.56
412.249	602.56
412.472	629.56
412.695	659.56
412.919	647.56
413.142	619.56
413.365	584.56
413.589	607.56
413.812	614.56
414.035	572.56
414.258	586.56
414.482	559.56
414.705	589.56
414.928	583.56
415.151	588.56
415.374	582.56
415.597	542.56
415.821	567.56
416.044	574.56
416.267	596.56
416.49	599.56
416.713	576.56
416.936	586.56
417.159	574.56
417.382	585.56
417.605	581.56
417.828	583.56
418.051	604.56
418.274	600.56
418.497	598.56
418.72	598.56
418.943	586.56
419.166	597.56
419.389	645.56
419.611	623.56
419.834	607.56
420.057	607.56
420.28	604.56
420.503	613.56
420.726	596.56
420.948	625.56
421.171	668.56
421.394	743.56
421.617	607.56
421.839	626.56
422.062	618.56
422.285	643.56
422.507	712.56
422.73	802.56
422.953	785.56
423.175	676.56
423.398	635.56
423.621	622.56
423.843	670.56
424.066	672.56
424.288	685.56
424.511	670.56
424.733	732.56
424.956	826.56
425.178	815.56
425.401	805.56
425.623	802.56
425.846	713.56
426.068	681.56
426.291	654.56
426.513	649.56
426.735	673.56
426.958	716.56
427.18	812.56
427.402	941.56
427.625	1067.56
427.847	929.56
428.069	817.56
428.292	696.56
428.514	658.56
428.736	629.56
428.958	614.56
429.181	626.56
429.403	613.56
429.625	606.56
429.847	664.56
430.069	748.56
430.292	726.56
430.514	633.56
430.736	618.56
430.958	599.56
431.18	601.56
431.402	574.56
431.624	595.56
431.846	593.56
432.068	568.56
432.29	581.56
432.512	581.56
432.734	585.56
432.956	591.56
433.178	587.56
433.4	584.56
433.622	582.56
433.844	574.56
434.066	586.56
434.287	583.56
434.509	570.56
434.731	578.56
434.953	584.56
435.175	617.56
435.397	615.56
435.618	639.56
435.84	697.56
436.062	813.56
436.284	933.56
436.505	760.56
436.727	673.56
436.949	642.56
437.17	608.56
437.392	614.56
437.614	651.56
437.835	680.56
438.057	790.56
438.278	898.56
438.5	884.56
438.721	982.56
438.943	959.56
439.165	739.56
439.386	680.56
439.608	664.56
439.829	667.56
440.05	711.56
440.272	751.56
440.493	717.56
440.715	673.56
440.936	617.56
441.158	628.56
441.379	607.56
441.6	641.56
441.822	650.56
442.043	715.56
442.264	820.56
442.486	853.56
442.707	760.56
442.928	685.56
443.149	689.56
443.371	704.56
443.592	773.56
443.813	876.56
444.034	943.56
444.255	805.56
444.476	689.56
444.698	681.56
444.919	640.56
445.14	778.56
445.361	731.56
445.582	716.56
445.803	775.56
446.024	918.56
446.245	907.56
446.466	836.56
446.687	720.56
446.908	665.56
447.129	616.56
447.35	629.56
447.571	626.56
447.792	608.56
448.013	628.56
448.234	637.56
448.455	703.56
448.675	817.56
448.896	991.56
449.117	839.56
449.338	779.56
449.559	903.56
449.779	1022.56
450	813.56
450.221	657.56
450.442	629.56
450.662	616.56
450.883	604.56
451.104	612.56
451.324	590.56
451.545	593.56
451.766	549.56
451.986	542.56
452.207	547.56
452.428	562.56
452.648	549.56
452.869	569.56
453.089	575.56
453.31	561.56
453.53	549.56
453.751	557.56
453.971	539.56
454.192	584.56
454.412	533.56
454.633	557.56
454.853	546.56
455.073	521.56
455.294	590.56
455.514	649.56
455.734	612.56
455.955	557.56
456.175	537.56
456.395	498.56
456.616	502.56
456.836	495.56
457.056	484.56
457.276	499.56
457.497	513.56
457.717	528.56
457.937	527.56
458.157	535.56
458.377	523.56
458.598	565.56
458.818	645.56
459.038	733.56
459.258	743.56
459.478	630.56
459.698	595.56
459.918	571.56
460.138	566.56
460.358	595.56
460.578	593.56
460.798	578.56
461.018	604.56
461.238	583.56
461.458	581.56
461.678	577.56
461.898	589.56
462.118	598.56
462.338	608.56
462.558	626.56
462.777	617.56
462.997	664.56
463.217	628.56
463.437	656.56
463.657	635.56
463.876	604.56
464.096	611.56
464.316	625.56
464.536	637.56
464.755	645.56
464.975	615.56
465.195	659.56
465.414	742.56
465.634	668.56
465.854	647.56
466.073	630.56
466.293	600.56
466.512	551.56
466.732	564.56
466.951	558.56
467.171	549.56
467.391	553.56
467.61	577.56
467.829	573.56
468.049	548.56
468.268	566.56
468.488	557.56
468.707	563.56
468.927	557.56
469.146	548.56
469.365	551.56
469.585	549.56
469.804	560.56
470.023	563.56
470.243	539.56
470.462	577.56
470.681	597.56
470.901	587.56
471.12	581.56
471.339	564.56
471.558	567.56
471.777	561.56
471.997	557.56
472.216	571.56
472.435	559.56
472.654	563.56
472.873	553.56
473.092	535.56
473.311	571.56
473.53	572.56
473.749	601.56
473.968	618.56
474.187	735.56
474.406	769.56
474.625	623.56
474.844	604.56
475.063	597.56
475.282	558.56
475.501	556.56
475.72	574.56
475.939	567.56
476.158	587.56
476.377	569.56
476.596	579.56
476.814	606.56
477.033	619.56
477.252	611.56
477.471	615.56
477.69	636.56
477.908	612.56
478.127	631.56
478.346	641.56
478.564	634.56
478.783	632.56
479.002	646.56
479.22	676.56
479.439	669.56
479.658	684.56
479.876	721.56
480.095	712.56
480.313	700.56
480.532	709.56
480.751	692.56
480.969	721.56
481.188	726.56
481.406	707.56
481.624	708.56
481.843	691.56
482.061	695.56
482.28	690.56
482.498	663.56
482.717	661.56
482.935	679.56
483.153	689.56
483.372	674.56
483.59	663.56
483.808	666.56
484.027	673.56
484.245	681.56
484.463	679.56
484.681	692.56
484.9	665.56
485.118	701.56
485.336	671.56
485.554	700.56
485.772	692.56
485.99	694.56
486.209	681.56
486.427	697.56
486.645	713.56
486.863	728.56
487.081	733.56
487.299	731.56
487.517	731.56
487.735	723.56
487.953	735.56
488.171	713.56
488.389	745.56
488.607	723.56
488.825	707.56
489.043	715.56
489.261	754.56
489.479	738.56
489.696	740.56
489.914	707.56
490.132	759.56
490.35	742.56
490.568	736.56
490.786	779.56
491.003	776.56
491.221	802.56
491.439	812.56
491.657	814.56
491.874	829.56
492.092	839.56
492.31	835.56
492.527	815.56
492.745	831.56
492.963	817.56
493.18	846.56
493.398	854.56
493.615	819.56
493.833	842.56
494.05	827.56
494.268	829.56
494.485	836.56
494.703	833.56
494.92	837.56
495.138	842.56
495.355	846.56
495.573	873.56
495.79	845.56
496.008	881.56
496.225	855.56
496.442	877.56
496.66	883.56
496.877	883.56
497.094	871.56
497.312	874.56
497.529	909.56
497.746	900.56
497.963	904.56
498.181	949.56
498.398	934.56
498.615	952.56
498.832	976.56
499.049	991.56
499.267	985.56
499.484	1049.56
499.701	1069.56
499.918	1086.56
500.135	1185.56
500.352	1227.56
500.569	1238.56
500.786	1211.56
501.003	1230.56
501.22	1215.56
501.437	1118.56
501.654	1113.56
