Data from 1988.PennyLincolnUp.Lamp.En5.5.200Scan.071819.P2_HRD10591_17-21-08-973.txt Node
Date: Thu Jul 18 17:21:08 EDT 2019
User: cochatt
Spectrometer: HR+D1059
Trigger mode: 1
Integration Time (sec): 1.000000E-1
Scans to average: 1
Electric dark correction enabled: true
Nonlinearity correction enabled: false
Boxcar width: 0
XAxis mode: Wavelengths
Number of Pixels in Spectrum: 2048
>>>>>Begin Spectral Data<<<<<
223.165	-6.56
223.4	-6.56
223.635	-6.56
223.869	-13.56
224.104	-25.56
224.338	2.44
224.573	-19.56
224.808	-18.56
225.042	-14.56
225.277	-10.56
225.511	2.44
225.746	3.44
225.98	4.44
226.215	7.44
226.449	22.44
226.683	15.44
226.918	25.44
227.152	25.44
227.387	43.44
227.621	35.44
227.856	44.44
228.09	45.44
228.324	51.44
228.559	57.44
228.793	95.44
229.027	106.44
229.262	124.44
229.496	135.44
229.73	155.44
229.964	185.44
230.199	141.44
230.433	108.44
230.667	109.44
230.901	133.44
231.136	125.44
231.37	128.44
231.604	125.44
231.838	111.44
232.072	122.44
232.306	109.44
232.541	123.44
232.775	111.44
233.009	125.44
233.243	127.44
233.477	114.44
233.711	131.44
233.945	124.44
234.179	117.44
234.413	134.44
234.647	121.44
234.881	134.44
235.115	125.44
235.349	133.44
235.583	139.44
235.817	137.44
236.051	139.44
236.285	126.44
236.519	141.44
236.753	157.44
236.987	175.44
237.221	203.44
237.455	256.44
237.689	200.44
237.922	177.44
238.156	150.44
238.39	142.44
238.624	133.44
238.858	141.44
239.091	145.44
239.325	134.44
239.559	128.44
239.793	145.44
240.027	144.44
240.26	151.44
240.494	194.44
240.728	177.44
240.961	164.44
241.195	151.44
241.429	146.44
241.662	142.44
241.896	138.44
242.13	134.44
242.363	146.44
242.597	129.44
242.83	143.44
243.064	147.44
243.298	147.44
243.531	166.44
243.765	140.44
243.998	163.44
244.232	143.44
244.465	156.44
244.699	148.44
244.932	155.44
245.166	152.44
245.399	174.44
245.633	157.44
245.866	167.44
246.099	164.44
246.333	164.44
246.566	167.44
246.8	163.44
247.033	163.44
247.266	169.44
247.5	179.44
247.733	179.44
247.966	207.44
248.2	195.44
248.433	189.44
248.666	196.44
248.899	200.44
249.133	218.44
249.366	232.44
249.599	228.44
249.832	208.44
250.066	194.44
250.299	194.44
250.532	195.44
250.765	221.44
250.998	259.44
251.231	244.44
251.465	244.44
251.698	236.44
251.931	222.44
252.164	209.44
252.397	225.44
252.63	197.44
252.863	226.44
253.096	235.44
253.329	233.44
253.562	234.44
253.795	220.44
254.028	241.44
254.261	239.44
254.494	259.44
254.727	282.44
254.96	327.44
255.193	285.44
255.426	275.44
255.659	262.44
255.892	250.44
256.124	254.44
256.357	246.44
256.59	246.44
256.823	227.44
257.056	219.44
257.289	233.44
257.521	237.44
257.754	227.44
257.987	236.44
258.22	238.44
258.452	257.44
258.685	235.44
258.918	232.44
259.151	241.44
259.383	240.44
259.616	246.44
259.849	256.44
260.081	257.44
260.314	255.44
260.547	283.44
260.779	281.44
261.012	248.44
261.244	247.44
261.477	257.44
261.71	244.44
261.942	238.44
262.175	259.44
262.407	250.44
262.64	239.44
262.872	228.44
263.105	235.44
263.337	242.44
263.57	234.44
263.802	230.44
264.035	235.44
264.267	240.44
264.499	244.44
264.732	212.44
264.964	236.44
265.197	219.44
265.429	235.44
265.661	238.44
265.894	242.44
266.126	227.44
266.358	238.44
266.591	245.44
266.823	243.44
267.055	259.44
267.287	267.44
267.52	237.44
267.752	259.44
267.984	255.44
268.216	252.44
268.448	258.44
268.681	273.44
268.913	276.44
269.145	289.44
269.377	311.44
269.609	297.44
269.841	286.44
270.073	299.44
270.306	321.44
270.538	349.44
270.77	363.44
271.002	335.44
271.234	336.44
271.466	321.44
271.698	345.44
271.93	342.44
272.162	355.44
272.394	343.44
272.626	340.44
272.858	328.44
273.09	314.44
273.322	317.44
273.553	310.44
273.785	295.44
274.017	299.44
274.249	302.44
274.481	298.44
274.713	306.44
274.945	322.44
275.176	285.44
275.408	301.44
275.64	278.44
275.872	301.44
276.104	282.44
276.335	297.44
276.567	300.44
276.799	315.44
277.031	340.44
277.262	334.44
277.494	349.44
277.726	343.44
277.957	319.44
278.189	313.44
278.421	307.44
278.652	305.44
278.884	302.44
279.115	305.44
279.347	279.44
279.579	305.44
279.81	290.44
280.042	287.44
280.273	296.44
280.505	296.44
280.736	299.44
280.968	289.44
281.199	301.44
281.431	311.44
281.662	307.44
281.894	282.44
282.125	285.44
282.356	316.44
282.588	340.44
282.819	362.44
283.051	311.44
283.282	293.44
283.513	286.44
283.745	313.44
283.976	332.44
284.207	330.44
284.439	326.44
284.67	320.44
284.901	312.44
285.132	324.44
285.364	315.44
285.595	309.44
285.826	306.44
286.057	301.44
286.288	309.44
286.52	303.44
286.751	311.44
286.982	323.44
287.213	318.44
287.444	324.44
287.675	317.44
287.906	332.44
288.138	341.44
288.369	339.44
288.6	349.44
288.831	326.44
289.062	341.44
289.293	328.44
289.524	326.44
289.755	329.44
289.986	310.44
290.217	305.44
290.448	322.44
290.679	325.44
290.91	339.44
291.141	312.44
291.371	325.44
291.602	339.44
291.833	326.44
292.064	323.44
292.295	335.44
292.526	325.44
292.757	339.44
292.987	339.44
293.218	334.44
293.449	322.44
293.68	317.44
293.91	354.44
294.141	320.44
294.372	332.44
294.603	327.44
294.833	322.44
295.064	324.44
295.295	335.44
295.525	347.44
295.756	332.44
295.987	346.44
296.217	373.44
296.448	393.44
296.679	345.44
296.909	334.44
297.14	343.44
297.37	345.44
297.601	331.44
297.831	329.44
298.062	355.44
298.292	337.44
298.523	341.44
298.753	355.44
298.984	340.44
299.214	342.44
299.445	354.44
299.675	339.44
299.905	350.44
300.136	348.44
300.366	361.44
300.597	343.44
300.827	371.44
301.057	358.44
301.288	378.44
301.518	373.44
301.748	359.44
301.979	367.44
302.209	386.44
302.439	371.44
302.669	370.44
302.9	360.44
303.13	363.44
303.36	365.44
303.59	359.44
303.82	400.44
304.051	373.44
304.281	370.44
304.511	371.44
304.741	362.44
304.971	377.44
305.201	371.44
305.431	373.44
305.661	389.44
305.891	387.44
306.121	383.44
306.352	390.44
306.582	374.44
306.812	381.44
307.042	388.44
307.272	364.44
307.502	374.44
307.731	391.44
307.961	373.44
308.191	375.44
308.421	385.44
308.651	384.44
308.881	398.44
309.111	409.44
309.341	375.44
309.571	407.44
309.8	434.44
310.03	427.44
310.26	425.44
310.49	422.44
310.72	433.44
310.949	454.44
311.179	460.44
311.409	442.44
311.639	419.44
311.868	449.44
312.098	409.44
312.328	444.44
312.557	453.44
312.787	466.44
313.017	469.44
313.246	459.44
313.476	440.44
313.706	437.44
313.935	444.44
314.165	456.44
314.394	464.44
314.624	446.44
314.853	449.44
315.083	449.44
315.312	423.44
315.542	433.44
315.771	439.44
316.001	430.44
316.23	437.44
316.46	439.44
316.689	468.44
316.919	439.44
317.148	429.44
317.377	438.44
317.607	456.44
317.836	443.44
318.065	441.44
318.295	440.44
318.524	424.44
318.753	445.44
318.983	442.44
319.212	437.44
319.441	440.44
319.67	453.44
319.9	444.44
320.129	459.44
320.358	431.44
320.587	434.44
320.816	454.44
321.046	474.44
321.275	474.44
321.504	448.44
321.733	472.44
321.962	490.44
322.191	485.44
322.42	519.44
322.649	526.44
322.878	547.44
323.108	531.44
323.337	555.44
323.566	572.44
323.795	632.44
324.024	706.44
324.253	836.44
324.482	1210.44
324.71	1861.44
324.939	2821.44
325.168	2406.44
325.397	1194.44
325.626	812.44
325.855	701.44
326.084	603.44
326.313	589.44
326.542	621.44
326.77	659.44
326.999	773.44
327.228	1063.44
327.457	1666.44
327.686	2061.44
327.914	1338.44
328.143	878.44
328.372	735.44
328.6	686.44
328.829	663.44
329.058	670.44
329.287	693.44
329.515	668.44
329.744	597.44
329.972	581.44
330.201	584.44
330.43	631.44
330.658	629.44
330.887	701.44
331.115	712.44
331.344	604.44
331.572	578.44
331.801	579.44
332.03	577.44
332.258	590.44
332.486	531.44
332.715	519.44
332.943	535.44
333.172	547.44
333.4	517.44
333.629	509.44
333.857	533.44
334.085	572.44
334.314	549.44
334.542	557.44
334.771	575.44
334.999	550.44
335.227	531.44
335.455	525.44
335.684	533.44
335.912	513.44
336.14	522.44
336.369	535.44
336.597	532.44
336.825	529.44
337.053	517.44
337.281	523.44
337.51	511.44
337.738	506.44
337.966	517.44
338.194	525.44
338.422	506.44
338.65	502.44
338.878	509.44
339.106	493.44
339.334	491.44
339.562	512.44
339.79	503.44
340.018	515.44
340.246	508.44
340.474	516.44
340.702	493.44
340.93	500.44
341.158	484.44
341.386	527.44
341.614	533.44
341.842	504.44
342.07	489.44
342.298	495.44
342.526	491.44
342.754	500.44
342.981	462.44
343.209	484.44
343.437	488.44
343.665	511.44
343.893	519.44
344.12	519.44
344.348	499.44
344.576	518.44
344.804	518.44
345.031	547.44
345.259	538.44
345.487	536.44
345.714	515.44
345.942	490.44
346.17	490.44
346.397	473.44
346.625	494.44
346.853	479.44
347.08	495.44
347.308	493.44
347.535	501.44
347.763	500.44
347.99	506.44
348.218	511.44
348.445	501.44
348.673	506.44
348.9	497.44
349.128	487.44
349.355	478.44
349.583	498.44
349.81	483.44
350.037	480.44
350.265	474.44
350.492	483.44
350.72	478.44
350.947	480.44
351.174	489.44
351.402	471.44
351.629	514.44
351.856	489.44
352.083	503.44
352.311	513.44
352.538	525.44
352.765	516.44
352.992	512.44
353.22	507.44
353.447	476.44
353.674	488.44
353.901	481.44
354.128	472.44
354.355	460.44
354.583	453.44
354.81	474.44
355.037	451.44
355.264	481.44
355.491	466.44
355.718	463.44
355.945	469.44
356.172	455.44
356.399	471.44
356.626	460.44
356.853	458.44
357.08	473.44
357.307	452.44
357.534	459.44
357.761	456.44
357.988	477.44
358.215	473.44
358.441	454.44
358.668	468.44
358.895	453.44
359.122	478.44
359.349	479.44
359.576	502.44
359.802	517.44
360.029	553.44
360.256	563.44
360.483	547.44
360.709	502.44
360.936	495.44
361.163	465.44
361.39	496.44
361.616	517.44
361.843	500.44
362.07	505.44
362.296	511.44
362.523	492.44
362.749	480.44
362.976	478.44
363.203	462.44
363.429	484.44
363.656	484.44
363.882	487.44
364.109	471.44
364.335	455.44
364.562	468.44
364.788	464.44
365.015	478.44
365.241	478.44
365.468	479.44
365.694	509.44
365.92	484.44
366.147	463.44
366.373	478.44
366.599	458.44
366.826	473.44
367.052	476.44
367.278	479.44
367.505	473.44
367.731	469.44
367.957	473.44
368.184	485.44
368.41	500.44
368.636	484.44
368.862	490.44
369.089	496.44
369.315	476.44
369.541	499.44
369.767	487.44
369.993	469.44
370.219	484.44
370.445	477.44
370.672	453.44
370.898	462.44
371.124	487.44
371.35	465.44
371.576	463.44
371.802	474.44
372.028	468.44
372.254	476.44
372.48	488.44
372.706	476.44
372.932	464.44
373.158	496.44
373.384	478.44
373.61	469.44
373.835	488.44
374.061	484.44
374.287	478.44
374.513	493.44
374.739	487.44
374.965	485.44
375.191	512.44
375.416	481.44
375.642	499.44
375.868	490.44
376.094	478.44
376.319	461.44
376.545	486.44
376.771	486.44
376.997	482.44
377.222	461.44
377.448	476.44
377.674	478.44
377.899	489.44
378.125	473.44
378.35	476.44
378.576	498.44
378.802	468.44
379.027	473.44
379.253	467.44
379.478	472.44
379.704	467.44
379.929	463.44
380.155	479.44
380.38	486.44
380.606	489.44
380.831	484.44
381.057	485.44
381.282	473.44
381.507	485.44
381.733	501.44
381.958	467.44
382.184	481.44
382.409	469.44
382.634	475.44
382.86	484.44
383.085	474.44
383.31	499.44
383.535	485.44
383.761	515.44
383.986	481.44
384.211	504.44
384.436	510.44
384.662	519.44
384.887	510.44
385.112	517.44
385.337	522.44
385.562	523.44
385.787	508.44
386.013	553.44
386.238	539.44
386.463	551.44
386.688	516.44
386.913	522.44
387.138	532.44
387.363	515.44
387.588	516.44
387.813	526.44
388.038	514.44
388.263	531.44
388.488	525.44
388.713	519.44
388.938	523.44
389.163	539.44
389.387	536.44
389.612	528.44
389.837	521.44
390.062	519.44
390.287	524.44
390.512	533.44
390.736	521.44
390.961	529.44
391.186	539.44
391.411	537.44
391.636	538.44
391.86	548.44
392.085	534.44
392.31	539.44
392.534	563.44
392.759	550.44
392.984	553.44
393.208	549.44
393.433	556.44
393.658	520.44
393.882	539.44
394.107	523.44
394.331	559.44
394.556	524.44
394.78	531.44
395.005	547.44
395.229	536.44
395.454	538.44
395.678	558.44
395.903	568.44
396.127	594.44
396.352	592.44
396.576	570.44
396.801	567.44
397.025	570.44
397.249	563.44
397.474	576.44
397.698	583.44
397.922	575.44
398.147	611.44
398.371	617.44
398.595	619.44
398.82	597.44
399.044	635.44
399.268	641.44
399.492	699.44
399.717	742.44
399.941	721.44
400.165	775.44
400.389	773.44
400.613	680.44
400.837	661.44
401.062	641.44
401.286	627.44
401.51	637.44
401.734	619.44
401.958	612.44
402.182	612.44
402.406	636.44
402.63	638.44
402.854	638.44
403.078	631.44
403.302	653.44
403.526	637.44
403.75	631.44
403.974	638.44
404.198	633.44
404.422	657.44
404.645	638.44
404.869	631.44
405.093	677.44
405.317	727.44
405.541	741.44
405.765	691.44
405.988	663.44
406.212	683.44
406.436	689.44
406.66	707.44
406.883	707.44
407.107	706.44
407.331	798.44
407.555	854.44
407.778	844.44
408.002	766.44
408.226	717.44
408.449	718.44
408.673	708.44
408.896	734.44
409.12	787.44
409.344	737.44
409.567	701.44
409.791	663.44
410.014	647.44
410.238	655.44
410.461	656.44
410.685	651.44
410.908	654.44
411.132	703.44
411.355	761.44
411.578	741.44
411.802	648.44
412.025	622.44
412.249	654.44
412.472	681.44
412.695	697.44
412.919	672.44
413.142	637.44
413.365	612.44
413.589	615.44
413.812	603.44
414.035	605.44
414.258	618.44
414.482	587.44
414.705	586.44
414.928	605.44
415.151	603.44
415.374	590.44
415.597	617.44
415.821	611.44
416.044	596.44
416.267	595.44
416.49	604.44
416.713	611.44
416.936	621.44
417.159	588.44
417.382	587.44
417.605	603.44
417.828	619.44
418.051	629.44
418.274	620.44
418.497	605.44
418.72	603.44
418.943	632.44
419.166	647.44
419.389	660.44
419.611	628.44
419.834	647.44
420.057	639.44
420.28	635.44
420.503	632.44
420.726	615.44
420.948	636.44
421.171	704.44
421.394	741.44
421.617	667.44
421.839	625.44
422.062	622.44
422.285	665.44
422.507	722.44
422.73	845.44
422.953	781.44
423.175	715.44
423.398	691.44
423.621	636.44
423.843	705.44
424.066	680.44
424.288	682.44
424.511	698.44
424.733	769.44
424.956	878.44
425.178	843.44
425.401	807.44
425.623	877.44
425.846	732.44
426.068	690.44
426.291	686.44
426.513	684.44
426.735	689.44
426.958	755.44
427.18	856.44
427.402	1006.44
427.625	1110.44
427.847	979.44
428.069	833.44
428.292	731.44
428.514	692.44
428.736	655.44
428.958	681.44
429.181	637.44
429.403	620.44
429.625	652.44
429.847	667.44
430.069	766.44
430.292	733.44
430.514	651.44
430.736	652.44
430.958	617.44
431.18	597.44
431.402	602.44
431.624	574.44
431.846	601.44
432.068	595.44
432.29	605.44
432.512	599.44
432.734	630.44
432.956	611.44
433.178	622.44
433.4	609.44
433.622	612.44
433.844	619.44
434.066	597.44
434.287	613.44
434.509	611.44
434.731	625.44
434.953	601.44
435.175	642.44
435.397	673.44
435.618	696.44
435.84	753.44
436.062	840.44
436.284	949.44
436.505	791.44
436.727	711.44
436.949	681.44
437.17	641.44
437.392	620.44
437.614	643.44
437.835	675.44
438.057	809.44
438.278	948.44
438.5	955.44
438.721	1066.44
438.943	1019.44
439.165	787.44
439.386	715.44
439.608	715.44
439.829	696.44
440.05	744.44
440.272	817.44
440.493	755.44
440.715	676.44
440.936	649.44
441.158	655.44
441.379	661.44
441.6	652.44
441.822	653.44
442.043	754.44
442.264	853.44
442.486	889.44
442.707	769.44
442.928	705.44
443.149	715.44
443.371	753.44
443.592	793.44
443.813	905.44
444.034	1003.44
444.255	824.44
444.476	754.44
444.698	715.44
444.919	698.44
445.14	797.44
445.361	771.44
445.582	785.44
445.803	821.44
446.024	952.44
446.245	955.44
446.466	894.44
446.687	753.44
446.908	693.44
447.129	661.44
447.35	651.44
447.571	655.44
447.792	605.44
448.013	645.44
448.234	647.44
448.455	722.44
448.675	885.44
448.896	965.44
449.117	828.44
449.338	805.44
449.559	908.44
449.779	1083.44
450	856.44
450.221	715.44
450.442	653.44
450.662	618.44
450.883	635.44
451.104	676.44
451.324	625.44
451.545	601.44
451.766	579.44
451.986	576.44
452.207	557.44
452.428	576.44
452.648	569.44
452.869	582.44
453.089	573.44
453.31	615.44
453.53	601.44
453.751	576.44
453.971	585.44
454.192	599.44
454.412	593.44
454.633	564.44
454.853	566.44
455.073	567.44
455.294	585.44
455.514	683.44
455.734	651.44
455.955	589.44
456.175	557.44
456.395	535.44
456.616	547.44
456.836	540.44
457.056	520.44
457.276	519.44
457.497	545.44
457.717	540.44
457.937	531.44
458.157	567.44
458.377	544.44
458.598	598.44
458.818	652.44
459.038	739.44
459.258	771.44
459.478	668.44
459.698	601.44
459.918	589.44
460.138	603.44
460.358	602.44
460.578	627.44
460.798	615.44
461.018	622.44
461.238	633.44
461.458	589.44
461.678	594.44
461.898	590.44
462.118	617.44
462.338	613.44
462.558	637.44
462.777	645.44
462.997	652.44
463.217	660.44
463.437	689.44
463.657	675.44
463.876	660.44
464.096	656.44
464.316	673.44
464.536	671.44
464.755	667.44
464.975	661.44
465.195	705.44
465.414	818.44
465.634	717.44
465.854	682.44
466.073	623.44
466.293	608.44
466.512	599.44
466.732	585.44
466.951	580.44
467.171	587.44
467.391	568.44
467.61	592.44
467.829	584.44
468.049	604.44
468.268	582.44
468.488	563.44
468.707	541.44
468.927	580.44
469.146	564.44
469.365	581.44
469.585	564.44
469.804	589.44
470.023	613.44
470.243	601.44
470.462	599.44
470.681	642.44
470.901	628.44
471.12	585.44
471.339	579.44
471.558	604.44
471.777	606.44
471.997	574.44
472.216	584.44
472.435	589.44
472.654	592.44
472.873	588.44
473.092	581.44
473.311	582.44
473.53	572.44
473.749	616.44
473.968	679.44
474.187	773.44
474.406	811.44
474.625	678.44
474.844	605.44
475.063	617.44
475.282	604.44
475.501	613.44
475.72	618.44
475.939	608.44
476.158	602.44
476.377	602.44
476.596	611.44
476.814	623.44
477.033	616.44
477.252	639.44
477.471	635.44
477.69	632.44
477.908	635.44
478.127	652.44
478.346	649.44
478.564	646.44
478.783	641.44
479.002	679.44
479.22	673.44
479.439	671.44
479.658	677.44
479.876	714.44
480.095	736.44
480.313	744.44
480.532	741.44
480.751	734.44
480.969	742.44
481.188	749.44
481.406	766.44
481.624	725.44
481.843	677.44
482.061	700.44
482.28	689.44
482.498	707.44
482.717	690.44
482.935	716.44
483.153	681.44
483.372	690.44
483.59	689.44
483.808	704.44
484.027	714.44
484.245	713.44
484.463	709.44
484.681	721.44
484.9	703.44
485.118	716.44
485.336	703.44
485.554	725.44
485.772	745.44
485.99	722.44
486.209	704.44
486.427	726.44
486.645	731.44
486.863	746.44
487.081	756.44
487.299	773.44
487.517	743.44
487.735	753.44
487.953	734.44
488.171	746.44
488.389	743.44
488.607	759.44
488.825	752.44
489.043	738.44
489.261	759.44
489.479	793.44
489.696	769.44
489.914	757.44
490.132	759.44
490.35	809.44
490.568	806.44
490.786	795.44
491.003	791.44
491.221	839.44
491.439	850.44
491.657	844.44
491.874	875.44
492.092	838.44
492.31	831.44
492.527	879.44
492.745	861.44
492.963	860.44
493.18	878.44
493.398	885.44
493.615	886.44
493.833	891.44
494.05	881.44
494.268	875.44
494.485	882.44
494.703	899.44
494.92	889.44
495.138	885.44
495.355	895.44
495.573	857.44
495.79	884.44
496.008	883.44
496.225	885.44
496.442	900.44
496.66	894.44
496.877	926.44
497.094	898.44
497.312	910.44
497.529	964.44
497.746	957.44
497.963	937.44
498.181	961.44
498.398	981.44
498.615	997.44
498.832	1022.44
499.049	997.44
499.267	1059.44
499.484	1139.44
499.701	1146.44
499.918	1179.44
500.135	1236.44
500.352	1232.44
500.569	1270.44
500.786	1265.44
501.003	1246.44
501.22	1235.44
501.437	1186.44
501.654	1170.44
