Data from 1988.PennyLincolnUp.Lamp.En5.5.200Scan.071819.P2_HRD10591_17-19-55-971.txt Node
Date: Thu Jul 18 17:19:55 EDT 2019
User: cochatt
Spectrometer: HR+D1059
Trigger mode: 1
Integration Time (sec): 1.000000E-1
Scans to average: 1
Electric dark correction enabled: true
Nonlinearity correction enabled: false
Boxcar width: 0
XAxis mode: Wavelengths
Number of Pixels in Spectrum: 2048
>>>>>Begin Spectral Data<<<<<
223.165	-7.44
223.4	-7.44
223.635	-7.44
223.869	-19.44
224.104	-10.44
224.338	-11.44
224.573	-16.44
224.808	-7.44
225.042	-16.44
225.277	-22.44
225.511	1.56
225.746	15.56
225.98	14.56
226.215	5.56
226.449	4.56
226.683	18.56
226.918	35.56
227.152	15.56
227.387	34.56
227.621	41.56
227.856	53.56
228.09	55.56
228.324	46.56
228.559	54.56
228.793	69.56
229.027	106.56
229.262	115.56
229.496	126.56
229.73	143.56
229.964	175.56
230.199	142.56
230.433	125.56
230.667	122.56
230.901	127.56
231.136	105.56
231.37	121.56
231.604	128.56
231.838	124.56
232.072	118.56
232.306	114.56
232.541	129.56
232.775	121.56
233.009	143.56
233.243	116.56
233.477	129.56
233.711	129.56
233.945	134.56
234.179	126.56
234.413	124.56
234.647	132.56
234.881	118.56
235.115	119.56
235.349	142.56
235.583	128.56
235.817	131.56
236.051	134.56
236.285	133.56
236.519	125.56
236.753	137.56
236.987	149.56
237.221	214.56
237.455	259.56
237.689	197.56
237.922	150.56
238.156	148.56
238.39	129.56
238.624	139.56
238.858	142.56
239.091	136.56
239.325	133.56
239.559	129.56
239.793	144.56
240.027	161.56
240.26	150.56
240.494	178.56
240.728	159.56
240.961	159.56
241.195	159.56
241.429	150.56
241.662	151.56
241.896	157.56
242.13	137.56
242.363	146.56
242.597	143.56
242.83	155.56
243.064	135.56
243.298	131.56
243.531	148.56
243.765	150.56
243.998	153.56
244.232	151.56
244.465	150.56
244.699	165.56
244.932	157.56
245.166	168.56
245.399	158.56
245.633	165.56
245.866	159.56
246.099	170.56
246.333	181.56
246.566	173.56
246.8	162.56
247.033	173.56
247.266	176.56
247.5	167.56
247.733	196.56
247.966	191.56
248.2	178.56
248.433	189.56
248.666	187.56
248.899	206.56
249.133	237.56
249.366	223.56
249.599	203.56
249.832	202.56
250.066	205.56
250.299	204.56
250.532	217.56
250.765	213.56
250.998	225.56
251.231	241.56
251.465	239.56
251.698	220.56
251.931	213.56
252.164	203.56
252.397	226.56
252.63	209.56
252.863	224.56
253.096	237.56
253.329	249.56
253.562	218.56
253.795	248.56
254.028	244.56
254.261	236.56
254.494	244.56
254.727	273.56
254.96	309.56
255.193	274.56
255.426	268.56
255.659	246.56
255.892	269.56
256.124	229.56
256.357	225.56
256.59	225.56
256.823	217.56
257.056	228.56
257.289	231.56
257.521	226.56
257.754	228.56
257.987	232.56
258.22	230.56
258.452	219.56
258.685	234.56
258.918	221.56
259.151	224.56
259.383	244.56
259.616	234.56
259.849	259.56
260.081	254.56
260.314	275.56
260.547	291.56
260.779	278.56
261.012	234.56
261.244	255.56
261.477	234.56
261.71	254.56
261.942	257.56
262.175	249.56
262.407	258.56
262.64	229.56
262.872	235.56
263.105	222.56
263.337	231.56
263.57	246.56
263.802	208.56
264.035	231.56
264.267	232.56
264.499	233.56
264.732	245.56
264.964	226.56
265.197	232.56
265.429	246.56
265.661	231.56
265.894	235.56
266.126	226.56
266.358	227.56
266.591	237.56
266.823	238.56
267.055	250.56
267.287	253.56
267.52	251.56
267.752	253.56
267.984	249.56
268.216	250.56
268.448	271.56
268.681	244.56
268.913	257.56
269.145	278.56
269.377	301.56
269.609	298.56
269.841	315.56
270.073	303.56
270.306	301.56
270.538	330.56
270.77	342.56
271.002	336.56
271.234	304.56
271.466	301.56
271.698	351.56
271.93	353.56
272.162	331.56
272.394	323.56
272.626	332.56
272.858	318.56
273.09	331.56
273.322	313.56
273.553	298.56
273.785	297.56
274.017	288.56
274.249	286.56
274.481	299.56
274.713	293.56
274.945	285.56
275.176	281.56
275.408	282.56
275.64	301.56
275.872	286.56
276.104	319.56
276.335	305.56
276.567	296.56
276.799	308.56
277.031	324.56
277.262	349.56
277.494	345.56
277.726	321.56
277.957	321.56
278.189	315.56
278.421	304.56
278.652	292.56
278.884	289.56
279.115	294.56
279.347	307.56
279.579	294.56
279.81	286.56
280.042	297.56
280.273	292.56
280.505	299.56
280.736	289.56
280.968	277.56
281.199	278.56
281.431	294.56
281.662	307.56
281.894	306.56
282.125	306.56
282.356	308.56
282.588	331.56
282.819	330.56
283.051	299.56
283.282	305.56
283.513	303.56
283.745	309.56
283.976	319.56
284.207	298.56
284.439	297.56
284.67	306.56
284.901	299.56
285.132	302.56
285.364	319.56
285.595	319.56
285.826	309.56
286.057	320.56
286.288	291.56
286.52	327.56
286.751	304.56
286.982	315.56
287.213	309.56
287.444	302.56
287.675	330.56
287.906	330.56
288.138	321.56
288.369	320.56
288.6	325.56
288.831	338.56
289.062	334.56
289.293	338.56
289.524	325.56
289.755	319.56
289.986	336.56
290.217	319.56
290.448	333.56
290.679	326.56
290.91	314.56
291.141	318.56
291.371	314.56
291.602	321.56
291.833	320.56
292.064	337.56
292.295	316.56
292.526	313.56
292.757	324.56
292.987	335.56
293.218	313.56
293.449	347.56
293.68	314.56
293.91	322.56
294.141	326.56
294.372	328.56
294.603	317.56
294.833	323.56
295.064	327.56
295.295	322.56
295.525	315.56
295.756	329.56
295.987	335.56
296.217	369.56
296.448	368.56
296.679	352.56
296.909	342.56
297.14	337.56
297.37	336.56
297.601	358.56
297.831	333.56
298.062	353.56
298.292	350.56
298.523	348.56
298.753	354.56
298.984	347.56
299.214	334.56
299.445	322.56
299.675	352.56
299.905	345.56
300.136	334.56
300.366	359.56
300.597	339.56
300.827	355.56
301.057	369.56
301.288	383.56
301.518	362.56
301.748	367.56
301.979	373.56
302.209	373.56
302.439	379.56
302.669	374.56
302.9	347.56
303.13	350.56
303.36	378.56
303.59	368.56
303.82	373.56
304.051	367.56
304.281	377.56
304.511	345.56
304.741	375.56
304.971	358.56
305.201	377.56
305.431	363.56
305.661	369.56
305.891	360.56
306.121	369.56
306.352	394.56
306.582	365.56
306.812	373.56
307.042	377.56
307.272	352.56
307.502	354.56
307.731	365.56
307.961	379.56
308.191	383.56
308.421	381.56
308.651	391.56
308.881	395.56
309.111	386.56
309.341	398.56
309.571	404.56
309.8	389.56
310.03	416.56
310.26	427.56
310.49	421.56
310.72	411.56
310.949	452.56
311.179	446.56
311.409	429.56
311.639	415.56
311.868	399.56
312.098	431.56
312.328	425.56
312.557	464.56
312.787	482.56
313.017	445.56
313.246	456.56
313.476	427.56
313.706	423.56
313.935	435.56
314.165	463.56
314.394	450.56
314.624	446.56
314.853	434.56
315.083	449.56
315.312	431.56
315.542	425.56
315.771	425.56
316.001	428.56
316.23	425.56
316.46	423.56
316.689	415.56
316.919	432.56
317.148	439.56
317.377	453.56
317.607	440.56
317.836	441.56
318.065	434.56
318.295	419.56
318.524	396.56
318.753	423.56
318.983	449.56
319.212	431.56
319.441	431.56
319.67	457.56
319.9	434.56
320.129	439.56
320.358	447.56
320.587	441.56
320.816	431.56
321.046	433.56
321.275	460.56
321.504	463.56
321.733	457.56
321.962	476.56
322.191	473.56
322.42	479.56
322.649	495.56
322.878	521.56
323.108	531.56
323.337	555.56
323.566	586.56
323.795	595.56
324.024	652.56
324.253	783.56
324.482	1089.56
324.71	1746.56
324.939	2511.56
325.168	2198.56
325.397	1130.56
325.626	754.56
325.855	651.56
326.084	585.56
326.313	584.56
326.542	568.56
326.77	635.56
326.999	739.56
327.228	989.56
327.457	1531.56
327.686	1883.56
327.914	1227.56
328.143	808.56
328.372	687.56
328.6	650.56
328.829	643.56
329.058	626.56
329.287	659.56
329.515	636.56
329.744	577.56
329.972	573.56
330.201	574.56
330.43	596.56
330.658	620.56
330.887	670.56
331.115	674.56
331.344	591.56
331.572	546.56
331.801	559.56
332.03	548.56
332.258	557.56
332.486	518.56
332.715	538.56
332.943	498.56
333.172	519.56
333.4	530.56
333.629	535.56
333.857	533.56
334.085	539.56
334.314	512.56
334.542	535.56
334.771	553.56
334.999	546.56
335.227	554.56
335.455	514.56
335.684	522.56
335.912	536.56
336.14	510.56
336.369	510.56
336.597	538.56
336.825	531.56
337.053	490.56
337.281	503.56
337.51	477.56
337.738	501.56
337.966	534.56
338.194	487.56
338.422	514.56
338.65	510.56
338.878	502.56
339.106	485.56
339.334	482.56
339.562	503.56
339.79	501.56
340.018	501.56
340.246	506.56
340.474	516.56
340.702	513.56
340.93	501.56
341.158	493.56
341.386	487.56
341.614	490.56
341.842	528.56
342.07	495.56
342.298	458.56
342.526	473.56
342.754	479.56
342.981	462.56
343.209	471.56
343.437	494.56
343.665	487.56
343.893	521.56
344.12	507.56
344.348	515.56
344.576	528.56
344.804	515.56
345.031	527.56
345.259	520.56
345.487	520.56
345.714	524.56
345.942	489.56
346.17	484.56
346.397	475.56
346.625	478.56
346.853	489.56
347.08	492.56
347.308	507.56
347.535	482.56
347.763	499.56
347.99	483.56
348.218	509.56
348.445	503.56
348.673	494.56
348.9	490.56
349.128	491.56
349.355	483.56
349.583	464.56
349.81	465.56
350.037	494.56
350.265	476.56
350.492	470.56
350.72	450.56
350.947	493.56
351.174	475.56
351.402	499.56
351.629	497.56
351.856	482.56
352.083	483.56
352.311	509.56
352.538	498.56
352.765	489.56
352.992	495.56
353.22	485.56
353.447	490.56
353.674	472.56
353.901	471.56
354.128	463.56
354.355	460.56
354.583	464.56
354.81	451.56
355.037	454.56
355.264	447.56
355.491	432.56
355.718	458.56
355.945	439.56
356.172	447.56
356.399	459.56
356.626	457.56
356.853	432.56
357.08	451.56
357.307	449.56
357.534	454.56
357.761	458.56
357.988	461.56
358.215	467.56
358.441	471.56
358.668	458.56
358.895	472.56
359.122	455.56
359.349	458.56
359.576	471.56
359.802	524.56
360.029	537.56
360.256	550.56
360.483	530.56
360.709	494.56
360.936	499.56
361.163	498.56
361.39	479.56
361.616	505.56
361.843	482.56
362.07	495.56
362.296	501.56
362.523	501.56
362.749	493.56
362.976	465.56
363.203	484.56
363.429	456.56
363.656	468.56
363.882	477.56
364.109	465.56
364.335	455.56
364.562	472.56
364.788	458.56
365.015	462.56
365.241	490.56
365.468	459.56
365.694	463.56
365.92	470.56
366.147	464.56
366.373	460.56
366.599	471.56
366.826	467.56
367.052	453.56
367.278	485.56
367.505	463.56
367.731	476.56
367.957	486.56
368.184	490.56
368.41	487.56
368.636	502.56
368.862	498.56
369.089	486.56
369.315	479.56
369.541	480.56
369.767	467.56
369.993	463.56
370.219	476.56
370.445	446.56
370.672	460.56
370.898	450.56
371.124	488.56
371.35	485.56
371.576	462.56
371.802	471.56
372.028	478.56
372.254	473.56
372.48	451.56
372.706	457.56
372.932	462.56
373.158	482.56
373.384	473.56
373.61	462.56
373.835	487.56
374.061	476.56
374.287	481.56
374.513	479.56
374.739	505.56
374.965	479.56
375.191	477.56
375.416	468.56
375.642	477.56
375.868	481.56
376.094	467.56
376.319	462.56
376.545	496.56
376.771	483.56
376.997	473.56
377.222	467.56
377.448	463.56
377.674	465.56
377.899	477.56
378.125	462.56
378.35	465.56
378.576	478.56
378.802	468.56
379.027	475.56
379.253	489.56
379.478	463.56
379.704	470.56
379.929	485.56
380.155	476.56
380.38	476.56
380.606	472.56
380.831	458.56
381.057	473.56
381.282	466.56
381.507	465.56
381.733	486.56
381.958	482.56
382.184	466.56
382.409	478.56
382.634	494.56
382.86	486.56
383.085	482.56
383.31	457.56
383.535	474.56
383.761	486.56
383.986	520.56
384.211	497.56
384.436	504.56
384.662	505.56
384.887	525.56
385.112	511.56
385.337	511.56
385.562	507.56
385.787	501.56
386.013	515.56
386.238	501.56
386.463	498.56
386.688	528.56
386.913	510.56
387.138	521.56
387.363	528.56
387.588	522.56
387.813	513.56
388.038	533.56
388.263	531.56
388.488	507.56
388.713	515.56
388.938	498.56
389.163	530.56
389.387	506.56
389.612	500.56
389.837	515.56
390.062	519.56
390.287	528.56
390.512	523.56
390.736	510.56
390.961	522.56
391.186	516.56
391.411	527.56
391.636	527.56
391.86	554.56
392.085	540.56
392.31	546.56
392.534	521.56
392.759	535.56
392.984	538.56
393.208	521.56
393.433	513.56
393.658	545.56
393.882	543.56
394.107	521.56
394.331	526.56
394.556	540.56
394.78	525.56
395.005	531.56
395.229	545.56
395.454	553.56
395.678	551.56
395.903	570.56
396.127	594.56
396.352	562.56
396.576	544.56
396.801	560.56
397.025	567.56
397.249	543.56
397.474	559.56
397.698	570.56
397.922	553.56
398.147	595.56
398.371	624.56
398.595	608.56
398.82	582.56
399.044	612.56
399.268	632.56
399.492	667.56
399.717	707.56
399.941	731.56
400.165	773.56
400.389	758.56
400.613	652.56
400.837	649.56
401.062	633.56
401.286	611.56
401.51	616.56
401.734	608.56
401.958	597.56
402.182	597.56
402.406	615.56
402.63	626.56
402.854	631.56
403.078	629.56
403.302	642.56
403.526	647.56
403.75	641.56
403.974	638.56
404.198	630.56
404.422	619.56
404.645	639.56
404.869	643.56
405.093	650.56
405.317	693.56
405.541	680.56
405.765	671.56
405.988	650.56
406.212	655.56
406.436	679.56
406.66	709.56
406.883	666.56
407.107	716.56
407.331	759.56
407.555	831.56
407.778	836.56
408.002	753.56
408.226	722.56
408.449	712.56
408.673	690.56
408.896	726.56
409.12	801.56
409.344	753.56
409.567	659.56
409.791	657.56
410.014	636.56
410.238	641.56
410.461	642.56
410.685	632.56
410.908	641.56
411.132	688.56
411.355	746.56
411.578	688.56
411.802	638.56
412.025	643.56
412.249	643.56
412.472	635.56
412.695	662.56
412.919	634.56
413.142	652.56
413.365	620.56
413.589	613.56
413.812	608.56
414.035	593.56
414.258	607.56
414.482	585.56
414.705	600.56
414.928	595.56
415.151	618.56
415.374	612.56
415.597	593.56
415.821	597.56
416.044	609.56
416.267	611.56
416.49	618.56
416.713	594.56
416.936	593.56
417.159	586.56
417.382	617.56
417.605	597.56
417.828	590.56
418.051	619.56
418.274	615.56
418.497	590.56
418.72	610.56
418.943	601.56
419.166	631.56
419.389	647.56
419.611	635.56
419.834	620.56
420.057	637.56
420.28	623.56
420.503	605.56
420.726	604.56
420.948	629.56
421.171	689.56
421.394	741.56
421.617	643.56
421.839	624.56
422.062	636.56
422.285	626.56
422.507	715.56
422.73	794.56
422.953	765.56
423.175	686.56
423.398	643.56
423.621	658.56
423.843	670.56
424.066	672.56
424.288	678.56
424.511	687.56
424.733	754.56
424.956	861.56
425.178	834.56
425.401	815.56
425.623	843.56
425.846	718.56
426.068	678.56
426.291	654.56
426.513	667.56
426.735	686.56
426.958	717.56
427.18	843.56
427.402	986.56
427.625	1083.56
427.847	933.56
428.069	781.56
428.292	723.56
428.514	682.56
428.736	655.56
428.958	655.56
429.181	654.56
429.403	650.56
429.625	643.56
429.847	681.56
430.069	741.56
430.292	766.56
430.514	644.56
430.736	640.56
430.958	618.56
431.18	594.56
431.402	597.56
431.624	574.56
431.846	605.56
432.068	598.56
432.29	587.56
432.512	595.56
432.734	607.56
432.956	614.56
433.178	607.56
433.4	607.56
433.622	604.56
433.844	603.56
434.066	589.56
434.287	592.56
434.509	603.56
434.731	600.56
434.953	613.56
435.175	657.56
435.397	656.56
435.618	656.56
435.84	721.56
436.062	843.56
436.284	919.56
436.505	767.56
436.727	688.56
436.949	629.56
437.17	645.56
437.392	639.56
437.614	629.56
437.835	678.56
438.057	806.56
438.278	930.56
438.5	918.56
438.721	1003.56
438.943	958.56
439.165	767.56
439.386	713.56
439.608	681.56
439.829	706.56
440.05	720.56
440.272	769.56
440.493	718.56
440.715	657.56
440.936	627.56
441.158	659.56
441.379	643.56
441.6	641.56
441.822	670.56
442.043	730.56
442.264	838.56
442.486	866.56
442.707	754.56
442.928	695.56
443.149	699.56
443.371	702.56
443.592	782.56
443.813	890.56
444.034	973.56
444.255	821.56
444.476	695.56
444.698	667.56
444.919	688.56
445.14	804.56
445.361	773.56
445.582	733.56
445.803	810.56
446.024	909.56
446.245	935.56
446.466	848.56
446.687	735.56
446.908	687.56
447.129	642.56
447.35	634.56
447.571	626.56
447.792	621.56
448.013	637.56
448.234	634.56
448.455	706.56
448.675	855.56
448.896	983.56
449.117	826.56
449.338	769.56
449.559	911.56
449.779	1014.56
450	841.56
450.221	707.56
450.442	633.56
450.662	627.56
450.883	622.56
451.104	623.56
451.324	618.56
451.545	610.56
451.766	570.56
451.986	569.56
452.207	551.56
452.428	541.56
452.648	546.56
452.869	561.56
453.089	559.56
453.31	588.56
453.53	572.56
453.751	556.56
453.971	584.56
454.192	580.56
454.412	565.56
454.633	570.56
454.853	562.56
455.073	555.56
455.294	582.56
455.514	673.56
455.734	645.56
455.955	563.56
456.175	537.56
456.395	540.56
456.616	533.56
456.836	511.56
457.056	506.56
457.276	517.56
457.497	539.56
457.717	534.56
457.937	541.56
458.157	539.56
458.377	569.56
458.598	557.56
458.818	641.56
459.038	735.56
459.258	752.56
459.478	649.56
459.698	598.56
459.918	601.56
460.138	588.56
460.358	618.56
460.578	605.56
460.798	620.56
461.018	629.56
461.238	617.56
461.458	615.56
461.678	617.56
461.898	620.56
462.118	601.56
462.338	627.56
462.558	643.56
462.777	636.56
462.997	657.56
463.217	665.56
463.437	686.56
463.657	678.56
463.876	641.56
464.096	645.56
464.316	648.56
464.536	682.56
464.755	649.56
464.975	647.56
465.195	682.56
465.414	787.56
465.634	686.56
465.854	643.56
466.073	590.56
466.293	603.56
466.512	606.56
466.732	581.56
466.951	601.56
467.171	583.56
467.391	598.56
467.61	585.56
467.829	603.56
468.049	594.56
468.268	581.56
468.488	567.56
468.707	562.56
468.927	573.56
469.146	558.56
469.365	569.56
469.585	583.56
469.804	584.56
470.023	581.56
470.243	574.56
470.462	584.56
470.681	600.56
470.901	599.56
471.12	581.56
471.339	574.56
471.558	581.56
471.777	572.56
471.997	558.56
472.216	591.56
472.435	563.56
472.654	587.56
472.873	571.56
473.092	550.56
473.311	571.56
473.53	584.56
473.749	599.56
473.968	642.56
474.187	760.56
474.406	778.56
474.625	664.56
474.844	613.56
475.063	609.56
475.282	611.56
475.501	595.56
475.72	586.56
475.939	599.56
476.158	625.56
476.377	587.56
476.596	604.56
476.814	625.56
477.033	599.56
477.252	602.56
477.471	618.56
477.69	629.56
477.908	645.56
478.127	630.56
478.346	642.56
478.564	619.56
478.783	655.56
479.002	647.56
479.22	673.56
479.439	662.56
479.658	701.56
479.876	720.56
480.095	727.56
480.313	747.56
480.532	737.56
480.751	703.56
480.969	713.56
481.188	742.56
481.406	737.56
481.624	693.56
481.843	716.56
482.061	685.56
482.28	683.56
482.498	667.56
482.717	667.56
482.935	693.56
483.153	670.56
483.372	674.56
483.59	704.56
483.808	677.56
484.027	669.56
484.245	679.56
484.463	682.56
484.681	710.56
484.9	702.56
485.118	695.56
485.336	713.56
485.554	699.56
485.772	725.56
485.99	730.56
486.209	716.56
486.427	712.56
486.645	733.56
486.863	734.56
487.081	730.56
487.299	745.56
487.517	741.56
487.735	747.56
487.953	744.56
488.171	720.56
488.389	721.56
488.607	724.56
488.825	758.56
489.043	723.56
489.261	740.56
489.479	745.56
489.696	741.56
489.914	773.56
490.132	749.56
490.35	750.56
490.568	753.56
490.786	766.56
491.003	772.56
491.221	793.56
491.439	797.56
491.657	841.56
491.874	824.56
492.092	825.56
492.31	822.56
492.527	832.56
492.745	826.56
492.963	849.56
493.18	840.56
493.398	843.56
493.615	882.56
493.833	851.56
494.05	877.56
494.268	868.56
494.485	829.56
494.703	844.56
494.92	874.56
495.138	858.56
495.355	864.56
495.573	865.56
495.79	847.56
496.008	866.56
496.225	883.56
496.442	880.56
496.66	886.56
496.877	903.56
497.094	902.56
497.312	917.56
497.529	912.56
497.746	943.56
497.963	930.56
498.181	942.56
498.398	954.56
498.615	1015.56
498.832	1014.56
499.049	1007.56
499.267	1075.56
499.484	1060.56
499.701	1089.56
499.918	1170.56
500.135	1237.56
500.352	1244.56
500.569	1273.56
500.786	1277.56
501.003	1249.56
501.22	1195.56
501.437	1183.56
501.654	1167.56
