Data from 1988.PennyLincolnUp.Lamp.En5.5.200Scan.071819.P2_HRD10591_17-20-36-973.txt Node
Date: Thu Jul 18 17:20:36 EDT 2019
User: cochatt
Spectrometer: HR+D1059
Trigger mode: 1
Integration Time (sec): 1.000000E-1
Scans to average: 1
Electric dark correction enabled: true
Nonlinearity correction enabled: false
Boxcar width: 0
XAxis mode: Wavelengths
Number of Pixels in Spectrum: 2048
>>>>>Begin Spectral Data<<<<<
223.165	2.06
223.4	2.06
223.635	2.06
223.869	-18.94
224.104	-14.94
224.338	-8.94
224.573	-16.94
224.808	-9.94
225.042	-35.94
225.277	-15.94
225.511	15.06
225.746	-16.94
225.98	9.06
226.215	-1.94
226.449	12.06
226.683	36.06
226.918	37.06
227.152	29.06
227.387	33.06
227.621	39.06
227.856	48.06
228.09	47.06
228.324	42.06
228.559	59.06
228.793	76.06
229.027	106.06
229.262	115.06
229.496	130.06
229.73	143.06
229.964	182.06
230.199	132.06
230.433	114.06
230.667	128.06
230.901	133.06
231.136	134.06
231.37	122.06
231.604	122.06
231.838	115.06
232.072	139.06
232.306	119.06
232.541	129.06
232.775	124.06
233.009	114.06
233.243	118.06
233.477	122.06
233.711	120.06
233.945	117.06
234.179	115.06
234.413	121.06
234.647	122.06
234.881	109.06
235.115	122.06
235.349	121.06
235.583	126.06
235.817	144.06
236.051	148.06
236.285	130.06
236.519	130.06
236.753	144.06
236.987	158.06
237.221	212.06
237.455	270.06
237.689	221.06
237.922	165.06
238.156	144.06
238.39	151.06
238.624	128.06
238.858	147.06
239.091	141.06
239.325	118.06
239.559	138.06
239.793	133.06
240.027	142.06
240.26	151.06
240.494	180.06
240.728	147.06
240.961	153.06
241.195	157.06
241.429	145.06
241.662	156.06
241.896	152.06
242.13	130.06
242.363	145.06
242.597	123.06
242.83	136.06
243.064	132.06
243.298	154.06
243.531	152.06
243.765	150.06
243.998	154.06
244.232	142.06
244.465	173.06
244.699	171.06
244.932	143.06
245.166	154.06
245.399	168.06
245.633	160.06
245.866	149.06
246.099	159.06
246.333	163.06
246.566	172.06
246.8	157.06
247.033	169.06
247.266	169.06
247.5	170.06
247.733	184.06
247.966	194.06
248.2	184.06
248.433	176.06
248.666	171.06
248.899	193.06
249.133	210.06
249.366	232.06
249.599	208.06
249.832	207.06
250.066	198.06
250.299	182.06
250.532	183.06
250.765	210.06
250.998	249.06
251.231	246.06
251.465	236.06
251.698	215.06
251.931	213.06
252.164	220.06
252.397	211.06
252.63	213.06
252.863	213.06
253.096	229.06
253.329	238.06
253.562	260.06
253.795	250.06
254.028	225.06
254.261	239.06
254.494	240.06
254.727	267.06
254.96	292.06
255.193	303.06
255.426	244.06
255.659	244.06
255.892	254.06
256.124	251.06
256.357	244.06
256.59	222.06
256.823	223.06
257.056	223.06
257.289	227.06
257.521	228.06
257.754	226.06
257.987	228.06
258.22	215.06
258.452	220.06
258.685	211.06
258.918	217.06
259.151	231.06
259.383	228.06
259.616	247.06
259.849	258.06
260.081	247.06
260.314	259.06
260.547	275.06
260.779	272.06
261.012	248.06
261.244	262.06
261.477	234.06
261.71	232.06
261.942	236.06
262.175	260.06
262.407	253.06
262.64	227.06
262.872	212.06
263.105	225.06
263.337	226.06
263.57	232.06
263.802	229.06
264.035	229.06
264.267	228.06
264.499	232.06
264.732	247.06
264.964	227.06
265.197	217.06
265.429	232.06
265.661	234.06
265.894	219.06
266.126	227.06
266.358	244.06
266.591	226.06
266.823	235.06
267.055	225.06
267.287	251.06
267.52	238.06
267.752	227.06
267.984	248.06
268.216	243.06
268.448	239.06
268.681	259.06
268.913	252.06
269.145	267.06
269.377	298.06
269.609	290.06
269.841	308.06
270.073	300.06
270.306	311.06
270.538	333.06
270.77	355.06
271.002	333.06
271.234	329.06
271.466	322.06
271.698	352.06
271.93	343.06
272.162	338.06
272.394	326.06
272.626	329.06
272.858	326.06
273.09	311.06
273.322	277.06
273.553	287.06
273.785	283.06
274.017	292.06
274.249	297.06
274.481	287.06
274.713	283.06
274.945	299.06
275.176	284.06
275.408	282.06
275.64	284.06
275.872	269.06
276.104	274.06
276.335	274.06
276.567	291.06
276.799	306.06
277.031	341.06
277.262	332.06
277.494	342.06
277.726	327.06
277.957	300.06
278.189	314.06
278.421	290.06
278.652	282.06
278.884	290.06
279.115	287.06
279.347	275.06
279.579	301.06
279.81	278.06
280.042	285.06
280.273	298.06
280.505	284.06
280.736	280.06
280.968	286.06
281.199	280.06
281.431	295.06
281.662	307.06
281.894	291.06
282.125	296.06
282.356	311.06
282.588	326.06
282.819	344.06
283.051	310.06
283.282	302.06
283.513	298.06
283.745	296.06
283.976	302.06
284.207	313.06
284.439	299.06
284.67	296.06
284.901	295.06
285.132	301.06
285.364	305.06
285.595	304.06
285.826	308.06
286.057	306.06
286.288	300.06
286.52	302.06
286.751	298.06
286.982	308.06
287.213	308.06
287.444	307.06
287.675	320.06
287.906	310.06
288.138	328.06
288.369	322.06
288.6	331.06
288.831	341.06
289.062	314.06
289.293	307.06
289.524	302.06
289.755	319.06
289.986	316.06
290.217	312.06
290.448	313.06
290.679	313.06
290.91	317.06
291.141	316.06
291.371	330.06
291.602	321.06
291.833	318.06
292.064	302.06
292.295	321.06
292.526	320.06
292.757	303.06
292.987	329.06
293.218	320.06
293.449	333.06
293.68	313.06
293.91	315.06
294.141	312.06
294.372	319.06
294.603	332.06
294.833	308.06
295.064	330.06
295.295	327.06
295.525	319.06
295.756	339.06
295.987	325.06
296.217	355.06
296.448	356.06
296.679	342.06
296.909	330.06
297.14	316.06
297.37	337.06
297.601	320.06
297.831	331.06
298.062	353.06
298.292	334.06
298.523	344.06
298.753	341.06
298.984	315.06
299.214	330.06
299.445	342.06
299.675	346.06
299.905	336.06
300.136	326.06
300.366	344.06
300.597	349.06
300.827	347.06
301.057	359.06
301.288	363.06
301.518	355.06
301.748	346.06
301.979	359.06
302.209	365.06
302.439	372.06
302.669	367.06
302.9	350.06
303.13	347.06
303.36	366.06
303.59	369.06
303.82	364.06
304.051	388.06
304.281	385.06
304.511	378.06
304.741	358.06
304.971	357.06
305.201	354.06
305.431	354.06
305.661	381.06
305.891	340.06
306.121	363.06
306.352	377.06
306.582	364.06
306.812	376.06
307.042	374.06
307.272	367.06
307.502	348.06
307.731	359.06
307.961	362.06
308.191	356.06
308.421	366.06
308.651	384.06
308.881	390.06
309.111	371.06
309.341	376.06
309.571	387.06
309.8	397.06
310.03	405.06
310.26	414.06
310.49	411.06
310.72	414.06
310.949	429.06
311.179	436.06
311.409	423.06
311.639	419.06
311.868	410.06
312.098	424.06
312.328	404.06
312.557	450.06
312.787	477.06
313.017	461.06
313.246	452.06
313.476	411.06
313.706	440.06
313.935	407.06
314.165	430.06
314.394	436.06
314.624	431.06
314.853	434.06
315.083	418.06
315.312	399.06
315.542	416.06
315.771	423.06
316.001	411.06
316.23	408.06
316.46	407.06
316.689	422.06
316.919	420.06
317.148	436.06
317.377	424.06
317.607	431.06
317.836	419.06
318.065	430.06
318.295	420.06
318.524	419.06
318.753	401.06
318.983	444.06
319.212	437.06
319.441	420.06
319.67	429.06
319.9	431.06
320.129	412.06
320.358	430.06
320.587	441.06
320.816	445.06
321.046	454.06
321.275	432.06
321.504	443.06
321.733	462.06
321.962	465.06
322.191	462.06
322.42	478.06
322.649	504.06
322.878	530.06
323.108	520.06
323.337	518.06
323.566	554.06
323.795	580.06
324.024	630.06
324.253	773.06
324.482	1118.06
324.71	1752.06
324.939	2638.06
325.168	2236.06
325.397	1107.06
325.626	738.06
325.855	629.06
326.084	583.06
326.313	557.06
326.542	575.06
326.77	621.06
326.999	721.06
327.228	1021.06
327.457	1601.06
327.686	1942.06
327.914	1235.06
328.143	829.06
328.372	700.06
328.6	634.06
328.829	620.06
329.058	674.06
329.287	662.06
329.515	630.06
329.744	574.06
329.972	550.06
330.201	557.06
330.43	590.06
330.658	632.06
330.887	680.06
331.115	682.06
331.344	598.06
331.572	543.06
331.801	542.06
332.03	566.06
332.258	550.06
332.486	501.06
332.715	519.06
332.943	498.06
333.172	517.06
333.4	516.06
333.629	519.06
333.857	529.06
334.085	533.06
334.314	520.06
334.542	518.06
334.771	537.06
334.999	541.06
335.227	527.06
335.455	525.06
335.684	496.06
335.912	509.06
336.14	490.06
336.369	491.06
336.597	497.06
336.825	500.06
337.053	519.06
337.281	490.06
337.51	483.06
337.738	495.06
337.966	507.06
338.194	485.06
338.422	479.06
338.65	497.06
338.878	484.06
339.106	491.06
339.334	504.06
339.562	487.06
339.79	490.06
340.018	487.06
340.246	500.06
340.474	484.06
340.702	492.06
340.93	491.06
341.158	465.06
341.386	460.06
341.614	472.06
341.842	475.06
342.07	485.06
342.298	464.06
342.526	478.06
342.754	459.06
342.981	472.06
343.209	455.06
343.437	469.06
343.665	510.06
343.893	495.06
344.12	491.06
344.348	492.06
344.576	507.06
344.804	487.06
345.031	504.06
345.259	504.06
345.487	537.06
345.714	490.06
345.942	484.06
346.17	461.06
346.397	467.06
346.625	460.06
346.853	469.06
347.08	448.06
347.308	465.06
347.535	476.06
347.763	476.06
347.99	488.06
348.218	479.06
348.445	503.06
348.673	488.06
348.9	471.06
349.128	480.06
349.355	474.06
349.583	475.06
349.81	457.06
350.037	450.06
350.265	453.06
350.492	436.06
350.72	463.06
350.947	462.06
351.174	474.06
351.402	470.06
351.629	482.06
351.856	482.06
352.083	470.06
352.311	494.06
352.538	506.06
352.765	478.06
352.992	474.06
353.22	476.06
353.447	461.06
353.674	460.06
353.901	456.06
354.128	463.06
354.355	460.06
354.583	446.06
354.81	438.06
355.037	442.06
355.264	450.06
355.491	436.06
355.718	430.06
355.945	446.06
356.172	456.06
356.399	428.06
356.626	444.06
356.853	430.06
357.08	428.06
357.307	441.06
357.534	444.06
357.761	451.06
357.988	463.06
358.215	444.06
358.441	464.06
358.668	450.06
358.895	446.06
359.122	451.06
359.349	468.06
359.576	465.06
359.802	505.06
360.029	534.06
360.256	530.06
360.483	520.06
360.709	485.06
360.936	446.06
361.163	460.06
361.39	465.06
361.616	485.06
361.843	478.06
362.07	455.06
362.296	484.06
362.523	469.06
362.749	486.06
362.976	469.06
363.203	473.06
363.429	457.06
363.656	454.06
363.882	459.06
364.109	464.06
364.335	471.06
364.562	473.06
364.788	449.06
365.015	463.06
365.241	450.06
365.468	446.06
365.694	472.06
365.92	487.06
366.147	468.06
366.373	463.06
366.599	453.06
366.826	475.06
367.052	470.06
367.278	470.06
367.505	439.06
367.731	463.06
367.957	479.06
368.184	461.06
368.41	459.06
368.636	472.06
368.862	484.06
369.089	472.06
369.315	435.06
369.541	462.06
369.767	454.06
369.993	464.06
370.219	451.06
370.445	454.06
370.672	464.06
370.898	440.06
371.124	474.06
371.35	447.06
371.576	458.06
371.802	458.06
372.028	452.06
372.254	465.06
372.48	474.06
372.706	472.06
372.932	450.06
373.158	446.06
373.384	461.06
373.61	463.06
373.835	462.06
374.061	456.06
374.287	472.06
374.513	472.06
374.739	469.06
374.965	473.06
375.191	445.06
375.416	474.06
375.642	474.06
375.868	455.06
376.094	472.06
376.319	470.06
376.545	466.06
376.771	440.06
376.997	440.06
377.222	461.06
377.448	434.06
377.674	450.06
377.899	447.06
378.125	461.06
378.35	456.06
378.576	471.06
378.802	437.06
379.027	455.06
379.253	459.06
379.478	442.06
379.704	442.06
379.929	464.06
380.155	451.06
380.38	467.06
380.606	455.06
380.831	480.06
381.057	478.06
381.282	456.06
381.507	472.06
381.733	461.06
381.958	449.06
382.184	467.06
382.409	465.06
382.634	467.06
382.86	459.06
383.085	463.06
383.31	460.06
383.535	464.06
383.761	484.06
383.986	473.06
384.211	483.06
384.436	486.06
384.662	493.06
384.887	493.06
385.112	487.06
385.337	494.06
385.562	494.06
385.787	503.06
386.013	514.06
386.238	523.06
386.463	496.06
386.688	499.06
386.913	524.06
387.138	505.06
387.363	501.06
387.588	520.06
387.813	514.06
388.038	517.06
388.263	501.06
388.488	493.06
388.713	490.06
388.938	510.06
389.163	496.06
389.387	530.06
389.612	499.06
389.837	535.06
390.062	502.06
390.287	515.06
390.512	500.06
390.736	506.06
390.961	488.06
391.186	510.06
391.411	516.06
391.636	534.06
391.86	545.06
392.085	538.06
392.31	493.06
392.534	508.06
392.759	530.06
392.984	535.06
393.208	527.06
393.433	528.06
393.658	528.06
393.882	493.06
394.107	538.06
394.331	510.06
394.556	525.06
394.78	524.06
395.005	521.06
395.229	499.06
395.454	515.06
395.678	538.06
395.903	543.06
396.127	578.06
396.352	595.06
396.576	545.06
396.801	515.06
397.025	549.06
397.249	539.06
397.474	547.06
397.698	527.06
397.922	566.06
398.147	572.06
398.371	589.06
398.595	574.06
398.82	579.06
399.044	599.06
399.268	646.06
399.492	656.06
399.717	702.06
399.941	724.06
400.165	711.06
400.389	749.06
400.613	678.06
400.837	650.06
401.062	613.06
401.286	610.06
401.51	589.06
401.734	579.06
401.958	608.06
402.182	591.06
402.406	606.06
402.63	619.06
402.854	638.06
403.078	589.06
403.302	613.06
403.526	612.06
403.75	626.06
403.974	620.06
404.198	622.06
404.422	599.06
404.645	625.06
404.869	617.06
405.093	630.06
405.317	664.06
405.541	726.06
405.765	651.06
405.988	636.06
406.212	658.06
406.436	665.06
406.66	708.06
406.883	665.06
407.107	684.06
407.331	764.06
407.555	825.06
407.778	805.06
408.002	720.06
408.226	711.06
408.449	707.06
408.673	671.06
408.896	712.06
409.12	784.06
409.344	701.06
409.567	659.06
409.791	626.06
410.014	643.06
410.238	617.06
410.461	628.06
410.685	646.06
410.908	624.06
411.132	665.06
411.355	736.06
411.578	691.06
411.802	652.06
412.025	604.06
412.249	605.06
412.472	623.06
412.695	636.06
412.919	630.06
413.142	611.06
413.365	610.06
413.589	600.06
413.812	567.06
414.035	579.06
414.258	583.06
414.482	594.06
414.705	614.06
414.928	599.06
415.151	579.06
415.374	578.06
415.597	575.06
415.821	558.06
416.044	596.06
416.267	589.06
416.49	587.06
416.713	584.06
416.936	599.06
417.159	580.06
417.382	586.06
417.605	592.06
417.828	595.06
418.051	598.06
418.274	624.06
418.497	591.06
418.72	585.06
418.943	577.06
419.166	617.06
419.389	629.06
419.611	632.06
419.834	607.06
420.057	614.06
420.28	620.06
420.503	608.06
420.726	590.06
420.948	607.06
421.171	670.06
421.394	717.06
421.617	634.06
421.839	604.06
422.062	622.06
422.285	613.06
422.507	701.06
422.73	781.06
422.953	761.06
423.175	674.06
423.398	632.06
423.621	645.06
423.843	637.06
424.066	669.06
424.288	682.06
424.511	653.06
424.733	749.06
424.956	832.06
425.178	805.06
425.401	793.06
425.623	867.06
425.846	729.06
426.068	655.06
426.291	647.06
426.513	671.06
426.735	681.06
426.958	711.06
427.18	833.06
427.402	973.06
427.625	1054.06
427.847	915.06
428.069	798.06
428.292	690.06
428.514	639.06
428.736	632.06
428.958	623.06
429.181	610.06
429.403	602.06
429.625	614.06
429.847	643.06
430.069	746.06
430.292	732.06
430.514	648.06
430.736	604.06
430.958	590.06
431.18	579.06
431.402	567.06
431.624	558.06
431.846	576.06
432.068	570.06
432.29	570.06
432.512	586.06
432.734	594.06
432.956	588.06
433.178	598.06
433.4	614.06
433.622	590.06
433.844	588.06
434.066	563.06
434.287	572.06
434.509	573.06
434.731	592.06
434.953	590.06
435.175	626.06
435.397	652.06
435.618	667.06
435.84	709.06
436.062	844.06
436.284	889.06
436.505	749.06
436.727	679.06
436.949	646.06
437.17	621.06
437.392	589.06
437.614	618.06
437.835	678.06
438.057	762.06
438.278	915.06
438.5	882.06
438.721	1004.06
438.943	938.06
439.165	758.06
439.386	678.06
439.608	667.06
439.829	668.06
440.05	699.06
440.272	780.06
440.493	711.06
440.715	645.06
440.936	633.06
441.158	624.06
441.379	622.06
441.6	631.06
441.822	676.06
442.043	707.06
442.264	839.06
442.486	834.06
442.707	733.06
442.928	681.06
443.149	699.06
443.371	708.06
443.592	766.06
443.813	874.06
444.034	968.06
444.255	778.06
444.476	698.06
444.698	673.06
444.919	672.06
445.14	803.06
445.361	734.06
445.582	711.06
445.803	785.06
446.024	926.06
446.245	894.06
446.466	887.06
446.687	727.06
446.908	675.06
447.129	633.06
447.35	635.06
447.571	599.06
447.792	610.06
448.013	617.06
448.234	651.06
448.455	704.06
448.675	840.06
448.896	957.06
449.117	808.06
449.338	766.06
449.559	877.06
449.779	1044.06
450	794.06
450.221	677.06
450.442	636.06
450.662	614.06
450.883	591.06
451.104	609.06
451.324	619.06
451.545	605.06
451.766	572.06
451.986	534.06
452.207	551.06
452.428	542.06
452.648	525.06
452.869	548.06
453.089	548.06
453.31	565.06
453.53	551.06
453.751	554.06
453.971	529.06
454.192	566.06
454.412	580.06
454.633	545.06
454.853	536.06
455.073	574.06
455.294	587.06
455.514	641.06
455.734	655.06
455.955	573.06
456.175	527.06
456.395	506.06
456.616	516.06
456.836	522.06
457.056	523.06
457.276	499.06
457.497	515.06
457.717	507.06
457.937	542.06
458.157	542.06
458.377	533.06
458.598	566.06
458.818	621.06
459.038	725.06
459.258	762.06
459.478	657.06
459.698	606.06
459.918	572.06
460.138	570.06
460.358	593.06
460.578	580.06
460.798	604.06
461.018	614.06
461.238	607.06
461.458	569.06
461.678	595.06
461.898	605.06
462.118	601.06
462.338	599.06
462.558	614.06
462.777	627.06
462.997	655.06
463.217	649.06
463.437	660.06
463.657	641.06
463.876	638.06
464.096	614.06
464.316	637.06
464.536	639.06
464.755	651.06
464.975	609.06
465.195	668.06
465.414	756.06
465.634	658.06
465.854	608.06
466.073	620.06
466.293	583.06
466.512	564.06
466.732	571.06
466.951	581.06
467.171	560.06
467.391	578.06
467.61	577.06
467.829	590.06
468.049	582.06
468.268	538.06
468.488	548.06
468.707	536.06
468.927	573.06
469.146	524.06
469.365	559.06
469.585	549.06
469.804	553.06
470.023	564.06
470.243	575.06
470.462	574.06
470.681	604.06
470.901	577.06
471.12	597.06
471.339	572.06
471.558	564.06
471.777	552.06
471.997	548.06
472.216	563.06
472.435	574.06
472.654	562.06
472.873	562.06
473.092	586.06
473.311	564.06
473.53	576.06
473.749	564.06
473.968	610.06
474.187	727.06
474.406	765.06
474.625	615.06
474.844	594.06
475.063	598.06
475.282	581.06
475.501	595.06
475.72	594.06
475.939	587.06
476.158	581.06
476.377	565.06
476.596	578.06
476.814	606.06
477.033	592.06
477.252	602.06
477.471	632.06
477.69	629.06
477.908	616.06
478.127	635.06
478.346	611.06
478.564	622.06
478.783	636.06
479.002	641.06
479.22	647.06
479.439	664.06
479.658	684.06
479.876	696.06
480.095	680.06
480.313	719.06
480.532	692.06
480.751	714.06
480.969	692.06
481.188	732.06
481.406	714.06
481.624	712.06
481.843	698.06
482.061	670.06
482.28	680.06
482.498	648.06
482.717	664.06
482.935	662.06
483.153	647.06
483.372	641.06
483.59	666.06
483.808	671.06
484.027	669.06
484.245	672.06
484.463	673.06
484.681	706.06
484.9	693.06
485.118	666.06
485.336	672.06
485.554	696.06
485.772	694.06
485.99	703.06
486.209	722.06
486.427	713.06
486.645	718.06
486.863	712.06
487.081	744.06
487.299	728.06
487.517	699.06
487.735	752.06
487.953	726.06
488.171	734.06
488.389	715.06
488.607	714.06
488.825	724.06
489.043	703.06
489.261	758.06
489.479	726.06
489.696	730.06
489.914	726.06
490.132	750.06
490.35	768.06
490.568	741.06
490.786	764.06
491.003	745.06
491.221	774.06
491.439	809.06
491.657	816.06
491.874	837.06
492.092	815.06
492.31	802.06
492.527	845.06
492.745	848.06
492.963	827.06
493.18	831.06
493.398	825.06
493.615	811.06
493.833	829.06
494.05	831.06
494.268	829.06
494.485	842.06
494.703	847.06
494.92	853.06
495.138	824.06
495.355	852.06
495.573	857.06
495.79	854.06
496.008	843.06
496.225	841.06
496.442	839.06
496.66	868.06
496.877	855.06
497.094	907.06
497.312	877.06
497.529	892.06
497.746	904.06
497.963	878.06
498.181	941.06
498.398	922.06
498.615	957.06
498.832	969.06
499.049	1002.06
499.267	1030.06
499.484	1040.06
499.701	1115.06
499.918	1119.06
500.135	1143.06
500.352	1196.06
500.569	1226.06
500.786	1208.06
501.003	1214.06
501.22	1170.06
501.437	1132.06
501.654	1118.06
