Data from 1988.PennyLincolnUp.Lamp.En5.5.200Scan.071819.P2_HRD10591_17-20-15-973.txt Node
Date: Thu Jul 18 17:20:15 EDT 2019
User: cochatt
Spectrometer: HR+D1059
Trigger mode: 1
Integration Time (sec): 1.000000E-1
Scans to average: 1
Electric dark correction enabled: true
Nonlinearity correction enabled: false
Boxcar width: 0
XAxis mode: Wavelengths
Number of Pixels in Spectrum: 2048
>>>>>Begin Spectral Data<<<<<
223.165	-12.06
223.4	-12.06
223.635	-12.06
223.869	-11.06
224.104	-16.06
224.338	4.94
224.573	-14.06
224.808	-8.06
225.042	-11.06
225.277	-15.06
225.511	3.94
225.746	3.94
225.98	9.94
226.215	0.94
226.449	22.94
226.683	-0.06
226.918	11.94
227.152	28.94
227.387	42.94
227.621	22.94
227.856	37.94
228.09	55.94
228.324	43.94
228.559	58.94
228.793	67.94
229.027	99.94
229.262	106.94
229.496	124.94
229.73	135.94
229.964	157.94
230.199	136.94
230.433	120.94
230.667	127.94
230.901	116.94
231.136	112.94
231.37	113.94
231.604	130.94
231.838	111.94
232.072	116.94
232.306	119.94
232.541	118.94
232.775	129.94
233.009	128.94
233.243	116.94
233.477	105.94
233.711	105.94
233.945	104.94
234.179	128.94
234.413	118.94
234.647	130.94
234.881	123.94
235.115	124.94
235.349	119.94
235.583	124.94
235.817	115.94
236.051	132.94
236.285	132.94
236.519	126.94
236.753	136.94
236.987	142.94
237.221	204.94
237.455	242.94
237.689	201.94
237.922	163.94
238.156	152.94
238.39	137.94
238.624	137.94
238.858	130.94
239.091	121.94
239.325	122.94
239.559	130.94
239.793	130.94
240.027	143.94
240.26	161.94
240.494	179.94
240.728	165.94
240.961	156.94
241.195	163.94
241.429	160.94
241.662	146.94
241.896	152.94
242.13	143.94
242.363	138.94
242.597	138.94
242.83	148.94
243.064	132.94
243.298	151.94
243.531	132.94
243.765	142.94
243.998	148.94
244.232	131.94
244.465	135.94
244.699	149.94
244.932	148.94
245.166	154.94
245.399	158.94
245.633	158.94
245.866	158.94
246.099	163.94
246.333	157.94
246.566	154.94
246.8	155.94
247.033	160.94
247.266	164.94
247.5	171.94
247.733	174.94
247.966	189.94
248.2	188.94
248.433	184.94
248.666	190.94
248.899	205.94
249.133	199.94
249.366	210.94
249.599	206.94
249.832	192.94
250.066	181.94
250.299	180.94
250.532	203.94
250.765	192.94
250.998	236.94
251.231	229.94
251.465	226.94
251.698	182.94
251.931	218.94
252.164	198.94
252.397	207.94
252.63	229.94
252.863	205.94
253.096	226.94
253.329	257.94
253.562	221.94
253.795	232.94
254.028	212.94
254.261	211.94
254.494	226.94
254.727	263.94
254.96	292.94
255.193	285.94
255.426	253.94
255.659	247.94
255.892	235.94
256.124	219.94
256.357	216.94
256.59	242.94
256.823	216.94
257.056	220.94
257.289	212.94
257.521	210.94
257.754	229.94
257.987	212.94
258.22	216.94
258.452	202.94
258.685	213.94
258.918	208.94
259.151	227.94
259.383	219.94
259.616	229.94
259.849	237.94
260.081	249.94
260.314	268.94
260.547	280.94
260.779	245.94
261.012	252.94
261.244	232.94
261.477	233.94
261.71	229.94
261.942	233.94
262.175	237.94
262.407	236.94
262.64	231.94
262.872	205.94
263.105	228.94
263.337	234.94
263.57	235.94
263.802	221.94
264.035	236.94
264.267	257.94
264.499	240.94
264.732	211.94
264.964	224.94
265.197	225.94
265.429	214.94
265.661	237.94
265.894	228.94
266.126	217.94
266.358	235.94
266.591	222.94
266.823	225.94
267.055	228.94
267.287	239.94
267.52	246.94
267.752	227.94
267.984	241.94
268.216	226.94
268.448	236.94
268.681	269.94
268.913	266.94
269.145	274.94
269.377	294.94
269.609	289.94
269.841	289.94
270.073	266.94
270.306	304.94
270.538	316.94
270.77	343.94
271.002	319.94
271.234	309.94
271.466	308.94
271.698	333.94
271.93	332.94
272.162	329.94
272.394	333.94
272.626	316.94
272.858	312.94
273.09	300.94
273.322	274.94
273.553	292.94
273.785	295.94
274.017	276.94
274.249	287.94
274.481	283.94
274.713	270.94
274.945	281.94
275.176	270.94
275.408	278.94
275.64	294.94
275.872	290.94
276.104	275.94
276.335	290.94
276.567	282.94
276.799	323.94
277.031	327.94
277.262	333.94
277.494	338.94
277.726	328.94
277.957	304.94
278.189	303.94
278.421	303.94
278.652	302.94
278.884	299.94
279.115	290.94
279.347	281.94
279.579	300.94
279.81	278.94
280.042	294.94
280.273	269.94
280.505	284.94
280.736	281.94
280.968	274.94
281.199	281.94
281.431	283.94
281.662	290.94
281.894	289.94
282.125	285.94
282.356	314.94
282.588	344.94
282.819	327.94
283.051	286.94
283.282	286.94
283.513	295.94
283.745	285.94
283.976	284.94
284.207	300.94
284.439	306.94
284.67	298.94
284.901	302.94
285.132	304.94
285.364	291.94
285.595	285.94
285.826	283.94
286.057	306.94
286.288	288.94
286.52	289.94
286.751	307.94
286.982	316.94
287.213	313.94
287.444	310.94
287.675	312.94
287.906	316.94
288.138	340.94
288.369	303.94
288.6	326.94
288.831	310.94
289.062	331.94
289.293	310.94
289.524	301.94
289.755	301.94
289.986	326.94
290.217	320.94
290.448	322.94
290.679	332.94
290.91	313.94
291.141	329.94
291.371	332.94
291.602	312.94
291.833	320.94
292.064	306.94
292.295	322.94
292.526	333.94
292.757	330.94
292.987	317.94
293.218	321.94
293.449	319.94
293.68	315.94
293.91	325.94
294.141	313.94
294.372	317.94
294.603	312.94
294.833	309.94
295.064	319.94
295.295	308.94
295.525	318.94
295.756	322.94
295.987	335.94
296.217	349.94
296.448	383.94
296.679	334.94
296.909	308.94
297.14	315.94
297.37	327.94
297.601	325.94
297.831	342.94
298.062	312.94
298.292	339.94
298.523	336.94
298.753	331.94
298.984	323.94
299.214	328.94
299.445	336.94
299.675	324.94
299.905	332.94
300.136	337.94
300.366	353.94
300.597	347.94
300.827	318.94
301.057	334.94
301.288	345.94
301.518	338.94
301.748	355.94
301.979	377.94
302.209	344.94
302.439	350.94
302.669	364.94
302.9	359.94
303.13	347.94
303.36	358.94
303.59	358.94
303.82	366.94
304.051	362.94
304.281	326.94
304.511	329.94
304.741	360.94
304.971	346.94
305.201	348.94
305.431	353.94
305.661	366.94
305.891	361.94
306.121	361.94
306.352	364.94
306.582	374.94
306.812	365.94
307.042	359.94
307.272	357.94
307.502	360.94
307.731	374.94
307.961	358.94
308.191	368.94
308.421	374.94
308.651	358.94
308.881	372.94
309.111	374.94
309.341	368.94
309.571	396.94
309.8	398.94
310.03	420.94
310.26	408.94
310.49	402.94
310.72	437.94
310.949	423.94
311.179	429.94
311.409	414.94
311.639	426.94
311.868	424.94
312.098	407.94
312.328	430.94
312.557	451.94
312.787	446.94
313.017	445.94
313.246	427.94
313.476	396.94
313.706	425.94
313.935	424.94
314.165	420.94
314.394	429.94
314.624	435.94
314.853	427.94
315.083	419.94
315.312	400.94
315.542	397.94
315.771	397.94
316.001	418.94
316.23	420.94
316.46	416.94
316.689	411.94
316.919	448.94
317.148	413.94
317.377	430.94
317.607	410.94
317.836	410.94
318.065	427.94
318.295	425.94
318.524	423.94
318.753	412.94
318.983	422.94
319.212	415.94
319.441	421.94
319.67	441.94
319.9	446.94
320.129	399.94
320.358	435.94
320.587	420.94
320.816	441.94
321.046	429.94
321.275	433.94
321.504	411.94
321.733	447.94
321.962	435.94
322.191	443.94
322.42	462.94
322.649	463.94
322.878	496.94
323.108	500.94
323.337	547.94
323.566	553.94
323.795	603.94
324.024	624.94
324.253	806.94
324.482	1115.94
324.71	1714.94
324.939	2568.94
325.168	2184.94
325.397	1116.94
325.626	742.94
325.855	616.94
326.084	594.94
326.313	567.94
326.542	570.94
326.77	611.94
326.999	710.94
327.228	993.94
327.457	1560.94
327.686	1940.94
327.914	1255.94
328.143	818.94
328.372	688.94
328.6	672.94
328.829	617.94
329.058	636.94
329.287	634.94
329.515	589.94
329.744	566.94
329.972	546.94
330.201	554.94
330.43	587.94
330.658	600.94
330.887	691.94
331.115	667.94
331.344	560.94
331.572	524.94
331.801	534.94
332.03	528.94
332.258	526.94
332.486	479.94
332.715	493.94
332.943	503.94
333.172	509.94
333.4	497.94
333.629	500.94
333.857	511.94
334.085	534.94
334.314	522.94
334.542	525.94
334.771	523.94
334.999	514.94
335.227	517.94
335.455	517.94
335.684	499.94
335.912	524.94
336.14	485.94
336.369	482.94
336.597	503.94
336.825	508.94
337.053	510.94
337.281	482.94
337.51	488.94
337.738	486.94
337.966	480.94
338.194	479.94
338.422	498.94
338.65	480.94
338.878	473.94
339.106	477.94
339.334	474.94
339.562	466.94
339.79	475.94
340.018	476.94
340.246	475.94
340.474	486.94
340.702	480.94
340.93	482.94
341.158	481.94
341.386	462.94
341.614	486.94
341.842	467.94
342.07	462.94
342.298	459.94
342.526	460.94
342.754	457.94
342.981	426.94
343.209	471.94
343.437	483.94
343.665	485.94
343.893	500.94
344.12	487.94
344.348	492.94
344.576	523.94
344.804	499.94
345.031	508.94
345.259	533.94
345.487	500.94
345.714	492.94
345.942	489.94
346.17	480.94
346.397	454.94
346.625	458.94
346.853	453.94
347.08	459.94
347.308	473.94
347.535	466.94
347.763	481.94
347.99	482.94
348.218	479.94
348.445	477.94
348.673	488.94
348.9	494.94
349.128	455.94
349.355	459.94
349.583	457.94
349.81	458.94
350.037	461.94
350.265	445.94
350.492	441.94
350.72	439.94
350.947	444.94
351.174	462.94
351.402	471.94
351.629	475.94
351.856	482.94
352.083	468.94
352.311	484.94
352.538	480.94
352.765	478.94
352.992	474.94
353.22	472.94
353.447	453.94
353.674	484.94
353.901	438.94
354.128	440.94
354.355	451.94
354.583	444.94
354.81	444.94
355.037	434.94
355.264	445.94
355.491	437.94
355.718	426.94
355.945	429.94
356.172	451.94
356.399	439.94
356.626	428.94
356.853	438.94
357.08	454.94
357.307	422.94
357.534	417.94
357.761	449.94
357.988	450.94
358.215	434.94
358.441	452.94
358.668	440.94
358.895	439.94
359.122	443.94
359.349	475.94
359.576	473.94
359.802	490.94
360.029	553.94
360.256	546.94
360.483	504.94
360.709	487.94
360.936	493.94
361.163	483.94
361.39	482.94
361.616	470.94
361.843	478.94
362.07	468.94
362.296	488.94
362.523	456.94
362.749	480.94
362.976	459.94
363.203	485.94
363.429	448.94
363.656	452.94
363.882	454.94
364.109	449.94
364.335	453.94
364.562	457.94
364.788	444.94
365.015	445.94
365.241	479.94
365.468	433.94
365.694	460.94
365.92	455.94
366.147	449.94
366.373	458.94
366.599	455.94
366.826	448.94
367.052	435.94
367.278	457.94
367.505	445.94
367.731	435.94
367.957	455.94
368.184	461.94
368.41	464.94
368.636	453.94
368.862	465.94
369.089	438.94
369.315	451.94
369.541	474.94
369.767	470.94
369.993	463.94
370.219	464.94
370.445	458.94
370.672	442.94
370.898	449.94
371.124	459.94
371.35	461.94
371.576	461.94
371.802	450.94
372.028	446.94
372.254	448.94
372.48	463.94
372.706	465.94
372.932	455.94
373.158	461.94
373.384	445.94
373.61	451.94
373.835	484.94
374.061	454.94
374.287	450.94
374.513	470.94
374.739	437.94
374.965	456.94
375.191	491.94
375.416	466.94
375.642	444.94
375.868	450.94
376.094	457.94
376.319	454.94
376.545	446.94
376.771	427.94
376.997	443.94
377.222	438.94
377.448	449.94
377.674	444.94
377.899	457.94
378.125	441.94
378.35	454.94
378.576	451.94
378.802	452.94
379.027	435.94
379.253	471.94
379.478	440.94
379.704	447.94
379.929	480.94
380.155	459.94
380.38	445.94
380.606	461.94
380.831	454.94
381.057	454.94
381.282	456.94
381.507	430.94
381.733	467.94
381.958	460.94
382.184	472.94
382.409	455.94
382.634	458.94
382.86	490.94
383.085	463.94
383.31	459.94
383.535	492.94
383.761	472.94
383.986	476.94
384.211	493.94
384.436	486.94
384.662	484.94
384.887	480.94
385.112	488.94
385.337	477.94
385.562	498.94
385.787	501.94
386.013	510.94
386.238	491.94
386.463	502.94
386.688	506.94
386.913	481.94
387.138	501.94
387.363	501.94
387.588	507.94
387.813	485.94
388.038	497.94
388.263	504.94
388.488	477.94
388.713	468.94
388.938	509.94
389.163	505.94
389.387	513.94
389.612	496.94
389.837	469.94
390.062	484.94
390.287	480.94
390.512	506.94
390.736	501.94
390.961	492.94
391.186	508.94
391.411	529.94
391.636	504.94
391.86	534.94
392.085	524.94
392.31	536.94
392.534	561.94
392.759	504.94
392.984	500.94
393.208	512.94
393.433	525.94
393.658	514.94
393.882	522.94
394.107	520.94
394.331	521.94
394.556	536.94
394.78	518.94
395.005	516.94
395.229	515.94
395.454	518.94
395.678	541.94
395.903	550.94
396.127	572.94
396.352	566.94
396.576	553.94
396.801	536.94
397.025	543.94
397.249	534.94
397.474	540.94
397.698	552.94
397.922	553.94
398.147	588.94
398.371	588.94
398.595	574.94
398.82	580.94
399.044	598.94
399.268	617.94
399.492	666.94
399.717	663.94
399.941	706.94
400.165	712.94
400.389	733.94
400.613	658.94
400.837	620.94
401.062	603.94
401.286	590.94
401.51	602.94
401.734	581.94
401.958	585.94
402.182	578.94
402.406	615.94
402.63	616.94
402.854	620.94
403.078	592.94
403.302	593.94
403.526	616.94
403.75	609.94
403.974	601.94
404.198	605.94
404.422	602.94
404.645	606.94
404.869	626.94
405.093	641.94
405.317	651.94
405.541	708.94
405.765	658.94
405.988	650.94
406.212	626.94
406.436	680.94
406.66	708.94
406.883	653.94
407.107	692.94
407.331	745.94
407.555	830.94
407.778	796.94
408.002	756.94
408.226	683.94
408.449	670.94
408.673	681.94
408.896	726.94
409.12	772.94
409.344	730.94
409.567	662.94
409.791	654.94
410.014	618.94
410.238	599.94
410.461	616.94
410.685	616.94
410.908	642.94
411.132	690.94
411.355	708.94
411.578	651.94
411.802	628.94
412.025	616.94
412.249	621.94
412.472	635.94
412.695	636.94
412.919	635.94
413.142	604.94
413.365	574.94
413.589	600.94
413.812	551.94
414.035	572.94
414.258	561.94
414.482	582.94
414.705	579.94
414.928	577.94
415.151	582.94
415.374	564.94
415.597	588.94
415.821	564.94
416.044	579.94
416.267	576.94
416.49	568.94
416.713	558.94
416.936	562.94
417.159	568.94
417.382	595.94
417.605	596.94
417.828	572.94
418.051	602.94
418.274	616.94
418.497	584.94
418.72	575.94
418.943	562.94
419.166	578.94
419.389	640.94
419.611	619.94
419.834	601.94
420.057	620.94
420.28	586.94
420.503	603.94
420.726	584.94
420.948	590.94
421.171	657.94
421.394	724.94
421.617	635.94
421.839	608.94
422.062	602.94
422.285	630.94
422.507	694.94
422.73	790.94
422.953	739.94
423.175	630.94
423.398	636.94
423.621	626.94
423.843	660.94
424.066	664.94
424.288	632.94
424.511	673.94
424.733	749.94
424.956	836.94
425.178	822.94
425.401	789.94
425.623	814.94
425.846	696.94
426.068	652.94
426.291	638.94
426.513	666.94
426.735	668.94
426.958	713.94
427.18	798.94
427.402	954.94
427.625	1065.94
427.847	897.94
428.069	760.94
428.292	676.94
428.514	650.94
428.736	633.94
428.958	634.94
429.181	593.94
429.403	601.94
429.625	612.94
429.847	651.94
430.069	726.94
430.292	722.94
430.514	616.94
430.736	613.94
430.958	601.94
431.18	593.94
431.402	566.94
431.624	585.94
431.846	566.94
432.068	564.94
432.29	577.94
432.512	586.94
432.734	580.94
432.956	578.94
433.178	602.94
433.4	591.94
433.622	599.94
433.844	565.94
434.066	572.94
434.287	589.94
434.509	576.94
434.731	613.94
434.953	602.94
435.175	623.94
435.397	642.94
435.618	650.94
435.84	708.94
436.062	828.94
436.284	877.94
436.505	737.94
436.727	680.94
436.949	610.94
437.17	614.94
437.392	600.94
437.614	645.94
437.835	645.94
438.057	785.94
438.278	902.94
438.5	873.94
438.721	972.94
438.943	947.94
439.165	741.94
439.386	688.94
439.608	665.94
439.829	668.94
440.05	707.94
440.272	756.94
440.493	742.94
440.715	646.94
440.936	631.94
441.158	634.94
441.379	617.94
441.6	630.94
441.822	638.94
442.043	709.94
442.264	813.94
442.486	852.94
442.707	710.94
442.928	676.94
443.149	668.94
443.371	695.94
443.592	745.94
443.813	854.94
444.034	905.94
444.255	798.94
444.476	690.94
444.698	689.94
444.919	653.94
445.14	774.94
445.361	738.94
445.582	708.94
445.803	815.94
446.024	917.94
446.245	898.94
446.466	834.94
446.687	708.94
446.908	662.94
447.129	645.94
447.35	632.94
447.571	628.94
447.792	595.94
448.013	608.94
448.234	628.94
448.455	686.94
448.675	819.94
448.896	954.94
449.117	813.94
449.338	734.94
449.559	877.94
449.779	983.94
450	793.94
450.221	661.94
450.442	629.94
450.662	610.94
450.883	619.94
451.104	610.94
451.324	599.94
451.545	574.94
451.766	570.94
451.986	547.94
452.207	549.94
452.428	557.94
452.648	551.94
452.869	564.94
453.089	550.94
453.31	580.94
453.53	564.94
453.751	546.94
453.971	540.94
454.192	571.94
454.412	563.94
454.633	549.94
454.853	512.94
455.073	538.94
455.294	584.94
455.514	642.94
455.734	629.94
455.955	584.94
456.175	548.94
456.395	538.94
456.616	514.94
456.836	522.94
457.056	519.94
457.276	530.94
457.497	514.94
457.717	526.94
457.937	524.94
458.157	538.94
458.377	528.94
458.598	570.94
458.818	612.94
459.038	730.94
459.258	733.94
459.478	627.94
459.698	590.94
459.918	583.94
460.138	591.94
460.358	596.94
460.578	564.94
460.798	608.94
461.018	599.94
461.238	608.94
461.458	587.94
461.678	595.94
461.898	596.94
462.118	581.94
462.338	635.94
462.558	601.94
462.777	636.94
462.997	628.94
463.217	654.94
463.437	651.94
463.657	654.94
463.876	605.94
464.096	638.94
464.316	621.94
464.536	635.94
464.755	642.94
464.975	626.94
465.195	671.94
465.414	749.94
465.634	684.94
465.854	640.94
466.073	609.94
466.293	560.94
466.512	583.94
466.732	555.94
466.951	563.94
467.171	539.94
467.391	577.94
467.61	556.94
467.829	567.94
468.049	571.94
468.268	556.94
468.488	556.94
468.707	570.94
468.927	552.94
469.146	554.94
469.365	554.94
469.585	530.94
469.804	541.94
470.023	580.94
470.243	561.94
470.462	573.94
470.681	602.94
470.901	602.94
471.12	573.94
471.339	574.94
471.558	581.94
471.777	556.94
471.997	556.94
472.216	567.94
472.435	535.94
472.654	556.94
472.873	555.94
473.092	553.94
473.311	549.94
473.53	548.94
473.749	565.94
473.968	618.94
474.187	743.94
474.406	770.94
474.625	630.94
474.844	595.94
475.063	571.94
475.282	567.94
475.501	568.94
475.72	585.94
475.939	589.94
476.158	552.94
476.377	578.94
476.596	587.94
476.814	607.94
477.033	594.94
477.252	588.94
477.471	620.94
477.69	618.94
477.908	620.94
478.127	628.94
478.346	624.94
478.564	642.94
478.783	636.94
479.002	636.94
479.22	649.94
479.439	658.94
479.658	672.94
479.876	684.94
480.095	686.94
480.313	720.94
480.532	712.94
480.751	702.94
480.969	718.94
481.188	706.94
481.406	710.94
481.624	683.94
481.843	666.94
482.061	669.94
482.28	652.94
482.498	663.94
482.717	632.94
482.935	655.94
483.153	664.94
483.372	672.94
483.59	666.94
483.808	646.94
484.027	644.94
484.245	667.94
484.463	673.94
484.681	682.94
484.9	672.94
485.118	649.94
485.336	660.94
485.554	662.94
485.772	709.94
485.99	696.94
486.209	709.94
486.427	695.94
486.645	715.94
486.863	702.94
487.081	733.94
487.299	726.94
487.517	714.94
487.735	697.94
487.953	720.94
488.171	720.94
488.389	710.94
488.607	727.94
488.825	718.94
489.043	723.94
489.261	721.94
489.479	721.94
489.696	707.94
489.914	714.94
490.132	737.94
490.35	752.94
490.568	752.94
490.786	769.94
491.003	763.94
491.221	773.94
491.439	789.94
491.657	796.94
491.874	786.94
492.092	805.94
492.31	778.94
492.527	803.94
492.745	806.94
492.963	783.94
493.18	796.94
493.398	814.94
493.615	809.94
493.833	802.94
494.05	828.94
494.268	831.94
494.485	840.94
494.703	850.94
494.92	834.94
495.138	828.94
495.355	835.94
495.573	844.94
495.79	823.94
496.008	846.94
496.225	835.94
496.442	854.94
496.66	860.94
496.877	868.94
497.094	883.94
497.312	837.94
497.529	889.94
497.746	856.94
497.963	885.94
498.181	948.94
498.398	956.94
498.615	967.94
498.832	969.94
499.049	1002.94
499.267	1006.94
499.484	1039.94
499.701	1078.94
499.918	1120.94
500.135	1143.94
500.352	1191.94
500.569	1223.94
500.786	1211.94
501.003	1194.94
501.22	1181.94
501.437	1129.94
501.654	1101.94
