Data from 1988.PennyLincolnUp.Lamp.En5.5.200Scan.071819.P2_HRD10591_17-21-30-973.txt Node
Date: Thu Jul 18 17:21:30 EDT 2019
User: cochatt
Spectrometer: HR+D1059
Trigger mode: 1
Integration Time (sec): 1.000000E-1
Scans to average: 1
Electric dark correction enabled: true
Nonlinearity correction enabled: false
Boxcar width: 0
XAxis mode: Wavelengths
Number of Pixels in Spectrum: 2048
>>>>>Begin Spectral Data<<<<<
223.165	-20.69
223.4	-20.69
223.635	-20.69
223.869	-0.69
224.104	-11.69
224.338	-15.69
224.573	-18.69
224.808	-7.69
225.042	-17.69
225.277	-0.69
225.511	-4.69
225.746	7.31
225.98	9.31
226.215	7.31
226.449	10.31
226.683	21.31
226.918	22.31
227.152	20.31
227.387	28.31
227.621	30.31
227.856	43.31
228.09	54.31
228.324	47.31
228.559	55.31
228.793	84.31
229.027	95.31
229.262	106.31
229.496	118.31
229.73	144.31
229.964	168.31
230.199	136.31
230.433	132.31
230.667	120.31
230.901	109.31
231.136	117.31
231.37	124.31
231.604	131.31
231.838	119.31
232.072	115.31
232.306	115.31
232.541	113.31
232.775	100.31
233.009	110.31
233.243	121.31
233.477	100.31
233.711	119.31
233.945	129.31
234.179	124.31
234.413	123.31
234.647	123.31
234.881	136.31
235.115	124.31
235.349	120.31
235.583	127.31
235.817	122.31
236.051	139.31
236.285	131.31
236.519	134.31
236.753	133.31
236.987	157.31
237.221	192.31
237.455	265.31
237.689	230.31
237.922	174.31
238.156	140.31
238.39	145.31
238.624	125.31
238.858	123.31
239.091	136.31
239.325	123.31
239.559	131.31
239.793	137.31
240.027	141.31
240.26	159.31
240.494	167.31
240.728	164.31
240.961	169.31
241.195	162.31
241.429	147.31
241.662	144.31
241.896	147.31
242.13	130.31
242.363	141.31
242.597	146.31
242.83	133.31
243.064	163.31
243.298	148.31
243.531	127.31
243.765	166.31
243.998	145.31
244.232	150.31
244.465	160.31
244.699	157.31
244.932	143.31
245.166	146.31
245.399	162.31
245.633	164.31
245.866	153.31
246.099	165.31
246.333	153.31
246.566	168.31
246.8	149.31
247.033	155.31
247.266	181.31
247.5	177.31
247.733	185.31
247.966	193.31
248.2	187.31
248.433	180.31
248.666	186.31
248.899	197.31
249.133	215.31
249.366	247.31
249.599	217.31
249.832	216.31
250.066	203.31
250.299	199.31
250.532	206.31
250.765	208.31
250.998	247.31
251.231	251.31
251.465	227.31
251.698	241.31
251.931	206.31
252.164	200.31
252.397	199.31
252.63	224.31
252.863	227.31
253.096	244.31
253.329	257.31
253.562	250.31
253.795	235.31
254.028	231.31
254.261	237.31
254.494	243.31
254.727	289.31
254.96	301.31
255.193	291.31
255.426	270.31
255.659	263.31
255.892	262.31
256.124	263.31
256.357	259.31
256.59	239.31
256.823	228.31
257.056	213.31
257.289	237.31
257.521	232.31
257.754	213.31
257.987	221.31
258.22	201.31
258.452	223.31
258.685	223.31
258.918	206.31
259.151	214.31
259.383	219.31
259.616	241.31
259.849	234.31
260.081	265.31
260.314	276.31
260.547	293.31
260.779	259.31
261.012	274.31
261.244	249.31
261.477	258.31
261.71	244.31
261.942	240.31
262.175	255.31
262.407	262.31
262.64	240.31
262.872	239.31
263.105	247.31
263.337	228.31
263.57	258.31
263.802	239.31
264.035	252.31
264.267	242.31
264.499	229.31
264.732	241.31
264.964	233.31
265.197	232.31
265.429	233.31
265.661	235.31
265.894	213.31
266.126	212.31
266.358	231.31
266.591	236.31
266.823	255.31
267.055	261.31
267.287	239.31
267.52	248.31
267.752	256.31
267.984	248.31
268.216	246.31
268.448	253.31
268.681	272.31
268.913	263.31
269.145	281.31
269.377	294.31
269.609	293.31
269.841	297.31
270.073	294.31
270.306	312.31
270.538	361.31
270.77	341.31
271.002	330.31
271.234	339.31
271.466	348.31
271.698	373.31
271.93	354.31
272.162	345.31
272.394	352.31
272.626	334.31
272.858	319.31
273.09	306.31
273.322	301.31
273.553	293.31
273.785	282.31
274.017	287.31
274.249	295.31
274.481	291.31
274.713	295.31
274.945	305.31
275.176	297.31
275.408	290.31
275.64	292.31
275.872	285.31
276.104	285.31
276.335	292.31
276.567	291.31
276.799	323.31
277.031	340.31
277.262	344.31
277.494	346.31
277.726	363.31
277.957	321.31
278.189	318.31
278.421	322.31
278.652	283.31
278.884	303.31
279.115	319.31
279.347	291.31
279.579	303.31
279.81	291.31
280.042	286.31
280.273	289.31
280.505	306.31
280.736	289.31
280.968	314.31
281.199	283.31
281.431	297.31
281.662	304.31
281.894	295.31
282.125	281.31
282.356	322.31
282.588	338.31
282.819	335.31
283.051	295.31
283.282	304.31
283.513	294.31
283.745	303.31
283.976	310.31
284.207	310.31
284.439	316.31
284.67	322.31
284.901	308.31
285.132	298.31
285.364	302.31
285.595	292.31
285.826	296.31
286.057	300.31
286.288	317.31
286.52	321.31
286.751	309.31
286.982	325.31
287.213	305.31
287.444	323.31
287.675	332.31
287.906	338.31
288.138	335.31
288.369	324.31
288.6	329.31
288.831	324.31
289.062	335.31
289.293	327.31
289.524	339.31
289.755	321.31
289.986	315.31
290.217	339.31
290.448	312.31
290.679	336.31
290.91	327.31
291.141	331.31
291.371	309.31
291.602	317.31
291.833	311.31
292.064	346.31
292.295	315.31
292.526	332.31
292.757	339.31
292.987	342.31
293.218	331.31
293.449	326.31
293.68	334.31
293.91	316.31
294.141	314.31
294.372	316.31
294.603	331.31
294.833	330.31
295.064	327.31
295.295	340.31
295.525	309.31
295.756	341.31
295.987	345.31
296.217	359.31
296.448	371.31
296.679	373.31
296.909	326.31
297.14	335.31
297.37	337.31
297.601	331.31
297.831	324.31
298.062	344.31
298.292	331.31
298.523	327.31
298.753	349.31
298.984	361.31
299.214	358.31
299.445	355.31
299.675	362.31
299.905	358.31
300.136	345.31
300.366	337.31
300.597	357.31
300.827	356.31
301.057	367.31
301.288	371.31
301.518	361.31
301.748	375.31
301.979	353.31
302.209	364.31
302.439	373.31
302.669	371.31
302.9	378.31
303.13	375.31
303.36	376.31
303.59	370.31
303.82	391.31
304.051	392.31
304.281	368.31
304.511	350.31
304.741	372.31
304.971	353.31
305.201	373.31
305.431	350.31
305.661	384.31
305.891	383.31
306.121	381.31
306.352	383.31
306.582	393.31
306.812	353.31
307.042	380.31
307.272	369.31
307.502	377.31
307.731	373.31
307.961	385.31
308.191	375.31
308.421	377.31
308.651	391.31
308.881	386.31
309.111	402.31
309.341	384.31
309.571	418.31
309.8	407.31
310.03	421.31
310.26	433.31
310.49	429.31
310.72	431.31
310.949	453.31
311.179	478.31
311.409	427.31
311.639	428.31
311.868	427.31
312.098	442.31
312.328	427.31
312.557	454.31
312.787	451.31
313.017	471.31
313.246	453.31
313.476	426.31
313.706	425.31
313.935	459.31
314.165	437.31
314.394	429.31
314.624	443.31
314.853	447.31
315.083	438.31
315.312	435.31
315.542	452.31
315.771	429.31
316.001	430.31
316.23	443.31
316.46	451.31
316.689	434.31
316.919	429.31
317.148	433.31
317.377	433.31
317.607	429.31
317.836	455.31
318.065	444.31
318.295	440.31
318.524	435.31
318.753	425.31
318.983	430.31
319.212	435.31
319.441	439.31
319.67	441.31
319.9	455.31
320.129	435.31
320.358	460.31
320.587	435.31
320.816	464.31
321.046	441.31
321.275	453.31
321.504	455.31
321.733	431.31
321.962	476.31
322.191	496.31
322.42	497.31
322.649	511.31
322.878	547.31
323.108	539.31
323.337	569.31
323.566	580.31
323.795	604.31
324.024	667.31
324.253	801.31
324.482	1171.31
324.71	1811.31
324.939	2747.31
325.168	2369.31
325.397	1172.31
325.626	790.31
325.855	667.31
326.084	615.31
326.313	602.31
326.542	585.31
326.77	655.31
326.999	743.31
327.228	1042.31
327.457	1675.31
327.686	2085.31
327.914	1331.31
328.143	857.31
328.372	737.31
328.6	687.31
328.829	664.31
329.058	671.31
329.287	695.31
329.515	653.31
329.744	572.31
329.972	567.31
330.201	592.31
330.43	604.31
330.658	651.31
330.887	703.31
331.115	676.31
331.344	602.31
331.572	592.31
331.801	579.31
332.03	586.31
332.258	542.31
332.486	548.31
332.715	540.31
332.943	538.31
333.172	520.31
333.4	540.31
333.629	534.31
333.857	545.31
334.085	549.31
334.314	544.31
334.542	572.31
334.771	588.31
334.999	571.31
335.227	539.31
335.455	541.31
335.684	541.31
335.912	530.31
336.14	520.31
336.369	536.31
336.597	532.31
336.825	543.31
337.053	521.31
337.281	521.31
337.51	517.31
337.738	524.31
337.966	521.31
338.194	525.31
338.422	537.31
338.65	515.31
338.878	498.31
339.106	490.31
339.334	498.31
339.562	479.31
339.79	502.31
340.018	507.31
340.246	493.31
340.474	513.31
340.702	496.31
340.93	497.31
341.158	481.31
341.386	488.31
341.614	506.31
341.842	514.31
342.07	516.31
342.298	465.31
342.526	478.31
342.754	466.31
342.981	490.31
343.209	480.31
343.437	504.31
343.665	491.31
343.893	506.31
344.12	502.31
344.348	531.31
344.576	540.31
344.804	513.31
345.031	527.31
345.259	521.31
345.487	537.31
345.714	503.31
345.942	500.31
346.17	491.31
346.397	481.31
346.625	470.31
346.853	469.31
347.08	480.31
347.308	488.31
347.535	490.31
347.763	504.31
347.99	482.31
348.218	511.31
348.445	511.31
348.673	526.31
348.9	481.31
349.128	487.31
349.355	453.31
349.583	495.31
349.81	462.31
350.037	469.31
350.265	471.31
350.492	466.31
350.72	478.31
350.947	472.31
351.174	511.31
351.402	495.31
351.629	499.31
351.856	500.31
352.083	477.31
352.311	513.31
352.538	528.31
352.765	531.31
352.992	527.31
353.22	507.31
353.447	515.31
353.674	496.31
353.901	474.31
354.128	459.31
354.355	456.31
354.583	461.31
354.81	444.31
355.037	456.31
355.264	466.31
355.491	455.31
355.718	437.31
355.945	463.31
356.172	462.31
356.399	466.31
356.626	453.31
356.853	468.31
357.08	445.31
357.307	445.31
357.534	465.31
357.761	444.31
357.988	451.31
358.215	452.31
358.441	461.31
358.668	459.31
358.895	467.31
359.122	447.31
359.349	479.31
359.576	483.31
359.802	502.31
360.029	535.31
360.256	557.31
360.483	533.31
360.709	508.31
360.936	501.31
361.163	502.31
361.39	486.31
361.616	482.31
361.843	488.31
362.07	487.31
362.296	487.31
362.523	489.31
362.749	484.31
362.976	484.31
363.203	459.31
363.429	481.31
363.656	459.31
363.882	466.31
364.109	461.31
364.335	484.31
364.562	482.31
364.788	444.31
365.015	473.31
365.241	467.31
365.468	476.31
365.694	487.31
365.92	482.31
366.147	485.31
366.373	471.31
366.599	459.31
366.826	464.31
367.052	441.31
367.278	458.31
367.505	477.31
367.731	481.31
367.957	459.31
368.184	479.31
368.41	471.31
368.636	482.31
368.862	513.31
369.089	469.31
369.315	461.31
369.541	490.31
369.767	480.31
369.993	484.31
370.219	476.31
370.445	470.31
370.672	474.31
370.898	448.31
371.124	477.31
371.35	481.31
371.576	463.31
371.802	490.31
372.028	463.31
372.254	480.31
372.48	479.31
372.706	472.31
372.932	470.31
373.158	479.31
373.384	482.31
373.61	492.31
373.835	480.31
374.061	489.31
374.287	488.31
374.513	481.31
374.739	460.31
374.965	490.31
375.191	463.31
375.416	475.31
375.642	501.31
375.868	458.31
376.094	492.31
376.319	484.31
376.545	471.31
376.771	477.31
376.997	483.31
377.222	481.31
377.448	471.31
377.674	464.31
377.899	457.31
378.125	463.31
378.35	466.31
378.576	473.31
378.802	477.31
379.027	459.31
379.253	500.31
379.478	487.31
379.704	467.31
379.929	471.31
380.155	499.31
380.38	467.31
380.606	479.31
380.831	460.31
381.057	485.31
381.282	482.31
381.507	488.31
381.733	467.31
381.958	481.31
382.184	482.31
382.409	472.31
382.634	480.31
382.86	471.31
383.085	493.31
383.31	483.31
383.535	475.31
383.761	496.31
383.986	487.31
384.211	496.31
384.436	495.31
384.662	512.31
384.887	511.31
385.112	495.31
385.337	497.31
385.562	531.31
385.787	525.31
386.013	533.31
386.238	544.31
386.463	529.31
386.688	533.31
386.913	511.31
387.138	509.31
387.363	532.31
387.588	531.31
387.813	527.31
388.038	521.31
388.263	524.31
388.488	513.31
388.713	514.31
388.938	530.31
389.163	547.31
389.387	529.31
389.612	517.31
389.837	551.31
390.062	535.31
390.287	525.31
390.512	517.31
390.736	536.31
390.961	529.31
391.186	526.31
391.411	533.31
391.636	541.31
391.86	554.31
392.085	555.31
392.31	541.31
392.534	542.31
392.759	527.31
392.984	557.31
393.208	544.31
393.433	523.31
393.658	511.31
393.882	557.31
394.107	518.31
394.331	526.31
394.556	533.31
394.78	541.31
395.005	540.31
395.229	519.31
395.454	547.31
395.678	540.31
395.903	578.31
396.127	594.31
396.352	596.31
396.576	581.31
396.801	540.31
397.025	540.31
397.249	543.31
397.474	563.31
397.698	585.31
397.922	609.31
398.147	600.31
398.371	625.31
398.595	577.31
398.82	588.31
399.044	597.31
399.268	641.31
399.492	671.31
399.717	712.31
399.941	730.31
400.165	773.31
400.389	760.31
400.613	703.31
400.837	659.31
401.062	621.31
401.286	607.31
401.51	588.31
401.734	604.31
401.958	624.31
402.182	630.31
402.406	634.31
402.63	639.31
402.854	624.31
403.078	612.31
403.302	628.31
403.526	615.31
403.75	643.31
403.974	633.31
404.198	630.31
404.422	627.31
404.645	623.31
404.869	651.31
405.093	667.31
405.317	707.31
405.541	735.31
405.765	693.31
405.988	666.31
406.212	703.31
406.436	711.31
406.66	701.31
406.883	686.31
407.107	727.31
407.331	794.31
407.555	851.31
407.778	860.31
408.002	757.31
408.226	744.31
408.449	720.31
408.673	723.31
408.896	748.31
409.12	773.31
409.344	740.31
409.567	698.31
409.791	648.31
410.014	651.31
410.238	659.31
410.461	644.31
410.685	667.31
410.908	679.31
411.132	717.31
411.355	763.31
411.578	720.31
411.802	635.31
412.025	632.31
412.249	668.31
412.472	687.31
412.695	687.31
412.919	679.31
413.142	635.31
413.365	646.31
413.589	645.31
413.812	625.31
414.035	576.31
414.258	617.31
414.482	596.31
414.705	594.31
414.928	600.31
415.151	587.31
415.374	571.31
415.597	602.31
415.821	595.31
416.044	611.31
416.267	603.31
416.49	607.31
416.713	594.31
416.936	602.31
417.159	596.31
417.382	604.31
417.605	600.31
417.828	609.31
418.051	618.31
418.274	621.31
418.497	604.31
418.72	593.31
418.943	607.31
419.166	606.31
419.389	653.31
419.611	644.31
419.834	619.31
420.057	658.31
420.28	647.31
420.503	594.31
420.726	645.31
420.948	659.31
421.171	705.31
421.394	723.31
421.617	635.31
421.839	635.31
422.062	640.31
422.285	653.31
422.507	725.31
422.73	821.31
422.953	794.31
423.175	697.31
423.398	662.31
423.621	657.31
423.843	698.31
424.066	701.31
424.288	680.31
424.511	704.31
424.733	796.31
424.956	893.31
425.178	837.31
425.401	821.31
425.623	883.31
425.846	729.31
426.068	697.31
426.291	677.31
426.513	673.31
426.735	670.31
426.958	725.31
427.18	848.31
427.402	1027.31
427.625	1108.31
427.847	949.31
428.069	816.31
428.292	736.31
428.514	677.31
428.736	667.31
428.958	651.31
429.181	628.31
429.403	642.31
429.625	651.31
429.847	693.31
430.069	751.31
430.292	763.31
430.514	680.31
430.736	636.31
430.958	627.31
431.18	631.31
431.402	605.31
431.624	595.31
431.846	567.31
432.068	575.31
432.29	579.31
432.512	604.31
432.734	614.31
432.956	602.31
433.178	619.31
433.4	636.31
433.622	610.31
433.844	587.31
434.066	621.31
434.287	599.31
434.509	583.31
434.731	616.31
434.953	634.31
435.175	632.31
435.397	683.31
435.618	690.31
435.84	739.31
436.062	850.31
436.284	947.31
436.505	780.31
436.727	718.31
436.949	659.31
437.17	621.31
437.392	617.31
437.614	629.31
437.835	677.31
438.057	803.31
438.278	948.31
438.5	931.31
438.721	1026.31
438.943	997.31
439.165	781.31
439.386	721.31
439.608	669.31
439.829	686.31
440.05	725.31
440.272	796.31
440.493	761.31
440.715	691.31
440.936	646.31
441.158	659.31
441.379	636.31
441.6	676.31
441.822	684.31
442.043	742.31
442.264	821.31
442.486	904.31
442.707	753.31
442.928	697.31
443.149	711.31
443.371	707.31
443.592	797.31
443.813	915.31
444.034	982.31
444.255	821.31
444.476	699.31
444.698	675.31
444.919	706.31
445.14	771.31
445.361	755.31
445.582	760.31
445.803	816.31
446.024	956.31
446.245	931.31
446.466	874.31
446.687	759.31
446.908	700.31
447.129	649.31
447.35	635.31
447.571	643.31
447.792	623.31
448.013	620.31
448.234	659.31
448.455	699.31
448.675	899.31
448.896	993.31
449.117	835.31
449.338	802.31
449.559	936.31
449.779	1088.31
450	836.31
450.221	723.31
450.442	645.31
450.662	630.31
450.883	635.31
451.104	635.31
451.324	624.31
451.545	613.31
451.766	593.31
451.986	551.31
452.207	541.31
452.428	532.31
452.648	566.31
452.869	569.31
453.089	565.31
453.31	597.31
453.53	560.31
453.751	569.31
453.971	570.31
454.192	586.31
454.412	574.31
454.633	569.31
454.853	573.31
455.073	557.31
455.294	595.31
455.514	667.31
455.734	653.31
455.955	580.31
456.175	568.31
456.395	545.31
456.616	531.31
456.836	558.31
457.056	541.31
457.276	507.31
457.497	524.31
457.717	549.31
457.937	537.31
458.157	538.31
458.377	556.31
458.598	568.31
458.818	636.31
459.038	728.31
459.258	757.31
459.478	673.31
459.698	609.31
459.918	571.31
460.138	595.31
460.358	626.31
460.578	617.31
460.798	613.31
461.018	601.31
461.238	603.31
461.458	589.31
461.678	614.31
461.898	625.31
462.118	609.31
462.338	637.31
462.558	618.31
462.777	634.31
462.997	659.31
463.217	677.31
463.437	683.31
463.657	684.31
463.876	652.31
464.096	648.31
464.316	649.31
464.536	661.31
464.755	642.31
464.975	661.31
465.195	699.31
465.414	765.31
465.634	706.31
465.854	659.31
466.073	619.31
466.293	599.31
466.512	603.31
466.732	600.31
466.951	581.31
467.171	568.31
467.391	578.31
467.61	603.31
467.829	621.31
468.049	599.31
468.268	614.31
468.488	569.31
468.707	571.31
468.927	554.31
469.146	566.31
469.365	583.31
469.585	575.31
469.804	567.31
470.023	592.31
470.243	595.31
470.462	610.31
470.681	614.31
470.901	612.31
471.12	577.31
471.339	587.31
471.558	591.31
471.777	580.31
471.997	584.31
472.216	569.31
472.435	601.31
472.654	567.31
472.873	569.31
473.092	568.31
473.311	587.31
473.53	586.31
473.749	591.31
473.968	635.31
474.187	753.31
474.406	804.31
474.625	652.31
474.844	591.31
475.063	611.31
475.282	569.31
475.501	611.31
475.72	621.31
475.939	588.31
476.158	608.31
476.377	626.31
476.596	593.31
476.814	633.31
477.033	639.31
477.252	645.31
477.471	611.31
477.69	610.31
477.908	634.31
478.127	675.31
478.346	669.31
478.564	670.31
478.783	657.31
479.002	676.31
479.22	690.31
479.439	697.31
479.658	709.31
479.876	689.31
480.095	694.31
480.313	742.31
480.532	751.31
480.751	721.31
480.969	744.31
481.188	766.31
481.406	751.31
481.624	739.31
481.843	723.31
482.061	697.31
482.28	710.31
482.498	703.31
482.717	691.31
482.935	696.31
483.153	693.31
483.372	686.31
483.59	687.31
483.808	688.31
484.027	699.31
484.245	707.31
484.463	697.31
484.681	710.31
484.9	714.31
485.118	721.31
485.336	729.31
485.554	725.31
485.772	713.31
485.99	724.31
486.209	715.31
486.427	711.31
486.645	745.31
486.863	755.31
487.081	752.31
487.299	754.31
487.517	748.31
487.735	761.31
487.953	741.31
488.171	763.31
488.389	755.31
488.607	728.31
488.825	727.31
489.043	752.31
489.261	748.31
489.479	761.31
489.696	759.31
489.914	769.31
490.132	780.31
490.35	799.31
490.568	767.31
490.786	788.31
491.003	821.31
491.221	809.31
491.439	837.31
491.657	850.31
491.874	812.31
492.092	869.31
492.31	835.31
492.527	835.31
492.745	833.31
492.963	865.31
493.18	873.31
493.398	879.31
493.615	891.31
493.833	889.31
494.05	898.31
494.268	869.31
494.485	872.31
494.703	878.31
494.92	871.31
495.138	867.31
495.355	920.31
495.573	886.31
495.79	880.31
496.008	903.31
496.225	886.31
496.442	894.31
496.66	903.31
496.877	899.31
497.094	891.31
497.312	915.31
497.529	949.31
497.746	952.31
497.963	923.31
498.181	969.31
498.398	962.31
498.615	1004.31
498.832	993.31
499.049	1027.31
499.267	1059.31
499.484	1080.31
499.701	1155.31
499.918	1175.31
500.135	1190.31
500.352	1265.31
500.569	1290.31
500.786	1266.31
501.003	1279.31
501.22	1245.31
501.437	1177.31
501.654	1151.31
