Data from 1988.PennyLincolnUp.Lamp.En5.5.200Scan.071819.P2_HRD10591_17-21-31-972.txt Node
Date: Thu Jul 18 17:21:31 EDT 2019
User: cochatt
Spectrometer: HR+D1059
Trigger mode: 1
Integration Time (sec): 1.000000E-1
Scans to average: 1
Electric dark correction enabled: true
Nonlinearity correction enabled: false
Boxcar width: 0
XAxis mode: Wavelengths
Number of Pixels in Spectrum: 2048
>>>>>Begin Spectral Data<<<<<
223.165	-21.38
223.4	-21.38
223.635	-21.38
223.869	-10.38
224.104	-24.38
224.338	-13.38
224.573	-1.38
224.808	-19.38
225.042	-9.38
225.277	-13.38
225.511	2.62
225.746	-1.38
225.98	8.62
226.215	9.62
226.449	13.62
226.683	26.62
226.918	22.62
227.152	30.62
227.387	33.62
227.621	24.62
227.856	47.62
228.09	50.62
228.324	62.62
228.559	51.62
228.793	68.62
229.027	117.62
229.262	113.62
229.496	104.62
229.73	138.62
229.964	170.62
230.199	136.62
230.433	106.62
230.667	122.62
230.901	123.62
231.136	115.62
231.37	128.62
231.604	95.62
231.838	126.62
232.072	130.62
232.306	126.62
232.541	120.62
232.775	118.62
233.009	110.62
233.243	106.62
233.477	118.62
233.711	127.62
233.945	123.62
234.179	129.62
234.413	122.62
234.647	114.62
234.881	123.62
235.115	104.62
235.349	110.62
235.583	115.62
235.817	118.62
236.051	126.62
236.285	129.62
236.519	123.62
236.753	150.62
236.987	144.62
237.221	207.62
237.455	254.62
237.689	210.62
237.922	150.62
238.156	139.62
238.39	141.62
238.624	135.62
238.858	130.62
239.091	138.62
239.325	136.62
239.559	132.62
239.793	132.62
240.027	137.62
240.26	155.62
240.494	171.62
240.728	187.62
240.961	179.62
241.195	151.62
241.429	167.62
241.662	141.62
241.896	138.62
242.13	132.62
242.363	146.62
242.597	142.62
242.83	139.62
243.064	137.62
243.298	144.62
243.531	153.62
243.765	148.62
243.998	144.62
244.232	143.62
244.465	152.62
244.699	147.62
244.932	151.62
245.166	168.62
245.399	172.62
245.633	135.62
245.866	149.62
246.099	158.62
246.333	160.62
246.566	143.62
246.8	154.62
247.033	160.62
247.266	160.62
247.5	160.62
247.733	171.62
247.966	188.62
248.2	179.62
248.433	158.62
248.666	163.62
248.899	203.62
249.133	211.62
249.366	212.62
249.599	213.62
249.832	195.62
250.066	192.62
250.299	199.62
250.532	184.62
250.765	219.62
250.998	227.62
251.231	226.62
251.465	232.62
251.698	220.62
251.931	216.62
252.164	198.62
252.397	203.62
252.63	193.62
252.863	227.62
253.096	232.62
253.329	226.62
253.562	242.62
253.795	221.62
254.028	242.62
254.261	236.62
254.494	242.62
254.727	274.62
254.96	300.62
255.193	315.62
255.426	266.62
255.659	259.62
255.892	233.62
256.124	238.62
256.357	237.62
256.59	259.62
256.823	220.62
257.056	236.62
257.289	224.62
257.521	227.62
257.754	230.62
257.987	221.62
258.22	224.62
258.452	214.62
258.685	214.62
258.918	219.62
259.151	220.62
259.383	224.62
259.616	234.62
259.849	231.62
260.081	254.62
260.314	277.62
260.547	256.62
260.779	260.62
261.012	254.62
261.244	240.62
261.477	248.62
261.71	247.62
261.942	228.62
262.175	256.62
262.407	258.62
262.64	260.62
262.872	233.62
263.105	240.62
263.337	221.62
263.57	223.62
263.802	238.62
264.035	225.62
264.267	226.62
264.499	222.62
264.732	232.62
264.964	226.62
265.197	219.62
265.429	225.62
265.661	227.62
265.894	228.62
266.126	242.62
266.358	223.62
266.591	238.62
266.823	235.62
267.055	246.62
267.287	259.62
267.52	239.62
267.752	246.62
267.984	242.62
268.216	239.62
268.448	244.62
268.681	250.62
268.913	259.62
269.145	295.62
269.377	307.62
269.609	291.62
269.841	304.62
270.073	299.62
270.306	323.62
270.538	347.62
270.77	340.62
271.002	321.62
271.234	319.62
271.466	325.62
271.698	342.62
271.93	347.62
272.162	343.62
272.394	340.62
272.626	337.62
272.858	322.62
273.09	306.62
273.322	294.62
273.553	297.62
273.785	293.62
274.017	279.62
274.249	290.62
274.481	281.62
274.713	290.62
274.945	292.62
275.176	274.62
275.408	289.62
275.64	275.62
275.872	279.62
276.104	271.62
276.335	284.62
276.567	285.62
276.799	307.62
277.031	308.62
277.262	342.62
277.494	344.62
277.726	327.62
277.957	305.62
278.189	309.62
278.421	304.62
278.652	287.62
278.884	286.62
279.115	287.62
279.347	287.62
279.579	276.62
279.81	292.62
280.042	294.62
280.273	267.62
280.505	292.62
280.736	293.62
280.968	290.62
281.199	267.62
281.431	289.62
281.662	279.62
281.894	282.62
282.125	298.62
282.356	322.62
282.588	321.62
282.819	343.62
283.051	287.62
283.282	292.62
283.513	298.62
283.745	298.62
283.976	310.62
284.207	313.62
284.439	305.62
284.67	313.62
284.901	314.62
285.132	297.62
285.364	289.62
285.595	292.62
285.826	300.62
286.057	285.62
286.288	295.62
286.52	294.62
286.751	323.62
286.982	302.62
287.213	304.62
287.444	297.62
287.675	310.62
287.906	311.62
288.138	327.62
288.369	322.62
288.6	330.62
288.831	326.62
289.062	314.62
289.293	322.62
289.524	321.62
289.755	311.62
289.986	308.62
290.217	302.62
290.448	306.62
290.679	303.62
290.91	318.62
291.141	304.62
291.371	312.62
291.602	313.62
291.833	308.62
292.064	313.62
292.295	320.62
292.526	321.62
292.757	306.62
292.987	312.62
293.218	287.62
293.449	302.62
293.68	310.62
293.91	315.62
294.141	322.62
294.372	318.62
294.603	320.62
294.833	318.62
295.064	320.62
295.295	327.62
295.525	310.62
295.756	320.62
295.987	331.62
296.217	354.62
296.448	373.62
296.679	344.62
296.909	329.62
297.14	320.62
297.37	325.62
297.601	330.62
297.831	320.62
298.062	323.62
298.292	317.62
298.523	337.62
298.753	332.62
298.984	322.62
299.214	320.62
299.445	337.62
299.675	351.62
299.905	348.62
300.136	340.62
300.366	327.62
300.597	332.62
300.827	360.62
301.057	339.62
301.288	347.62
301.518	364.62
301.748	344.62
301.979	361.62
302.209	376.62
302.439	363.62
302.669	359.62
302.9	355.62
303.13	350.62
303.36	357.62
303.59	369.62
303.82	362.62
304.051	372.62
304.281	363.62
304.511	347.62
304.741	369.62
304.971	366.62
305.201	341.62
305.431	354.62
305.661	369.62
305.891	354.62
306.121	380.62
306.352	382.62
306.582	371.62
306.812	374.62
307.042	360.62
307.272	361.62
307.502	366.62
307.731	368.62
307.961	357.62
308.191	370.62
308.421	363.62
308.651	376.62
308.881	364.62
309.111	378.62
309.341	371.62
309.571	388.62
309.8	397.62
310.03	422.62
310.26	409.62
310.49	395.62
310.72	420.62
310.949	441.62
311.179	462.62
311.409	442.62
311.639	410.62
311.868	427.62
312.098	432.62
312.328	432.62
312.557	460.62
312.787	456.62
313.017	432.62
313.246	434.62
313.476	432.62
313.706	427.62
313.935	420.62
314.165	436.62
314.394	473.62
314.624	444.62
314.853	441.62
315.083	414.62
315.312	428.62
315.542	426.62
315.771	426.62
316.001	408.62
316.23	394.62
316.46	406.62
316.689	420.62
316.919	427.62
317.148	420.62
317.377	463.62
317.607	452.62
317.836	446.62
318.065	408.62
318.295	412.62
318.524	420.62
318.753	428.62
318.983	415.62
319.212	427.62
319.441	420.62
319.67	440.62
319.9	419.62
320.129	421.62
320.358	427.62
320.587	427.62
320.816	435.62
321.046	440.62
321.275	461.62
321.504	455.62
321.733	451.62
321.962	467.62
322.191	463.62
322.42	498.62
322.649	500.62
322.878	522.62
323.108	527.62
323.337	532.62
323.566	564.62
323.795	615.62
324.024	664.62
324.253	793.62
324.482	1127.62
324.71	1862.62
324.939	2750.62
325.168	2339.62
325.397	1156.62
325.626	770.62
325.855	646.62
326.084	600.62
326.313	566.62
326.542	580.62
326.77	648.62
326.999	772.62
327.228	1015.62
327.457	1683.62
327.686	2047.62
327.914	1317.62
328.143	832.62
328.372	717.62
328.6	674.62
328.829	638.62
329.058	668.62
329.287	666.62
329.515	597.62
329.744	586.62
329.972	562.62
330.201	565.62
330.43	606.62
330.658	640.62
330.887	684.62
331.115	690.62
331.344	600.62
331.572	556.62
331.801	563.62
332.03	573.62
332.258	505.62
332.486	530.62
332.715	526.62
332.943	512.62
333.172	533.62
333.4	522.62
333.629	535.62
333.857	524.62
334.085	531.62
334.314	554.62
334.542	534.62
334.771	567.62
334.999	566.62
335.227	515.62
335.455	516.62
335.684	518.62
335.912	507.62
336.14	476.62
336.369	508.62
336.597	514.62
336.825	522.62
337.053	505.62
337.281	501.62
337.51	498.62
337.738	496.62
337.966	474.62
338.194	512.62
338.422	504.62
338.65	522.62
338.878	494.62
339.106	487.62
339.334	470.62
339.562	484.62
339.79	490.62
340.018	491.62
340.246	482.62
340.474	509.62
340.702	496.62
340.93	466.62
341.158	461.62
341.386	497.62
341.614	503.62
341.842	500.62
342.07	479.62
342.298	482.62
342.526	471.62
342.754	475.62
342.981	470.62
343.209	475.62
343.437	476.62
343.665	490.62
343.893	523.62
344.12	503.62
344.348	481.62
344.576	467.62
344.804	465.62
345.031	480.62
345.259	507.62
345.487	509.62
345.714	491.62
345.942	476.62
346.17	483.62
346.397	478.62
346.625	481.62
346.853	498.62
347.08	471.62
347.308	467.62
347.535	481.62
347.763	479.62
347.99	501.62
348.218	484.62
348.445	497.62
348.673	480.62
348.9	455.62
349.128	471.62
349.355	454.62
349.583	459.62
349.81	464.62
350.037	454.62
350.265	464.62
350.492	474.62
350.72	460.62
350.947	454.62
351.174	461.62
351.402	492.62
351.629	490.62
351.856	499.62
352.083	483.62
352.311	486.62
352.538	522.62
352.765	488.62
352.992	478.62
353.22	484.62
353.447	462.62
353.674	445.62
353.901	463.62
354.128	457.62
354.355	423.62
354.583	443.62
354.81	440.62
355.037	438.62
355.264	458.62
355.491	441.62
355.718	438.62
355.945	454.62
356.172	457.62
356.399	433.62
356.626	456.62
356.853	439.62
357.08	447.62
357.307	434.62
357.534	441.62
357.761	436.62
357.988	452.62
358.215	439.62
358.441	448.62
358.668	436.62
358.895	455.62
359.122	463.62
359.349	456.62
359.576	463.62
359.802	506.62
360.029	524.62
360.256	524.62
360.483	531.62
360.709	486.62
360.936	478.62
361.163	477.62
361.39	495.62
361.616	482.62
361.843	478.62
362.07	478.62
362.296	480.62
362.523	489.62
362.749	480.62
362.976	500.62
363.203	456.62
363.429	471.62
363.656	472.62
363.882	471.62
364.109	456.62
364.335	457.62
364.562	453.62
364.788	456.62
365.015	458.62
365.241	472.62
365.468	458.62
365.694	457.62
365.92	475.62
366.147	461.62
366.373	469.62
366.599	451.62
366.826	461.62
367.052	454.62
367.278	457.62
367.505	470.62
367.731	458.62
367.957	469.62
368.184	453.62
368.41	467.62
368.636	480.62
368.862	484.62
369.089	459.62
369.315	466.62
369.541	463.62
369.767	466.62
369.993	471.62
370.219	459.62
370.445	449.62
370.672	448.62
370.898	438.62
371.124	450.62
371.35	471.62
371.576	467.62
371.802	466.62
372.028	460.62
372.254	458.62
372.48	478.62
372.706	476.62
372.932	456.62
373.158	461.62
373.384	467.62
373.61	469.62
373.835	469.62
374.061	457.62
374.287	468.62
374.513	482.62
374.739	462.62
374.965	481.62
375.191	483.62
375.416	470.62
375.642	462.62
375.868	467.62
376.094	460.62
376.319	445.62
376.545	468.62
376.771	463.62
376.997	463.62
377.222	475.62
377.448	481.62
377.674	458.62
377.899	432.62
378.125	454.62
378.35	455.62
378.576	433.62
378.802	451.62
379.027	469.62
379.253	451.62
379.478	482.62
379.704	476.62
379.929	448.62
380.155	447.62
380.38	458.62
380.606	459.62
380.831	461.62
381.057	442.62
381.282	470.62
381.507	474.62
381.733	443.62
381.958	462.62
382.184	445.62
382.409	452.62
382.634	472.62
382.86	464.62
383.085	475.62
383.31	479.62
383.535	474.62
383.761	491.62
383.986	477.62
384.211	474.62
384.436	470.62
384.662	493.62
384.887	484.62
385.112	513.62
385.337	516.62
385.562	487.62
385.787	500.62
386.013	516.62
386.238	512.62
386.463	510.62
386.688	511.62
386.913	500.62
387.138	527.62
387.363	512.62
387.588	512.62
387.813	510.62
388.038	486.62
388.263	499.62
388.488	514.62
388.713	495.62
388.938	512.62
389.163	514.62
389.387	510.62
389.612	471.62
389.837	498.62
390.062	520.62
390.287	510.62
390.512	496.62
390.736	518.62
390.961	528.62
391.186	512.62
391.411	522.62
391.636	534.62
391.86	510.62
392.085	523.62
392.31	527.62
392.534	534.62
392.759	517.62
392.984	528.62
393.208	504.62
393.433	511.62
393.658	517.62
393.882	529.62
394.107	486.62
394.331	508.62
394.556	515.62
394.78	516.62
395.005	505.62
395.229	530.62
395.454	547.62
395.678	539.62
395.903	564.62
396.127	583.62
396.352	577.62
396.576	553.62
396.801	547.62
397.025	535.62
397.249	541.62
397.474	542.62
397.698	569.62
397.922	557.62
398.147	594.62
398.371	594.62
398.595	588.62
398.82	574.62
399.044	604.62
399.268	599.62
399.492	642.62
399.717	702.62
399.941	720.62
400.165	721.62
400.389	705.62
400.613	688.62
400.837	674.62
401.062	613.62
401.286	609.62
401.51	610.62
401.734	575.62
401.958	599.62
402.182	592.62
402.406	627.62
402.63	617.62
402.854	624.62
403.078	604.62
403.302	607.62
403.526	610.62
403.75	633.62
403.974	634.62
404.198	618.62
404.422	590.62
404.645	626.62
404.869	632.62
405.093	643.62
405.317	687.62
405.541	741.62
405.765	706.62
405.988	652.62
406.212	641.62
406.436	681.62
406.66	692.62
406.883	682.62
407.107	710.62
407.331	740.62
407.555	852.62
407.778	830.62
408.002	764.62
408.226	697.62
408.449	702.62
408.673	699.62
408.896	724.62
409.12	780.62
409.344	734.62
409.567	674.62
409.791	660.62
410.014	631.62
410.238	634.62
410.461	644.62
410.685	617.62
410.908	658.62
411.132	711.62
411.355	723.62
411.578	696.62
411.802	609.62
412.025	628.62
412.249	623.62
412.472	636.62
412.695	675.62
412.919	664.62
413.142	613.62
413.365	626.62
413.589	617.62
413.812	616.62
414.035	589.62
414.258	585.62
414.482	589.62
414.705	591.62
414.928	586.62
415.151	569.62
415.374	595.62
415.597	596.62
415.821	551.62
416.044	577.62
416.267	612.62
416.49	595.62
416.713	573.62
416.936	572.62
417.159	574.62
417.382	598.62
417.605	599.62
417.828	594.62
418.051	642.62
418.274	616.62
418.497	595.62
418.72	576.62
418.943	575.62
419.166	611.62
419.389	658.62
419.611	615.62
419.834	603.62
420.057	598.62
420.28	623.62
420.503	606.62
420.726	606.62
420.948	655.62
421.171	666.62
421.394	735.62
421.617	646.62
421.839	611.62
422.062	628.62
422.285	624.62
422.507	696.62
422.73	784.62
422.953	778.62
423.175	666.62
423.398	635.62
423.621	629.62
423.843	655.62
424.066	645.62
424.288	659.62
424.511	701.62
424.733	772.62
424.956	871.62
425.178	791.62
425.401	831.62
425.623	850.62
425.846	731.62
426.068	641.62
426.291	678.62
426.513	679.62
426.735	674.62
426.958	719.62
427.18	832.62
427.402	992.62
427.625	1127.62
427.847	955.62
428.069	812.62
428.292	722.62
428.514	679.62
428.736	622.62
428.958	627.62
429.181	599.62
429.403	598.62
429.625	630.62
429.847	658.62
430.069	727.62
430.292	724.62
430.514	660.62
430.736	626.62
430.958	610.62
431.18	590.62
431.402	581.62
431.624	575.62
431.846	565.62
432.068	596.62
432.29	586.62
432.512	551.62
432.734	607.62
432.956	591.62
433.178	604.62
433.4	608.62
433.622	592.62
433.844	602.62
434.066	584.62
434.287	589.62
434.509	590.62
434.731	606.62
434.953	607.62
435.175	624.62
435.397	664.62
435.618	669.62
435.84	716.62
436.062	834.62
436.284	929.62
436.505	743.62
436.727	696.62
436.949	616.62
437.17	636.62
437.392	642.62
437.614	631.62
437.835	693.62
438.057	779.62
438.278	923.62
438.5	894.62
438.721	1009.62
438.943	928.62
439.165	754.62
439.386	688.62
439.608	658.62
439.829	657.62
440.05	691.62
440.272	771.62
440.493	725.62
440.715	668.62
440.936	653.62
441.158	656.62
441.379	625.62
441.6	648.62
441.822	655.62
442.043	716.62
442.264	805.62
442.486	860.62
442.707	745.62
442.928	686.62
443.149	696.62
443.371	727.62
443.592	786.62
443.813	885.62
444.034	975.62
444.255	748.62
444.476	725.62
444.698	702.62
444.919	681.62
445.14	754.62
445.361	740.62
445.582	737.62
445.803	792.62
446.024	934.62
446.245	939.62
446.466	831.62
446.687	724.62
446.908	675.62
447.129	632.62
447.35	621.62
447.571	631.62
447.792	613.62
448.013	608.62
448.234	630.62
448.455	686.62
448.675	846.62
448.896	993.62
449.117	828.62
449.338	750.62
449.559	911.62
449.779	1047.62
450	811.62
450.221	656.62
450.442	621.62
450.662	606.62
450.883	634.62
451.104	617.62
451.324	609.62
451.545	587.62
451.766	591.62
451.986	572.62
452.207	542.62
452.428	543.62
452.648	545.62
452.869	548.62
453.089	562.62
453.31	549.62
453.53	565.62
453.751	570.62
453.971	571.62
454.192	554.62
454.412	543.62
454.633	548.62
454.853	529.62
455.073	555.62
455.294	574.62
455.514	656.62
455.734	628.62
455.955	565.62
456.175	546.62
456.395	528.62
456.616	497.62
456.836	526.62
457.056	515.62
457.276	528.62
457.497	566.62
457.717	513.62
457.937	522.62
458.157	538.62
458.377	536.62
458.598	578.62
458.818	647.62
459.038	723.62
459.258	755.62
459.478	653.62
459.698	602.62
459.918	574.62
460.138	581.62
460.358	603.62
460.578	584.62
460.798	587.62
461.018	597.62
461.238	599.62
461.458	603.62
461.678	573.62
461.898	597.62
462.118	607.62
462.338	609.62
462.558	625.62
462.777	632.62
462.997	639.62
463.217	657.62
463.437	663.62
463.657	626.62
463.876	622.62
464.096	632.62
464.316	617.62
464.536	640.62
464.755	638.62
464.975	648.62
465.195	682.62
465.414	759.62
465.634	692.62
465.854	632.62
466.073	626.62
466.293	606.62
466.512	566.62
466.732	576.62
466.951	570.62
467.171	562.62
467.391	564.62
467.61	575.62
467.829	582.62
468.049	582.62
468.268	579.62
468.488	552.62
468.707	540.62
468.927	543.62
469.146	556.62
469.365	527.62
469.585	550.62
469.804	549.62
470.023	583.62
470.243	561.62
470.462	574.62
470.681	592.62
470.901	582.62
471.12	571.62
471.339	542.62
471.558	573.62
471.777	580.62
471.997	576.62
472.216	580.62
472.435	589.62
472.654	598.62
472.873	560.62
473.092	565.62
473.311	571.62
473.53	579.62
473.749	574.62
473.968	625.62
474.187	740.62
474.406	770.62
474.625	622.62
474.844	599.62
475.063	581.62
475.282	558.62
475.501	595.62
475.72	578.62
475.939	590.62
476.158	600.62
476.377	608.62
476.596	591.62
476.814	602.62
477.033	600.62
477.252	608.62
477.471	629.62
477.69	624.62
477.908	626.62
478.127	610.62
478.346	618.62
478.564	625.62
478.783	630.62
479.002	662.62
479.22	664.62
479.439	677.62
479.658	665.62
479.876	706.62
480.095	695.62
480.313	719.62
480.532	716.62
480.751	704.62
480.969	702.62
481.188	703.62
481.406	739.62
481.624	716.62
481.843	688.62
482.061	700.62
482.28	643.62
482.498	659.62
482.717	690.62
482.935	665.62
483.153	663.62
483.372	682.62
483.59	651.62
483.808	646.62
484.027	657.62
484.245	668.62
484.463	674.62
484.681	669.62
484.9	698.62
485.118	692.62
485.336	690.62
485.554	697.62
485.772	703.62
485.99	692.62
486.209	690.62
486.427	708.62
486.645	721.62
486.863	738.62
487.081	753.62
487.299	745.62
487.517	724.62
487.735	705.62
487.953	726.62
488.171	718.62
488.389	721.62
488.607	738.62
488.825	735.62
489.043	736.62
489.261	743.62
489.479	744.62
489.696	743.62
489.914	752.62
490.132	760.62
490.35	757.62
490.568	773.62
490.786	780.62
491.003	788.62
491.221	820.62
491.439	800.62
491.657	797.62
491.874	817.62
492.092	844.62
492.31	816.62
492.527	866.62
492.745	835.62
492.963	846.62
493.18	816.62
493.398	828.62
493.615	845.62
493.833	824.62
494.05	876.62
494.268	870.62
494.485	851.62
494.703	859.62
494.92	863.62
495.138	854.62
495.355	834.62
495.573	878.62
495.79	870.62
496.008	878.62
496.225	866.62
496.442	863.62
496.66	861.62
496.877	892.62
497.094	896.62
497.312	878.62
497.529	932.62
497.746	918.62
497.963	907.62
498.181	949.62
498.398	932.62
498.615	982.62
498.832	1009.62
499.049	1011.62
499.267	1034.62
499.484	1057.62
499.701	1084.62
499.918	1137.62
500.135	1162.62
500.352	1225.62
500.569	1252.62
500.786	1239.62
501.003	1204.62
501.22	1195.62
501.437	1183.62
501.654	1136.62
