Data from 1988.PennyLincolnUp.Lamp.En5.5.200Scan.071819.P2_HRD10591_17-21-19-971.txt Node
Date: Thu Jul 18 17:21:19 EDT 2019
User: cochatt
Spectrometer: HR+D1059
Trigger mode: 1
Integration Time (sec): 1.000000E-1
Scans to average: 1
Electric dark correction enabled: true
Nonlinearity correction enabled: false
Boxcar width: 0
XAxis mode: Wavelengths
Number of Pixels in Spectrum: 2048
>>>>>Begin Spectral Data<<<<<
223.165	-11.25
223.4	-11.25
223.635	-11.25
223.869	-23.25
224.104	-25.25
224.338	-23.25
224.573	-22.25
224.808	-15.25
225.042	-3.25
225.277	0.75
225.511	1.75
225.746	11.75
225.98	13.75
226.215	11.75
226.449	6.75
226.683	19.75
226.918	20.75
227.152	36.75
227.387	33.75
227.621	33.75
227.856	37.75
228.09	54.75
228.324	46.75
228.559	48.75
228.793	58.75
229.027	104.75
229.262	108.75
229.496	129.75
229.73	143.75
229.964	180.75
230.199	142.75
230.433	132.75
230.667	127.75
230.901	100.75
231.136	110.75
231.37	119.75
231.604	115.75
231.838	129.75
232.072	125.75
232.306	124.75
232.541	119.75
232.775	125.75
233.009	116.75
233.243	116.75
233.477	120.75
233.711	132.75
233.945	118.75
234.179	133.75
234.413	130.75
234.647	133.75
234.881	108.75
235.115	122.75
235.349	126.75
235.583	125.75
235.817	126.75
236.051	129.75
236.285	138.75
236.519	136.75
236.753	119.75
236.987	163.75
237.221	208.75
237.455	261.75
237.689	199.75
237.922	159.75
238.156	138.75
238.39	136.75
238.624	145.75
238.858	130.75
239.091	127.75
239.325	128.75
239.559	134.75
239.793	152.75
240.027	138.75
240.26	140.75
240.494	165.75
240.728	162.75
240.961	163.75
241.195	144.75
241.429	150.75
241.662	144.75
241.896	145.75
242.13	137.75
242.363	146.75
242.597	141.75
242.83	152.75
243.064	132.75
243.298	147.75
243.531	148.75
243.765	147.75
243.998	161.75
244.232	149.75
244.465	150.75
244.699	160.75
244.932	156.75
245.166	135.75
245.399	149.75
245.633	174.75
245.866	151.75
246.099	163.75
246.333	162.75
246.566	165.75
246.8	155.75
247.033	163.75
247.266	170.75
247.5	172.75
247.733	195.75
247.966	180.75
248.2	188.75
248.433	191.75
248.666	195.75
248.899	204.75
249.133	213.75
249.366	225.75
249.599	226.75
249.832	200.75
250.066	191.75
250.299	189.75
250.532	211.75
250.765	202.75
250.998	231.75
251.231	248.75
251.465	255.75
251.698	213.75
251.931	220.75
252.164	205.75
252.397	215.75
252.63	203.75
252.863	222.75
253.096	228.75
253.329	246.75
253.562	219.75
253.795	231.75
254.028	234.75
254.261	237.75
254.494	242.75
254.727	258.75
254.96	301.75
255.193	290.75
255.426	265.75
255.659	257.75
255.892	256.75
256.124	247.75
256.357	240.75
256.59	220.75
256.823	237.75
257.056	220.75
257.289	225.75
257.521	243.75
257.754	239.75
257.987	217.75
258.22	219.75
258.452	216.75
258.685	233.75
258.918	211.75
259.151	227.75
259.383	225.75
259.616	253.75
259.849	243.75
260.081	258.75
260.314	274.75
260.547	266.75
260.779	276.75
261.012	244.75
261.244	236.75
261.477	233.75
261.71	222.75
261.942	236.75
262.175	249.75
262.407	249.75
262.64	222.75
262.872	228.75
263.105	226.75
263.337	228.75
263.57	224.75
263.802	220.75
264.035	238.75
264.267	208.75
264.499	225.75
264.732	234.75
264.964	242.75
265.197	238.75
265.429	227.75
265.661	223.75
265.894	229.75
266.126	247.75
266.358	231.75
266.591	229.75
266.823	236.75
267.055	236.75
267.287	252.75
267.52	255.75
267.752	251.75
267.984	259.75
268.216	259.75
268.448	245.75
268.681	244.75
268.913	276.75
269.145	293.75
269.377	306.75
269.609	298.75
269.841	290.75
270.073	278.75
270.306	310.75
270.538	334.75
270.77	352.75
271.002	317.75
271.234	295.75
271.466	338.75
271.698	340.75
271.93	352.75
272.162	332.75
272.394	332.75
272.626	336.75
272.858	321.75
273.09	293.75
273.322	286.75
273.553	296.75
273.785	294.75
274.017	294.75
274.249	284.75
274.481	293.75
274.713	304.75
274.945	269.75
275.176	293.75
275.408	299.75
275.64	281.75
275.872	278.75
276.104	282.75
276.335	280.75
276.567	289.75
276.799	320.75
277.031	324.75
277.262	353.75
277.494	340.75
277.726	321.75
277.957	308.75
278.189	295.75
278.421	309.75
278.652	293.75
278.884	290.75
279.115	301.75
279.347	293.75
279.579	289.75
279.81	280.75
280.042	304.75
280.273	294.75
280.505	289.75
280.736	292.75
280.968	277.75
281.199	285.75
281.431	279.75
281.662	290.75
281.894	292.75
282.125	307.75
282.356	307.75
282.588	339.75
282.819	334.75
283.051	309.75
283.282	280.75
283.513	310.75
283.745	288.75
283.976	307.75
284.207	296.75
284.439	310.75
284.67	315.75
284.901	308.75
285.132	320.75
285.364	308.75
285.595	311.75
285.826	300.75
286.057	304.75
286.288	298.75
286.52	325.75
286.751	301.75
286.982	304.75
287.213	315.75
287.444	329.75
287.675	295.75
287.906	314.75
288.138	316.75
288.369	315.75
288.6	334.75
288.831	321.75
289.062	308.75
289.293	310.75
289.524	321.75
289.755	304.75
289.986	310.75
290.217	317.75
290.448	300.75
290.679	317.75
290.91	311.75
291.141	304.75
291.371	327.75
291.602	329.75
291.833	304.75
292.064	314.75
292.295	324.75
292.526	318.75
292.757	317.75
292.987	311.75
293.218	301.75
293.449	311.75
293.68	333.75
293.91	317.75
294.141	324.75
294.372	321.75
294.603	321.75
294.833	338.75
295.064	329.75
295.295	325.75
295.525	320.75
295.756	338.75
295.987	336.75
296.217	361.75
296.448	371.75
296.679	352.75
296.909	330.75
297.14	341.75
297.37	324.75
297.601	328.75
297.831	324.75
298.062	339.75
298.292	336.75
298.523	348.75
298.753	352.75
298.984	328.75
299.214	334.75
299.445	333.75
299.675	349.75
299.905	352.75
300.136	344.75
300.366	349.75
300.597	357.75
300.827	348.75
301.057	357.75
301.288	374.75
301.518	355.75
301.748	335.75
301.979	365.75
302.209	366.75
302.439	362.75
302.669	363.75
302.9	361.75
303.13	360.75
303.36	373.75
303.59	352.75
303.82	368.75
304.051	390.75
304.281	355.75
304.511	377.75
304.741	356.75
304.971	370.75
305.201	350.75
305.431	350.75
305.661	368.75
305.891	353.75
306.121	356.75
306.352	368.75
306.582	372.75
306.812	344.75
307.042	359.75
307.272	357.75
307.502	384.75
307.731	352.75
307.961	382.75
308.191	380.75
308.421	354.75
308.651	376.75
308.881	372.75
309.111	391.75
309.341	388.75
309.571	384.75
309.8	398.75
310.03	404.75
310.26	417.75
310.49	418.75
310.72	427.75
310.949	424.75
311.179	443.75
311.409	423.75
311.639	424.75
311.868	428.75
312.098	443.75
312.328	428.75
312.557	460.75
312.787	455.75
313.017	463.75
313.246	451.75
313.476	403.75
313.706	405.75
313.935	423.75
314.165	434.75
314.394	468.75
314.624	429.75
314.853	433.75
315.083	434.75
315.312	419.75
315.542	424.75
315.771	424.75
316.001	416.75
316.23	425.75
316.46	437.75
316.689	422.75
316.919	436.75
317.148	433.75
317.377	451.75
317.607	417.75
317.836	435.75
318.065	429.75
318.295	419.75
318.524	408.75
318.753	408.75
318.983	423.75
319.212	424.75
319.441	418.75
319.67	442.75
319.9	432.75
320.129	413.75
320.358	442.75
320.587	433.75
320.816	437.75
321.046	465.75
321.275	465.75
321.504	455.75
321.733	454.75
321.962	451.75
322.191	466.75
322.42	492.75
322.649	508.75
322.878	507.75
323.108	511.75
323.337	570.75
323.566	591.75
323.795	612.75
324.024	666.75
324.253	791.75
324.482	1144.75
324.71	1840.75
324.939	2724.75
325.168	2340.75
325.397	1164.75
325.626	780.75
325.855	648.75
326.084	577.75
326.313	562.75
326.542	581.75
326.77	645.75
326.999	741.75
327.228	1014.75
327.457	1622.75
327.686	2037.75
327.914	1326.75
328.143	835.75
328.372	707.75
328.6	658.75
328.829	647.75
329.058	657.75
329.287	660.75
329.515	632.75
329.744	586.75
329.972	580.75
330.201	573.75
330.43	582.75
330.658	640.75
330.887	682.75
331.115	670.75
331.344	600.75
331.572	560.75
331.801	557.75
332.03	550.75
332.258	541.75
332.486	504.75
332.715	515.75
332.943	516.75
333.172	497.75
333.4	525.75
333.629	518.75
333.857	508.75
334.085	537.75
334.314	556.75
334.542	557.75
334.771	548.75
334.999	544.75
335.227	515.75
335.455	534.75
335.684	496.75
335.912	517.75
336.14	510.75
336.369	510.75
336.597	522.75
336.825	529.75
337.053	505.75
337.281	493.75
337.51	510.75
337.738	504.75
337.966	497.75
338.194	513.75
338.422	518.75
338.65	483.75
338.878	489.75
339.106	497.75
339.334	470.75
339.562	459.75
339.79	486.75
340.018	495.75
340.246	494.75
340.474	485.75
340.702	482.75
340.93	477.75
341.158	480.75
341.386	477.75
341.614	492.75
341.842	487.75
342.07	489.75
342.298	486.75
342.526	476.75
342.754	468.75
342.981	491.75
343.209	476.75
343.437	477.75
343.665	482.75
343.893	497.75
344.12	510.75
344.348	480.75
344.576	492.75
344.804	519.75
345.031	524.75
345.259	539.75
345.487	524.75
345.714	499.75
345.942	497.75
346.17	486.75
346.397	467.75
346.625	476.75
346.853	481.75
347.08	482.75
347.308	507.75
347.535	496.75
347.763	504.75
347.99	504.75
348.218	480.75
348.445	502.75
348.673	523.75
348.9	475.75
349.128	467.75
349.355	453.75
349.583	467.75
349.81	457.75
350.037	458.75
350.265	442.75
350.492	445.75
350.72	447.75
350.947	466.75
351.174	480.75
351.402	475.75
351.629	478.75
351.856	473.75
352.083	503.75
352.311	488.75
352.538	504.75
352.765	487.75
352.992	461.75
353.22	485.75
353.447	476.75
353.674	471.75
353.901	466.75
354.128	458.75
354.355	445.75
354.583	443.75
354.81	461.75
355.037	449.75
355.264	439.75
355.491	423.75
355.718	443.75
355.945	440.75
356.172	440.75
356.399	435.75
356.626	446.75
356.853	444.75
357.08	427.75
357.307	469.75
357.534	453.75
357.761	453.75
357.988	462.75
358.215	444.75
358.441	449.75
358.668	430.75
358.895	460.75
359.122	462.75
359.349	466.75
359.576	464.75
359.802	519.75
360.029	529.75
360.256	550.75
360.483	530.75
360.709	473.75
360.936	487.75
361.163	459.75
361.39	491.75
361.616	476.75
361.843	480.75
362.07	466.75
362.296	473.75
362.523	497.75
362.749	485.75
362.976	475.75
363.203	468.75
363.429	468.75
363.656	445.75
363.882	459.75
364.109	477.75
364.335	462.75
364.562	467.75
364.788	458.75
365.015	454.75
365.241	443.75
365.468	483.75
365.694	465.75
365.92	480.75
366.147	470.75
366.373	457.75
366.599	464.75
366.826	448.75
367.052	452.75
367.278	452.75
367.505	466.75
367.731	474.75
367.957	445.75
368.184	470.75
368.41	472.75
368.636	473.75
368.862	475.75
369.089	476.75
369.315	477.75
369.541	469.75
369.767	479.75
369.993	462.75
370.219	478.75
370.445	467.75
370.672	460.75
370.898	468.75
371.124	449.75
371.35	471.75
371.576	454.75
371.802	457.75
372.028	466.75
372.254	450.75
372.48	463.75
372.706	471.75
372.932	468.75
373.158	464.75
373.384	469.75
373.61	447.75
373.835	493.75
374.061	486.75
374.287	466.75
374.513	485.75
374.739	466.75
374.965	474.75
375.191	462.75
375.416	498.75
375.642	482.75
375.868	475.75
376.094	463.75
376.319	472.75
376.545	455.75
376.771	481.75
376.997	443.75
377.222	467.75
377.448	460.75
377.674	476.75
377.899	472.75
378.125	444.75
378.35	462.75
378.576	470.75
378.802	452.75
379.027	448.75
379.253	451.75
379.478	443.75
379.704	475.75
379.929	471.75
380.155	466.75
380.38	464.75
380.606	482.75
380.831	470.75
381.057	462.75
381.282	468.75
381.507	460.75
381.733	446.75
381.958	465.75
382.184	480.75
382.409	464.75
382.634	473.75
382.86	479.75
383.085	479.75
383.31	467.75
383.535	491.75
383.761	487.75
383.986	477.75
384.211	494.75
384.436	515.75
384.662	486.75
384.887	500.75
385.112	525.75
385.337	481.75
385.562	508.75
385.787	483.75
386.013	501.75
386.238	516.75
386.463	514.75
386.688	534.75
386.913	493.75
387.138	501.75
387.363	501.75
387.588	504.75
387.813	513.75
388.038	512.75
388.263	495.75
388.488	507.75
388.713	505.75
388.938	510.75
389.163	515.75
389.387	514.75
389.612	497.75
389.837	518.75
390.062	515.75
390.287	510.75
390.512	526.75
390.736	513.75
390.961	507.75
391.186	521.75
391.411	526.75
391.636	523.75
391.86	519.75
392.085	521.75
392.31	516.75
392.534	506.75
392.759	534.75
392.984	520.75
393.208	532.75
393.433	536.75
393.658	538.75
393.882	515.75
394.107	530.75
394.331	520.75
394.556	504.75
394.78	525.75
395.005	502.75
395.229	518.75
395.454	547.75
395.678	549.75
395.903	580.75
396.127	577.75
396.352	565.75
396.576	555.75
396.801	540.75
397.025	531.75
397.249	578.75
397.474	548.75
397.698	540.75
397.922	588.75
398.147	574.75
398.371	602.75
398.595	593.75
398.82	604.75
399.044	596.75
399.268	618.75
399.492	658.75
399.717	667.75
399.941	724.75
400.165	740.75
400.389	762.75
400.613	684.75
400.837	633.75
401.062	614.75
401.286	610.75
401.51	611.75
401.734	603.75
401.958	590.75
402.182	610.75
402.406	625.75
402.63	627.75
402.854	614.75
403.078	611.75
403.302	610.75
403.526	627.75
403.75	637.75
403.974	614.75
404.198	611.75
404.422	614.75
404.645	621.75
404.869	653.75
405.093	676.75
405.317	688.75
405.541	752.75
405.765	689.75
405.988	647.75
406.212	640.75
406.436	680.75
406.66	713.75
406.883	662.75
407.107	696.75
407.331	769.75
407.555	832.75
407.778	836.75
408.002	754.75
408.226	725.75
408.449	705.75
408.673	690.75
408.896	732.75
409.12	770.75
409.344	737.75
409.567	640.75
409.791	625.75
410.014	633.75
410.238	620.75
410.461	628.75
410.685	613.75
410.908	650.75
411.132	690.75
411.355	718.75
411.578	694.75
411.802	640.75
412.025	636.75
412.249	634.75
412.472	646.75
412.695	674.75
412.919	660.75
413.142	613.75
413.365	613.75
413.589	598.75
413.812	590.75
414.035	585.75
414.258	581.75
414.482	577.75
414.705	601.75
414.928	579.75
415.151	617.75
415.374	600.75
415.597	586.75
415.821	593.75
416.044	592.75
416.267	584.75
416.49	591.75
416.713	584.75
416.936	600.75
417.159	588.75
417.382	593.75
417.605	607.75
417.828	630.75
418.051	639.75
418.274	574.75
418.497	594.75
418.72	609.75
418.943	589.75
419.166	609.75
419.389	638.75
419.611	624.75
419.834	610.75
420.057	620.75
420.28	588.75
420.503	603.75
420.726	610.75
420.948	630.75
421.171	674.75
421.394	690.75
421.617	634.75
421.839	607.75
422.062	619.75
422.285	650.75
422.507	711.75
422.73	818.75
422.953	804.75
423.175	672.75
423.398	650.75
423.621	638.75
423.843	691.75
424.066	672.75
424.288	677.75
424.511	698.75
424.733	766.75
424.956	829.75
425.178	818.75
425.401	823.75
425.623	827.75
425.846	732.75
426.068	669.75
426.291	674.75
426.513	670.75
426.735	682.75
426.958	707.75
427.18	816.75
427.402	960.75
427.625	1042.75
427.847	929.75
428.069	811.75
428.292	712.75
428.514	664.75
428.736	637.75
428.958	650.75
429.181	616.75
429.403	614.75
429.625	633.75
429.847	661.75
430.069	753.75
430.292	755.75
430.514	638.75
430.736	615.75
430.958	598.75
431.18	592.75
431.402	597.75
431.624	549.75
431.846	584.75
432.068	566.75
432.29	578.75
432.512	577.75
432.734	627.75
432.956	612.75
433.178	610.75
433.4	604.75
433.622	578.75
433.844	606.75
434.066	578.75
434.287	565.75
434.509	597.75
434.731	596.75
434.953	627.75
435.175	630.75
435.397	664.75
435.618	648.75
435.84	696.75
436.062	845.75
436.284	915.75
436.505	748.75
436.727	660.75
436.949	646.75
437.17	632.75
437.392	636.75
437.614	637.75
437.835	660.75
438.057	801.75
438.278	916.75
438.5	882.75
438.721	989.75
438.943	961.75
439.165	749.75
439.386	688.75
439.608	681.75
439.829	696.75
440.05	712.75
440.272	771.75
440.493	716.75
440.715	664.75
440.936	655.75
441.158	658.75
441.379	633.75
441.6	640.75
441.822	678.75
442.043	715.75
442.264	828.75
442.486	857.75
442.707	723.75
442.928	688.75
443.149	685.75
443.371	721.75
443.592	742.75
443.813	896.75
444.034	945.75
444.255	798.75
444.476	682.75
444.698	675.75
444.919	677.75
445.14	795.75
445.361	731.75
445.582	694.75
445.803	784.75
446.024	935.75
446.245	956.75
446.466	843.75
446.687	744.75
446.908	668.75
447.129	645.75
447.35	642.75
447.571	628.75
447.792	606.75
448.013	626.75
448.234	610.75
448.455	697.75
448.675	824.75
448.896	991.75
449.117	841.75
449.338	788.75
449.559	897.75
449.779	1028.75
450	820.75
450.221	678.75
450.442	614.75
450.662	602.75
450.883	583.75
451.104	604.75
451.324	598.75
451.545	589.75
451.766	566.75
451.986	580.75
452.207	554.75
452.428	538.75
452.648	537.75
452.869	554.75
453.089	553.75
453.31	598.75
453.53	560.75
453.751	548.75
453.971	566.75
454.192	551.75
454.412	561.75
454.633	558.75
454.853	555.75
455.073	560.75
455.294	584.75
455.514	631.75
455.734	629.75
455.955	567.75
456.175	530.75
456.395	497.75
456.616	520.75
456.836	532.75
457.056	525.75
457.276	517.75
457.497	524.75
457.717	533.75
457.937	535.75
458.157	531.75
458.377	524.75
458.598	584.75
458.818	612.75
459.038	742.75
459.258	745.75
459.478	625.75
459.698	588.75
459.918	590.75
460.138	593.75
460.358	601.75
460.578	580.75
460.798	617.75
461.018	624.75
461.238	604.75
461.458	581.75
461.678	584.75
461.898	595.75
462.118	612.75
462.338	637.75
462.558	622.75
462.777	627.75
462.997	634.75
463.217	662.75
463.437	644.75
463.657	639.75
463.876	638.75
464.096	644.75
464.316	614.75
464.536	648.75
464.755	641.75
464.975	652.75
465.195	683.75
465.414	772.75
465.634	701.75
465.854	636.75
466.073	620.75
466.293	594.75
466.512	565.75
466.732	573.75
466.951	587.75
467.171	577.75
467.391	585.75
467.61	592.75
467.829	585.75
468.049	596.75
468.268	568.75
468.488	575.75
468.707	564.75
468.927	569.75
469.146	548.75
469.365	553.75
469.585	568.75
469.804	577.75
470.023	587.75
470.243	573.75
470.462	584.75
470.681	602.75
470.901	579.75
471.12	583.75
471.339	584.75
471.558	581.75
471.777	584.75
471.997	562.75
472.216	566.75
472.435	601.75
472.654	598.75
472.873	576.75
473.092	560.75
473.311	565.75
473.53	571.75
473.749	586.75
473.968	611.75
474.187	750.75
474.406	787.75
474.625	649.75
474.844	599.75
475.063	583.75
475.282	570.75
475.501	592.75
475.72	584.75
475.939	573.75
476.158	613.75
476.377	596.75
476.596	603.75
476.814	605.75
477.033	617.75
477.252	628.75
477.471	628.75
477.69	604.75
477.908	618.75
478.127	621.75
478.346	642.75
478.564	621.75
478.783	628.75
479.002	634.75
479.22	670.75
479.439	667.75
479.658	671.75
479.876	718.75
480.095	685.75
480.313	733.75
480.532	711.75
480.751	696.75
480.969	697.75
481.188	736.75
481.406	747.75
481.624	713.75
481.843	705.75
482.061	689.75
482.28	685.75
482.498	693.75
482.717	683.75
482.935	689.75
483.153	668.75
483.372	665.75
483.59	664.75
483.808	700.75
484.027	700.75
484.245	696.75
484.463	685.75
484.681	687.75
484.9	686.75
485.118	679.75
485.336	706.75
485.554	713.75
485.772	705.75
485.99	694.75
486.209	724.75
486.427	725.75
486.645	723.75
486.863	757.75
487.081	755.75
487.299	745.75
487.517	728.75
487.735	731.75
487.953	741.75
488.171	722.75
488.389	745.75
488.607	744.75
488.825	724.75
489.043	712.75
489.261	731.75
489.479	744.75
489.696	748.75
489.914	733.75
490.132	786.75
490.35	794.75
490.568	785.75
490.786	780.75
491.003	796.75
491.221	817.75
491.439	796.75
491.657	806.75
491.874	824.75
492.092	812.75
492.31	838.75
492.527	838.75
492.745	821.75
492.963	802.75
493.18	847.75
493.398	848.75
493.615	854.75
493.833	850.75
494.05	872.75
494.268	884.75
494.485	866.75
494.703	841.75
494.92	862.75
495.138	841.75
495.355	852.75
495.573	907.75
495.79	856.75
496.008	894.75
496.225	858.75
496.442	877.75
496.66	891.75
496.877	901.75
497.094	883.75
497.312	861.75
497.529	913.75
497.746	898.75
497.963	912.75
498.181	955.75
498.398	974.75
498.615	993.75
498.832	1017.75
499.049	1017.75
499.267	1041.75
499.484	1070.75
499.701	1095.75
499.918	1143.75
500.135	1215.75
500.352	1225.75
500.569	1244.75
500.786	1228.75
501.003	1258.75
501.22	1196.75
501.437	1181.75
501.654	1121.75
