Data from 1988.PennyLincolnUp.Lamp.En5.5.200Scan.071819.P2_HRD10591_17-18-54-972.txt Node
Date: Thu Jul 18 17:18:54 EDT 2019
User: cochatt
Spectrometer: HR+D1059
Trigger mode: 1
Integration Time (sec): 1.000000E-1
Scans to average: 1
Electric dark correction enabled: true
Nonlinearity correction enabled: false
Boxcar width: 0
XAxis mode: Wavelengths
Number of Pixels in Spectrum: 2048
>>>>>Begin Spectral Data<<<<<
223.165	-3.06
223.4	-3.06
223.635	-3.06
223.869	-19.06
224.104	-8.06
224.338	-6.06
224.573	-23.06
224.808	-20.06
225.042	-24.06
225.277	-0.06
225.511	-0.06
225.746	0.94
225.98	2.94
226.215	13.94
226.449	13.94
226.683	22.94
226.918	21.94
227.152	26.94
227.387	38.94
227.621	31.94
227.856	49.94
228.09	40.94
228.324	35.94
228.559	74.94
228.793	71.94
229.027	96.94
229.262	84.94
229.496	111.94
229.73	139.94
229.964	149.94
230.199	125.94
230.433	109.94
230.667	102.94
230.901	106.94
231.136	112.94
231.37	111.94
231.604	107.94
231.838	116.94
232.072	121.94
232.306	117.94
232.541	129.94
232.775	107.94
233.009	116.94
233.243	98.94
233.477	113.94
233.711	102.94
233.945	118.94
234.179	115.94
234.413	105.94
234.647	104.94
234.881	98.94
235.115	111.94
235.349	123.94
235.583	123.94
235.817	117.94
236.051	122.94
236.285	121.94
236.519	121.94
236.753	124.94
236.987	137.94
237.221	167.94
237.455	213.94
237.689	161.94
237.922	141.94
238.156	132.94
238.39	128.94
238.624	125.94
238.858	129.94
239.091	127.94
239.325	119.94
239.559	109.94
239.793	124.94
240.027	139.94
240.26	128.94
240.494	153.94
240.728	134.94
240.961	151.94
241.195	123.94
241.429	129.94
241.662	125.94
241.896	131.94
242.13	133.94
242.363	123.94
242.597	138.94
242.83	139.94
243.064	125.94
243.298	144.94
243.531	125.94
243.765	125.94
243.998	122.94
244.232	135.94
244.465	146.94
244.699	142.94
244.932	150.94
245.166	132.94
245.399	129.94
245.633	146.94
245.866	165.94
246.099	140.94
246.333	152.94
246.566	155.94
246.8	159.94
247.033	159.94
247.266	159.94
247.5	155.94
247.733	156.94
247.966	171.94
248.2	166.94
248.433	156.94
248.666	160.94
248.899	170.94
249.133	187.94
249.366	197.94
249.599	196.94
249.832	191.94
250.066	164.94
250.299	181.94
250.532	182.94
250.765	187.94
250.998	218.94
251.231	208.94
251.465	185.94
251.698	197.94
251.931	195.94
252.164	191.94
252.397	201.94
252.63	197.94
252.863	208.94
253.096	204.94
253.329	209.94
253.562	205.94
253.795	214.94
254.028	210.94
254.261	215.94
254.494	224.94
254.727	222.94
254.96	241.94
255.193	263.94
255.426	225.94
255.659	227.94
255.892	214.94
256.124	199.94
256.357	203.94
256.59	201.94
256.823	191.94
257.056	205.94
257.289	206.94
257.521	201.94
257.754	215.94
257.987	204.94
258.22	213.94
258.452	209.94
258.685	196.94
258.918	195.94
259.151	201.94
259.383	220.94
259.616	213.94
259.849	218.94
260.081	225.94
260.314	218.94
260.547	244.94
260.779	234.94
261.012	228.94
261.244	230.94
261.477	226.94
261.71	215.94
261.942	220.94
262.175	247.94
262.407	225.94
262.64	212.94
262.872	212.94
263.105	214.94
263.337	195.94
263.57	214.94
263.802	204.94
264.035	208.94
264.267	209.94
264.499	214.94
264.732	209.94
264.964	218.94
265.197	209.94
265.429	212.94
265.661	209.94
265.894	207.94
266.126	204.94
266.358	215.94
266.591	227.94
266.823	212.94
267.055	217.94
267.287	208.94
267.52	213.94
267.752	210.94
267.984	218.94
268.216	224.94
268.448	235.94
268.681	230.94
268.913	232.94
269.145	253.94
269.377	249.94
269.609	269.94
269.841	275.94
270.073	284.94
270.306	269.94
270.538	307.94
270.77	308.94
271.002	277.94
271.234	277.94
271.466	298.94
271.698	305.94
271.93	311.94
272.162	292.94
272.394	303.94
272.626	280.94
272.858	281.94
273.09	275.94
273.322	271.94
273.553	259.94
273.785	263.94
274.017	240.94
274.249	276.94
274.481	281.94
274.713	252.94
274.945	258.94
275.176	256.94
275.408	249.94
275.64	270.94
275.872	263.94
276.104	255.94
276.335	255.94
276.567	258.94
276.799	284.94
277.031	299.94
277.262	317.94
277.494	309.94
277.726	292.94
277.957	293.94
278.189	259.94
278.421	260.94
278.652	258.94
278.884	265.94
279.115	273.94
279.347	272.94
279.579	265.94
279.81	273.94
280.042	249.94
280.273	275.94
280.505	271.94
280.736	263.94
280.968	260.94
281.199	284.94
281.431	269.94
281.662	269.94
281.894	267.94
282.125	263.94
282.356	275.94
282.588	293.94
282.819	312.94
283.051	283.94
283.282	264.94
283.513	275.94
283.745	301.94
283.976	272.94
284.207	295.94
284.439	275.94
284.67	285.94
284.901	287.94
285.132	273.94
285.364	284.94
285.595	289.94
285.826	265.94
286.057	280.94
286.288	296.94
286.52	276.94
286.751	286.94
286.982	287.94
287.213	280.94
287.444	291.94
287.675	296.94
287.906	322.94
288.138	281.94
288.369	293.94
288.6	290.94
288.831	297.94
289.062	302.94
289.293	297.94
289.524	285.94
289.755	295.94
289.986	279.94
290.217	290.94
290.448	292.94
290.679	287.94
290.91	285.94
291.141	286.94
291.371	291.94
291.602	289.94
291.833	281.94
292.064	275.94
292.295	277.94
292.526	298.94
292.757	282.94
292.987	284.94
293.218	305.94
293.449	299.94
293.68	289.94
293.91	301.94
294.141	291.94
294.372	289.94
294.603	277.94
294.833	283.94
295.064	293.94
295.295	312.94
295.525	292.94
295.756	312.94
295.987	305.94
296.217	323.94
296.448	351.94
296.679	300.94
296.909	301.94
297.14	299.94
297.37	300.94
297.601	323.94
297.831	287.94
298.062	298.94
298.292	298.94
298.523	306.94
298.753	306.94
298.984	302.94
299.214	315.94
299.445	314.94
299.675	321.94
299.905	326.94
300.136	325.94
300.366	323.94
300.597	329.94
300.827	325.94
301.057	341.94
301.288	337.94
301.518	327.94
301.748	319.94
301.979	330.94
302.209	338.94
302.439	332.94
302.669	341.94
302.9	332.94
303.13	325.94
303.36	330.94
303.59	347.94
303.82	345.94
304.051	337.94
304.281	330.94
304.511	343.94
304.741	321.94
304.971	336.94
305.201	336.94
305.431	345.94
305.661	328.94
305.891	321.94
306.121	328.94
306.352	333.94
306.582	317.94
306.812	339.94
307.042	346.94
307.272	340.94
307.502	344.94
307.731	328.94
307.961	327.94
308.191	329.94
308.421	333.94
308.651	349.94
308.881	355.94
309.111	351.94
309.341	332.94
309.571	372.94
309.8	367.94
310.03	364.94
310.26	377.94
310.49	348.94
310.72	393.94
310.949	389.94
311.179	420.94
311.409	389.94
311.639	390.94
311.868	367.94
312.098	372.94
312.328	374.94
312.557	391.94
312.787	415.94
313.017	402.94
313.246	395.94
313.476	385.94
313.706	389.94
313.935	391.94
314.165	408.94
314.394	406.94
314.624	390.94
314.853	383.94
315.083	392.94
315.312	372.94
315.542	375.94
315.771	379.94
316.001	372.94
316.23	369.94
316.46	384.94
316.689	385.94
316.919	387.94
317.148	395.94
317.377	417.94
317.607	399.94
317.836	377.94
318.065	387.94
318.295	381.94
318.524	391.94
318.753	378.94
318.983	378.94
319.212	392.94
319.441	396.94
319.67	404.94
319.9	388.94
320.129	392.94
320.358	373.94
320.587	413.94
320.816	390.94
321.046	395.94
321.275	412.94
321.504	411.94
321.733	384.94
321.962	440.94
322.191	419.94
322.42	435.94
322.649	448.94
322.878	456.94
323.108	474.94
323.337	487.94
323.566	502.94
323.795	526.94
324.024	577.94
324.253	667.94
324.482	1015.94
324.71	1517.94
324.939	2186.94
325.168	1841.94
325.397	966.94
325.626	669.94
325.855	565.94
326.084	511.94
326.313	513.94
326.542	524.94
326.77	550.94
326.999	640.94
327.228	890.94
327.457	1328.94
327.686	1620.94
327.914	1064.94
328.143	725.94
328.372	611.94
328.6	580.94
328.829	536.94
329.058	562.94
329.287	577.94
329.515	529.94
329.744	517.94
329.972	487.94
330.201	477.94
330.43	495.94
330.658	531.94
330.887	594.94
331.115	586.94
331.344	526.94
331.572	498.94
331.801	496.94
332.03	503.94
332.258	481.94
332.486	471.94
332.715	467.94
332.943	447.94
333.172	461.94
333.4	468.94
333.629	503.94
333.857	472.94
334.085	473.94
334.314	466.94
334.542	473.94
334.771	473.94
334.999	477.94
335.227	479.94
335.455	457.94
335.684	467.94
335.912	463.94
336.14	458.94
336.369	457.94
336.597	477.94
336.825	458.94
337.053	458.94
337.281	453.94
337.51	468.94
337.738	455.94
337.966	455.94
338.194	459.94
338.422	456.94
338.65	457.94
338.878	450.94
339.106	437.94
339.334	436.94
339.562	465.94
339.79	441.94
340.018	436.94
340.246	448.94
340.474	440.94
340.702	441.94
340.93	436.94
341.158	470.94
341.386	443.94
341.614	429.94
341.842	420.94
342.07	436.94
342.298	450.94
342.526	441.94
342.754	413.94
342.981	427.94
343.209	414.94
343.437	433.94
343.665	435.94
343.893	467.94
344.12	443.94
344.348	450.94
344.576	408.94
344.804	466.94
345.031	457.94
345.259	471.94
345.487	475.94
345.714	462.94
345.942	439.94
346.17	432.94
346.397	411.94
346.625	422.94
346.853	438.94
347.08	433.94
347.308	436.94
347.535	452.94
347.763	429.94
347.99	435.94
348.218	441.94
348.445	450.94
348.673	443.94
348.9	452.94
349.128	417.94
349.355	403.94
349.583	424.94
349.81	401.94
350.037	414.94
350.265	415.94
350.492	397.94
350.72	406.94
350.947	413.94
351.174	418.94
351.402	435.94
351.629	446.94
351.856	435.94
352.083	417.94
352.311	442.94
352.538	443.94
352.765	454.94
352.992	422.94
353.22	443.94
353.447	412.94
353.674	416.94
353.901	381.94
354.128	403.94
354.355	416.94
354.583	407.94
354.81	390.94
355.037	405.94
355.264	413.94
355.491	393.94
355.718	386.94
355.945	407.94
356.172	381.94
356.399	402.94
356.626	402.94
356.853	432.94
357.08	394.94
357.307	415.94
357.534	401.94
357.761	388.94
357.988	400.94
358.215	403.94
358.441	407.94
358.668	423.94
358.895	404.94
359.122	409.94
359.349	416.94
359.576	425.94
359.802	449.94
360.029	453.94
360.256	446.94
360.483	474.94
360.709	429.94
360.936	427.94
361.163	416.94
361.39	417.94
361.616	413.94
361.843	413.94
362.07	425.94
362.296	431.94
362.523	409.94
362.749	417.94
362.976	421.94
363.203	417.94
363.429	416.94
363.656	416.94
363.882	408.94
364.109	403.94
364.335	396.94
364.562	412.94
364.788	412.94
365.015	417.94
365.241	418.94
365.468	415.94
365.694	417.94
365.92	416.94
366.147	405.94
366.373	406.94
366.599	422.94
366.826	408.94
367.052	411.94
367.278	396.94
367.505	414.94
367.731	412.94
367.957	426.94
368.184	429.94
368.41	420.94
368.636	426.94
368.862	420.94
369.089	412.94
369.315	409.94
369.541	398.94
369.767	392.94
369.993	402.94
370.219	417.94
370.445	425.94
370.672	383.94
370.898	410.94
371.124	418.94
371.35	418.94
371.576	407.94
371.802	407.94
372.028	400.94
372.254	404.94
372.48	411.94
372.706	400.94
372.932	412.94
373.158	428.94
373.384	436.94
373.61	415.94
373.835	421.94
374.061	418.94
374.287	398.94
374.513	425.94
374.739	434.94
374.965	435.94
375.191	428.94
375.416	405.94
375.642	399.94
375.868	397.94
376.094	413.94
376.319	404.94
376.545	434.94
376.771	405.94
376.997	402.94
377.222	417.94
377.448	420.94
377.674	398.94
377.899	415.94
378.125	426.94
378.35	403.94
378.576	402.94
378.802	415.94
379.027	418.94
379.253	400.94
379.478	412.94
379.704	428.94
379.929	408.94
380.155	410.94
380.38	400.94
380.606	403.94
380.831	420.94
381.057	411.94
381.282	418.94
381.507	412.94
381.733	415.94
381.958	424.94
382.184	424.94
382.409	402.94
382.634	427.94
382.86	424.94
383.085	425.94
383.31	417.94
383.535	432.94
383.761	443.94
383.986	443.94
384.211	424.94
384.436	420.94
384.662	445.94
384.887	455.94
385.112	436.94
385.337	456.94
385.562	436.94
385.787	449.94
386.013	450.94
386.238	467.94
386.463	453.94
386.688	471.94
386.913	440.94
387.138	440.94
387.363	469.94
387.588	443.94
387.813	460.94
388.038	447.94
388.263	455.94
388.488	447.94
388.713	472.94
388.938	435.94
389.163	441.94
389.387	451.94
389.612	428.94
389.837	447.94
390.062	453.94
390.287	449.94
390.512	458.94
390.736	443.94
390.961	464.94
391.186	461.94
391.411	470.94
391.636	426.94
391.86	458.94
392.085	465.94
392.31	473.94
392.534	475.94
392.759	469.94
392.984	465.94
393.208	466.94
393.433	467.94
393.658	479.94
393.882	450.94
394.107	450.94
394.331	463.94
394.556	468.94
394.78	456.94
395.005	477.94
395.229	469.94
395.454	468.94
395.678	482.94
395.903	474.94
396.127	514.94
396.352	492.94
396.576	487.94
396.801	497.94
397.025	488.94
397.249	487.94
397.474	483.94
397.698	482.94
397.922	514.94
398.147	523.94
398.371	519.94
398.595	511.94
398.82	523.94
399.044	523.94
399.268	539.94
399.492	588.94
399.717	602.94
399.941	615.94
400.165	634.94
400.389	641.94
400.613	609.94
400.837	551.94
401.062	559.94
401.286	551.94
401.51	529.94
401.734	515.94
401.958	540.94
402.182	531.94
402.406	536.94
402.63	544.94
402.854	548.94
403.078	534.94
403.302	528.94
403.526	568.94
403.75	540.94
403.974	550.94
404.198	523.94
404.422	514.94
404.645	551.94
404.869	550.94
405.093	579.94
405.317	577.94
405.541	600.94
405.765	589.94
405.988	575.94
406.212	553.94
406.436	616.94
406.66	605.94
406.883	579.94
407.107	619.94
407.331	649.94
407.555	716.94
407.778	716.94
408.002	651.94
408.226	591.94
408.449	606.94
408.673	611.94
408.896	646.94
409.12	675.94
409.344	634.94
409.567	567.94
409.791	551.94
410.014	552.94
410.238	546.94
410.461	532.94
410.685	544.94
410.908	552.94
411.132	579.94
411.355	615.94
411.578	588.94
411.802	551.94
412.025	545.94
412.249	519.94
412.472	529.94
412.695	545.94
412.919	561.94
413.142	528.94
413.365	501.94
413.589	534.94
413.812	513.94
414.035	526.94
414.258	506.94
414.482	505.94
414.705	506.94
414.928	482.94
415.151	523.94
415.374	510.94
415.597	509.94
415.821	517.94
416.044	515.94
416.267	532.94
416.49	489.94
416.713	517.94
416.936	521.94
417.159	509.94
417.382	532.94
417.605	518.94
417.828	519.94
418.051	532.94
418.274	539.94
418.497	504.94
418.72	515.94
418.943	492.94
419.166	539.94
419.389	563.94
419.611	541.94
419.834	529.94
420.057	530.94
420.28	522.94
420.503	520.94
420.726	528.94
420.948	534.94
421.171	579.94
421.394	599.94
421.617	555.94
421.839	536.94
422.062	537.94
422.285	578.94
422.507	608.94
422.73	677.94
422.953	666.94
423.175	597.94
423.398	563.94
423.621	551.94
423.843	584.94
424.066	566.94
424.288	553.94
424.511	580.94
424.733	625.94
424.956	738.94
425.178	689.94
425.401	673.94
425.623	726.94
425.846	625.94
426.068	591.94
426.291	569.94
426.513	562.94
426.735	595.94
426.958	626.94
427.18	703.94
427.402	816.94
427.625	901.94
427.847	814.94
428.069	669.94
428.292	585.94
428.514	546.94
428.736	533.94
428.958	560.94
429.181	520.94
429.403	541.94
429.625	525.94
429.847	578.94
430.069	627.94
430.292	640.94
430.514	541.94
430.736	535.94
430.958	515.94
431.18	500.94
431.402	501.94
431.624	488.94
431.846	491.94
432.068	492.94
432.29	523.94
432.512	501.94
432.734	531.94
432.956	500.94
433.178	524.94
433.4	516.94
433.622	506.94
433.844	515.94
434.066	496.94
434.287	506.94
434.509	527.94
434.731	521.94
434.953	505.94
435.175	525.94
435.397	547.94
435.618	585.94
435.84	639.94
436.062	699.94
436.284	768.94
436.505	643.94
436.727	605.94
436.949	541.94
437.17	524.94
437.392	536.94
437.614	545.94
437.835	578.94
438.057	668.94
438.278	762.94
438.5	787.94
438.721	843.94
438.943	825.94
439.165	652.94
439.386	587.94
439.608	578.94
439.829	567.94
440.05	628.94
440.272	665.94
440.493	618.94
440.715	563.94
440.936	540.94
441.158	540.94
441.379	530.94
441.6	545.94
441.822	574.94
442.043	617.94
442.264	680.94
442.486	735.94
442.707	628.94
442.928	601.94
443.149	588.94
443.371	622.94
443.592	683.94
443.813	762.94
444.034	808.94
444.255	660.94
444.476	587.94
444.698	602.94
444.919	587.94
445.14	660.94
445.361	625.94
445.582	618.94
445.803	660.94
446.024	768.94
446.245	777.94
446.466	736.94
446.687	618.94
446.908	565.94
447.129	540.94
447.35	529.94
447.571	514.94
447.792	531.94
448.013	547.94
448.234	541.94
448.455	625.94
448.675	713.94
448.896	838.94
449.117	702.94
449.338	680.94
449.559	749.94
449.779	878.94
450	730.94
450.221	600.94
450.442	536.94
450.662	529.94
450.883	514.94
451.104	531.94
451.324	519.94
451.545	505.94
451.766	498.94
451.986	470.94
452.207	484.94
452.428	477.94
452.648	475.94
452.869	490.94
453.089	484.94
453.31	500.94
453.53	477.94
453.751	476.94
453.971	472.94
454.192	479.94
454.412	473.94
454.633	514.94
454.853	474.94
455.073	451.94
455.294	491.94
455.514	566.94
455.734	550.94
455.955	459.94
456.175	464.94
456.395	447.94
456.616	435.94
456.836	449.94
457.056	461.94
457.276	425.94
457.497	441.94
457.717	428.94
457.937	463.94
458.157	443.94
458.377	487.94
458.598	474.94
458.818	551.94
459.038	609.94
459.258	612.94
459.478	559.94
459.698	529.94
459.918	505.94
460.138	525.94
460.358	523.94
460.578	519.94
460.798	511.94
461.018	529.94
461.238	541.94
461.458	516.94
461.678	499.94
461.898	535.94
462.118	534.94
462.338	549.94
462.558	529.94
462.777	553.94
462.997	553.94
463.217	571.94
463.437	600.94
463.657	555.94
463.876	572.94
464.096	548.94
464.316	548.94
464.536	564.94
464.755	566.94
464.975	546.94
465.195	604.94
465.414	657.94
465.634	596.94
465.854	549.94
466.073	539.94
466.293	509.94
466.512	505.94
466.732	482.94
466.951	503.94
467.171	483.94
467.391	494.94
467.61	473.94
467.829	523.94
468.049	499.94
468.268	492.94
468.488	459.94
468.707	473.94
468.927	479.94
469.146	471.94
469.365	476.94
469.585	473.94
469.804	487.94
470.023	513.94
470.243	497.94
470.462	520.94
470.681	525.94
470.901	511.94
471.12	498.94
471.339	503.94
471.558	479.94
471.777	484.94
471.997	488.94
472.216	493.94
472.435	497.94
472.654	495.94
472.873	479.94
473.092	489.94
473.311	490.94
473.53	495.94
473.749	513.94
473.968	559.94
474.187	627.94
474.406	651.94
474.625	563.94
474.844	533.94
475.063	504.94
475.282	511.94
475.501	511.94
475.72	537.94
475.939	511.94
476.158	527.94
476.377	530.94
476.596	513.94
476.814	537.94
477.033	519.94
477.252	547.94
477.471	524.94
477.69	521.94
477.908	534.94
478.127	547.94
478.346	541.94
478.564	548.94
478.783	554.94
479.002	585.94
479.22	567.94
479.439	605.94
479.658	577.94
479.876	598.94
480.095	615.94
480.313	636.94
480.532	612.94
480.751	600.94
480.969	588.94
481.188	597.94
481.406	624.94
481.624	579.94
481.843	602.94
482.061	576.94
482.28	589.94
482.498	585.94
482.717	584.94
482.935	588.94
483.153	588.94
483.372	590.94
483.59	563.94
483.808	593.94
484.027	574.94
484.245	577.94
484.463	581.94
484.681	601.94
484.9	573.94
485.118	641.94
485.336	598.94
485.554	605.94
485.772	593.94
485.99	600.94
486.209	588.94
486.427	597.94
486.645	607.94
486.863	626.94
487.081	629.94
487.299	648.94
487.517	659.94
487.735	633.94
487.953	630.94
488.171	632.94
488.389	636.94
488.607	601.94
488.825	647.94
489.043	650.94
489.261	625.94
489.479	641.94
489.696	612.94
489.914	647.94
490.132	648.94
490.35	659.94
490.568	638.94
490.786	649.94
491.003	666.94
491.221	666.94
491.439	706.94
491.657	676.94
491.874	674.94
492.092	700.94
492.31	699.94
492.527	680.94
492.745	701.94
492.963	704.94
493.18	735.94
493.398	717.94
493.615	718.94
493.833	715.94
494.05	708.94
494.268	718.94
494.485	714.94
494.703	712.94
494.92	738.94
495.138	731.94
495.355	745.94
495.573	735.94
495.79	749.94
496.008	754.94
496.225	748.94
496.442	773.94
496.66	749.94
496.877	736.94
497.094	764.94
497.312	773.94
497.529	736.94
497.746	777.94
497.963	808.94
498.181	827.94
498.398	836.94
498.615	823.94
498.832	855.94
499.049	828.94
499.267	867.94
499.484	923.94
499.701	961.94
499.918	976.94
500.135	1025.94
500.352	1076.94
500.569	1084.94
500.786	1065.94
501.003	1055.94
501.22	1004.94
501.437	959.94
501.654	968.94
501.871	948.94
