Data from 1988.PennyLincolnUp.Lamp.En5.5.200Scan.071819.P2_HRD10591_17-19-59-972.txt Node
Date: Thu Jul 18 17:19:59 EDT 2019
User: cochatt
Spectrometer: HR+D1059
Trigger mode: 1
Integration Time (sec): 1.000000E-1
Scans to average: 1
Electric dark correction enabled: true
Nonlinearity correction enabled: false
Boxcar width: 0
XAxis mode: Wavelengths
Number of Pixels in Spectrum: 2048
>>>>>Begin Spectral Data<<<<<
223.165	-30.56
223.4	-30.56
223.635	-30.56
223.869	-14.56
224.104	-16.56
224.338	-12.56
224.573	-3.56
224.808	-12.56
225.042	-14.56
225.277	-5.56
225.511	0.44
225.746	8.44
225.98	10.44
226.215	7.44
226.449	16.44
226.683	19.44
226.918	12.44
227.152	35.44
227.387	20.44
227.621	49.44
227.856	31.44
228.09	49.44
228.324	49.44
228.559	59.44
228.793	66.44
229.027	82.44
229.262	104.44
229.496	108.44
229.73	136.44
229.964	164.44
230.199	145.44
230.433	116.44
230.667	116.44
230.901	131.44
231.136	104.44
231.37	119.44
231.604	117.44
231.838	120.44
232.072	107.44
232.306	108.44
232.541	121.44
232.775	127.44
233.009	131.44
233.243	100.44
233.477	122.44
233.711	111.44
233.945	107.44
234.179	127.44
234.413	117.44
234.647	118.44
234.881	123.44
235.115	120.44
235.349	129.44
235.583	124.44
235.817	131.44
236.051	129.44
236.285	129.44
236.519	135.44
236.753	135.44
236.987	163.44
237.221	186.44
237.455	243.44
237.689	194.44
237.922	160.44
238.156	142.44
238.39	137.44
238.624	145.44
238.858	127.44
239.091	123.44
239.325	114.44
239.559	148.44
239.793	135.44
240.027	139.44
240.26	131.44
240.494	169.44
240.728	155.44
240.961	160.44
241.195	155.44
241.429	155.44
241.662	150.44
241.896	141.44
242.13	151.44
242.363	138.44
242.597	155.44
242.83	152.44
243.064	154.44
243.298	155.44
243.531	136.44
243.765	152.44
243.998	159.44
244.232	145.44
244.465	164.44
244.699	153.44
244.932	147.44
245.166	158.44
245.399	167.44
245.633	147.44
245.866	159.44
246.099	145.44
246.333	153.44
246.566	156.44
246.8	174.44
247.033	151.44
247.266	153.44
247.5	171.44
247.733	177.44
247.966	172.44
248.2	179.44
248.433	176.44
248.666	197.44
248.899	204.44
249.133	213.44
249.366	227.44
249.599	210.44
249.832	193.44
250.066	194.44
250.299	183.44
250.532	187.44
250.765	201.44
250.998	218.44
251.231	232.44
251.465	229.44
251.698	202.44
251.931	230.44
252.164	181.44
252.397	211.44
252.63	199.44
252.863	203.44
253.096	218.44
253.329	227.44
253.562	227.44
253.795	219.44
254.028	233.44
254.261	218.44
254.494	248.44
254.727	254.44
254.96	295.44
255.193	277.44
255.426	273.44
255.659	267.44
255.892	240.44
256.124	233.44
256.357	234.44
256.59	229.44
256.823	227.44
257.056	230.44
257.289	216.44
257.521	216.44
257.754	231.44
257.987	201.44
258.22	207.44
258.452	203.44
258.685	220.44
258.918	232.44
259.151	205.44
259.383	220.44
259.616	228.44
259.849	242.44
260.081	259.44
260.314	278.44
260.547	281.44
260.779	257.44
261.012	257.44
261.244	243.44
261.477	251.44
261.71	223.44
261.942	228.44
262.175	249.44
262.407	245.44
262.64	231.44
262.872	235.44
263.105	228.44
263.337	227.44
263.57	204.44
263.802	232.44
264.035	226.44
264.267	230.44
264.499	223.44
264.732	223.44
264.964	231.44
265.197	241.44
265.429	236.44
265.661	233.44
265.894	247.44
266.126	234.44
266.358	230.44
266.591	234.44
266.823	243.44
267.055	231.44
267.287	247.44
267.52	227.44
267.752	240.44
267.984	252.44
268.216	225.44
268.448	260.44
268.681	267.44
268.913	260.44
269.145	306.44
269.377	287.44
269.609	281.44
269.841	303.44
270.073	300.44
270.306	296.44
270.538	323.44
270.77	352.44
271.002	332.44
271.234	325.44
271.466	326.44
271.698	344.44
271.93	334.44
272.162	352.44
272.394	343.44
272.626	320.44
272.858	298.44
273.09	305.44
273.322	309.44
273.553	283.44
273.785	281.44
274.017	289.44
274.249	292.44
274.481	276.44
274.713	277.44
274.945	285.44
275.176	287.44
275.408	293.44
275.64	297.44
275.872	290.44
276.104	285.44
276.335	275.44
276.567	289.44
276.799	311.44
277.031	313.44
277.262	340.44
277.494	347.44
277.726	309.44
277.957	294.44
278.189	296.44
278.421	278.44
278.652	293.44
278.884	279.44
279.115	298.44
279.347	288.44
279.579	285.44
279.81	273.44
280.042	288.44
280.273	296.44
280.505	291.44
280.736	294.44
280.968	272.44
281.199	287.44
281.431	284.44
281.662	290.44
281.894	276.44
282.125	296.44
282.356	310.44
282.588	339.44
282.819	337.44
283.051	307.44
283.282	282.44
283.513	314.44
283.745	307.44
283.976	307.44
284.207	295.44
284.439	317.44
284.67	311.44
284.901	307.44
285.132	299.44
285.364	298.44
285.595	319.44
285.826	305.44
286.057	306.44
286.288	299.44
286.52	292.44
286.751	307.44
286.982	296.44
287.213	322.44
287.444	309.44
287.675	311.44
287.906	322.44
288.138	327.44
288.369	342.44
288.6	335.44
288.831	321.44
289.062	336.44
289.293	322.44
289.524	303.44
289.755	308.44
289.986	306.44
290.217	298.44
290.448	303.44
290.679	327.44
290.91	314.44
291.141	321.44
291.371	323.44
291.602	311.44
291.833	299.44
292.064	310.44
292.295	311.44
292.526	325.44
292.757	326.44
292.987	330.44
293.218	321.44
293.449	291.44
293.68	318.44
293.91	309.44
294.141	305.44
294.372	311.44
294.603	322.44
294.833	335.44
295.064	323.44
295.295	310.44
295.525	315.44
295.756	329.44
295.987	325.44
296.217	354.44
296.448	373.44
296.679	344.44
296.909	346.44
297.14	332.44
297.37	325.44
297.601	335.44
297.831	335.44
298.062	320.44
298.292	337.44
298.523	343.44
298.753	330.44
298.984	324.44
299.214	339.44
299.445	335.44
299.675	327.44
299.905	337.44
300.136	315.44
300.366	343.44
300.597	345.44
300.827	355.44
301.057	338.44
301.288	361.44
301.518	342.44
301.748	355.44
301.979	359.44
302.209	359.44
302.439	359.44
302.669	354.44
302.9	340.44
303.13	362.44
303.36	362.44
303.59	376.44
303.82	381.44
304.051	375.44
304.281	340.44
304.511	351.44
304.741	364.44
304.971	357.44
305.201	358.44
305.431	369.44
305.661	344.44
305.891	350.44
306.121	367.44
306.352	381.44
306.582	376.44
306.812	376.44
307.042	367.44
307.272	377.44
307.502	364.44
307.731	360.44
307.961	379.44
308.191	379.44
308.421	375.44
308.651	367.44
308.881	384.44
309.111	365.44
309.341	373.44
309.571	388.44
309.8	406.44
310.03	403.44
310.26	413.44
310.49	435.44
310.72	409.44
310.949	433.44
311.179	447.44
311.409	401.44
311.639	397.44
311.868	419.44
312.098	411.44
312.328	428.44
312.557	471.44
312.787	458.44
313.017	457.44
313.246	427.44
313.476	424.44
313.706	429.44
313.935	398.44
314.165	447.44
314.394	444.44
314.624	447.44
314.853	446.44
315.083	423.44
315.312	429.44
315.542	405.44
315.771	415.44
316.001	403.44
316.23	436.44
316.46	403.44
316.689	430.44
316.919	433.44
317.148	427.44
317.377	420.44
317.607	439.44
317.836	418.44
318.065	427.44
318.295	432.44
318.524	416.44
318.753	402.44
318.983	415.44
319.212	408.44
319.441	427.44
319.67	435.44
319.9	440.44
320.129	417.44
320.358	413.44
320.587	408.44
320.816	435.44
321.046	439.44
321.275	438.44
321.504	452.44
321.733	447.44
321.962	448.44
322.191	471.44
322.42	469.44
322.649	498.44
322.878	493.44
323.108	521.44
323.337	537.44
323.566	574.44
323.795	590.44
324.024	649.44
324.253	772.44
324.482	1121.44
324.71	1698.44
324.939	2556.44
325.168	2217.44
325.397	1101.44
325.626	757.44
325.855	611.44
326.084	601.44
326.313	565.44
326.542	592.44
326.77	612.44
326.999	724.44
327.228	971.44
327.457	1533.44
327.686	1919.44
327.914	1272.44
328.143	825.44
328.372	688.44
328.6	657.44
328.829	633.44
329.058	646.44
329.287	653.44
329.515	601.44
329.744	566.44
329.972	552.44
330.201	582.44
330.43	561.44
330.658	627.44
330.887	671.44
331.115	634.44
331.344	586.44
331.572	560.44
331.801	539.44
332.03	543.44
332.258	528.44
332.486	519.44
332.715	523.44
332.943	512.44
333.172	512.44
333.4	491.44
333.629	515.44
333.857	522.44
334.085	536.44
334.314	526.44
334.542	525.44
334.771	540.44
334.999	545.44
335.227	515.44
335.455	519.44
335.684	499.44
335.912	520.44
336.14	505.44
336.369	511.44
336.597	519.44
336.825	518.44
337.053	524.44
337.281	489.44
337.51	493.44
337.738	504.44
337.966	516.44
338.194	528.44
338.422	513.44
338.65	497.44
338.878	487.44
339.106	492.44
339.334	485.44
339.562	476.44
339.79	479.44
340.018	474.44
340.246	488.44
340.474	484.44
340.702	512.44
340.93	472.44
341.158	481.44
341.386	480.44
341.614	481.44
341.842	491.44
342.07	476.44
342.298	468.44
342.526	466.44
342.754	474.44
342.981	460.44
343.209	467.44
343.437	477.44
343.665	468.44
343.893	475.44
344.12	496.44
344.348	532.44
344.576	488.44
344.804	510.44
345.031	515.44
345.259	529.44
345.487	499.44
345.714	485.44
345.942	476.44
346.17	484.44
346.397	460.44
346.625	464.44
346.853	485.44
347.08	467.44
347.308	480.44
347.535	488.44
347.763	491.44
347.99	487.44
348.218	481.44
348.445	492.44
348.673	480.44
348.9	479.44
349.128	473.44
349.355	483.44
349.583	449.44
349.81	459.44
350.037	453.44
350.265	454.44
350.492	455.44
350.72	483.44
350.947	454.44
351.174	463.44
351.402	503.44
351.629	503.44
351.856	480.44
352.083	475.44
352.311	475.44
352.538	489.44
352.765	487.44
352.992	473.44
353.22	470.44
353.447	487.44
353.674	466.44
353.901	476.44
354.128	442.44
354.355	449.44
354.583	443.44
354.81	455.44
355.037	455.44
355.264	426.44
355.491	445.44
355.718	455.44
355.945	449.44
356.172	442.44
356.399	425.44
356.626	444.44
356.853	441.44
357.08	446.44
357.307	431.44
357.534	443.44
357.761	447.44
357.988	436.44
358.215	445.44
358.441	445.44
358.668	442.44
358.895	451.44
359.122	471.44
359.349	459.44
359.576	480.44
359.802	497.44
360.029	517.44
360.256	516.44
360.483	525.44
360.709	495.44
360.936	473.44
361.163	474.44
361.39	468.44
361.616	480.44
361.843	482.44
362.07	490.44
362.296	489.44
362.523	468.44
362.749	479.44
362.976	456.44
363.203	501.44
363.429	457.44
363.656	472.44
363.882	467.44
364.109	446.44
364.335	463.44
364.562	467.44
364.788	464.44
365.015	449.44
365.241	470.44
365.468	460.44
365.694	495.44
365.92	445.44
366.147	475.44
366.373	460.44
366.599	454.44
366.826	441.44
367.052	445.44
367.278	449.44
367.505	464.44
367.731	462.44
367.957	463.44
368.184	438.44
368.41	472.44
368.636	461.44
368.862	473.44
369.089	482.44
369.315	462.44
369.541	455.44
369.767	465.44
369.993	464.44
370.219	459.44
370.445	471.44
370.672	454.44
370.898	449.44
371.124	454.44
371.35	452.44
371.576	457.44
371.802	484.44
372.028	461.44
372.254	461.44
372.48	443.44
372.706	443.44
372.932	449.44
373.158	478.44
373.384	472.44
373.61	484.44
373.835	464.44
374.061	465.44
374.287	457.44
374.513	481.44
374.739	480.44
374.965	476.44
375.191	490.44
375.416	470.44
375.642	474.44
375.868	441.44
376.094	470.44
376.319	460.44
376.545	475.44
376.771	434.44
376.997	451.44
377.222	471.44
377.448	449.44
377.674	447.44
377.899	454.44
378.125	449.44
378.35	455.44
378.576	454.44
378.802	458.44
379.027	458.44
379.253	468.44
379.478	458.44
379.704	476.44
379.929	478.44
380.155	465.44
380.38	472.44
380.606	481.44
380.831	461.44
381.057	468.44
381.282	444.44
381.507	468.44
381.733	466.44
381.958	492.44
382.184	476.44
382.409	469.44
382.634	486.44
382.86	464.44
383.085	492.44
383.31	485.44
383.535	474.44
383.761	468.44
383.986	477.44
384.211	467.44
384.436	496.44
384.662	509.44
384.887	493.44
385.112	500.44
385.337	499.44
385.562	492.44
385.787	485.44
386.013	503.44
386.238	513.44
386.463	516.44
386.688	515.44
386.913	533.44
387.138	523.44
387.363	539.44
387.588	526.44
387.813	519.44
388.038	516.44
388.263	492.44
388.488	506.44
388.713	504.44
388.938	525.44
389.163	523.44
389.387	506.44
389.612	517.44
389.837	513.44
390.062	502.44
390.287	501.44
390.512	505.44
390.736	516.44
390.961	516.44
391.186	520.44
391.411	535.44
391.636	515.44
391.86	521.44
392.085	541.44
392.31	531.44
392.534	534.44
392.759	541.44
392.984	516.44
393.208	534.44
393.433	539.44
393.658	539.44
393.882	532.44
394.107	519.44
394.331	511.44
394.556	553.44
394.78	523.44
395.005	539.44
395.229	545.44
395.454	559.44
395.678	531.44
395.903	547.44
396.127	570.44
396.352	582.44
396.576	549.44
396.801	534.44
397.025	525.44
397.249	541.44
397.474	554.44
397.698	556.44
397.922	580.44
398.147	571.44
398.371	607.44
398.595	582.44
398.82	593.44
399.044	608.44
399.268	621.44
399.492	655.44
399.717	663.44
399.941	698.44
400.165	724.44
400.389	772.44
400.613	684.44
400.837	628.44
401.062	607.44
401.286	638.44
401.51	617.44
401.734	592.44
401.958	604.44
402.182	622.44
402.406	612.44
402.63	623.44
402.854	619.44
403.078	605.44
403.302	610.44
403.526	641.44
403.75	616.44
403.974	610.44
404.198	619.44
404.422	607.44
404.645	635.44
404.869	623.44
405.093	634.44
405.317	672.44
405.541	691.44
405.765	645.44
405.988	643.44
406.212	650.44
406.436	683.44
406.66	690.44
406.883	670.44
407.107	702.44
407.331	768.44
407.555	811.44
407.778	839.44
408.002	757.44
408.226	727.44
408.449	694.44
408.673	689.44
408.896	708.44
409.12	749.44
409.344	713.44
409.567	663.44
409.791	658.44
410.014	638.44
410.238	611.44
410.461	612.44
410.685	648.44
410.908	635.44
411.132	670.44
411.355	741.44
411.578	714.44
411.802	620.44
412.025	615.44
412.249	626.44
412.472	621.44
412.695	643.44
412.919	649.44
413.142	611.44
413.365	578.44
413.589	593.44
413.812	591.44
414.035	581.44
414.258	589.44
414.482	584.44
414.705	597.44
414.928	570.44
415.151	586.44
415.374	578.44
415.597	580.44
415.821	599.44
416.044	585.44
416.267	622.44
416.49	605.44
416.713	593.44
416.936	607.44
417.159	616.44
417.382	606.44
417.605	558.44
417.828	592.44
418.051	596.44
418.274	605.44
418.497	591.44
418.72	581.44
418.943	566.44
419.166	620.44
419.389	633.44
419.611	643.44
419.834	623.44
420.057	605.44
420.28	603.44
420.503	608.44
420.726	607.44
420.948	606.44
421.171	681.44
421.394	704.44
421.617	637.44
421.839	602.44
422.062	615.44
422.285	637.44
422.507	716.44
422.73	801.44
422.953	772.44
423.175	700.44
423.398	635.44
423.621	634.44
423.843	655.44
424.066	659.44
424.288	664.44
424.511	693.44
424.733	741.44
424.956	864.44
425.178	819.44
425.401	827.44
425.623	850.44
425.846	730.44
426.068	662.44
426.291	661.44
426.513	663.44
426.735	677.44
426.958	708.44
427.18	832.44
427.402	957.44
427.625	1076.44
427.847	957.44
428.069	777.44
428.292	725.44
428.514	669.44
428.736	633.44
428.958	625.44
429.181	624.44
429.403	610.44
429.625	627.44
429.847	649.44
430.069	738.44
430.292	755.44
430.514	643.44
430.736	630.44
430.958	601.44
431.18	593.44
431.402	605.44
431.624	572.44
431.846	571.44
432.068	577.44
432.29	604.44
432.512	586.44
432.734	601.44
432.956	589.44
433.178	591.44
433.4	599.44
433.622	602.44
433.844	584.44
434.066	591.44
434.287	572.44
434.509	596.44
434.731	603.44
434.953	629.44
435.175	634.44
435.397	650.44
435.618	675.44
435.84	701.44
436.062	828.44
436.284	898.44
436.505	777.44
436.727	665.44
436.949	635.44
437.17	623.44
437.392	614.44
437.614	617.44
437.835	647.44
438.057	781.44
438.278	887.44
438.5	899.44
438.721	969.44
438.943	986.44
439.165	778.44
439.386	673.44
439.608	674.44
439.829	681.44
440.05	700.44
440.272	756.44
440.493	720.44
440.715	672.44
440.936	645.44
441.158	631.44
441.379	608.44
441.6	629.44
441.822	649.44
442.043	712.44
442.264	806.44
442.486	868.44
442.707	741.44
442.928	700.44
443.149	700.44
443.371	706.44
443.592	779.44
443.813	869.44
444.034	963.44
444.255	775.44
444.476	689.44
444.698	674.44
444.919	693.44
445.14	789.44
445.361	747.44
445.582	714.44
445.803	778.44
446.024	927.44
446.245	929.44
446.466	838.44
446.687	718.44
446.908	645.44
447.129	625.44
447.35	601.44
447.571	627.44
447.792	620.44
448.013	621.44
448.234	611.44
448.455	701.44
448.675	857.44
448.896	983.44
449.117	834.44
449.338	789.44
449.559	911.44
449.779	1026.44
450	823.44
450.221	681.44
450.442	623.44
450.662	625.44
450.883	634.44
451.104	627.44
451.324	605.44
451.545	589.44
451.766	559.44
451.986	531.44
452.207	550.44
452.428	554.44
452.648	544.44
452.869	536.44
453.089	575.44
453.31	594.44
453.53	567.44
453.751	551.44
453.971	566.44
454.192	580.44
454.412	535.44
454.633	530.44
454.853	553.44
455.073	554.44
455.294	574.44
455.514	663.44
455.734	633.44
455.955	563.44
456.175	539.44
456.395	530.44
456.616	525.44
456.836	503.44
457.056	506.44
457.276	512.44
457.497	533.44
457.717	529.44
457.937	528.44
458.157	547.44
458.377	538.44
458.598	565.44
458.818	625.44
459.038	698.44
459.258	717.44
459.478	645.44
459.698	605.44
459.918	596.44
460.138	618.44
460.358	598.44
460.578	600.44
460.798	575.44
461.018	626.44
461.238	607.44
461.458	612.44
461.678	586.44
461.898	588.44
462.118	605.44
462.338	609.44
462.558	627.44
462.777	635.44
462.997	655.44
463.217	639.44
463.437	682.44
463.657	645.44
463.876	642.44
464.096	655.44
464.316	644.44
464.536	646.44
464.755	642.44
464.975	659.44
465.195	700.44
465.414	771.44
465.634	679.44
465.854	661.44
466.073	600.44
466.293	604.44
466.512	578.44
466.732	552.44
466.951	561.44
467.171	561.44
467.391	577.44
467.61	609.44
467.829	607.44
468.049	587.44
468.268	552.44
468.488	536.44
468.707	557.44
468.927	552.44
469.146	534.44
469.365	545.44
469.585	536.44
469.804	540.44
470.023	574.44
470.243	573.44
470.462	583.44
470.681	578.44
470.901	585.44
471.12	581.44
471.339	585.44
471.558	582.44
471.777	570.44
471.997	582.44
472.216	571.44
472.435	563.44
472.654	569.44
472.873	547.44
473.092	560.44
473.311	557.44
473.53	559.44
473.749	572.44
473.968	641.44
474.187	733.44
474.406	763.44
474.625	635.44
474.844	598.44
475.063	604.44
475.282	593.44
475.501	583.44
475.72	576.44
475.939	586.44
476.158	613.44
476.377	588.44
476.596	605.44
476.814	601.44
477.033	600.44
477.252	605.44
477.471	612.44
477.69	605.44
477.908	609.44
478.127	612.44
478.346	625.44
478.564	652.44
478.783	650.44
479.002	673.44
479.22	652.44
479.439	662.44
479.658	693.44
479.876	701.44
480.095	695.44
480.313	732.44
480.532	717.44
480.751	714.44
480.969	699.44
481.188	724.44
481.406	715.44
481.624	689.44
481.843	669.44
482.061	666.44
482.28	645.44
482.498	664.44
482.717	664.44
482.935	672.44
483.153	663.44
483.372	680.44
483.59	668.44
483.808	659.44
484.027	654.44
484.245	665.44
484.463	669.44
484.681	683.44
484.9	694.44
485.118	688.44
485.336	675.44
485.554	689.44
485.772	707.44
485.99	697.44
486.209	704.44
486.427	717.44
486.645	726.44
486.863	725.44
487.081	716.44
487.299	707.44
487.517	727.44
487.735	725.44
487.953	746.44
488.171	722.44
488.389	729.44
488.607	732.44
488.825	722.44
489.043	711.44
489.261	747.44
489.479	740.44
489.696	743.44
489.914	726.44
490.132	770.44
490.35	750.44
490.568	751.44
490.786	773.44
491.003	771.44
491.221	796.44
491.439	793.44
491.657	802.44
491.874	778.44
492.092	804.44
492.31	818.44
492.527	808.44
492.745	818.44
492.963	842.44
493.18	835.44
493.398	833.44
493.615	850.44
493.833	845.44
494.05	844.44
494.268	854.44
494.485	845.44
494.703	827.44
494.92	841.44
495.138	868.44
495.355	859.44
495.573	860.44
495.79	875.44
496.008	850.44
496.225	856.44
496.442	872.44
496.66	885.44
496.877	856.44
497.094	859.44
497.312	875.44
497.529	895.44
497.746	917.44
497.963	915.44
498.181	939.44
498.398	963.44
498.615	997.44
498.832	1014.44
499.049	1011.44
499.267	1043.44
499.484	1076.44
499.701	1104.44
499.918	1129.44
500.135	1185.44
500.352	1238.44
500.569	1260.44
500.786	1267.44
501.003	1232.44
501.22	1213.44
501.437	1138.44
501.654	1119.44
