Data from 1988.PennyLincolnUp.Lamp.En5.5.200Scan.071819.P2_HRD10591_17-18-57-971.txt Node
Date: Thu Jul 18 17:18:57 EDT 2019
User: cochatt
Spectrometer: HR+D1059
Trigger mode: 1
Integration Time (sec): 1.000000E-1
Scans to average: 1
Electric dark correction enabled: true
Nonlinearity correction enabled: false
Boxcar width: 0
XAxis mode: Wavelengths
Number of Pixels in Spectrum: 2048
>>>>>Begin Spectral Data<<<<<
223.165	-18.25
223.4	-18.25
223.635	-18.25
223.869	-21.25
224.104	-7.25
224.338	-9.25
224.573	-9.25
224.808	-15.25
225.042	-17.25
225.277	-9.25
225.511	-7.25
225.746	3.75
225.98	15.75
226.215	2.75
226.449	24.75
226.683	12.75
226.918	27.75
227.152	26.75
227.387	32.75
227.621	41.75
227.856	51.75
228.09	37.75
228.324	47.75
228.559	60.75
228.793	72.75
229.027	96.75
229.262	120.75
229.496	90.75
229.73	135.75
229.964	161.75
230.199	134.75
230.433	122.75
230.667	110.75
230.901	115.75
231.136	119.75
231.37	122.75
231.604	118.75
231.838	113.75
232.072	109.75
232.306	108.75
232.541	115.75
232.775	119.75
233.009	112.75
233.243	115.75
233.477	123.75
233.711	131.75
233.945	119.75
234.179	130.75
234.413	119.75
234.647	118.75
234.881	112.75
235.115	112.75
235.349	130.75
235.583	116.75
235.817	115.75
236.051	137.75
236.285	127.75
236.519	126.75
236.753	130.75
236.987	129.75
237.221	180.75
237.455	212.75
237.689	184.75
237.922	144.75
238.156	131.75
238.39	129.75
238.624	131.75
238.858	110.75
239.091	119.75
239.325	133.75
239.559	136.75
239.793	138.75
240.027	138.75
240.26	156.75
240.494	168.75
240.728	149.75
240.961	143.75
241.195	142.75
241.429	136.75
241.662	135.75
241.896	134.75
242.13	141.75
242.363	136.75
242.597	143.75
242.83	140.75
243.064	131.75
243.298	132.75
243.531	130.75
243.765	142.75
243.998	137.75
244.232	138.75
244.465	141.75
244.699	153.75
244.932	139.75
245.166	131.75
245.399	152.75
245.633	139.75
245.866	131.75
246.099	148.75
246.333	154.75
246.566	142.75
246.8	156.75
247.033	149.75
247.266	162.75
247.5	157.75
247.733	164.75
247.966	176.75
248.2	168.75
248.433	173.75
248.666	190.75
248.899	179.75
249.133	208.75
249.366	205.75
249.599	183.75
249.832	176.75
250.066	184.75
250.299	185.75
250.532	183.75
250.765	185.75
250.998	220.75
251.231	226.75
251.465	207.75
251.698	223.75
251.931	203.75
252.164	203.75
252.397	202.75
252.63	198.75
252.863	192.75
253.096	190.75
253.329	220.75
253.562	202.75
253.795	223.75
254.028	209.75
254.261	199.75
254.494	220.75
254.727	245.75
254.96	289.75
255.193	257.75
255.426	247.75
255.659	224.75
255.892	222.75
256.124	225.75
256.357	229.75
256.59	209.75
256.823	203.75
257.056	215.75
257.289	207.75
257.521	205.75
257.754	205.75
257.987	193.75
258.22	201.75
258.452	200.75
258.685	223.75
258.918	195.75
259.151	219.75
259.383	218.75
259.616	226.75
259.849	226.75
260.081	222.75
260.314	221.75
260.547	262.75
260.779	245.75
261.012	235.75
261.244	219.75
261.477	230.75
261.71	216.75
261.942	223.75
262.175	230.75
262.407	230.75
262.64	231.75
262.872	195.75
263.105	210.75
263.337	214.75
263.57	199.75
263.802	212.75
264.035	215.75
264.267	207.75
264.499	211.75
264.732	218.75
264.964	221.75
265.197	216.75
265.429	218.75
265.661	206.75
265.894	224.75
266.126	208.75
266.358	236.75
266.591	213.75
266.823	221.75
267.055	212.75
267.287	214.75
267.52	220.75
267.752	223.75
267.984	224.75
268.216	222.75
268.448	227.75
268.681	238.75
268.913	250.75
269.145	251.75
269.377	279.75
269.609	283.75
269.841	256.75
270.073	269.75
270.306	293.75
270.538	312.75
270.77	310.75
271.002	286.75
271.234	286.75
271.466	273.75
271.698	326.75
271.93	309.75
272.162	315.75
272.394	307.75
272.626	293.75
272.858	283.75
273.09	287.75
273.322	265.75
273.553	279.75
273.785	267.75
274.017	267.75
274.249	269.75
274.481	267.75
274.713	260.75
274.945	268.75
275.176	253.75
275.408	271.75
275.64	267.75
275.872	260.75
276.104	259.75
276.335	250.75
276.567	260.75
276.799	278.75
277.031	304.75
277.262	309.75
277.494	308.75
277.726	315.75
277.957	289.75
278.189	278.75
278.421	279.75
278.652	249.75
278.884	280.75
279.115	288.75
279.347	273.75
279.579	292.75
279.81	265.75
280.042	269.75
280.273	271.75
280.505	265.75
280.736	277.75
280.968	265.75
281.199	251.75
281.431	265.75
281.662	274.75
281.894	270.75
282.125	277.75
282.356	277.75
282.588	308.75
282.819	314.75
283.051	279.75
283.282	279.75
283.513	284.75
283.745	271.75
283.976	291.75
284.207	287.75
284.439	291.75
284.67	288.75
284.901	270.75
285.132	289.75
285.364	291.75
285.595	291.75
285.826	279.75
286.057	295.75
286.288	286.75
286.52	296.75
286.751	285.75
286.982	277.75
287.213	283.75
287.444	307.75
287.675	298.75
287.906	305.75
288.138	311.75
288.369	313.75
288.6	317.75
288.831	304.75
289.062	301.75
289.293	300.75
289.524	277.75
289.755	279.75
289.986	312.75
290.217	292.75
290.448	290.75
290.679	287.75
290.91	300.75
291.141	291.75
291.371	287.75
291.602	292.75
291.833	277.75
292.064	307.75
292.295	305.75
292.526	286.75
292.757	305.75
292.987	284.75
293.218	281.75
293.449	313.75
293.68	320.75
293.91	288.75
294.141	295.75
294.372	296.75
294.603	297.75
294.833	296.75
295.064	299.75
295.295	299.75
295.525	309.75
295.756	308.75
295.987	300.75
296.217	331.75
296.448	322.75
296.679	311.75
296.909	311.75
297.14	306.75
297.37	321.75
297.601	295.75
297.831	328.75
298.062	300.75
298.292	306.75
298.523	318.75
298.753	320.75
298.984	317.75
299.214	327.75
299.445	309.75
299.675	316.75
299.905	324.75
300.136	321.75
300.366	329.75
300.597	320.75
300.827	316.75
301.057	332.75
301.288	356.75
301.518	334.75
301.748	325.75
301.979	350.75
302.209	341.75
302.439	337.75
302.669	340.75
302.9	336.75
303.13	319.75
303.36	338.75
303.59	350.75
303.82	339.75
304.051	345.75
304.281	347.75
304.511	340.75
304.741	343.75
304.971	307.75
305.201	335.75
305.431	334.75
305.661	332.75
305.891	313.75
306.121	349.75
306.352	343.75
306.582	357.75
306.812	352.75
307.042	337.75
307.272	331.75
307.502	336.75
307.731	354.75
307.961	339.75
308.191	342.75
308.421	327.75
308.651	331.75
308.881	336.75
309.111	353.75
309.341	344.75
309.571	367.75
309.8	357.75
310.03	392.75
310.26	365.75
310.49	377.75
310.72	393.75
310.949	392.75
311.179	393.75
311.409	376.75
311.639	376.75
311.868	372.75
312.098	377.75
312.328	382.75
312.557	405.75
312.787	407.75
313.017	403.75
313.246	391.75
313.476	395.75
313.706	383.75
313.935	391.75
314.165	404.75
314.394	409.75
314.624	414.75
314.853	407.75
315.083	393.75
315.312	377.75
315.542	380.75
315.771	363.75
316.001	393.75
316.23	383.75
316.46	372.75
316.689	383.75
316.919	347.75
317.148	395.75
317.377	382.75
317.607	387.75
317.836	407.75
318.065	390.75
318.295	398.75
318.524	385.75
318.753	388.75
318.983	376.75
319.212	385.75
319.441	391.75
319.67	406.75
319.9	391.75
320.129	395.75
320.358	392.75
320.587	416.75
320.816	395.75
321.046	397.75
321.275	424.75
321.504	435.75
321.733	423.75
321.962	421.75
322.191	448.75
322.42	447.75
322.649	455.75
322.878	472.75
323.108	464.75
323.337	492.75
323.566	509.75
323.795	553.75
324.024	592.75
324.253	693.75
324.482	957.75
324.71	1517.75
324.939	2166.75
325.168	1853.75
325.397	945.75
325.626	682.75
325.855	549.75
326.084	542.75
326.313	488.75
326.542	519.75
326.77	566.75
326.999	643.75
327.228	865.75
327.457	1326.75
327.686	1640.75
327.914	1057.75
328.143	720.75
328.372	621.75
328.6	573.75
328.829	541.75
329.058	541.75
329.287	586.75
329.515	535.75
329.744	507.75
329.972	492.75
330.201	486.75
330.43	530.75
330.658	557.75
330.887	593.75
331.115	604.75
331.344	497.75
331.572	479.75
331.801	506.75
332.03	491.75
332.258	505.75
332.486	454.75
332.715	468.75
332.943	454.75
333.172	452.75
333.4	465.75
333.629	466.75
333.857	484.75
334.085	476.75
334.314	509.75
334.542	473.75
334.771	475.75
334.999	467.75
335.227	446.75
335.455	469.75
335.684	476.75
335.912	449.75
336.14	467.75
336.369	456.75
336.597	457.75
336.825	464.75
337.053	470.75
337.281	442.75
337.51	461.75
337.738	439.75
337.966	459.75
338.194	453.75
338.422	452.75
338.65	440.75
338.878	440.75
339.106	440.75
339.334	451.75
339.562	455.75
339.79	429.75
340.018	444.75
340.246	451.75
340.474	457.75
340.702	448.75
340.93	445.75
341.158	429.75
341.386	425.75
341.614	439.75
341.842	437.75
342.07	421.75
342.298	424.75
342.526	428.75
342.754	443.75
342.981	422.75
343.209	441.75
343.437	439.75
343.665	432.75
343.893	453.75
344.12	475.75
344.348	447.75
344.576	449.75
344.804	455.75
345.031	472.75
345.259	468.75
345.487	447.75
345.714	439.75
345.942	450.75
346.17	427.75
346.397	424.75
346.625	427.75
346.853	447.75
347.08	431.75
347.308	447.75
347.535	439.75
347.763	451.75
347.99	448.75
348.218	423.75
348.445	449.75
348.673	443.75
348.9	443.75
349.128	426.75
349.355	433.75
349.583	436.75
349.81	431.75
350.037	426.75
350.265	424.75
350.492	410.75
350.72	393.75
350.947	423.75
351.174	442.75
351.402	431.75
351.629	454.75
351.856	438.75
352.083	436.75
352.311	452.75
352.538	429.75
352.765	431.75
352.992	445.75
353.22	427.75
353.447	421.75
353.674	419.75
353.901	420.75
354.128	417.75
354.355	399.75
354.583	401.75
354.81	423.75
355.037	424.75
355.264	396.75
355.491	425.75
355.718	404.75
355.945	419.75
356.172	406.75
356.399	407.75
356.626	418.75
356.853	422.75
357.08	402.75
357.307	412.75
357.534	421.75
357.761	401.75
357.988	391.75
358.215	401.75
358.441	423.75
358.668	409.75
358.895	414.75
359.122	427.75
359.349	422.75
359.576	435.75
359.802	450.75
360.029	483.75
360.256	480.75
360.483	460.75
360.709	441.75
360.936	420.75
361.163	424.75
361.39	415.75
361.616	422.75
361.843	417.75
362.07	439.75
362.296	451.75
362.523	429.75
362.749	427.75
362.976	413.75
363.203	412.75
363.429	425.75
363.656	435.75
363.882	399.75
364.109	402.75
364.335	426.75
364.562	419.75
364.788	404.75
365.015	414.75
365.241	415.75
365.468	411.75
365.694	399.75
365.92	427.75
366.147	413.75
366.373	398.75
366.599	430.75
366.826	416.75
367.052	402.75
367.278	417.75
367.505	399.75
367.731	395.75
367.957	401.75
368.184	409.75
368.41	394.75
368.636	434.75
368.862	437.75
369.089	408.75
369.315	422.75
369.541	399.75
369.767	415.75
369.993	423.75
370.219	426.75
370.445	421.75
370.672	402.75
370.898	400.75
371.124	396.75
371.35	429.75
371.576	405.75
371.802	412.75
372.028	402.75
372.254	411.75
372.48	414.75
372.706	416.75
372.932	416.75
373.158	413.75
373.384	417.75
373.61	425.75
373.835	414.75
374.061	423.75
374.287	404.75
374.513	389.75
374.739	435.75
374.965	431.75
375.191	419.75
375.416	418.75
375.642	433.75
375.868	437.75
376.094	421.75
376.319	408.75
376.545	426.75
376.771	423.75
376.997	398.75
377.222	413.75
377.448	407.75
377.674	407.75
377.899	430.75
378.125	414.75
378.35	409.75
378.576	395.75
378.802	409.75
379.027	407.75
379.253	414.75
379.478	374.75
379.704	401.75
379.929	415.75
380.155	421.75
380.38	392.75
380.606	420.75
380.831	437.75
381.057	414.75
381.282	411.75
381.507	432.75
381.733	440.75
381.958	399.75
382.184	395.75
382.409	414.75
382.634	427.75
382.86	431.75
383.085	430.75
383.31	444.75
383.535	413.75
383.761	428.75
383.986	449.75
384.211	435.75
384.436	427.75
384.662	425.75
384.887	439.75
385.112	444.75
385.337	451.75
385.562	455.75
385.787	451.75
386.013	449.75
386.238	462.75
386.463	475.75
386.688	451.75
386.913	452.75
387.138	447.75
387.363	449.75
387.588	449.75
387.813	462.75
388.038	454.75
388.263	452.75
388.488	461.75
388.713	454.75
388.938	460.75
389.163	450.75
389.387	464.75
389.612	440.75
389.837	449.75
390.062	448.75
390.287	440.75
390.512	478.75
390.736	453.75
390.961	455.75
391.186	463.75
391.411	457.75
391.636	472.75
391.86	460.75
392.085	448.75
392.31	483.75
392.534	468.75
392.759	459.75
392.984	469.75
393.208	501.75
393.433	469.75
393.658	462.75
393.882	464.75
394.107	466.75
394.331	468.75
394.556	448.75
394.78	462.75
395.005	463.75
395.229	459.75
395.454	464.75
395.678	464.75
395.903	504.75
396.127	505.75
396.352	535.75
396.576	480.75
396.801	480.75
397.025	461.75
397.249	503.75
397.474	492.75
397.698	496.75
397.922	489.75
398.147	500.75
398.371	529.75
398.595	499.75
398.82	509.75
399.044	522.75
399.268	541.75
399.492	560.75
399.717	596.75
399.941	619.75
400.165	649.75
400.389	647.75
400.613	580.75
400.837	559.75
401.062	559.75
401.286	544.75
401.51	530.75
401.734	526.75
401.958	538.75
402.182	536.75
402.406	545.75
402.63	546.75
402.854	537.75
403.078	554.75
403.302	553.75
403.526	537.75
403.75	545.75
403.974	556.75
404.198	523.75
404.422	545.75
404.645	558.75
404.869	556.75
405.093	557.75
405.317	593.75
405.541	584.75
405.765	578.75
405.988	573.75
406.212	571.75
406.436	588.75
406.66	601.75
406.883	593.75
407.107	602.75
407.331	647.75
407.555	732.75
407.778	715.75
408.002	657.75
408.226	615.75
408.449	623.75
408.673	598.75
408.896	644.75
409.12	653.75
409.344	663.75
409.567	579.75
409.791	547.75
410.014	568.75
410.238	542.75
410.461	552.75
410.685	539.75
410.908	566.75
411.132	577.75
411.355	620.75
411.578	593.75
411.802	559.75
412.025	541.75
412.249	520.75
412.472	544.75
412.695	542.75
412.919	540.75
413.142	531.75
413.365	529.75
413.589	535.75
413.812	522.75
414.035	523.75
414.258	495.75
414.482	518.75
414.705	533.75
414.928	492.75
415.151	518.75
415.374	537.75
415.597	506.75
415.821	500.75
416.044	504.75
416.267	511.75
416.49	524.75
416.713	517.75
416.936	501.75
417.159	527.75
417.382	526.75
417.605	510.75
417.828	518.75
418.051	527.75
418.274	520.75
418.497	513.75
418.72	524.75
418.943	526.75
419.166	537.75
419.389	542.75
419.611	546.75
419.834	551.75
420.057	542.75
420.28	525.75
420.503	532.75
420.726	519.75
420.948	541.75
421.171	591.75
421.394	623.75
421.617	556.75
421.839	558.75
422.062	537.75
422.285	567.75
422.507	589.75
422.73	675.75
422.953	649.75
423.175	598.75
423.398	555.75
423.621	563.75
423.843	557.75
424.066	580.75
424.288	572.75
424.511	575.75
424.733	638.75
424.956	753.75
425.178	674.75
425.401	687.75
425.623	730.75
425.846	627.75
426.068	586.75
426.291	571.75
426.513	578.75
426.735	601.75
426.958	620.75
427.18	737.75
427.402	870.75
427.625	881.75
427.847	800.75
428.069	680.75
428.292	608.75
428.514	558.75
428.736	567.75
428.958	558.75
429.181	539.75
429.403	529.75
429.625	553.75
429.847	563.75
430.069	633.75
430.292	611.75
430.514	569.75
430.736	537.75
430.958	533.75
431.18	502.75
431.402	500.75
431.624	497.75
431.846	506.75
432.068	509.75
432.29	504.75
432.512	513.75
432.734	521.75
432.956	474.75
433.178	529.75
433.4	540.75
433.622	525.75
433.844	507.75
434.066	507.75
434.287	508.75
434.509	514.75
434.731	517.75
434.953	514.75
435.175	549.75
435.397	559.75
435.618	589.75
435.84	621.75
436.062	726.75
436.284	788.75
436.505	642.75
436.727	592.75
436.949	546.75
437.17	541.75
437.392	531.75
437.614	553.75
437.835	583.75
438.057	653.75
438.278	769.75
438.5	780.75
438.721	867.75
438.943	866.75
439.165	659.75
439.386	600.75
439.608	585.75
439.829	582.75
440.05	592.75
440.272	674.75
440.493	607.75
440.715	585.75
440.936	557.75
441.158	546.75
441.379	541.75
441.6	573.75
441.822	573.75
442.043	619.75
442.264	671.75
442.486	731.75
442.707	652.75
442.928	589.75
443.149	607.75
443.371	591.75
443.592	644.75
443.813	765.75
444.034	803.75
444.255	673.75
444.476	611.75
444.698	599.75
444.919	571.75
445.14	641.75
445.361	619.75
445.582	615.75
445.803	643.75
446.024	768.75
446.245	805.75
446.466	744.75
446.687	630.75
446.908	583.75
447.129	543.75
447.35	558.75
447.571	532.75
447.792	539.75
448.013	526.75
448.234	543.75
448.455	587.75
448.675	718.75
448.896	812.75
449.117	715.75
449.338	691.75
449.559	789.75
449.779	913.75
450	704.75
450.221	591.75
450.442	558.75
450.662	537.75
450.883	508.75
451.104	535.75
451.324	512.75
451.545	521.75
451.766	479.75
451.986	481.75
452.207	476.75
452.428	480.75
452.648	463.75
452.869	462.75
453.089	477.75
453.31	495.75
453.53	468.75
453.751	486.75
453.971	463.75
454.192	487.75
454.412	501.75
454.633	505.75
454.853	476.75
455.073	468.75
455.294	519.75
455.514	574.75
455.734	543.75
455.955	464.75
456.175	455.75
456.395	469.75
456.616	447.75
456.836	457.75
457.056	472.75
457.276	432.75
457.497	459.75
457.717	471.75
457.937	472.75
458.157	471.75
458.377	471.75
458.598	497.75
458.818	550.75
459.038	617.75
459.258	632.75
459.478	533.75
459.698	517.75
459.918	509.75
460.138	519.75
460.358	536.75
460.578	532.75
460.798	512.75
461.018	541.75
461.238	530.75
461.458	496.75
461.678	519.75
461.898	540.75
462.118	523.75
462.338	552.75
462.558	550.75
462.777	527.75
462.997	558.75
463.217	548.75
463.437	567.75
463.657	547.75
463.876	569.75
464.096	562.75
464.316	527.75
464.536	561.75
464.755	538.75
464.975	575.75
465.195	602.75
465.414	637.75
465.634	585.75
465.854	523.75
466.073	523.75
466.293	528.75
466.512	504.75
466.732	491.75
466.951	489.75
467.171	492.75
467.391	489.75
467.61	493.75
467.829	503.75
468.049	511.75
468.268	475.75
468.488	476.75
468.707	481.75
468.927	490.75
469.146	486.75
469.365	505.75
469.585	482.75
469.804	494.75
470.023	479.75
470.243	493.75
470.462	499.75
470.681	515.75
470.901	524.75
471.12	492.75
471.339	501.75
471.558	499.75
471.777	501.75
471.997	488.75
472.216	484.75
472.435	479.75
472.654	483.75
472.873	494.75
473.092	489.75
473.311	475.75
473.53	490.75
473.749	521.75
473.968	545.75
474.187	629.75
474.406	683.75
474.625	564.75
474.844	503.75
475.063	505.75
475.282	499.75
475.501	497.75
475.72	504.75
475.939	494.75
476.158	519.75
476.377	541.75
476.596	521.75
476.814	521.75
477.033	525.75
477.252	539.75
477.471	556.75
477.69	529.75
477.908	530.75
478.127	557.75
478.346	560.75
478.564	572.75
478.783	555.75
479.002	571.75
479.22	551.75
479.439	557.75
479.658	593.75
479.876	616.75
480.095	606.75
480.313	618.75
480.532	614.75
480.751	606.75
480.969	600.75
481.188	613.75
481.406	613.75
481.624	574.75
481.843	584.75
482.061	615.75
482.28	599.75
482.498	575.75
482.717	593.75
482.935	569.75
483.153	569.75
483.372	597.75
483.59	601.75
483.808	566.75
484.027	572.75
484.245	592.75
484.463	607.75
484.681	613.75
484.9	606.75
485.118	607.75
485.336	606.75
485.554	601.75
485.772	594.75
485.99	614.75
486.209	606.75
486.427	626.75
486.645	600.75
486.863	622.75
487.081	643.75
487.299	644.75
487.517	660.75
487.735	630.75
487.953	631.75
488.171	629.75
488.389	617.75
488.607	624.75
488.825	591.75
489.043	598.75
489.261	629.75
489.479	630.75
489.696	631.75
489.914	621.75
490.132	647.75
490.35	619.75
490.568	645.75
490.786	673.75
491.003	685.75
491.221	687.75
491.439	702.75
491.657	675.75
491.874	699.75
492.092	700.75
492.31	682.75
492.527	700.75
492.745	737.75
492.963	710.75
493.18	697.75
493.398	717.75
493.615	740.75
493.833	721.75
494.05	712.75
494.268	717.75
494.485	715.75
494.703	732.75
494.92	716.75
495.138	715.75
495.355	742.75
495.573	771.75
495.79	747.75
496.008	759.75
496.225	758.75
496.442	719.75
496.66	745.75
496.877	707.75
497.094	758.75
497.312	777.75
497.529	784.75
497.746	762.75
497.963	775.75
498.181	819.75
498.398	820.75
498.615	842.75
498.832	838.75
499.049	845.75
499.267	876.75
499.484	928.75
499.701	945.75
499.918	977.75
500.135	1016.75
500.352	1062.75
500.569	1084.75
500.786	1055.75
501.003	1061.75
501.22	1031.75
501.437	1011.75
501.654	967.75
501.871	949.75
