Data from 1988.PennyLincolnUp.Lamp.En5.5.200Scan.071819.P2_HRD10591_17-20-22-973.txt Node
Date: Thu Jul 18 17:20:22 EDT 2019
User: cochatt
Spectrometer: HR+D1059
Trigger mode: 1
Integration Time (sec): 1.000000E-1
Scans to average: 1
Electric dark correction enabled: true
Nonlinearity correction enabled: false
Boxcar width: 0
XAxis mode: Wavelengths
Number of Pixels in Spectrum: 2048
>>>>>Begin Spectral Data<<<<<
223.165	-30.19
223.4	-30.19
223.635	-30.19
223.869	-30.19
224.104	1.81
224.338	-6.19
224.573	-12.19
224.808	-15.19
225.042	-13.19
225.277	-3.19
225.511	-5.19
225.746	6.81
225.98	-2.19
226.215	13.81
226.449	8.81
226.683	18.81
226.918	29.81
227.152	37.81
227.387	31.81
227.621	57.81
227.856	43.81
228.09	35.81
228.324	54.81
228.559	40.81
228.793	76.81
229.027	95.81
229.262	131.81
229.496	135.81
229.73	158.81
229.964	155.81
230.199	134.81
230.433	121.81
230.667	119.81
230.901	107.81
231.136	105.81
231.37	121.81
231.604	121.81
231.838	110.81
232.072	122.81
232.306	115.81
232.541	124.81
232.775	122.81
233.009	122.81
233.243	114.81
233.477	111.81
233.711	123.81
233.945	112.81
234.179	107.81
234.413	130.81
234.647	130.81
234.881	131.81
235.115	138.81
235.349	125.81
235.583	123.81
235.817	121.81
236.051	131.81
236.285	136.81
236.519	126.81
236.753	130.81
236.987	157.81
237.221	188.81
237.455	241.81
237.689	203.81
237.922	155.81
238.156	141.81
238.39	134.81
238.624	133.81
238.858	129.81
239.091	140.81
239.325	117.81
239.559	131.81
239.793	146.81
240.027	157.81
240.26	146.81
240.494	161.81
240.728	157.81
240.961	165.81
241.195	158.81
241.429	148.81
241.662	135.81
241.896	136.81
242.13	145.81
242.363	158.81
242.597	154.81
242.83	148.81
243.064	142.81
243.298	148.81
243.531	152.81
243.765	136.81
243.998	153.81
244.232	147.81
244.465	158.81
244.699	150.81
244.932	147.81
245.166	152.81
245.399	155.81
245.633	146.81
245.866	151.81
246.099	138.81
246.333	157.81
246.566	168.81
246.8	157.81
247.033	168.81
247.266	151.81
247.5	165.81
247.733	177.81
247.966	180.81
248.2	190.81
248.433	185.81
248.666	178.81
248.899	196.81
249.133	216.81
249.366	218.81
249.599	197.81
249.832	197.81
250.066	196.81
250.299	189.81
250.532	183.81
250.765	205.81
250.998	221.81
251.231	248.81
251.465	222.81
251.698	216.81
251.931	201.81
252.164	205.81
252.397	213.81
252.63	205.81
252.863	229.81
253.096	231.81
253.329	245.81
253.562	254.81
253.795	228.81
254.028	215.81
254.261	220.81
254.494	234.81
254.727	259.81
254.96	279.81
255.193	285.81
255.426	258.81
255.659	237.81
255.892	242.81
256.124	216.81
256.357	218.81
256.59	237.81
256.823	221.81
257.056	217.81
257.289	210.81
257.521	213.81
257.754	206.81
257.987	212.81
258.22	222.81
258.452	226.81
258.685	225.81
258.918	236.81
259.151	218.81
259.383	236.81
259.616	217.81
259.849	243.81
260.081	225.81
260.314	274.81
260.547	275.81
260.779	257.81
261.012	244.81
261.244	264.81
261.477	242.81
261.71	231.81
261.942	248.81
262.175	239.81
262.407	233.81
262.64	218.81
262.872	232.81
263.105	221.81
263.337	234.81
263.57	222.81
263.802	248.81
264.035	235.81
264.267	216.81
264.499	224.81
264.732	220.81
264.964	223.81
265.197	233.81
265.429	219.81
265.661	223.81
265.894	245.81
266.126	224.81
266.358	224.81
266.591	221.81
266.823	236.81
267.055	248.81
267.287	245.81
267.52	233.81
267.752	236.81
267.984	242.81
268.216	242.81
268.448	262.81
268.681	260.81
268.913	250.81
269.145	284.81
269.377	308.81
269.609	300.81
269.841	282.81
270.073	294.81
270.306	318.81
270.538	338.81
270.77	336.81
271.002	314.81
271.234	312.81
271.466	298.81
271.698	331.81
271.93	330.81
272.162	339.81
272.394	333.81
272.626	336.81
272.858	314.81
273.09	304.81
273.322	284.81
273.553	270.81
273.785	283.81
274.017	289.81
274.249	269.81
274.481	292.81
274.713	292.81
274.945	278.81
275.176	281.81
275.408	283.81
275.64	285.81
275.872	290.81
276.104	287.81
276.335	284.81
276.567	297.81
276.799	313.81
277.031	330.81
277.262	341.81
277.494	341.81
277.726	322.81
277.957	321.81
278.189	308.81
278.421	287.81
278.652	312.81
278.884	276.81
279.115	297.81
279.347	292.81
279.579	283.81
279.81	298.81
280.042	297.81
280.273	285.81
280.505	292.81
280.736	291.81
280.968	289.81
281.199	294.81
281.431	284.81
281.662	290.81
281.894	277.81
282.125	302.81
282.356	302.81
282.588	309.81
282.819	333.81
283.051	291.81
283.282	282.81
283.513	286.81
283.745	297.81
283.976	290.81
284.207	314.81
284.439	300.81
284.67	306.81
284.901	284.81
285.132	304.81
285.364	312.81
285.595	283.81
285.826	298.81
286.057	299.81
286.288	300.81
286.52	297.81
286.751	304.81
286.982	294.81
287.213	290.81
287.444	305.81
287.675	328.81
287.906	332.81
288.138	340.81
288.369	330.81
288.6	336.81
288.831	323.81
289.062	330.81
289.293	313.81
289.524	317.81
289.755	310.81
289.986	312.81
290.217	309.81
290.448	331.81
290.679	311.81
290.91	320.81
291.141	324.81
291.371	313.81
291.602	320.81
291.833	308.81
292.064	315.81
292.295	322.81
292.526	319.81
292.757	315.81
292.987	323.81
293.218	324.81
293.449	322.81
293.68	323.81
293.91	317.81
294.141	309.81
294.372	325.81
294.603	318.81
294.833	333.81
295.064	326.81
295.295	310.81
295.525	332.81
295.756	342.81
295.987	313.81
296.217	338.81
296.448	368.81
296.679	331.81
296.909	334.81
297.14	335.81
297.37	321.81
297.601	328.81
297.831	330.81
298.062	327.81
298.292	349.81
298.523	339.81
298.753	334.81
298.984	336.81
299.214	339.81
299.445	321.81
299.675	345.81
299.905	344.81
300.136	365.81
300.366	352.81
300.597	345.81
300.827	353.81
301.057	340.81
301.288	348.81
301.518	361.81
301.748	341.81
301.979	344.81
302.209	350.81
302.439	369.81
302.669	365.81
302.9	364.81
303.13	359.81
303.36	360.81
303.59	379.81
303.82	365.81
304.051	359.81
304.281	360.81
304.511	369.81
304.741	340.81
304.971	376.81
305.201	376.81
305.431	359.81
305.661	344.81
305.891	370.81
306.121	368.81
306.352	363.81
306.582	368.81
306.812	371.81
307.042	358.81
307.272	362.81
307.502	377.81
307.731	371.81
307.961	363.81
308.191	359.81
308.421	373.81
308.651	357.81
308.881	351.81
309.111	369.81
309.341	395.81
309.571	398.81
309.8	388.81
310.03	403.81
310.26	396.81
310.49	405.81
310.72	438.81
310.949	435.81
311.179	432.81
311.409	423.81
311.639	406.81
311.868	417.81
312.098	394.81
312.328	423.81
312.557	416.81
312.787	444.81
313.017	449.81
313.246	441.81
313.476	411.81
313.706	388.81
313.935	404.81
314.165	451.81
314.394	429.81
314.624	434.81
314.853	445.81
315.083	433.81
315.312	430.81
315.542	393.81
315.771	437.81
316.001	412.81
316.23	385.81
316.46	406.81
316.689	418.81
316.919	407.81
317.148	448.81
317.377	425.81
317.607	420.81
317.836	427.81
318.065	423.81
318.295	425.81
318.524	404.81
318.753	409.81
318.983	410.81
319.212	419.81
319.441	418.81
319.67	422.81
319.9	430.81
320.129	421.81
320.358	434.81
320.587	415.81
320.816	442.81
321.046	444.81
321.275	446.81
321.504	441.81
321.733	438.81
321.962	454.81
322.191	466.81
322.42	438.81
322.649	493.81
322.878	491.81
323.108	520.81
323.337	526.81
323.566	569.81
323.795	602.81
324.024	651.81
324.253	786.81
324.482	1092.81
324.71	1716.81
324.939	2507.81
325.168	2179.81
325.397	1088.81
325.626	742.81
325.855	608.81
326.084	591.81
326.313	554.81
326.542	573.81
326.77	613.81
326.999	726.81
327.228	983.81
327.457	1498.81
327.686	1908.81
327.914	1213.81
328.143	807.81
328.372	698.81
328.6	644.81
328.829	607.81
329.058	624.81
329.287	658.81
329.515	588.81
329.744	554.81
329.972	551.81
330.201	561.81
330.43	578.81
330.658	595.81
330.887	664.81
331.115	673.81
331.344	604.81
331.572	557.81
331.801	554.81
332.03	546.81
332.258	526.81
332.486	502.81
332.715	482.81
332.943	507.81
333.172	487.81
333.4	491.81
333.629	531.81
333.857	515.81
334.085	527.81
334.314	541.81
334.542	524.81
334.771	522.81
334.999	520.81
335.227	518.81
335.455	493.81
335.684	499.81
335.912	526.81
336.14	477.81
336.369	489.81
336.597	514.81
336.825	498.81
337.053	500.81
337.281	471.81
337.51	491.81
337.738	507.81
337.966	493.81
338.194	474.81
338.422	491.81
338.65	482.81
338.878	494.81
339.106	478.81
339.334	480.81
339.562	467.81
339.79	499.81
340.018	480.81
340.246	483.81
340.474	490.81
340.702	478.81
340.93	473.81
341.158	462.81
341.386	469.81
341.614	479.81
341.842	478.81
342.07	489.81
342.298	481.81
342.526	461.81
342.754	459.81
342.981	470.81
343.209	462.81
343.437	464.81
343.665	484.81
343.893	497.81
344.12	484.81
344.348	462.81
344.576	482.81
344.804	485.81
345.031	505.81
345.259	493.81
345.487	490.81
345.714	479.81
345.942	473.81
346.17	454.81
346.397	472.81
346.625	479.81
346.853	470.81
347.08	477.81
347.308	472.81
347.535	494.81
347.763	503.81
347.99	476.81
348.218	488.81
348.445	498.81
348.673	480.81
348.9	462.81
349.128	473.81
349.355	476.81
349.583	444.81
349.81	465.81
350.037	446.81
350.265	455.81
350.492	462.81
350.72	466.81
350.947	467.81
351.174	491.81
351.402	482.81
351.629	478.81
351.856	473.81
352.083	483.81
352.311	489.81
352.538	486.81
352.765	498.81
352.992	476.81
353.22	469.81
353.447	450.81
353.674	452.81
353.901	462.81
354.128	441.81
354.355	445.81
354.583	441.81
354.81	443.81
355.037	442.81
355.264	421.81
355.491	424.81
355.718	438.81
355.945	446.81
356.172	421.81
356.399	427.81
356.626	417.81
356.853	438.81
357.08	438.81
357.307	424.81
357.534	452.81
357.761	429.81
357.988	442.81
358.215	437.81
358.441	426.81
358.668	436.81
358.895	454.81
359.122	436.81
359.349	438.81
359.576	471.81
359.802	478.81
360.029	508.81
360.256	533.81
360.483	505.81
360.709	470.81
360.936	472.81
361.163	477.81
361.39	488.81
361.616	497.81
361.843	474.81
362.07	479.81
362.296	460.81
362.523	486.81
362.749	464.81
362.976	468.81
363.203	476.81
363.429	444.81
363.656	472.81
363.882	452.81
364.109	433.81
364.335	442.81
364.562	459.81
364.788	442.81
365.015	458.81
365.241	458.81
365.468	450.81
365.694	442.81
365.92	466.81
366.147	472.81
366.373	449.81
366.599	449.81
366.826	445.81
367.052	457.81
367.278	456.81
367.505	442.81
367.731	445.81
367.957	444.81
368.184	450.81
368.41	469.81
368.636	481.81
368.862	459.81
369.089	467.81
369.315	453.81
369.541	443.81
369.767	464.81
369.993	449.81
370.219	476.81
370.445	461.81
370.672	453.81
370.898	477.81
371.124	452.81
371.35	460.81
371.576	446.81
371.802	465.81
372.028	447.81
372.254	449.81
372.48	454.81
372.706	498.81
372.932	451.81
373.158	453.81
373.384	472.81
373.61	468.81
373.835	452.81
374.061	444.81
374.287	456.81
374.513	468.81
374.739	442.81
374.965	461.81
375.191	469.81
375.416	454.81
375.642	471.81
375.868	479.81
376.094	465.81
376.319	444.81
376.545	464.81
376.771	457.81
376.997	463.81
377.222	462.81
377.448	460.81
377.674	458.81
377.899	468.81
378.125	453.81
378.35	429.81
378.576	462.81
378.802	443.81
379.027	458.81
379.253	460.81
379.478	452.81
379.704	460.81
379.929	469.81
380.155	453.81
380.38	450.81
380.606	461.81
380.831	442.81
381.057	468.81
381.282	438.81
381.507	454.81
381.733	469.81
381.958	471.81
382.184	465.81
382.409	467.81
382.634	485.81
382.86	471.81
383.085	478.81
383.31	497.81
383.535	505.81
383.761	464.81
383.986	488.81
384.211	485.81
384.436	483.81
384.662	491.81
384.887	481.81
385.112	485.81
385.337	487.81
385.562	460.81
385.787	482.81
386.013	524.81
386.238	524.81
386.463	490.81
386.688	498.81
386.913	497.81
387.138	513.81
387.363	515.81
387.588	522.81
387.813	495.81
388.038	493.81
388.263	494.81
388.488	497.81
388.713	501.81
388.938	516.81
389.163	499.81
389.387	518.81
389.612	496.81
389.837	520.81
390.062	516.81
390.287	494.81
390.512	516.81
390.736	519.81
390.961	505.81
391.186	520.81
391.411	506.81
391.636	513.81
391.86	526.81
392.085	521.81
392.31	536.81
392.534	540.81
392.759	523.81
392.984	549.81
393.208	523.81
393.433	512.81
393.658	528.81
393.882	522.81
394.107	507.81
394.331	506.81
394.556	517.81
394.78	498.81
395.005	525.81
395.229	508.81
395.454	506.81
395.678	533.81
395.903	551.81
396.127	574.81
396.352	572.81
396.576	548.81
396.801	513.81
397.025	521.81
397.249	546.81
397.474	535.81
397.698	544.81
397.922	570.81
398.147	580.81
398.371	579.81
398.595	584.81
398.82	556.81
399.044	589.81
399.268	613.81
399.492	654.81
399.717	669.81
399.941	683.81
400.165	712.81
400.389	722.81
400.613	672.81
400.837	634.81
401.062	613.81
401.286	627.81
401.51	600.81
401.734	584.81
401.958	610.81
402.182	579.81
402.406	637.81
402.63	608.81
402.854	587.81
403.078	586.81
403.302	587.81
403.526	617.81
403.75	602.81
403.974	601.81
404.198	624.81
404.422	616.81
404.645	604.81
404.869	606.81
405.093	627.81
405.317	662.81
405.541	692.81
405.765	644.81
405.988	642.81
406.212	625.81
406.436	654.81
406.66	673.81
406.883	662.81
407.107	658.81
407.331	758.81
407.555	811.81
407.778	807.81
408.002	741.81
408.226	706.81
408.449	681.81
408.673	688.81
408.896	717.81
409.12	748.81
409.344	690.81
409.567	671.81
409.791	632.81
410.014	624.81
410.238	616.81
410.461	613.81
410.685	617.81
410.908	646.81
411.132	668.81
411.355	695.81
411.578	672.81
411.802	644.81
412.025	585.81
412.249	621.81
412.472	612.81
412.695	618.81
412.919	614.81
413.142	597.81
413.365	605.81
413.589	582.81
413.812	584.81
414.035	606.81
414.258	594.81
414.482	611.81
414.705	580.81
414.928	591.81
415.151	580.81
415.374	547.81
415.597	566.81
415.821	579.81
416.044	606.81
416.267	589.81
416.49	589.81
416.713	556.81
416.936	566.81
417.159	590.81
417.382	578.81
417.605	566.81
417.828	590.81
418.051	603.81
418.274	601.81
418.497	570.81
418.72	568.81
418.943	589.81
419.166	625.81
419.389	638.81
419.611	609.81
419.834	600.81
420.057	631.81
420.28	629.81
420.503	578.81
420.726	580.81
420.948	611.81
421.171	644.81
421.394	694.81
421.617	601.81
421.839	611.81
422.062	602.81
422.285	602.81
422.507	696.81
422.73	781.81
422.953	756.81
423.175	668.81
423.398	642.81
423.621	642.81
423.843	644.81
424.066	667.81
424.288	660.81
424.511	666.81
424.733	738.81
424.956	861.81
425.178	754.81
425.401	792.81
425.623	804.81
425.846	732.81
426.068	656.81
426.291	647.81
426.513	655.81
426.735	654.81
426.958	688.81
427.18	797.81
427.402	968.81
427.625	1071.81
427.847	929.81
428.069	775.81
428.292	707.81
428.514	673.81
428.736	624.81
428.958	629.81
429.181	608.81
429.403	608.81
429.625	627.81
429.847	634.81
430.069	728.81
430.292	727.81
430.514	622.81
430.736	625.81
430.958	589.81
431.18	573.81
431.402	569.81
431.624	575.81
431.846	570.81
432.068	557.81
432.29	566.81
432.512	577.81
432.734	592.81
432.956	578.81
433.178	600.81
433.4	587.81
433.622	582.81
433.844	605.81
434.066	587.81
434.287	572.81
434.509	578.81
434.731	601.81
434.953	578.81
435.175	609.81
435.397	654.81
435.618	641.81
435.84	689.81
436.062	823.81
436.284	890.81
436.505	756.81
436.727	672.81
436.949	648.81
437.17	611.81
437.392	601.81
437.614	612.81
437.835	662.81
438.057	774.81
438.278	892.81
438.5	898.81
438.721	974.81
438.943	955.81
439.165	762.81
439.386	679.81
439.608	660.81
439.829	672.81
440.05	705.81
440.272	754.81
440.493	679.81
440.715	634.81
440.936	618.81
441.158	614.81
441.379	645.81
441.6	665.81
441.822	669.81
442.043	715.81
442.264	775.81
442.486	859.81
442.707	748.81
442.928	665.81
443.149	698.81
443.371	733.81
443.592	782.81
443.813	882.81
444.034	955.81
444.255	794.81
444.476	675.81
444.698	656.81
444.919	672.81
445.14	784.81
445.361	725.81
445.582	692.81
445.803	777.81
446.024	893.81
446.245	921.81
446.466	845.81
446.687	706.81
446.908	660.81
447.129	619.81
447.35	616.81
447.571	604.81
447.792	621.81
448.013	610.81
448.234	640.81
448.455	700.81
448.675	811.81
448.896	957.81
449.117	838.81
449.338	777.81
449.559	883.81
449.779	1014.81
450	807.81
450.221	676.81
450.442	606.81
450.662	617.81
450.883	591.81
451.104	627.81
451.324	597.81
451.545	572.81
451.766	579.81
451.986	541.81
452.207	524.81
452.428	530.81
452.648	514.81
452.869	519.81
453.089	532.81
453.31	573.81
453.53	540.81
453.751	565.81
453.971	545.81
454.192	564.81
454.412	569.81
454.633	536.81
454.853	534.81
455.073	537.81
455.294	574.81
455.514	656.81
455.734	632.81
455.955	545.81
456.175	518.81
456.395	514.81
456.616	522.81
456.836	519.81
457.056	509.81
457.276	532.81
457.497	517.81
457.717	519.81
457.937	516.81
458.157	526.81
458.377	563.81
458.598	578.81
458.818	630.81
459.038	708.81
459.258	744.81
459.478	644.81
459.698	589.81
459.918	576.81
460.138	567.81
460.358	582.81
460.578	587.81
460.798	601.81
461.018	596.81
461.238	593.81
461.458	621.81
461.678	578.81
461.898	582.81
462.118	597.81
462.338	607.81
462.558	597.81
462.777	600.81
462.997	640.81
463.217	640.81
463.437	663.81
463.657	626.81
463.876	624.81
464.096	634.81
464.316	632.81
464.536	631.81
464.755	635.81
464.975	653.81
465.195	659.81
465.414	756.81
465.634	677.81
465.854	634.81
466.073	582.81
466.293	583.81
466.512	554.81
466.732	562.81
466.951	548.81
467.171	546.81
467.391	557.81
467.61	573.81
467.829	560.81
468.049	581.81
468.268	563.81
468.488	547.81
468.707	542.81
468.927	522.81
469.146	539.81
469.365	538.81
469.585	531.81
469.804	555.81
470.023	570.81
470.243	566.81
470.462	572.81
470.681	610.81
470.901	586.81
471.12	556.81
471.339	576.81
471.558	560.81
471.777	566.81
471.997	574.81
472.216	543.81
472.435	539.81
472.654	538.81
472.873	562.81
473.092	547.81
473.311	570.81
473.53	578.81
473.749	589.81
473.968	604.81
474.187	713.81
474.406	746.81
474.625	634.81
474.844	616.81
475.063	601.81
475.282	568.81
475.501	553.81
475.72	584.81
475.939	562.81
476.158	566.81
476.377	587.81
476.596	577.81
476.814	596.81
477.033	625.81
477.252	608.81
477.471	589.81
477.69	626.81
477.908	618.81
478.127	617.81
478.346	616.81
478.564	614.81
478.783	620.81
479.002	654.81
479.22	665.81
479.439	648.81
479.658	696.81
479.876	677.81
480.095	692.81
480.313	730.81
480.532	704.81
480.751	692.81
480.969	698.81
481.188	693.81
481.406	708.81
481.624	695.81
481.843	661.81
482.061	667.81
482.28	672.81
482.498	665.81
482.717	657.81
482.935	661.81
483.153	666.81
483.372	669.81
483.59	670.81
483.808	666.81
484.027	684.81
484.245	659.81
484.463	659.81
484.681	676.81
484.9	657.81
485.118	664.81
485.336	689.81
485.554	688.81
485.772	713.81
485.99	700.81
486.209	699.81
486.427	695.81
486.645	710.81
486.863	723.81
487.081	707.81
487.299	699.81
487.517	724.81
487.735	728.81
487.953	704.81
488.171	707.81
488.389	741.81
488.607	697.81
488.825	727.81
489.043	713.81
489.261	724.81
489.479	732.81
489.696	731.81
489.914	723.81
490.132	710.81
490.35	735.81
490.568	737.81
490.786	758.81
491.003	772.81
491.221	808.81
491.439	789.81
491.657	796.81
491.874	811.81
492.092	809.81
492.31	814.81
492.527	827.81
492.745	821.81
492.963	811.81
493.18	817.81
493.398	841.81
493.615	821.81
493.833	830.81
494.05	819.81
494.268	838.81
494.485	854.81
494.703	855.81
494.92	826.81
495.138	853.81
495.355	830.81
495.573	891.81
495.79	838.81
496.008	852.81
496.225	861.81
496.442	866.81
496.66	856.81
496.877	847.81
497.094	852.81
497.312	889.81
497.529	872.81
497.746	873.81
497.963	904.81
498.181	946.81
498.398	947.81
498.615	950.81
498.832	995.81
499.049	1012.81
499.267	991.81
499.484	1068.81
499.701	1080.81
499.918	1094.81
500.135	1162.81
500.352	1229.81
500.569	1228.81
500.786	1230.81
501.003	1197.81
501.22	1161.81
501.437	1161.81
501.654	1137.81
