Data from 1988.PennyLincolnUp.Lamp.En5.5.200Scan.071819.P2_HRD10591_17-20-54-972.txt Node
Date: Thu Jul 18 17:20:54 EDT 2019
User: cochatt
Spectrometer: HR+D1059
Trigger mode: 1
Integration Time (sec): 1.000000E-1
Scans to average: 1
Electric dark correction enabled: true
Nonlinearity correction enabled: false
Boxcar width: 0
XAxis mode: Wavelengths
Number of Pixels in Spectrum: 2048
>>>>>Begin Spectral Data<<<<<
223.165	-18.06
223.4	-18.06
223.635	-18.06
223.869	-21.06
224.104	-12.06
224.338	-7.06
224.573	-15.06
224.808	-11.06
225.042	-7.06
225.277	-7.06
225.511	-10.06
225.746	1.94
225.98	11.94
226.215	4.94
226.449	5.94
226.683	27.94
226.918	31.94
227.152	23.94
227.387	24.94
227.621	33.94
227.856	43.94
228.09	41.94
228.324	51.94
228.559	67.94
228.793	61.94
229.027	91.94
229.262	112.94
229.496	128.94
229.73	166.94
229.964	186.94
230.199	126.94
230.433	108.94
230.667	132.94
230.901	116.94
231.136	116.94
231.37	116.94
231.604	128.94
231.838	126.94
232.072	112.94
232.306	118.94
232.541	123.94
232.775	118.94
233.009	119.94
233.243	120.94
233.477	114.94
233.711	116.94
233.945	131.94
234.179	128.94
234.413	126.94
234.647	122.94
234.881	126.94
235.115	127.94
235.349	135.94
235.583	132.94
235.817	121.94
236.051	140.94
236.285	131.94
236.519	138.94
236.753	134.94
236.987	163.94
237.221	187.94
237.455	246.94
237.689	209.94
237.922	158.94
238.156	144.94
238.39	145.94
238.624	129.94
238.858	129.94
239.091	127.94
239.325	129.94
239.559	142.94
239.793	144.94
240.027	140.94
240.26	153.94
240.494	184.94
240.728	155.94
240.961	146.94
241.195	157.94
241.429	146.94
241.662	140.94
241.896	138.94
242.13	130.94
242.363	139.94
242.597	138.94
242.83	146.94
243.064	149.94
243.298	155.94
243.531	153.94
243.765	135.94
243.998	150.94
244.232	155.94
244.465	178.94
244.699	168.94
244.932	153.94
245.166	162.94
245.399	150.94
245.633	164.94
245.866	134.94
246.099	141.94
246.333	160.94
246.566	180.94
246.8	156.94
247.033	160.94
247.266	155.94
247.5	178.94
247.733	169.94
247.966	184.94
248.2	160.94
248.433	181.94
248.666	185.94
248.899	201.94
249.133	210.94
249.366	229.94
249.599	212.94
249.832	220.94
250.066	214.94
250.299	209.94
250.532	209.94
250.765	211.94
250.998	228.94
251.231	229.94
251.465	240.94
251.698	204.94
251.931	211.94
252.164	198.94
252.397	229.94
252.63	222.94
252.863	211.94
253.096	234.94
253.329	241.94
253.562	221.94
253.795	233.94
254.028	236.94
254.261	244.94
254.494	252.94
254.727	274.94
254.96	308.94
255.193	296.94
255.426	261.94
255.659	257.94
255.892	247.94
256.124	243.94
256.357	238.94
256.59	235.94
256.823	209.94
257.056	240.94
257.289	230.94
257.521	235.94
257.754	234.94
257.987	222.94
258.22	229.94
258.452	228.94
258.685	214.94
258.918	223.94
259.151	238.94
259.383	223.94
259.616	227.94
259.849	242.94
260.081	244.94
260.314	281.94
260.547	275.94
260.779	270.94
261.012	264.94
261.244	268.94
261.477	248.94
261.71	223.94
261.942	236.94
262.175	259.94
262.407	245.94
262.64	230.94
262.872	216.94
263.105	242.94
263.337	237.94
263.57	232.94
263.802	229.94
264.035	219.94
264.267	226.94
264.499	232.94
264.732	227.94
264.964	243.94
265.197	239.94
265.429	242.94
265.661	236.94
265.894	237.94
266.126	230.94
266.358	246.94
266.591	232.94
266.823	229.94
267.055	259.94
267.287	232.94
267.52	246.94
267.752	240.94
267.984	251.94
268.216	247.94
268.448	248.94
268.681	243.94
268.913	266.94
269.145	281.94
269.377	286.94
269.609	288.94
269.841	293.94
270.073	286.94
270.306	320.94
270.538	333.94
270.77	338.94
271.002	325.94
271.234	322.94
271.466	327.94
271.698	341.94
271.93	347.94
272.162	346.94
272.394	352.94
272.626	334.94
272.858	312.94
273.09	296.94
273.322	300.94
273.553	297.94
273.785	273.94
274.017	281.94
274.249	273.94
274.481	301.94
274.713	273.94
274.945	281.94
275.176	286.94
275.408	287.94
275.64	279.94
275.872	288.94
276.104	295.94
276.335	273.94
276.567	309.94
276.799	310.94
277.031	335.94
277.262	343.94
277.494	351.94
277.726	344.94
277.957	320.94
278.189	300.94
278.421	295.94
278.652	309.94
278.884	292.94
279.115	300.94
279.347	291.94
279.579	292.94
279.81	292.94
280.042	268.94
280.273	292.94
280.505	304.94
280.736	275.94
280.968	291.94
281.199	307.94
281.431	285.94
281.662	290.94
281.894	293.94
282.125	301.94
282.356	326.94
282.588	321.94
282.819	330.94
283.051	317.94
283.282	286.94
283.513	306.94
283.745	307.94
283.976	300.94
284.207	296.94
284.439	313.94
284.67	300.94
284.901	319.94
285.132	291.94
285.364	299.94
285.595	316.94
285.826	309.94
286.057	304.94
286.288	304.94
286.52	314.94
286.751	286.94
286.982	299.94
287.213	298.94
287.444	306.94
287.675	313.94
287.906	315.94
288.138	336.94
288.369	324.94
288.6	347.94
288.831	316.94
289.062	323.94
289.293	327.94
289.524	316.94
289.755	295.94
289.986	333.94
290.217	320.94
290.448	303.94
290.679	309.94
290.91	328.94
291.141	301.94
291.371	301.94
291.602	341.94
291.833	325.94
292.064	328.94
292.295	328.94
292.526	327.94
292.757	342.94
292.987	332.94
293.218	322.94
293.449	320.94
293.68	330.94
293.91	314.94
294.141	315.94
294.372	320.94
294.603	328.94
294.833	322.94
295.064	329.94
295.295	323.94
295.525	332.94
295.756	334.94
295.987	339.94
296.217	342.94
296.448	366.94
296.679	338.94
296.909	346.94
297.14	309.94
297.37	334.94
297.601	347.94
297.831	318.94
298.062	327.94
298.292	347.94
298.523	328.94
298.753	337.94
298.984	336.94
299.214	339.94
299.445	336.94
299.675	341.94
299.905	347.94
300.136	352.94
300.366	330.94
300.597	326.94
300.827	368.94
301.057	362.94
301.288	374.94
301.518	380.94
301.748	358.94
301.979	348.94
302.209	372.94
302.439	364.94
302.669	349.94
302.9	372.94
303.13	347.94
303.36	366.94
303.59	372.94
303.82	386.94
304.051	388.94
304.281	358.94
304.511	357.94
304.741	369.94
304.971	361.94
305.201	360.94
305.431	368.94
305.661	365.94
305.891	376.94
306.121	370.94
306.352	376.94
306.582	379.94
306.812	369.94
307.042	369.94
307.272	353.94
307.502	357.94
307.731	382.94
307.961	383.94
308.191	376.94
308.421	379.94
308.651	389.94
308.881	392.94
309.111	384.94
309.341	376.94
309.571	380.94
309.8	387.94
310.03	450.94
310.26	428.94
310.49	421.94
310.72	428.94
310.949	436.94
311.179	446.94
311.409	433.94
311.639	422.94
311.868	423.94
312.098	445.94
312.328	451.94
312.557	426.94
312.787	455.94
313.017	456.94
313.246	430.94
313.476	433.94
313.706	439.94
313.935	441.94
314.165	441.94
314.394	455.94
314.624	442.94
314.853	436.94
315.083	451.94
315.312	439.94
315.542	420.94
315.771	420.94
316.001	405.94
316.23	427.94
316.46	414.94
316.689	426.94
316.919	443.94
317.148	442.94
317.377	426.94
317.607	429.94
317.836	435.94
318.065	437.94
318.295	458.94
318.524	420.94
318.753	422.94
318.983	427.94
319.212	431.94
319.441	442.94
319.67	460.94
319.9	437.94
320.129	456.94
320.358	427.94
320.587	422.94
320.816	440.94
321.046	451.94
321.275	450.94
321.504	461.94
321.733	448.94
321.962	476.94
322.191	461.94
322.42	480.94
322.649	498.94
322.878	514.94
323.108	512.94
323.337	539.94
323.566	587.94
323.795	610.94
324.024	673.94
324.253	811.94
324.482	1158.94
324.71	1861.94
324.939	2725.94
325.168	2378.94
325.397	1181.94
325.626	758.94
325.855	649.94
326.084	612.94
326.313	564.94
326.542	609.94
326.77	629.94
326.999	779.94
327.228	1036.94
327.457	1625.94
327.686	2026.94
327.914	1331.94
328.143	818.94
328.372	699.94
328.6	658.94
328.829	646.94
329.058	649.94
329.287	660.94
329.515	629.94
329.744	579.94
329.972	554.94
330.201	533.94
330.43	590.94
330.658	631.94
330.887	672.94
331.115	681.94
331.344	610.94
331.572	570.94
331.801	549.94
332.03	557.94
332.258	518.94
332.486	521.94
332.715	512.94
332.943	522.94
333.172	524.94
333.4	533.94
333.629	516.94
333.857	512.94
334.085	539.94
334.314	510.94
334.542	532.94
334.771	551.94
334.999	548.94
335.227	558.94
335.455	506.94
335.684	495.94
335.912	509.94
336.14	496.94
336.369	507.94
336.597	529.94
336.825	532.94
337.053	527.94
337.281	507.94
337.51	502.94
337.738	498.94
337.966	500.94
338.194	502.94
338.422	503.94
338.65	506.94
338.878	505.94
339.106	488.94
339.334	481.94
339.562	491.94
339.79	483.94
340.018	491.94
340.246	522.94
340.474	529.94
340.702	512.94
340.93	485.94
341.158	494.94
341.386	475.94
341.614	505.94
341.842	513.94
342.07	483.94
342.298	478.94
342.526	475.94
342.754	488.94
342.981	455.94
343.209	476.94
343.437	487.94
343.665	500.94
343.893	507.94
344.12	485.94
344.348	492.94
344.576	490.94
344.804	511.94
345.031	510.94
345.259	522.94
345.487	514.94
345.714	491.94
345.942	479.94
346.17	489.94
346.397	468.94
346.625	485.94
346.853	486.94
347.08	470.94
347.308	493.94
347.535	482.94
347.763	498.94
347.99	488.94
348.218	481.94
348.445	505.94
348.673	485.94
348.9	468.94
349.128	472.94
349.355	462.94
349.583	459.94
349.81	455.94
350.037	468.94
350.265	479.94
350.492	487.94
350.72	483.94
350.947	447.94
351.174	483.94
351.402	484.94
351.629	491.94
351.856	480.94
352.083	500.94
352.311	482.94
352.538	507.94
352.765	524.94
352.992	493.94
353.22	501.94
353.447	488.94
353.674	484.94
353.901	428.94
354.128	438.94
354.355	450.94
354.583	436.94
354.81	450.94
355.037	455.94
355.264	451.94
355.491	444.94
355.718	454.94
355.945	453.94
356.172	424.94
356.399	436.94
356.626	446.94
356.853	446.94
357.08	465.94
357.307	454.94
357.534	442.94
357.761	453.94
357.988	457.94
358.215	448.94
358.441	447.94
358.668	449.94
358.895	454.94
359.122	464.94
359.349	452.94
359.576	470.94
359.802	496.94
360.029	517.94
360.256	545.94
360.483	513.94
360.709	502.94
360.936	497.94
361.163	472.94
361.39	485.94
361.616	484.94
361.843	483.94
362.07	461.94
362.296	483.94
362.523	484.94
362.749	466.94
362.976	490.94
363.203	482.94
363.429	473.94
363.656	486.94
363.882	473.94
364.109	453.94
364.335	488.94
364.562	454.94
364.788	477.94
365.015	450.94
365.241	484.94
365.468	459.94
365.694	468.94
365.92	481.94
366.147	453.94
366.373	460.94
366.599	443.94
366.826	458.94
367.052	438.94
367.278	440.94
367.505	462.94
367.731	472.94
367.957	458.94
368.184	459.94
368.41	471.94
368.636	474.94
368.862	471.94
369.089	488.94
369.315	493.94
369.541	480.94
369.767	456.94
369.993	462.94
370.219	471.94
370.445	474.94
370.672	452.94
370.898	452.94
371.124	463.94
371.35	466.94
371.576	464.94
371.802	484.94
372.028	469.94
372.254	480.94
372.48	440.94
372.706	462.94
372.932	478.94
373.158	470.94
373.384	437.94
373.61	477.94
373.835	466.94
374.061	461.94
374.287	472.94
374.513	469.94
374.739	464.94
374.965	463.94
375.191	463.94
375.416	494.94
375.642	485.94
375.868	473.94
376.094	474.94
376.319	452.94
376.545	468.94
376.771	474.94
376.997	462.94
377.222	444.94
377.448	465.94
377.674	462.94
377.899	445.94
378.125	460.94
378.35	457.94
378.576	457.94
378.802	475.94
379.027	459.94
379.253	458.94
379.478	452.94
379.704	446.94
379.929	453.94
380.155	486.94
380.38	473.94
380.606	469.94
380.831	495.94
381.057	454.94
381.282	462.94
381.507	468.94
381.733	481.94
381.958	476.94
382.184	479.94
382.409	473.94
382.634	472.94
382.86	469.94
383.085	478.94
383.31	499.94
383.535	466.94
383.761	483.94
383.986	484.94
384.211	499.94
384.436	486.94
384.662	486.94
384.887	503.94
385.112	489.94
385.337	505.94
385.562	514.94
385.787	508.94
386.013	528.94
386.238	542.94
386.463	521.94
386.688	532.94
386.913	521.94
387.138	516.94
387.363	520.94
387.588	516.94
387.813	517.94
388.038	533.94
388.263	525.94
388.488	525.94
388.713	489.94
388.938	520.94
389.163	504.94
389.387	527.94
389.612	518.94
389.837	510.94
390.062	521.94
390.287	496.94
390.512	523.94
390.736	524.94
390.961	525.94
391.186	514.94
391.411	522.94
391.636	525.94
391.86	546.94
392.085	533.94
392.31	538.94
392.534	538.94
392.759	509.94
392.984	520.94
393.208	534.94
393.433	525.94
393.658	503.94
393.882	514.94
394.107	521.94
394.331	543.94
394.556	521.94
394.78	533.94
395.005	537.94
395.229	505.94
395.454	531.94
395.678	553.94
395.903	545.94
396.127	581.94
396.352	573.94
396.576	560.94
396.801	540.94
397.025	536.94
397.249	556.94
397.474	563.94
397.698	557.94
397.922	591.94
398.147	576.94
398.371	600.94
398.595	600.94
398.82	626.94
399.044	603.94
399.268	628.94
399.492	669.94
399.717	713.94
399.941	714.94
400.165	723.94
400.389	742.94
400.613	695.94
400.837	641.94
401.062	619.94
401.286	593.94
401.51	588.94
401.734	591.94
401.958	628.94
402.182	602.94
402.406	619.94
402.63	630.94
402.854	628.94
403.078	625.94
403.302	630.94
403.526	635.94
403.75	641.94
403.974	624.94
404.198	609.94
404.422	633.94
404.645	617.94
404.869	620.94
405.093	676.94
405.317	694.94
405.541	720.94
405.765	668.94
405.988	632.94
406.212	653.94
406.436	706.94
406.66	718.94
406.883	681.94
407.107	704.94
407.331	778.94
407.555	859.94
407.778	858.94
408.002	773.94
408.226	696.94
408.449	704.94
408.673	691.94
408.896	711.94
409.12	778.94
409.344	768.94
409.567	664.94
409.791	661.94
410.014	656.94
410.238	619.94
410.461	629.94
410.685	621.94
410.908	640.94
411.132	679.94
411.355	725.94
411.578	680.94
411.802	654.94
412.025	611.94
412.249	624.94
412.472	650.94
412.695	640.94
412.919	630.94
413.142	629.94
413.365	596.94
413.589	611.94
413.812	583.94
414.035	610.94
414.258	606.94
414.482	596.94
414.705	582.94
414.928	611.94
415.151	565.94
415.374	614.94
415.597	590.94
415.821	605.94
416.044	592.94
416.267	577.94
416.49	600.94
416.713	591.94
416.936	577.94
417.159	590.94
417.382	598.94
417.605	598.94
417.828	643.94
418.051	627.94
418.274	616.94
418.497	580.94
418.72	600.94
418.943	570.94
419.166	602.94
419.389	622.94
419.611	630.94
419.834	612.94
420.057	607.94
420.28	618.94
420.503	585.94
420.726	635.94
420.948	612.94
421.171	661.94
421.394	696.94
421.617	654.94
421.839	626.94
422.062	624.94
422.285	638.94
422.507	695.94
422.73	796.94
422.953	769.94
423.175	707.94
423.398	669.94
423.621	653.94
423.843	666.94
424.066	679.94
424.288	651.94
424.511	717.94
424.733	764.94
424.956	846.94
425.178	807.94
425.401	816.94
425.623	858.94
425.846	711.94
426.068	711.94
426.291	663.94
426.513	634.94
426.735	698.94
426.958	700.94
427.18	835.94
427.402	969.94
427.625	1064.94
427.847	933.94
428.069	777.94
428.292	706.94
428.514	658.94
428.736	640.94
428.958	638.94
429.181	617.94
429.403	622.94
429.625	646.94
429.847	669.94
430.069	739.94
430.292	761.94
430.514	644.94
430.736	636.94
430.958	615.94
431.18	594.94
431.402	590.94
431.624	605.94
431.846	595.94
432.068	550.94
432.29	608.94
432.512	566.94
432.734	592.94
432.956	597.94
433.178	617.94
433.4	612.94
433.622	568.94
433.844	609.94
434.066	592.94
434.287	602.94
434.509	600.94
434.731	597.94
434.953	620.94
435.175	616.94
435.397	660.94
435.618	652.94
435.84	705.94
436.062	851.94
436.284	909.94
436.505	763.94
436.727	704.94
436.949	633.94
437.17	648.94
437.392	643.94
437.614	640.94
437.835	699.94
438.057	782.94
438.278	900.94
438.5	900.94
438.721	1003.94
438.943	958.94
439.165	784.94
439.386	680.94
439.608	696.94
439.829	686.94
440.05	702.94
440.272	771.94
440.493	714.94
440.715	672.94
440.936	626.94
441.158	632.94
441.379	622.94
441.6	640.94
441.822	703.94
442.043	739.94
442.264	803.94
442.486	877.94
442.707	737.94
442.928	707.94
443.149	698.94
443.371	724.94
443.592	774.94
443.813	892.94
444.034	949.94
444.255	824.94
444.476	700.94
444.698	704.94
444.919	707.94
445.14	822.94
445.361	749.94
445.582	740.94
445.803	797.94
446.024	923.94
446.245	928.94
446.466	852.94
446.687	740.94
446.908	684.94
447.129	627.94
447.35	617.94
447.571	611.94
447.792	620.94
448.013	625.94
448.234	634.94
448.455	702.94
448.675	869.94
448.896	994.94
449.117	831.94
449.338	787.94
449.559	920.94
449.779	1023.94
450	840.94
450.221	704.94
450.442	631.94
450.662	618.94
450.883	618.94
451.104	643.94
451.324	647.94
451.545	611.94
451.766	582.94
451.986	544.94
452.207	545.94
452.428	568.94
452.648	544.94
452.869	564.94
453.089	585.94
453.31	571.94
453.53	558.94
453.751	572.94
453.971	561.94
454.192	568.94
454.412	563.94
454.633	560.94
454.853	549.94
455.073	583.94
455.294	588.94
455.514	649.94
455.734	644.94
455.955	548.94
456.175	548.94
456.395	517.94
456.616	512.94
456.836	501.94
457.056	508.94
457.276	514.94
457.497	513.94
457.717	519.94
457.937	540.94
458.157	504.94
458.377	524.94
458.598	570.94
458.818	628.94
459.038	741.94
459.258	751.94
459.478	641.94
459.698	590.94
459.918	599.94
460.138	594.94
460.358	600.94
460.578	586.94
460.798	612.94
461.018	634.94
461.238	620.94
461.458	611.94
461.678	593.94
461.898	582.94
462.118	622.94
462.338	620.94
462.558	638.94
462.777	626.94
462.997	629.94
463.217	661.94
463.437	669.94
463.657	650.94
463.876	664.94
464.096	642.94
464.316	649.94
464.536	656.94
464.755	643.94
464.975	638.94
465.195	702.94
465.414	773.94
465.634	700.94
465.854	629.94
466.073	617.94
466.293	601.94
466.512	580.94
466.732	584.94
466.951	584.94
467.171	566.94
467.391	552.94
467.61	603.94
467.829	585.94
468.049	590.94
468.268	576.94
468.488	574.94
468.707	563.94
468.927	555.94
469.146	556.94
469.365	553.94
469.585	570.94
469.804	563.94
470.023	596.94
470.243	560.94
470.462	579.94
470.681	590.94
470.901	590.94
471.12	573.94
471.339	564.94
471.558	583.94
471.777	565.94
471.997	579.94
472.216	574.94
472.435	572.94
472.654	575.94
472.873	557.94
473.092	569.94
473.311	581.94
473.53	562.94
473.749	562.94
473.968	616.94
474.187	741.94
474.406	778.94
474.625	660.94
474.844	601.94
475.063	586.94
475.282	572.94
475.501	567.94
475.72	581.94
475.939	574.94
476.158	618.94
476.377	604.94
476.596	619.94
476.814	602.94
477.033	597.94
477.252	620.94
477.471	629.94
477.69	610.94
477.908	637.94
478.127	636.94
478.346	625.94
478.564	651.94
478.783	637.94
479.002	637.94
479.22	657.94
479.439	688.94
479.658	704.94
479.876	697.94
480.095	707.94
480.313	747.94
480.532	728.94
480.751	717.94
480.969	708.94
481.188	754.94
481.406	724.94
481.624	730.94
481.843	686.94
482.061	692.94
482.28	685.94
482.498	667.94
482.717	683.94
482.935	679.94
483.153	674.94
483.372	674.94
483.59	686.94
483.808	678.94
484.027	665.94
484.245	689.94
484.463	694.94
484.681	684.94
484.9	707.94
485.118	677.94
485.336	686.94
485.554	711.94
485.772	698.94
485.99	708.94
486.209	692.94
486.427	680.94
486.645	730.94
486.863	725.94
487.081	743.94
487.299	716.94
487.517	732.94
487.735	754.94
487.953	718.94
488.171	735.94
488.389	758.94
488.607	733.94
488.825	739.94
489.043	738.94
489.261	746.94
489.479	721.94
489.696	732.94
489.914	760.94
490.132	739.94
490.35	755.94
490.568	746.94
490.786	788.94
491.003	790.94
491.221	793.94
491.439	830.94
491.657	819.94
491.874	836.94
492.092	823.94
492.31	824.94
492.527	838.94
492.745	845.94
492.963	829.94
493.18	856.94
493.398	822.94
493.615	871.94
493.833	861.94
494.05	860.94
494.268	843.94
494.485	842.94
494.703	861.94
494.92	857.94
495.138	881.94
495.355	848.94
495.573	842.94
495.79	862.94
496.008	875.94
496.225	864.94
496.442	864.94
496.66	881.94
496.877	866.94
497.094	903.94
497.312	869.94
497.529	899.94
497.746	901.94
497.963	933.94
498.181	946.94
498.398	948.94
498.615	977.94
498.832	1003.94
499.049	1025.94
499.267	1001.94
499.484	1052.94
499.701	1099.94
499.918	1154.94
500.135	1187.94
500.352	1224.94
500.569	1286.94
500.786	1250.94
501.003	1220.94
501.22	1230.94
501.437	1162.94
501.654	1116.94
