Data from 1988.PennyLincolnUp.Lamp.En5.5.200Scan.071819.P2_HRD10591_17-20-52-972.txt Node
Date: Thu Jul 18 17:20:52 EDT 2019
User: cochatt
Spectrometer: HR+D1059
Trigger mode: 1
Integration Time (sec): 1.000000E-1
Scans to average: 1
Electric dark correction enabled: true
Nonlinearity correction enabled: false
Boxcar width: 0
XAxis mode: Wavelengths
Number of Pixels in Spectrum: 2048
>>>>>Begin Spectral Data<<<<<
223.165	-23.12
223.4	-23.12
223.635	-23.12
223.869	-23.12
224.104	-3.12
224.338	-5.12
224.573	-3.12
224.808	-18.12
225.042	-9.12
225.277	-2.12
225.511	5.88
225.746	-0.12
225.98	17.88
226.215	4.88
226.449	4.88
226.683	9.88
226.918	11.88
227.152	31.88
227.387	24.88
227.621	23.88
227.856	46.88
228.09	37.88
228.324	54.88
228.559	49.88
228.793	54.88
229.027	97.88
229.262	98.88
229.496	112.88
229.73	161.88
229.964	161.88
230.199	143.88
230.433	111.88
230.667	111.88
230.901	104.88
231.136	126.88
231.37	90.88
231.604	126.88
231.838	114.88
232.072	116.88
232.306	113.88
232.541	122.88
232.775	108.88
233.009	120.88
233.243	99.88
233.477	118.88
233.711	124.88
233.945	116.88
234.179	119.88
234.413	121.88
234.647	122.88
234.881	126.88
235.115	133.88
235.349	109.88
235.583	114.88
235.817	115.88
236.051	128.88
236.285	128.88
236.519	136.88
236.753	137.88
236.987	151.88
237.221	194.88
237.455	265.88
237.689	204.88
237.922	148.88
238.156	144.88
238.39	133.88
238.624	136.88
238.858	144.88
239.091	142.88
239.325	128.88
239.559	148.88
239.793	136.88
240.027	130.88
240.26	152.88
240.494	169.88
240.728	160.88
240.961	152.88
241.195	149.88
241.429	155.88
241.662	128.88
241.896	136.88
242.13	128.88
242.363	135.88
242.597	138.88
242.83	139.88
243.064	148.88
243.298	128.88
243.531	156.88
243.765	136.88
243.998	152.88
244.232	150.88
244.465	145.88
244.699	149.88
244.932	151.88
245.166	141.88
245.399	150.88
245.633	159.88
245.866	149.88
246.099	147.88
246.333	177.88
246.566	169.88
246.8	171.88
247.033	158.88
247.266	152.88
247.5	167.88
247.733	188.88
247.966	177.88
248.2	179.88
248.433	177.88
248.666	167.88
248.899	192.88
249.133	219.88
249.366	228.88
249.599	215.88
249.832	187.88
250.066	202.88
250.299	201.88
250.532	192.88
250.765	201.88
250.998	244.88
251.231	237.88
251.465	238.88
251.698	210.88
251.931	198.88
252.164	211.88
252.397	206.88
252.63	216.88
252.863	224.88
253.096	234.88
253.329	235.88
253.562	255.88
253.795	219.88
254.028	255.88
254.261	240.88
254.494	225.88
254.727	276.88
254.96	291.88
255.193	282.88
255.426	261.88
255.659	243.88
255.892	241.88
256.124	220.88
256.357	215.88
256.59	226.88
256.823	232.88
257.056	231.88
257.289	223.88
257.521	227.88
257.754	223.88
257.987	219.88
258.22	226.88
258.452	212.88
258.685	220.88
258.918	214.88
259.151	224.88
259.383	233.88
259.616	229.88
259.849	230.88
260.081	263.88
260.314	253.88
260.547	275.88
260.779	255.88
261.012	245.88
261.244	230.88
261.477	242.88
261.71	227.88
261.942	239.88
262.175	253.88
262.407	260.88
262.64	229.88
262.872	232.88
263.105	228.88
263.337	211.88
263.57	232.88
263.802	227.88
264.035	225.88
264.267	214.88
264.499	213.88
264.732	224.88
264.964	220.88
265.197	221.88
265.429	223.88
265.661	210.88
265.894	227.88
266.126	237.88
266.358	229.88
266.591	238.88
266.823	240.88
267.055	221.88
267.287	244.88
267.52	240.88
267.752	250.88
267.984	252.88
268.216	260.88
268.448	249.88
268.681	253.88
268.913	254.88
269.145	276.88
269.377	300.88
269.609	282.88
269.841	286.88
270.073	287.88
270.306	322.88
270.538	356.88
270.77	338.88
271.002	325.88
271.234	302.88
271.466	304.88
271.698	349.88
271.93	336.88
272.162	331.88
272.394	341.88
272.626	327.88
272.858	318.88
273.09	284.88
273.322	300.88
273.553	295.88
273.785	289.88
274.017	282.88
274.249	276.88
274.481	273.88
274.713	267.88
274.945	292.88
275.176	293.88
275.408	290.88
275.64	299.88
275.872	281.88
276.104	284.88
276.335	274.88
276.567	300.88
276.799	287.88
277.031	314.88
277.262	351.88
277.494	348.88
277.726	334.88
277.957	306.88
278.189	298.88
278.421	289.88
278.652	288.88
278.884	279.88
279.115	287.88
279.347	278.88
279.579	287.88
279.81	272.88
280.042	290.88
280.273	282.88
280.505	301.88
280.736	269.88
280.968	285.88
281.199	298.88
281.431	287.88
281.662	290.88
281.894	288.88
282.125	280.88
282.356	295.88
282.588	321.88
282.819	339.88
283.051	309.88
283.282	283.88
283.513	312.88
283.745	290.88
283.976	288.88
284.207	320.88
284.439	309.88
284.67	298.88
284.901	303.88
285.132	300.88
285.364	288.88
285.595	291.88
285.826	292.88
286.057	302.88
286.288	305.88
286.52	312.88
286.751	288.88
286.982	297.88
287.213	316.88
287.444	311.88
287.675	308.88
287.906	334.88
288.138	333.88
288.369	330.88
288.6	320.88
288.831	317.88
289.062	316.88
289.293	318.88
289.524	323.88
289.755	325.88
289.986	305.88
290.217	312.88
290.448	317.88
290.679	318.88
290.91	326.88
291.141	302.88
291.371	309.88
291.602	313.88
291.833	312.88
292.064	304.88
292.295	296.88
292.526	323.88
292.757	294.88
292.987	319.88
293.218	309.88
293.449	327.88
293.68	319.88
293.91	317.88
294.141	315.88
294.372	305.88
294.603	324.88
294.833	326.88
295.064	327.88
295.295	312.88
295.525	325.88
295.756	322.88
295.987	327.88
296.217	364.88
296.448	372.88
296.679	325.88
296.909	332.88
297.14	324.88
297.37	331.88
297.601	337.88
297.831	331.88
298.062	326.88
298.292	329.88
298.523	347.88
298.753	326.88
298.984	336.88
299.214	330.88
299.445	338.88
299.675	333.88
299.905	341.88
300.136	347.88
300.366	327.88
300.597	353.88
300.827	334.88
301.057	368.88
301.288	369.88
301.518	360.88
301.748	361.88
301.979	351.88
302.209	367.88
302.439	350.88
302.669	361.88
302.9	350.88
303.13	357.88
303.36	363.88
303.59	366.88
303.82	364.88
304.051	370.88
304.281	353.88
304.511	349.88
304.741	346.88
304.971	361.88
305.201	365.88
305.431	350.88
305.661	350.88
305.891	363.88
306.121	363.88
306.352	377.88
306.582	366.88
306.812	379.88
307.042	359.88
307.272	346.88
307.502	368.88
307.731	356.88
307.961	371.88
308.191	366.88
308.421	365.88
308.651	369.88
308.881	368.88
309.111	356.88
309.341	375.88
309.571	412.88
309.8	389.88
310.03	406.88
310.26	406.88
310.49	414.88
310.72	434.88
310.949	425.88
311.179	432.88
311.409	393.88
311.639	410.88
311.868	408.88
312.098	420.88
312.328	430.88
312.557	457.88
312.787	455.88
313.017	479.88
313.246	448.88
313.476	423.88
313.706	431.88
313.935	432.88
314.165	454.88
314.394	438.88
314.624	447.88
314.853	436.88
315.083	431.88
315.312	406.88
315.542	410.88
315.771	383.88
316.001	426.88
316.23	423.88
316.46	402.88
316.689	421.88
316.919	415.88
317.148	407.88
317.377	447.88
317.607	415.88
317.836	421.88
318.065	425.88
318.295	414.88
318.524	431.88
318.753	405.88
318.983	412.88
319.212	416.88
319.441	452.88
319.67	455.88
319.9	431.88
320.129	409.88
320.358	426.88
320.587	430.88
320.816	439.88
321.046	448.88
321.275	468.88
321.504	446.88
321.733	443.88
321.962	468.88
322.191	485.88
322.42	508.88
322.649	498.88
322.878	480.88
323.108	538.88
323.337	550.88
323.566	575.88
323.795	611.88
324.024	646.88
324.253	794.88
324.482	1137.88
324.71	1798.88
324.939	2696.88
325.168	2261.88
325.397	1138.88
325.626	743.88
325.855	646.88
326.084	560.88
326.313	564.88
326.542	590.88
326.77	607.88
326.999	745.88
327.228	1038.88
327.457	1592.88
327.686	1988.88
327.914	1278.88
328.143	807.88
328.372	700.88
328.6	678.88
328.829	632.88
329.058	650.88
329.287	657.88
329.515	622.88
329.744	568.88
329.972	556.88
330.201	565.88
330.43	581.88
330.658	646.88
330.887	672.88
331.115	665.88
331.344	592.88
331.572	550.88
331.801	545.88
332.03	556.88
332.258	538.88
332.486	513.88
332.715	485.88
332.943	508.88
333.172	520.88
333.4	511.88
333.629	514.88
333.857	509.88
334.085	538.88
334.314	535.88
334.542	538.88
334.771	551.88
334.999	519.88
335.227	523.88
335.455	520.88
335.684	520.88
335.912	490.88
336.14	493.88
336.369	496.88
336.597	503.88
336.825	523.88
337.053	520.88
337.281	491.88
337.51	469.88
337.738	496.88
337.966	528.88
338.194	504.88
338.422	516.88
338.65	482.88
338.878	478.88
339.106	481.88
339.334	453.88
339.562	481.88
339.79	473.88
340.018	486.88
340.246	468.88
340.474	498.88
340.702	473.88
340.93	499.88
341.158	464.88
341.386	468.88
341.614	478.88
341.842	484.88
342.07	477.88
342.298	501.88
342.526	474.88
342.754	458.88
342.981	465.88
343.209	466.88
343.437	453.88
343.665	486.88
343.893	470.88
344.12	508.88
344.348	489.88
344.576	492.88
344.804	502.88
345.031	529.88
345.259	523.88
345.487	493.88
345.714	489.88
345.942	474.88
346.17	490.88
346.397	457.88
346.625	485.88
346.853	480.88
347.08	465.88
347.308	478.88
347.535	489.88
347.763	505.88
347.99	497.88
348.218	490.88
348.445	508.88
348.673	490.88
348.9	473.88
349.128	453.88
349.355	473.88
349.583	469.88
349.81	472.88
350.037	458.88
350.265	461.88
350.492	461.88
350.72	466.88
350.947	477.88
351.174	478.88
351.402	482.88
351.629	500.88
351.856	497.88
352.083	494.88
352.311	485.88
352.538	506.88
352.765	492.88
352.992	485.88
353.22	470.88
353.447	470.88
353.674	462.88
353.901	449.88
354.128	462.88
354.355	434.88
354.583	452.88
354.81	442.88
355.037	449.88
355.264	432.88
355.491	446.88
355.718	453.88
355.945	429.88
356.172	437.88
356.399	432.88
356.626	434.88
356.853	438.88
357.08	424.88
357.307	432.88
357.534	450.88
357.761	437.88
357.988	446.88
358.215	455.88
358.441	436.88
358.668	424.88
358.895	456.88
359.122	458.88
359.349	468.88
359.576	468.88
359.802	521.88
360.029	536.88
360.256	558.88
360.483	515.88
360.709	489.88
360.936	486.88
361.163	462.88
361.39	476.88
361.616	472.88
361.843	477.88
362.07	485.88
362.296	485.88
362.523	491.88
362.749	469.88
362.976	478.88
363.203	463.88
363.429	465.88
363.656	453.88
363.882	458.88
364.109	474.88
364.335	470.88
364.562	451.88
364.788	451.88
365.015	465.88
365.241	479.88
365.468	466.88
365.694	466.88
365.92	473.88
366.147	464.88
366.373	440.88
366.599	466.88
366.826	448.88
367.052	461.88
367.278	448.88
367.505	448.88
367.731	461.88
367.957	452.88
368.184	462.88
368.41	472.88
368.636	464.88
368.862	453.88
369.089	452.88
369.315	476.88
369.541	436.88
369.767	476.88
369.993	467.88
370.219	478.88
370.445	437.88
370.672	454.88
370.898	450.88
371.124	437.88
371.35	457.88
371.576	449.88
371.802	455.88
372.028	450.88
372.254	467.88
372.48	457.88
372.706	449.88
372.932	464.88
373.158	457.88
373.384	471.88
373.61	471.88
373.835	458.88
374.061	485.88
374.287	463.88
374.513	481.88
374.739	476.88
374.965	469.88
375.191	484.88
375.416	496.88
375.642	470.88
375.868	450.88
376.094	463.88
376.319	448.88
376.545	464.88
376.771	433.88
376.997	460.88
377.222	485.88
377.448	461.88
377.674	457.88
377.899	448.88
378.125	457.88
378.35	450.88
378.576	456.88
378.802	449.88
379.027	448.88
379.253	446.88
379.478	460.88
379.704	453.88
379.929	457.88
380.155	467.88
380.38	433.88
380.606	469.88
380.831	463.88
381.057	451.88
381.282	453.88
381.507	460.88
381.733	465.88
381.958	477.88
382.184	468.88
382.409	459.88
382.634	464.88
382.86	476.88
383.085	482.88
383.31	487.88
383.535	477.88
383.761	474.88
383.986	493.88
384.211	475.88
384.436	467.88
384.662	484.88
384.887	497.88
385.112	491.88
385.337	486.88
385.562	494.88
385.787	519.88
386.013	513.88
386.238	511.88
386.463	507.88
386.688	519.88
386.913	510.88
387.138	504.88
387.363	502.88
387.588	492.88
387.813	509.88
388.038	510.88
388.263	508.88
388.488	526.88
388.713	513.88
388.938	509.88
389.163	522.88
389.387	518.88
389.612	494.88
389.837	500.88
390.062	517.88
390.287	481.88
390.512	483.88
390.736	514.88
390.961	521.88
391.186	503.88
391.411	492.88
391.636	537.88
391.86	558.88
392.085	519.88
392.31	522.88
392.534	507.88
392.759	518.88
392.984	519.88
393.208	524.88
393.433	532.88
393.658	512.88
393.882	495.88
394.107	504.88
394.331	519.88
394.556	508.88
394.78	510.88
395.005	523.88
395.229	519.88
395.454	536.88
395.678	547.88
395.903	547.88
396.127	570.88
396.352	580.88
396.576	554.88
396.801	520.88
397.025	524.88
397.249	539.88
397.474	548.88
397.698	560.88
397.922	566.88
398.147	591.88
398.371	616.88
398.595	572.88
398.82	578.88
399.044	598.88
399.268	608.88
399.492	678.88
399.717	664.88
399.941	709.88
400.165	718.88
400.389	764.88
400.613	696.88
400.837	638.88
401.062	628.88
401.286	599.88
401.51	622.88
401.734	592.88
401.958	622.88
402.182	593.88
402.406	596.88
402.63	618.88
402.854	611.88
403.078	630.88
403.302	607.88
403.526	620.88
403.75	616.88
403.974	616.88
404.198	600.88
404.422	608.88
404.645	615.88
404.869	608.88
405.093	653.88
405.317	681.88
405.541	711.88
405.765	655.88
405.988	624.88
406.212	637.88
406.436	674.88
406.66	708.88
406.883	689.88
407.107	724.88
407.331	733.88
407.555	797.88
407.778	816.88
408.002	759.88
408.226	719.88
408.449	686.88
408.673	672.88
408.896	720.88
409.12	754.88
409.344	724.88
409.567	666.88
409.791	621.88
410.014	613.88
410.238	638.88
410.461	624.88
410.685	614.88
410.908	625.88
411.132	696.88
411.355	714.88
411.578	662.88
411.802	613.88
412.025	617.88
412.249	608.88
412.472	636.88
412.695	647.88
412.919	645.88
413.142	607.88
413.365	588.88
413.589	615.88
413.812	575.88
414.035	585.88
414.258	587.88
414.482	587.88
414.705	607.88
414.928	581.88
415.151	583.88
415.374	608.88
415.597	589.88
415.821	586.88
416.044	584.88
416.267	586.88
416.49	565.88
416.713	574.88
416.936	585.88
417.159	573.88
417.382	602.88
417.605	566.88
417.828	594.88
418.051	634.88
418.274	625.88
418.497	593.88
418.72	596.88
418.943	593.88
419.166	604.88
419.389	606.88
419.611	621.88
419.834	612.88
420.057	615.88
420.28	590.88
420.503	607.88
420.726	590.88
420.948	608.88
421.171	687.88
421.394	724.88
421.617	633.88
421.839	588.88
422.062	612.88
422.285	639.88
422.507	714.88
422.73	785.88
422.953	782.88
423.175	690.88
423.398	633.88
423.621	635.88
423.843	686.88
424.066	646.88
424.288	677.88
424.511	674.88
424.733	763.88
424.956	867.88
425.178	809.88
425.401	785.88
425.623	855.88
425.846	722.88
426.068	661.88
426.291	665.88
426.513	659.88
426.735	660.88
426.958	712.88
427.18	810.88
427.402	973.88
427.625	1078.88
427.847	933.88
428.069	806.88
428.292	710.88
428.514	650.88
428.736	634.88
428.958	642.88
429.181	608.88
429.403	608.88
429.625	629.88
429.847	661.88
430.069	753.88
430.292	739.88
430.514	633.88
430.736	603.88
430.958	601.88
431.18	597.88
431.402	576.88
431.624	558.88
431.846	560.88
432.068	565.88
432.29	582.88
432.512	575.88
432.734	601.88
432.956	590.88
433.178	591.88
433.4	596.88
433.622	574.88
433.844	576.88
434.066	566.88
434.287	590.88
434.509	600.88
434.731	604.88
434.953	598.88
435.175	608.88
435.397	644.88
435.618	677.88
435.84	725.88
436.062	832.88
436.284	916.88
436.505	774.88
436.727	714.88
436.949	657.88
437.17	608.88
437.392	636.88
437.614	617.88
437.835	658.88
438.057	772.88
438.278	906.88
438.5	922.88
438.721	998.88
438.943	973.88
439.165	763.88
439.386	698.88
439.608	680.88
439.829	676.88
440.05	703.88
440.272	768.88
440.493	713.88
440.715	653.88
440.936	652.88
441.158	593.88
441.379	617.88
441.6	612.88
441.822	658.88
442.043	709.88
442.264	838.88
442.486	862.88
442.707	730.88
442.928	692.88
443.149	693.88
443.371	738.88
443.592	777.88
443.813	872.88
444.034	940.88
444.255	758.88
444.476	701.88
444.698	659.88
444.919	672.88
445.14	794.88
445.361	744.88
445.582	709.88
445.803	816.88
446.024	908.88
446.245	950.88
446.466	862.88
446.687	730.88
446.908	688.88
447.129	642.88
447.35	623.88
447.571	626.88
447.792	597.88
448.013	600.88
448.234	630.88
448.455	706.88
448.675	844.88
448.896	979.88
449.117	834.88
449.338	795.88
449.559	906.88
449.779	1033.88
450	807.88
450.221	676.88
450.442	612.88
450.662	641.88
450.883	617.88
451.104	636.88
451.324	593.88
451.545	582.88
451.766	585.88
451.986	566.88
452.207	529.88
452.428	553.88
452.648	544.88
452.869	537.88
453.089	563.88
453.31	578.88
453.53	549.88
453.751	569.88
453.971	578.88
454.192	564.88
454.412	574.88
454.633	551.88
454.853	538.88
455.073	535.88
455.294	572.88
455.514	668.88
455.734	628.88
455.955	566.88
456.175	525.88
456.395	533.88
456.616	506.88
456.836	489.88
457.056	504.88
457.276	494.88
457.497	511.88
457.717	515.88
457.937	526.88
458.157	528.88
458.377	558.88
458.598	562.88
458.818	623.88
459.038	733.88
459.258	768.88
459.478	654.88
459.698	602.88
459.918	574.88
460.138	585.88
460.358	580.88
460.578	592.88
460.798	589.88
461.018	614.88
461.238	593.88
461.458	600.88
461.678	594.88
461.898	592.88
462.118	587.88
462.338	616.88
462.558	623.88
462.777	622.88
462.997	638.88
463.217	644.88
463.437	677.88
463.657	625.88
463.876	649.88
464.096	623.88
464.316	626.88
464.536	644.88
464.755	635.88
464.975	624.88
465.195	700.88
465.414	769.88
465.634	691.88
465.854	625.88
466.073	594.88
466.293	579.88
466.512	588.88
466.732	557.88
466.951	561.88
467.171	544.88
467.391	564.88
467.61	584.88
467.829	593.88
468.049	586.88
468.268	566.88
468.488	571.88
468.707	536.88
468.927	530.88
469.146	544.88
469.365	535.88
469.585	527.88
469.804	550.88
470.023	577.88
470.243	556.88
470.462	576.88
470.681	583.88
470.901	594.88
471.12	576.88
471.339	559.88
471.558	566.88
471.777	592.88
471.997	562.88
472.216	583.88
472.435	566.88
472.654	574.88
472.873	551.88
473.092	551.88
473.311	552.88
473.53	573.88
473.749	580.88
473.968	608.88
474.187	719.88
474.406	757.88
474.625	634.88
474.844	604.88
475.063	565.88
475.282	564.88
475.501	566.88
475.72	576.88
475.939	584.88
476.158	584.88
476.377	597.88
476.596	588.88
476.814	599.88
477.033	598.88
477.252	617.88
477.471	613.88
477.69	616.88
477.908	610.88
478.127	610.88
478.346	620.88
478.564	642.88
478.783	658.88
479.002	654.88
479.22	637.88
479.439	664.88
479.658	671.88
479.876	684.88
480.095	696.88
480.313	721.88
480.532	735.88
480.751	701.88
480.969	715.88
481.188	710.88
481.406	710.88
481.624	703.88
481.843	676.88
482.061	681.88
482.28	655.88
482.498	680.88
482.717	660.88
482.935	678.88
483.153	654.88
483.372	656.88
483.59	666.88
483.808	673.88
484.027	669.88
484.245	665.88
484.463	691.88
484.681	681.88
484.9	686.88
485.118	686.88
485.336	677.88
485.554	678.88
485.772	701.88
485.99	686.88
486.209	688.88
486.427	720.88
486.645	713.88
486.863	760.88
487.081	743.88
487.299	729.88
487.517	713.88
487.735	722.88
487.953	713.88
488.171	729.88
488.389	759.88
488.607	714.88
488.825	732.88
489.043	725.88
489.261	703.88
489.479	741.88
489.696	756.88
489.914	726.88
490.132	761.88
490.35	756.88
490.568	740.88
490.786	785.88
491.003	792.88
491.221	814.88
491.439	819.88
491.657	774.88
491.874	828.88
492.092	802.88
492.31	803.88
492.527	818.88
492.745	816.88
492.963	831.88
493.18	824.88
493.398	833.88
493.615	828.88
493.833	833.88
494.05	810.88
494.268	858.88
494.485	835.88
494.703	836.88
494.92	843.88
495.138	865.88
495.355	866.88
495.573	864.88
495.79	891.88
496.008	865.88
496.225	868.88
496.442	877.88
496.66	855.88
496.877	848.88
497.094	884.88
497.312	874.88
497.529	884.88
497.746	918.88
497.963	910.88
498.181	975.88
498.398	935.88
498.615	957.88
498.832	1004.88
499.049	979.88
499.267	1014.88
499.484	1021.88
499.701	1095.88
499.918	1117.88
500.135	1179.88
500.352	1226.88
500.569	1257.88
500.786	1239.88
501.003	1234.88
501.22	1183.88
501.437	1143.88
501.654	1103.88
501.871	1116.88
