Data from 1988.PennyLincolnUp.Lamp.En5.5.200Scan.071819.P2_HRD10591_17-18-46-971.txt Node
Date: Thu Jul 18 17:18:46 EDT 2019
User: cochatt
Spectrometer: HR+D1059
Trigger mode: 1
Integration Time (sec): 1.000000E-1
Scans to average: 1
Electric dark correction enabled: true
Nonlinearity correction enabled: false
Boxcar width: 0
XAxis mode: Wavelengths
Number of Pixels in Spectrum: 2048
>>>>>Begin Spectral Data<<<<<
223.165	-24.69
223.4	-24.69
223.635	-24.69
223.869	-7.69
224.104	-11.69
224.338	4.31
224.573	-14.69
224.808	-19.69
225.042	-9.69
225.277	-11.69
225.511	-6.69
225.746	7.31
225.98	12.31
226.215	12.31
226.449	6.31
226.683	18.31
226.918	16.31
227.152	29.31
227.387	23.31
227.621	39.31
227.856	44.31
228.09	47.31
228.324	57.31
228.559	57.31
228.793	61.31
229.027	92.31
229.262	113.31
229.496	102.31
229.73	127.31
229.964	135.31
230.199	119.31
230.433	111.31
230.667	105.31
230.901	122.31
231.136	107.31
231.37	97.31
231.604	119.31
231.838	102.31
232.072	105.31
232.306	123.31
232.541	111.31
232.775	93.31
233.009	102.31
233.243	107.31
233.477	111.31
233.711	113.31
233.945	116.31
234.179	112.31
234.413	120.31
234.647	123.31
234.881	105.31
235.115	116.31
235.349	111.31
235.583	119.31
235.817	124.31
236.051	132.31
236.285	120.31
236.519	123.31
236.753	116.31
236.987	137.31
237.221	175.31
237.455	232.31
237.689	184.31
237.922	136.31
238.156	113.31
238.39	115.31
238.624	107.31
238.858	117.31
239.091	124.31
239.325	125.31
239.559	121.31
239.793	123.31
240.027	131.31
240.26	126.31
240.494	148.31
240.728	148.31
240.961	145.31
241.195	136.31
241.429	135.31
241.662	124.31
241.896	139.31
242.13	124.31
242.363	152.31
242.597	136.31
242.83	133.31
243.064	125.31
243.298	123.31
243.531	131.31
243.765	139.31
243.998	134.31
244.232	125.31
244.465	137.31
244.699	137.31
244.932	132.31
245.166	149.31
245.399	129.31
245.633	131.31
245.866	147.31
246.099	132.31
246.333	141.31
246.566	135.31
246.8	152.31
247.033	148.31
247.266	135.31
247.5	149.31
247.733	161.31
247.966	180.31
248.2	155.31
248.433	166.31
248.666	181.31
248.899	168.31
249.133	168.31
249.366	195.31
249.599	181.31
249.832	185.31
250.066	172.31
250.299	168.31
250.532	184.31
250.765	177.31
250.998	204.31
251.231	213.31
251.465	189.31
251.698	198.31
251.931	179.31
252.164	188.31
252.397	182.31
252.63	196.31
252.863	194.31
253.096	205.31
253.329	212.31
253.562	223.31
253.795	215.31
254.028	203.31
254.261	218.31
254.494	209.31
254.727	227.31
254.96	258.31
255.193	241.31
255.426	225.31
255.659	211.31
255.892	209.31
256.124	194.31
256.357	208.31
256.59	205.31
256.823	191.31
257.056	210.31
257.289	199.31
257.521	188.31
257.754	199.31
257.987	184.31
258.22	179.31
258.452	205.31
258.685	203.31
258.918	209.31
259.151	197.31
259.383	207.31
259.616	199.31
259.849	223.31
260.081	205.31
260.314	239.31
260.547	229.31
260.779	230.31
261.012	215.31
261.244	221.31
261.477	212.31
261.71	217.31
261.942	216.31
262.175	213.31
262.407	211.31
262.64	222.31
262.872	210.31
263.105	202.31
263.337	197.31
263.57	229.31
263.802	204.31
264.035	225.31
264.267	212.31
264.499	215.31
264.732	212.31
264.964	197.31
265.197	200.31
265.429	218.31
265.661	217.31
265.894	201.31
266.126	210.31
266.358	212.31
266.591	197.31
266.823	219.31
267.055	217.31
267.287	230.31
267.52	214.31
267.752	219.31
267.984	211.31
268.216	226.31
268.448	212.31
268.681	224.31
268.913	227.31
269.145	244.31
269.377	232.31
269.609	249.31
269.841	243.31
270.073	249.31
270.306	258.31
270.538	303.31
270.77	281.31
271.002	278.31
271.234	282.31
271.466	268.31
271.698	295.31
271.93	300.31
272.162	311.31
272.394	308.31
272.626	296.31
272.858	255.31
273.09	253.31
273.322	259.31
273.553	266.31
273.785	247.31
274.017	247.31
274.249	251.31
274.481	260.31
274.713	232.31
274.945	263.31
275.176	258.31
275.408	261.31
275.64	253.31
275.872	258.31
276.104	259.31
276.335	260.31
276.567	262.31
276.799	264.31
277.031	283.31
277.262	298.31
277.494	292.31
277.726	298.31
277.957	277.31
278.189	273.31
278.421	270.31
278.652	265.31
278.884	261.31
279.115	273.31
279.347	244.31
279.579	275.31
279.81	256.31
280.042	265.31
280.273	250.31
280.505	270.31
280.736	261.31
280.968	262.31
281.199	269.31
281.431	268.31
281.662	291.31
281.894	272.31
282.125	268.31
282.356	281.31
282.588	297.31
282.819	304.31
283.051	289.31
283.282	256.31
283.513	260.31
283.745	280.31
283.976	276.31
284.207	282.31
284.439	269.31
284.67	265.31
284.901	268.31
285.132	279.31
285.364	267.31
285.595	283.31
285.826	263.31
286.057	282.31
286.288	262.31
286.52	275.31
286.751	277.31
286.982	285.31
287.213	261.31
287.444	280.31
287.675	263.31
287.906	287.31
288.138	269.31
288.369	290.31
288.6	306.31
288.831	290.31
289.062	291.31
289.293	286.31
289.524	279.31
289.755	287.31
289.986	303.31
290.217	291.31
290.448	286.31
290.679	289.31
290.91	286.31
291.141	287.31
291.371	288.31
291.602	288.31
291.833	291.31
292.064	292.31
292.295	300.31
292.526	276.31
292.757	300.31
292.987	292.31
293.218	278.31
293.449	293.31
293.68	296.31
293.91	293.31
294.141	285.31
294.372	267.31
294.603	276.31
294.833	292.31
295.064	283.31
295.295	297.31
295.525	283.31
295.756	291.31
295.987	314.31
296.217	320.31
296.448	331.31
296.679	297.31
296.909	279.31
297.14	307.31
297.37	290.31
297.601	310.31
297.831	282.31
298.062	310.31
298.292	300.31
298.523	307.31
298.753	295.31
298.984	306.31
299.214	303.31
299.445	295.31
299.675	319.31
299.905	310.31
300.136	295.31
300.366	297.31
300.597	286.31
300.827	305.31
301.057	311.31
301.288	329.31
301.518	323.31
301.748	325.31
301.979	341.31
302.209	327.31
302.439	323.31
302.669	337.31
302.9	314.31
303.13	328.31
303.36	323.31
303.59	320.31
303.82	343.31
304.051	324.31
304.281	319.31
304.511	326.31
304.741	326.31
304.971	340.31
305.201	331.31
305.431	303.31
305.661	328.31
305.891	310.31
306.121	339.31
306.352	319.31
306.582	320.31
306.812	298.31
307.042	334.31
307.272	329.31
307.502	336.31
307.731	340.31
307.961	340.31
308.191	347.31
308.421	335.31
308.651	339.31
308.881	327.31
309.111	337.31
309.341	328.31
309.571	361.31
309.8	344.31
310.03	343.31
310.26	368.31
310.49	350.31
310.72	363.31
310.949	387.31
311.179	374.31
311.409	373.31
311.639	384.31
311.868	372.31
312.098	381.31
312.328	362.31
312.557	383.31
312.787	411.31
313.017	395.31
313.246	384.31
313.476	359.31
313.706	377.31
313.935	375.31
314.165	380.31
314.394	394.31
314.624	407.31
314.853	380.31
315.083	374.31
315.312	365.31
315.542	391.31
315.771	360.31
316.001	368.31
316.23	379.31
316.46	368.31
316.689	382.31
316.919	383.31
317.148	373.31
317.377	385.31
317.607	396.31
317.836	378.31
318.065	371.31
318.295	374.31
318.524	387.31
318.753	377.31
318.983	367.31
319.212	390.31
319.441	401.31
319.67	395.31
319.9	377.31
320.129	362.31
320.358	377.31
320.587	379.31
320.816	415.31
321.046	398.31
321.275	392.31
321.504	377.31
321.733	397.31
321.962	408.31
322.191	423.31
322.42	406.31
322.649	446.31
322.878	438.31
323.108	449.31
323.337	469.31
323.566	491.31
323.795	495.31
324.024	537.31
324.253	665.31
324.482	939.31
324.71	1434.31
324.939	2028.31
325.168	1814.31
325.397	927.31
325.626	637.31
325.855	539.31
326.084	487.31
326.313	470.31
326.542	487.31
326.77	544.31
326.999	609.31
327.228	850.31
327.457	1285.31
327.686	1552.31
327.914	1027.31
328.143	693.31
328.372	583.31
328.6	573.31
328.829	522.31
329.058	555.31
329.287	544.31
329.515	500.31
329.744	467.31
329.972	472.31
330.201	477.31
330.43	500.31
330.658	531.31
330.887	578.31
331.115	560.31
331.344	491.31
331.572	470.31
331.801	465.31
332.03	489.31
332.258	448.31
332.486	430.31
332.715	459.31
332.943	448.31
333.172	447.31
333.4	445.31
333.629	453.31
333.857	470.31
334.085	465.31
334.314	459.31
334.542	445.31
334.771	471.31
334.999	456.31
335.227	441.31
335.455	456.31
335.684	448.31
335.912	468.31
336.14	437.31
336.369	444.31
336.597	461.31
336.825	465.31
337.053	460.31
337.281	441.31
337.51	433.31
337.738	456.31
337.966	433.31
338.194	458.31
338.422	439.31
338.65	438.31
338.878	435.31
339.106	419.31
339.334	436.31
339.562	439.31
339.79	436.31
340.018	420.31
340.246	435.31
340.474	450.31
340.702	434.31
340.93	439.31
341.158	436.31
341.386	409.31
341.614	417.31
341.842	423.31
342.07	428.31
342.298	419.31
342.526	445.31
342.754	409.31
342.981	410.31
343.209	415.31
343.437	410.31
343.665	436.31
343.893	440.31
344.12	445.31
344.348	469.31
344.576	441.31
344.804	447.31
345.031	434.31
345.259	439.31
345.487	447.31
345.714	423.31
345.942	435.31
346.17	424.31
346.397	422.31
346.625	423.31
346.853	428.31
347.08	413.31
347.308	428.31
347.535	432.31
347.763	439.31
347.99	434.31
348.218	427.31
348.445	437.31
348.673	437.31
348.9	433.31
349.128	412.31
349.355	396.31
349.583	398.31
349.81	410.31
350.037	401.31
350.265	427.31
350.492	409.31
350.72	416.31
350.947	417.31
351.174	416.31
351.402	426.31
351.629	436.31
351.856	429.31
352.083	420.31
352.311	440.31
352.538	435.31
352.765	439.31
352.992	444.31
353.22	400.31
353.447	399.31
353.674	414.31
353.901	404.31
354.128	413.31
354.355	402.31
354.583	392.31
354.81	395.31
355.037	401.31
355.264	403.31
355.491	398.31
355.718	389.31
355.945	400.31
356.172	410.31
356.399	400.31
356.626	387.31
356.853	389.31
357.08	376.31
357.307	401.31
357.534	403.31
357.761	404.31
357.988	399.31
358.215	392.31
358.441	390.31
358.668	407.31
358.895	420.31
359.122	403.31
359.349	397.31
359.576	423.31
359.802	416.31
360.029	453.31
360.256	456.31
360.483	436.31
360.709	425.31
360.936	428.31
361.163	445.31
361.39	412.31
361.616	418.31
361.843	402.31
362.07	410.31
362.296	412.31
362.523	417.31
362.749	425.31
362.976	405.31
363.203	393.31
363.429	415.31
363.656	394.31
363.882	407.31
364.109	393.31
364.335	378.31
364.562	375.31
364.788	382.31
365.015	400.31
365.241	409.31
365.468	398.31
365.694	405.31
365.92	407.31
366.147	409.31
366.373	416.31
366.599	383.31
366.826	392.31
367.052	402.31
367.278	412.31
367.505	391.31
367.731	400.31
367.957	409.31
368.184	380.31
368.41	414.31
368.636	416.31
368.862	420.31
369.089	420.31
369.315	397.31
369.541	416.31
369.767	391.31
369.993	408.31
370.219	419.31
370.445	394.31
370.672	395.31
370.898	388.31
371.124	391.31
371.35	398.31
371.576	401.31
371.802	398.31
372.028	403.31
372.254	396.31
372.48	385.31
372.706	422.31
372.932	397.31
373.158	404.31
373.384	426.31
373.61	409.31
373.835	421.31
374.061	417.31
374.287	429.31
374.513	431.31
374.739	428.31
374.965	428.31
375.191	419.31
375.416	421.31
375.642	414.31
375.868	405.31
376.094	390.31
376.319	411.31
376.545	405.31
376.771	402.31
376.997	418.31
377.222	397.31
377.448	411.31
377.674	396.31
377.899	403.31
378.125	423.31
378.35	398.31
378.576	395.31
378.802	405.31
379.027	411.31
379.253	374.31
379.478	406.31
379.704	394.31
379.929	399.31
380.155	407.31
380.38	402.31
380.606	394.31
380.831	408.31
381.057	396.31
381.282	420.31
381.507	396.31
381.733	403.31
381.958	409.31
382.184	426.31
382.409	401.31
382.634	420.31
382.86	427.31
383.085	418.31
383.31	412.31
383.535	425.31
383.761	423.31
383.986	435.31
384.211	404.31
384.436	444.31
384.662	437.31
384.887	439.31
385.112	432.31
385.337	440.31
385.562	444.31
385.787	453.31
386.013	463.31
386.238	476.31
386.463	458.31
386.688	457.31
386.913	440.31
387.138	458.31
387.363	455.31
387.588	454.31
387.813	435.31
388.038	456.31
388.263	446.31
388.488	450.31
388.713	459.31
388.938	447.31
389.163	439.31
389.387	445.31
389.612	451.31
389.837	473.31
390.062	448.31
390.287	436.31
390.512	445.31
390.736	445.31
390.961	474.31
391.186	429.31
391.411	455.31
391.636	463.31
391.86	457.31
392.085	450.31
392.31	456.31
392.534	459.31
392.759	458.31
392.984	462.31
393.208	460.31
393.433	472.31
393.658	463.31
393.882	455.31
394.107	456.31
394.331	433.31
394.556	469.31
394.78	445.31
395.005	461.31
395.229	443.31
395.454	479.31
395.678	472.31
395.903	477.31
396.127	493.31
396.352	514.31
396.576	466.31
396.801	460.31
397.025	475.31
397.249	475.31
397.474	484.31
397.698	493.31
397.922	464.31
398.147	524.31
398.371	521.31
398.595	507.31
398.82	510.31
399.044	555.31
399.268	555.31
399.492	564.31
399.717	595.31
399.941	615.31
400.165	629.31
400.389	637.31
400.613	582.31
400.837	541.31
401.062	539.31
401.286	517.31
401.51	523.31
401.734	509.31
401.958	541.31
402.182	530.31
402.406	527.31
402.63	534.31
402.854	527.31
403.078	521.31
403.302	528.31
403.526	544.31
403.75	503.31
403.974	537.31
404.198	517.31
404.422	523.31
404.645	533.31
404.869	515.31
405.093	544.31
405.317	565.31
405.541	600.31
405.765	555.31
405.988	528.31
406.212	536.31
406.436	570.31
406.66	594.31
406.883	577.31
407.107	581.31
407.331	666.31
407.555	707.31
407.778	714.31
408.002	628.31
408.226	601.31
408.449	583.31
408.673	597.31
408.896	599.31
409.12	623.31
409.344	616.31
409.567	585.31
409.791	559.31
410.014	528.31
410.238	545.31
410.461	544.31
410.685	547.31
410.908	547.31
411.132	586.31
411.355	612.31
411.578	587.31
411.802	558.31
412.025	547.31
412.249	545.31
412.472	550.31
412.695	548.31
412.919	543.31
413.142	502.31
413.365	522.31
413.589	510.31
413.812	496.31
414.035	491.31
414.258	517.31
414.482	517.31
414.705	485.31
414.928	489.31
415.151	504.31
415.374	509.31
415.597	490.31
415.821	486.31
416.044	500.31
416.267	483.31
416.49	492.31
416.713	501.31
416.936	508.31
417.159	498.31
417.382	500.31
417.605	468.31
417.828	496.31
418.051	541.31
418.274	515.31
418.497	495.31
418.72	501.31
418.943	491.31
419.166	511.31
419.389	538.31
419.611	543.31
419.834	516.31
420.057	545.31
420.28	518.31
420.503	534.31
420.726	534.31
420.948	542.31
421.171	581.31
421.394	594.31
421.617	527.31
421.839	535.31
422.062	523.31
422.285	540.31
422.507	612.31
422.73	667.31
422.953	646.31
423.175	580.31
423.398	537.31
423.621	548.31
423.843	564.31
424.066	563.31
424.288	564.31
424.511	563.31
424.733	602.31
424.956	711.31
425.178	690.31
425.401	664.31
425.623	691.31
425.846	592.31
426.068	577.31
426.291	555.31
426.513	558.31
426.735	555.31
426.958	587.31
427.18	682.31
427.402	825.31
427.625	883.31
427.847	759.31
428.069	648.31
428.292	590.31
428.514	537.31
428.736	529.31
428.958	514.31
429.181	514.31
429.403	512.31
429.625	538.31
429.847	550.31
430.069	620.31
430.292	629.31
430.514	539.31
430.736	500.31
430.958	511.31
431.18	519.31
431.402	497.31
431.624	493.31
431.846	472.31
432.068	496.31
432.29	489.31
432.512	486.31
432.734	506.31
432.956	510.31
433.178	496.31
433.4	495.31
433.622	496.31
433.844	524.31
434.066	472.31
434.287	493.31
434.509	489.31
434.731	493.31
434.953	519.31
435.175	544.31
435.397	572.31
435.618	570.31
435.84	596.31
436.062	700.31
436.284	761.31
436.505	652.31
436.727	561.31
436.949	541.31
437.17	499.31
437.392	522.31
437.614	524.31
437.835	541.31
438.057	658.31
438.278	767.31
438.5	734.31
438.721	851.31
438.943	801.31
439.165	626.31
439.386	582.31
439.608	593.31
439.829	584.31
440.05	586.31
440.272	617.31
440.493	602.31
440.715	549.31
440.936	529.31
441.158	533.31
441.379	504.31
441.6	525.31
441.822	552.31
442.043	583.31
442.264	658.31
442.486	712.31
442.707	629.31
442.928	581.31
443.149	583.31
443.371	599.31
443.592	641.31
443.813	737.31
444.034	800.31
444.255	661.31
444.476	573.31
444.698	579.31
444.919	591.31
445.14	663.31
445.361	631.31
445.582	624.31
445.803	677.31
446.024	796.31
446.245	766.31
446.466	715.31
446.687	615.31
446.908	565.31
447.129	525.31
447.35	501.31
447.571	525.31
447.792	501.31
448.013	543.31
448.234	541.31
448.455	560.31
448.675	686.31
448.896	816.31
449.117	698.31
449.338	659.31
449.559	753.31
449.779	877.31
450	697.31
450.221	576.31
450.442	537.31
450.662	506.31
450.883	512.31
451.104	533.31
451.324	502.31
451.545	509.31
451.766	469.31
451.986	484.31
452.207	484.31
452.428	479.31
452.648	488.31
452.869	457.31
453.089	459.31
453.31	480.31
453.53	476.31
453.751	481.31
453.971	486.31
454.192	481.31
454.412	488.31
454.633	450.31
454.853	461.31
455.073	461.31
455.294	486.31
455.514	552.31
455.734	556.31
455.955	468.31
456.175	441.31
456.395	442.31
456.616	453.31
456.836	440.31
457.056	439.31
457.276	427.31
457.497	436.31
457.717	445.31
457.937	456.31
458.157	445.31
458.377	461.31
458.598	484.31
458.818	527.31
459.038	598.31
459.258	620.31
459.478	545.31
459.698	505.31
459.918	489.31
460.138	508.31
460.358	508.31
460.578	507.31
460.798	526.31
461.018	504.31
461.238	489.31
461.458	515.31
461.678	506.31
461.898	528.31
462.118	525.31
462.338	545.31
462.558	532.31
462.777	534.31
462.997	584.31
463.217	548.31
463.437	565.31
463.657	547.31
463.876	580.31
464.096	550.31
464.316	539.31
464.536	543.31
464.755	569.31
464.975	536.31
465.195	601.31
465.414	643.31
465.634	583.31
465.854	517.31
466.073	489.31
466.293	508.31
466.512	500.31
466.732	510.31
466.951	485.31
467.171	489.31
467.391	471.31
467.61	482.31
467.829	482.31
468.049	480.31
468.268	494.31
468.488	474.31
468.707	467.31
468.927	491.31
469.146	482.31
469.365	483.31
469.585	489.31
469.804	497.31
470.023	486.31
470.243	517.31
470.462	479.31
470.681	524.31
470.901	490.31
471.12	479.31
471.339	477.31
471.558	502.31
471.777	480.31
471.997	484.31
472.216	509.31
472.435	481.31
472.654	495.31
472.873	515.31
473.092	496.31
473.311	475.31
473.53	486.31
473.749	487.31
473.968	514.31
474.187	636.31
474.406	641.31
474.625	560.31
474.844	505.31
475.063	466.31
475.282	486.31
475.501	509.31
475.72	500.31
475.939	501.31
476.158	500.31
476.377	519.31
476.596	501.31
476.814	517.31
477.033	507.31
477.252	531.31
477.471	544.31
477.69	521.31
477.908	549.31
478.127	532.31
478.346	548.31
478.564	539.31
478.783	543.31
479.002	557.31
479.22	566.31
479.439	594.31
479.658	577.31
479.876	581.31
480.095	600.31
480.313	615.31
480.532	587.31
480.751	582.31
480.969	575.31
481.188	578.31
481.406	616.31
481.624	584.31
481.843	573.31
482.061	575.31
482.28	579.31
482.498	564.31
482.717	556.31
482.935	587.31
483.153	573.31
483.372	604.31
483.59	583.31
483.808	579.31
484.027	597.31
484.245	567.31
484.463	588.31
484.681	610.31
484.9	565.31
485.118	604.31
485.336	592.31
485.554	601.31
485.772	594.31
485.99	605.31
486.209	607.31
486.427	617.31
486.645	593.31
486.863	633.31
487.081	628.31
487.299	603.31
487.517	591.31
487.735	611.31
487.953	608.31
488.171	625.31
488.389	613.31
488.607	594.31
488.825	619.31
489.043	643.31
489.261	634.31
489.479	622.31
489.696	616.31
489.914	623.31
490.132	649.31
490.35	646.31
490.568	616.31
490.786	643.31
491.003	659.31
491.221	676.31
491.439	664.31
491.657	669.31
491.874	675.31
492.092	678.31
492.31	691.31
492.527	703.31
492.745	697.31
492.963	703.31
493.18	684.31
493.398	701.31
493.615	711.31
493.833	740.31
494.05	699.31
494.268	713.31
494.485	724.31
494.703	728.31
494.92	715.31
495.138	708.31
495.355	705.31
495.573	728.31
495.79	725.31
496.008	738.31
496.225	710.31
496.442	735.31
496.66	722.31
496.877	711.31
497.094	732.31
497.312	732.31
497.529	743.31
497.746	759.31
497.963	790.31
498.181	779.31
498.398	810.31
498.615	804.31
498.832	824.31
499.049	831.31
499.267	865.31
499.484	874.31
499.701	923.31
499.918	943.31
500.135	995.31
500.352	1049.31
500.569	1076.31
500.786	1049.31
501.003	1031.31
501.22	992.31
501.437	979.31
501.654	932.31
501.871	930.31
