Data from 1988.PennyLincolnUp.Lamp.En5.5.200Scan.071819.P2_HRD10591_17-21-26-972.txt Node
Date: Thu Jul 18 17:21:26 EDT 2019
User: cochatt
Spectrometer: HR+D1059
Trigger mode: 1
Integration Time (sec): 1.000000E-1
Scans to average: 1
Electric dark correction enabled: true
Nonlinearity correction enabled: false
Boxcar width: 0
XAxis mode: Wavelengths
Number of Pixels in Spectrum: 2048
>>>>>Begin Spectral Data<<<<<
223.165	-6.31
223.4	-6.31
223.635	-6.31
223.869	-8.31
224.104	-23.31
224.338	-15.31
224.573	-23.31
224.808	-15.31
225.042	-3.31
225.277	-10.31
225.511	-2.31
225.746	9.69
225.98	4.69
226.215	8.69
226.449	19.69
226.683	16.69
226.918	20.69
227.152	27.69
227.387	15.69
227.621	22.69
227.856	34.69
228.09	39.69
228.324	46.69
228.559	68.69
228.793	67.69
229.027	103.69
229.262	121.69
229.496	104.69
229.73	152.69
229.964	178.69
230.199	146.69
230.433	119.69
230.667	118.69
230.901	127.69
231.136	126.69
231.37	116.69
231.604	118.69
231.838	108.69
232.072	114.69
232.306	120.69
232.541	118.69
232.775	112.69
233.009	122.69
233.243	123.69
233.477	112.69
233.711	100.69
233.945	120.69
234.179	118.69
234.413	137.69
234.647	135.69
234.881	121.69
235.115	102.69
235.349	125.69
235.583	143.69
235.817	127.69
236.051	131.69
236.285	136.69
236.519	134.69
236.753	135.69
236.987	168.69
237.221	202.69
237.455	254.69
237.689	196.69
237.922	160.69
238.156	143.69
238.39	141.69
238.624	133.69
238.858	121.69
239.091	130.69
239.325	137.69
239.559	138.69
239.793	138.69
240.027	141.69
240.26	159.69
240.494	166.69
240.728	160.69
240.961	153.69
241.195	160.69
241.429	150.69
241.662	144.69
241.896	140.69
242.13	140.69
242.363	151.69
242.597	155.69
242.83	151.69
243.064	153.69
243.298	139.69
243.531	139.69
243.765	146.69
243.998	155.69
244.232	159.69
244.465	151.69
244.699	155.69
244.932	150.69
245.166	150.69
245.399	154.69
245.633	163.69
245.866	163.69
246.099	153.69
246.333	150.69
246.566	159.69
246.8	145.69
247.033	166.69
247.266	156.69
247.5	165.69
247.733	176.69
247.966	165.69
248.2	181.69
248.433	181.69
248.666	186.69
248.899	204.69
249.133	217.69
249.366	218.69
249.599	219.69
249.832	199.69
250.066	200.69
250.299	196.69
250.532	206.69
250.765	215.69
250.998	241.69
251.231	256.69
251.465	231.69
251.698	221.69
251.931	207.69
252.164	203.69
252.397	204.69
252.63	222.69
252.863	211.69
253.096	224.69
253.329	243.69
253.562	256.69
253.795	243.69
254.028	228.69
254.261	229.69
254.494	244.69
254.727	270.69
254.96	285.69
255.193	300.69
255.426	267.69
255.659	251.69
255.892	246.69
256.124	226.69
256.357	214.69
256.59	222.69
256.823	223.69
257.056	225.69
257.289	236.69
257.521	221.69
257.754	224.69
257.987	215.69
258.22	240.69
258.452	233.69
258.685	232.69
258.918	218.69
259.151	217.69
259.383	254.69
259.616	226.69
259.849	237.69
260.081	256.69
260.314	261.69
260.547	268.69
260.779	254.69
261.012	260.69
261.244	265.69
261.477	251.69
261.71	214.69
261.942	224.69
262.175	251.69
262.407	249.69
262.64	231.69
262.872	227.69
263.105	226.69
263.337	244.69
263.57	233.69
263.802	216.69
264.035	242.69
264.267	210.69
264.499	223.69
264.732	221.69
264.964	222.69
265.197	225.69
265.429	224.69
265.661	215.69
265.894	241.69
266.126	230.69
266.358	228.69
266.591	224.69
266.823	204.69
267.055	255.69
267.287	262.69
267.52	243.69
267.752	240.69
267.984	254.69
268.216	220.69
268.448	238.69
268.681	272.69
268.913	275.69
269.145	265.69
269.377	289.69
269.609	301.69
269.841	284.69
270.073	300.69
270.306	321.69
270.538	328.69
270.77	343.69
271.002	317.69
271.234	342.69
271.466	322.69
271.698	347.69
271.93	350.69
272.162	336.69
272.394	357.69
272.626	333.69
272.858	313.69
273.09	291.69
273.322	305.69
273.553	283.69
273.785	289.69
274.017	276.69
274.249	278.69
274.481	280.69
274.713	274.69
274.945	294.69
275.176	292.69
275.408	295.69
275.64	288.69
275.872	289.69
276.104	283.69
276.335	284.69
276.567	292.69
276.799	298.69
277.031	324.69
277.262	338.69
277.494	337.69
277.726	328.69
277.957	308.69
278.189	310.69
278.421	290.69
278.652	296.69
278.884	293.69
279.115	279.69
279.347	294.69
279.579	288.69
279.81	286.69
280.042	285.69
280.273	278.69
280.505	279.69
280.736	287.69
280.968	281.69
281.199	293.69
281.431	295.69
281.662	300.69
281.894	275.69
282.125	300.69
282.356	300.69
282.588	334.69
282.819	341.69
283.051	309.69
283.282	299.69
283.513	298.69
283.745	306.69
283.976	310.69
284.207	321.69
284.439	300.69
284.67	292.69
284.901	314.69
285.132	304.69
285.364	281.69
285.595	297.69
285.826	276.69
286.057	298.69
286.288	285.69
286.52	305.69
286.751	326.69
286.982	291.69
287.213	302.69
287.444	320.69
287.675	322.69
287.906	328.69
288.138	329.69
288.369	340.69
288.6	334.69
288.831	317.69
289.062	302.69
289.293	312.69
289.524	312.69
289.755	303.69
289.986	305.69
290.217	330.69
290.448	302.69
290.679	304.69
290.91	315.69
291.141	316.69
291.371	319.69
291.602	316.69
291.833	314.69
292.064	315.69
292.295	312.69
292.526	327.69
292.757	305.69
292.987	320.69
293.218	308.69
293.449	300.69
293.68	322.69
293.91	315.69
294.141	322.69
294.372	332.69
294.603	323.69
294.833	310.69
295.064	314.69
295.295	313.69
295.525	320.69
295.756	340.69
295.987	321.69
296.217	355.69
296.448	377.69
296.679	334.69
296.909	331.69
297.14	334.69
297.37	318.69
297.601	323.69
297.831	334.69
298.062	336.69
298.292	333.69
298.523	328.69
298.753	331.69
298.984	337.69
299.214	339.69
299.445	336.69
299.675	340.69
299.905	353.69
300.136	335.69
300.366	328.69
300.597	347.69
300.827	339.69
301.057	362.69
301.288	356.69
301.518	360.69
301.748	352.69
301.979	360.69
302.209	368.69
302.439	368.69
302.669	360.69
302.9	344.69
303.13	357.69
303.36	351.69
303.59	365.69
303.82	377.69
304.051	386.69
304.281	350.69
304.511	359.69
304.741	362.69
304.971	376.69
305.201	360.69
305.431	368.69
305.661	349.69
305.891	356.69
306.121	376.69
306.352	386.69
306.582	375.69
306.812	370.69
307.042	374.69
307.272	377.69
307.502	366.69
307.731	370.69
307.961	357.69
308.191	361.69
308.421	353.69
308.651	389.69
308.881	374.69
309.111	391.69
309.341	394.69
309.571	373.69
309.8	389.69
310.03	420.69
310.26	414.69
310.49	407.69
310.72	419.69
310.949	451.69
311.179	438.69
311.409	411.69
311.639	421.69
311.868	409.69
312.098	420.69
312.328	420.69
312.557	441.69
312.787	466.69
313.017	451.69
313.246	425.69
313.476	415.69
313.706	416.69
313.935	432.69
314.165	436.69
314.394	445.69
314.624	444.69
314.853	412.69
315.083	422.69
315.312	417.69
315.542	432.69
315.771	414.69
316.001	407.69
316.23	404.69
316.46	409.69
316.689	425.69
316.919	434.69
317.148	430.69
317.377	441.69
317.607	443.69
317.836	428.69
318.065	411.69
318.295	447.69
318.524	419.69
318.753	424.69
318.983	423.69
319.212	416.69
319.441	425.69
319.67	444.69
319.9	435.69
320.129	444.69
320.358	432.69
320.587	442.69
320.816	435.69
321.046	440.69
321.275	436.69
321.504	443.69
321.733	475.69
321.962	458.69
322.191	468.69
322.42	489.69
322.649	519.69
322.878	534.69
323.108	524.69
323.337	539.69
323.566	562.69
323.795	611.69
324.024	670.69
324.253	816.69
324.482	1180.69
324.71	1834.69
324.939	2778.69
325.168	2398.69
325.397	1185.69
325.626	796.69
325.855	632.69
326.084	599.69
326.313	598.69
326.542	630.69
326.77	665.69
326.999	790.69
327.228	1074.69
327.457	1626.69
327.686	2062.69
327.914	1352.69
328.143	841.69
328.372	719.69
328.6	677.69
328.829	656.69
329.058	664.69
329.287	652.69
329.515	613.69
329.744	588.69
329.972	584.69
330.201	598.69
330.43	615.69
330.658	660.69
330.887	698.69
331.115	673.69
331.344	587.69
331.572	562.69
331.801	562.69
332.03	579.69
332.258	554.69
332.486	519.69
332.715	512.69
332.943	495.69
333.172	504.69
333.4	520.69
333.629	527.69
333.857	540.69
334.085	543.69
334.314	566.69
334.542	554.69
334.771	553.69
334.999	562.69
335.227	548.69
335.455	506.69
335.684	530.69
335.912	485.69
336.14	516.69
336.369	495.69
336.597	518.69
336.825	514.69
337.053	490.69
337.281	505.69
337.51	502.69
337.738	498.69
337.966	498.69
338.194	513.69
338.422	527.69
338.65	471.69
338.878	487.69
339.106	484.69
339.334	519.69
339.562	491.69
339.79	472.69
340.018	500.69
340.246	482.69
340.474	510.69
340.702	494.69
340.93	492.69
341.158	499.69
341.386	475.69
341.614	496.69
341.842	485.69
342.07	478.69
342.298	447.69
342.526	485.69
342.754	470.69
342.981	475.69
343.209	465.69
343.437	479.69
343.665	494.69
343.893	473.69
344.12	510.69
344.348	504.69
344.576	507.69
344.804	517.69
345.031	522.69
345.259	538.69
345.487	515.69
345.714	502.69
345.942	463.69
346.17	471.69
346.397	467.69
346.625	474.69
346.853	469.69
347.08	481.69
347.308	494.69
347.535	510.69
347.763	496.69
347.99	495.69
348.218	488.69
348.445	501.69
348.673	499.69
348.9	465.69
349.128	467.69
349.355	484.69
349.583	466.69
349.81	462.69
350.037	454.69
350.265	462.69
350.492	461.69
350.72	446.69
350.947	465.69
351.174	477.69
351.402	486.69
351.629	482.69
351.856	483.69
352.083	477.69
352.311	504.69
352.538	502.69
352.765	502.69
352.992	480.69
353.22	494.69
353.447	498.69
353.674	485.69
353.901	446.69
354.128	441.69
354.355	453.69
354.583	447.69
354.81	438.69
355.037	428.69
355.264	418.69
355.491	444.69
355.718	427.69
355.945	458.69
356.172	439.69
356.399	440.69
356.626	448.69
356.853	439.69
357.08	444.69
357.307	440.69
357.534	441.69
357.761	453.69
357.988	428.69
358.215	447.69
358.441	448.69
358.668	455.69
358.895	446.69
359.122	441.69
359.349	466.69
359.576	495.69
359.802	494.69
360.029	529.69
360.256	549.69
360.483	511.69
360.709	498.69
360.936	476.69
361.163	474.69
361.39	490.69
361.616	473.69
361.843	468.69
362.07	471.69
362.296	483.69
362.523	462.69
362.749	482.69
362.976	491.69
363.203	449.69
363.429	458.69
363.656	458.69
363.882	472.69
364.109	479.69
364.335	451.69
364.562	457.69
364.788	456.69
365.015	459.69
365.241	458.69
365.468	446.69
365.694	469.69
365.92	458.69
366.147	451.69
366.373	464.69
366.599	450.69
366.826	448.69
367.052	446.69
367.278	474.69
367.505	458.69
367.731	459.69
367.957	460.69
368.184	477.69
368.41	460.69
368.636	483.69
368.862	498.69
369.089	467.69
369.315	475.69
369.541	452.69
369.767	464.69
369.993	456.69
370.219	466.69
370.445	469.69
370.672	451.69
370.898	445.69
371.124	469.69
371.35	456.69
371.576	464.69
371.802	464.69
372.028	443.69
372.254	459.69
372.48	451.69
372.706	471.69
372.932	452.69
373.158	455.69
373.384	440.69
373.61	460.69
373.835	486.69
374.061	467.69
374.287	454.69
374.513	457.69
374.739	487.69
374.965	487.69
375.191	449.69
375.416	456.69
375.642	456.69
375.868	456.69
376.094	469.69
376.319	464.69
376.545	443.69
376.771	449.69
376.997	454.69
377.222	445.69
377.448	446.69
377.674	447.69
377.899	441.69
378.125	459.69
378.35	449.69
378.576	449.69
378.802	451.69
379.027	472.69
379.253	452.69
379.478	457.69
379.704	478.69
379.929	460.69
380.155	464.69
380.38	463.69
380.606	463.69
380.831	444.69
381.057	470.69
381.282	482.69
381.507	469.69
381.733	456.69
381.958	481.69
382.184	463.69
382.409	470.69
382.634	472.69
382.86	475.69
383.085	472.69
383.31	481.69
383.535	486.69
383.761	478.69
383.986	494.69
384.211	482.69
384.436	473.69
384.662	510.69
384.887	503.69
385.112	481.69
385.337	491.69
385.562	523.69
385.787	509.69
386.013	516.69
386.238	510.69
386.463	521.69
386.688	510.69
386.913	527.69
387.138	514.69
387.363	514.69
387.588	513.69
387.813	513.69
388.038	507.69
388.263	522.69
388.488	524.69
388.713	515.69
388.938	516.69
389.163	512.69
389.387	523.69
389.612	503.69
389.837	503.69
390.062	495.69
390.287	484.69
390.512	496.69
390.736	500.69
390.961	491.69
391.186	500.69
391.411	524.69
391.636	508.69
391.86	532.69
392.085	536.69
392.31	549.69
392.534	523.69
392.759	535.69
392.984	525.69
393.208	530.69
393.433	535.69
393.658	524.69
393.882	494.69
394.107	505.69
394.331	540.69
394.556	513.69
394.78	510.69
395.005	518.69
395.229	520.69
395.454	531.69
395.678	531.69
395.903	545.69
396.127	574.69
396.352	564.69
396.576	543.69
396.801	537.69
397.025	530.69
397.249	538.69
397.474	535.69
397.698	550.69
397.922	566.69
398.147	573.69
398.371	593.69
398.595	599.69
398.82	583.69
399.044	602.69
399.268	610.69
399.492	635.69
399.717	707.69
399.941	727.69
400.165	745.69
400.389	760.69
400.613	663.69
400.837	632.69
401.062	633.69
401.286	615.69
401.51	580.69
401.734	564.69
401.958	594.69
402.182	602.69
402.406	616.69
402.63	608.69
402.854	605.69
403.078	606.69
403.302	620.69
403.526	634.69
403.75	634.69
403.974	634.69
404.198	616.69
404.422	593.69
404.645	642.69
404.869	624.69
405.093	663.69
405.317	694.69
405.541	711.69
405.765	649.69
405.988	634.69
406.212	660.69
406.436	682.69
406.66	699.69
406.883	687.69
407.107	701.69
407.331	773.69
407.555	866.69
407.778	855.69
408.002	756.69
408.226	709.69
408.449	679.69
408.673	674.69
408.896	686.69
409.12	762.69
409.344	714.69
409.567	688.69
409.791	645.69
410.014	647.69
410.238	624.69
410.461	644.69
410.685	630.69
410.908	628.69
411.132	683.69
411.355	741.69
411.578	707.69
411.802	624.69
412.025	600.69
412.249	640.69
412.472	648.69
412.695	663.69
412.919	659.69
413.142	640.69
413.365	598.69
413.589	602.69
413.812	615.69
414.035	590.69
414.258	576.69
414.482	579.69
414.705	591.69
414.928	572.69
415.151	537.69
415.374	576.69
415.597	597.69
415.821	598.69
416.044	595.69
416.267	615.69
416.49	573.69
416.713	587.69
416.936	597.69
417.159	585.69
417.382	584.69
417.605	588.69
417.828	607.69
418.051	618.69
418.274	614.69
418.497	597.69
418.72	587.69
418.943	587.69
419.166	622.69
419.389	630.69
419.611	660.69
419.834	602.69
420.057	623.69
420.28	610.69
420.503	596.69
420.726	596.69
420.948	627.69
421.171	674.69
421.394	726.69
421.617	638.69
421.839	616.69
422.062	613.69
422.285	640.69
422.507	702.69
422.73	804.69
422.953	800.69
423.175	690.69
423.398	640.69
423.621	641.69
423.843	660.69
424.066	659.69
424.288	664.69
424.511	694.69
424.733	766.69
424.956	858.69
425.178	789.69
425.401	820.69
425.623	822.69
425.846	741.69
426.068	681.69
426.291	652.69
426.513	643.69
426.735	668.69
426.958	706.69
427.18	835.69
427.402	958.69
427.625	1103.69
427.847	962.69
428.069	836.69
428.292	731.69
428.514	651.69
428.736	644.69
428.958	637.69
429.181	605.69
429.403	611.69
429.625	611.69
429.847	664.69
430.069	740.69
430.292	734.69
430.514	630.69
430.736	590.69
430.958	612.69
431.18	597.69
431.402	566.69
431.624	541.69
431.846	586.69
432.068	598.69
432.29	589.69
432.512	578.69
432.734	596.69
432.956	574.69
433.178	596.69
433.4	591.69
433.622	574.69
433.844	565.69
434.066	580.69
434.287	601.69
434.509	588.69
434.731	592.69
434.953	580.69
435.175	627.69
435.397	642.69
435.618	678.69
435.84	705.69
436.062	826.69
436.284	930.69
436.505	786.69
436.727	699.69
436.949	630.69
437.17	613.69
437.392	636.69
437.614	652.69
437.835	663.69
438.057	818.69
438.278	916.69
438.5	919.69
438.721	1011.69
438.943	971.69
439.165	790.69
439.386	696.69
439.608	690.69
439.829	681.69
440.05	721.69
440.272	775.69
440.493	736.69
440.715	636.69
440.936	648.69
441.158	627.69
441.379	643.69
441.6	655.69
441.822	654.69
442.043	711.69
442.264	840.69
442.486	896.69
442.707	743.69
442.928	684.69
443.149	673.69
443.371	720.69
443.592	760.69
443.813	909.69
444.034	965.69
444.255	779.69
444.476	699.69
444.698	660.69
444.919	680.69
445.14	759.69
445.361	715.69
445.582	762.69
445.803	804.69
446.024	908.69
446.245	934.69
446.466	864.69
446.687	723.69
446.908	668.69
447.129	635.69
447.35	637.69
447.571	615.69
447.792	612.69
448.013	624.69
448.234	628.69
448.455	695.69
448.675	857.69
448.896	1010.69
449.117	834.69
449.338	759.69
449.559	898.69
449.779	1064.69
450	842.69
450.221	681.69
450.442	628.69
450.662	574.69
450.883	603.69
451.104	631.69
451.324	606.69
451.545	562.69
451.766	564.69
451.986	564.69
452.207	541.69
452.428	521.69
452.648	545.69
452.869	531.69
453.089	556.69
453.31	570.69
453.53	583.69
453.751	562.69
453.971	570.69
454.192	574.69
454.412	563.69
454.633	547.69
454.853	543.69
455.073	556.69
455.294	584.69
455.514	669.69
455.734	651.69
455.955	534.69
456.175	538.69
456.395	515.69
456.616	500.69
456.836	522.69
457.056	510.69
457.276	505.69
457.497	512.69
457.717	526.69
457.937	529.69
458.157	542.69
458.377	548.69
458.598	568.69
458.818	641.69
459.038	720.69
459.258	738.69
459.478	640.69
459.698	588.69
459.918	573.69
460.138	593.69
460.358	585.69
460.578	588.69
460.798	603.69
461.018	609.69
461.238	604.69
461.458	591.69
461.678	571.69
461.898	580.69
462.118	594.69
462.338	602.69
462.558	616.69
462.777	626.69
462.997	640.69
463.217	653.69
463.437	658.69
463.657	650.69
463.876	612.69
464.096	620.69
464.316	599.69
464.536	642.69
464.755	672.69
464.975	649.69
465.195	710.69
465.414	788.69
465.634	700.69
465.854	635.69
466.073	619.69
466.293	583.69
466.512	596.69
466.732	551.69
466.951	567.69
467.171	566.69
467.391	566.69
467.61	572.69
467.829	577.69
468.049	579.69
468.268	564.69
468.488	581.69
468.707	573.69
468.927	564.69
469.146	544.69
469.365	559.69
469.585	543.69
469.804	568.69
470.023	564.69
470.243	565.69
470.462	574.69
470.681	587.69
470.901	614.69
471.12	570.69
471.339	585.69
471.558	578.69
471.777	578.69
471.997	568.69
472.216	557.69
472.435	587.69
472.654	584.69
472.873	540.69
473.092	554.69
473.311	559.69
473.53	568.69
473.749	597.69
473.968	623.69
474.187	759.69
474.406	771.69
474.625	632.69
474.844	615.69
475.063	585.69
475.282	580.69
475.501	578.69
475.72	584.69
475.939	588.69
476.158	604.69
476.377	589.69
476.596	572.69
476.814	622.69
477.033	599.69
477.252	615.69
477.471	630.69
477.69	614.69
477.908	636.69
478.127	636.69
478.346	617.69
478.564	612.69
478.783	634.69
479.002	628.69
479.22	649.69
479.439	664.69
479.658	705.69
479.876	704.69
480.095	684.69
480.313	721.69
480.532	724.69
480.751	716.69
480.969	705.69
481.188	727.69
481.406	762.69
481.624	703.69
481.843	704.69
482.061	710.69
482.28	685.69
482.498	668.69
482.717	670.69
482.935	687.69
483.153	690.69
483.372	664.69
483.59	686.69
483.808	696.69
484.027	698.69
484.245	640.69
484.463	672.69
484.681	700.69
484.9	684.69
485.118	671.69
485.336	678.69
485.554	696.69
485.772	688.69
485.99	709.69
486.209	706.69
486.427	724.69
486.645	716.69
486.863	717.69
487.081	735.69
487.299	739.69
487.517	723.69
487.735	722.69
487.953	750.69
488.171	734.69
488.389	721.69
488.607	724.69
488.825	734.69
489.043	718.69
489.261	712.69
489.479	735.69
489.696	748.69
489.914	724.69
490.132	723.69
490.35	742.69
490.568	753.69
490.786	806.69
491.003	759.69
491.221	794.69
491.439	819.69
491.657	807.69
491.874	822.69
492.092	823.69
492.31	830.69
492.527	826.69
492.745	842.69
492.963	867.69
493.18	848.69
493.398	842.69
493.615	855.69
493.833	865.69
494.05	852.69
494.268	866.69
494.485	867.69
494.703	852.69
494.92	864.69
495.138	836.69
495.355	831.69
495.573	856.69
495.79	856.69
496.008	882.69
496.225	879.69
496.442	889.69
496.66	878.69
496.877	886.69
497.094	849.69
497.312	876.69
497.529	896.69
497.746	928.69
497.963	908.69
498.181	963.69
498.398	929.69
498.615	993.69
498.832	999.69
499.049	1015.69
499.267	1026.69
499.484	1050.69
499.701	1055.69
499.918	1129.69
500.135	1189.69
500.352	1203.69
500.569	1244.69
500.786	1244.69
501.003	1218.69
501.22	1174.69
501.437	1136.69
501.654	1143.69
