Data from 1988.PennyLincolnUp.Lamp.En5.5.200Scan.071819.P2_HRD10591_17-19-18-973.txt Node
Date: Thu Jul 18 17:19:18 EDT 2019
User: cochatt
Spectrometer: HR+D1059
Trigger mode: 1
Integration Time (sec): 1.000000E-1
Scans to average: 1
Electric dark correction enabled: true
Nonlinearity correction enabled: false
Boxcar width: 0
XAxis mode: Wavelengths
Number of Pixels in Spectrum: 2048
>>>>>Begin Spectral Data<<<<<
223.165	-7.69
223.4	-7.69
223.635	-7.69
223.869	-18.69
224.104	-11.69
224.338	-25.69
224.573	-14.69
224.808	-1.69
225.042	-9.69
225.277	-3.69
225.511	-8.69
225.746	-1.69
225.98	20.31
226.215	4.31
226.449	11.31
226.683	35.31
226.918	10.31
227.152	22.31
227.387	27.31
227.621	40.31
227.856	54.31
228.09	46.31
228.324	46.31
228.559	61.31
228.793	72.31
229.027	98.31
229.262	107.31
229.496	114.31
229.73	144.31
229.964	158.31
230.199	136.31
230.433	111.31
230.667	104.31
230.901	105.31
231.136	93.31
231.37	117.31
231.604	121.31
231.838	125.31
232.072	121.31
232.306	126.31
232.541	114.31
232.775	108.31
233.009	124.31
233.243	124.31
233.477	114.31
233.711	104.31
233.945	118.31
234.179	118.31
234.413	125.31
234.647	118.31
234.881	111.31
235.115	112.31
235.349	122.31
235.583	118.31
235.817	118.31
236.051	128.31
236.285	132.31
236.519	123.31
236.753	131.31
236.987	135.31
237.221	180.31
237.455	242.31
237.689	194.31
237.922	135.31
238.156	125.31
238.39	132.31
238.624	128.31
238.858	134.31
239.091	128.31
239.325	128.31
239.559	140.31
239.793	130.31
240.027	134.31
240.26	144.31
240.494	145.31
240.728	137.31
240.961	150.31
241.195	132.31
241.429	137.31
241.662	134.31
241.896	129.31
242.13	143.31
242.363	130.31
242.597	149.31
242.83	140.31
243.064	136.31
243.298	139.31
243.531	140.31
243.765	146.31
243.998	152.31
244.232	141.31
244.465	145.31
244.699	145.31
244.932	141.31
245.166	158.31
245.399	140.31
245.633	145.31
245.866	156.31
246.099	152.31
246.333	146.31
246.566	155.31
246.8	153.31
247.033	157.31
247.266	162.31
247.5	178.31
247.733	171.31
247.966	163.31
248.2	162.31
248.433	157.31
248.666	174.31
248.899	201.31
249.133	196.31
249.366	205.31
249.599	195.31
249.832	200.31
250.066	178.31
250.299	174.31
250.532	188.31
250.765	192.31
250.998	224.31
251.231	222.31
251.465	208.31
251.698	213.31
251.931	201.31
252.164	200.31
252.397	199.31
252.63	195.31
252.863	214.31
253.096	210.31
253.329	223.31
253.562	213.31
253.795	227.31
254.028	212.31
254.261	204.31
254.494	212.31
254.727	254.31
254.96	266.31
255.193	251.31
255.426	245.31
255.659	227.31
255.892	221.31
256.124	220.31
256.357	206.31
256.59	209.31
256.823	211.31
257.056	211.31
257.289	206.31
257.521	206.31
257.754	194.31
257.987	199.31
258.22	215.31
258.452	205.31
258.685	197.31
258.918	205.31
259.151	211.31
259.383	209.31
259.616	213.31
259.849	218.31
260.081	235.31
260.314	252.31
260.547	254.31
260.779	232.31
261.012	227.31
261.244	215.31
261.477	232.31
261.71	229.31
261.942	229.31
262.175	236.31
262.407	224.31
262.64	227.31
262.872	216.31
263.105	230.31
263.337	228.31
263.57	201.31
263.802	219.31
264.035	208.31
264.267	205.31
264.499	223.31
264.732	220.31
264.964	211.31
265.197	222.31
265.429	215.31
265.661	211.31
265.894	220.31
266.126	215.31
266.358	199.31
266.591	228.31
266.823	228.31
267.055	227.31
267.287	220.31
267.52	229.31
267.752	223.31
267.984	232.31
268.216	239.31
268.448	252.31
268.681	239.31
268.913	245.31
269.145	266.31
269.377	276.31
269.609	282.31
269.841	250.31
270.073	261.31
270.306	287.31
270.538	295.31
270.77	299.31
271.002	310.31
271.234	293.31
271.466	311.31
271.698	308.31
271.93	306.31
272.162	317.31
272.394	323.31
272.626	291.31
272.858	287.31
273.09	279.31
273.322	279.31
273.553	278.31
273.785	259.31
274.017	265.31
274.249	264.31
274.481	278.31
274.713	262.31
274.945	269.31
275.176	291.31
275.408	265.31
275.64	273.31
275.872	264.31
276.104	286.31
276.335	270.31
276.567	278.31
276.799	274.31
277.031	315.31
277.262	307.31
277.494	314.31
277.726	298.31
277.957	280.31
278.189	280.31
278.421	297.31
278.652	278.31
278.884	266.31
279.115	274.31
279.347	254.31
279.579	276.31
279.81	273.31
280.042	282.31
280.273	281.31
280.505	270.31
280.736	270.31
280.968	271.31
281.199	273.31
281.431	266.31
281.662	278.31
281.894	270.31
282.125	263.31
282.356	288.31
282.588	322.31
282.819	329.31
283.051	294.31
283.282	282.31
283.513	270.31
283.745	278.31
283.976	272.31
284.207	287.31
284.439	287.31
284.67	279.31
284.901	286.31
285.132	278.31
285.364	294.31
285.595	295.31
285.826	279.31
286.057	277.31
286.288	285.31
286.52	276.31
286.751	271.31
286.982	283.31
287.213	277.31
287.444	296.31
287.675	295.31
287.906	299.31
288.138	310.31
288.369	316.31
288.6	308.31
288.831	307.31
289.062	324.31
289.293	291.31
289.524	310.31
289.755	306.31
289.986	296.31
290.217	264.31
290.448	302.31
290.679	312.31
290.91	295.31
291.141	297.31
291.371	301.31
291.602	302.31
291.833	296.31
292.064	303.31
292.295	303.31
292.526	294.31
292.757	316.31
292.987	293.31
293.218	306.31
293.449	301.31
293.68	294.31
293.91	291.31
294.141	296.31
294.372	300.31
294.603	303.31
294.833	311.31
295.064	329.31
295.295	303.31
295.525	313.31
295.756	324.31
295.987	304.31
296.217	317.31
296.448	336.31
296.679	315.31
296.909	301.31
297.14	299.31
297.37	317.31
297.601	314.31
297.831	310.31
298.062	300.31
298.292	315.31
298.523	316.31
298.753	324.31
298.984	315.31
299.214	307.31
299.445	316.31
299.675	319.31
299.905	331.31
300.136	328.31
300.366	325.31
300.597	350.31
300.827	319.31
301.057	345.31
301.288	340.31
301.518	354.31
301.748	332.31
301.979	313.31
302.209	342.31
302.439	364.31
302.669	350.31
302.9	355.31
303.13	362.31
303.36	346.31
303.59	343.31
303.82	366.31
304.051	358.31
304.281	340.31
304.511	348.31
304.741	340.31
304.971	355.31
305.201	359.31
305.431	342.31
305.661	340.31
305.891	344.31
306.121	341.31
306.352	348.31
306.582	344.31
306.812	350.31
307.042	351.31
307.272	348.31
307.502	343.31
307.731	342.31
307.961	354.31
308.191	355.31
308.421	338.31
308.651	340.31
308.881	342.31
309.111	354.31
309.341	346.31
309.571	372.31
309.8	380.31
310.03	389.31
310.26	392.31
310.49	398.31
310.72	410.31
310.949	410.31
311.179	431.31
311.409	436.31
311.639	381.31
311.868	403.31
312.098	389.31
312.328	388.31
312.557	406.31
312.787	423.31
313.017	416.31
313.246	398.31
313.476	391.31
313.706	407.31
313.935	403.31
314.165	394.31
314.394	409.31
314.624	399.31
314.853	408.31
315.083	399.31
315.312	387.31
315.542	387.31
315.771	381.31
316.001	382.31
316.23	380.31
316.46	372.31
316.689	388.31
316.919	388.31
317.148	418.31
317.377	408.31
317.607	401.31
317.836	386.31
318.065	394.31
318.295	404.31
318.524	411.31
318.753	404.31
318.983	374.31
319.212	399.31
319.441	398.31
319.67	417.31
319.9	414.31
320.129	422.31
320.358	390.31
320.587	409.31
320.816	416.31
321.046	421.31
321.275	429.31
321.504	436.31
321.733	407.31
321.962	438.31
322.191	463.31
322.42	442.31
322.649	459.31
322.878	472.31
323.108	470.31
323.337	503.31
323.566	536.31
323.795	574.31
324.024	614.31
324.253	728.31
324.482	1022.31
324.71	1581.31
324.939	2224.31
325.168	2019.31
325.397	1010.31
325.626	694.31
325.855	598.31
326.084	546.31
326.313	560.31
326.542	541.31
326.77	592.31
326.999	695.31
327.228	946.31
327.457	1422.31
327.686	1684.31
327.914	1148.31
328.143	718.31
328.372	614.31
328.6	602.31
328.829	588.31
329.058	612.31
329.287	616.31
329.515	565.31
329.744	518.31
329.972	525.31
330.201	521.31
330.43	525.31
330.658	567.31
330.887	631.31
331.115	590.31
331.344	538.31
331.572	496.31
331.801	522.31
332.03	510.31
332.258	485.31
332.486	474.31
332.715	474.31
332.943	499.31
333.172	497.31
333.4	484.31
333.629	476.31
333.857	483.31
334.085	494.31
334.314	493.31
334.542	463.31
334.771	491.31
334.999	498.31
335.227	480.31
335.455	472.31
335.684	470.31
335.912	463.31
336.14	470.31
336.369	456.31
336.597	460.31
336.825	470.31
337.053	468.31
337.281	447.31
337.51	456.31
337.738	491.31
337.966	468.31
338.194	486.31
338.422	468.31
338.65	478.31
338.878	448.31
339.106	467.31
339.334	448.31
339.562	458.31
339.79	429.31
340.018	447.31
340.246	448.31
340.474	465.31
340.702	458.31
340.93	442.31
341.158	457.31
341.386	464.31
341.614	464.31
341.842	448.31
342.07	472.31
342.298	441.31
342.526	451.31
342.754	454.31
342.981	463.31
343.209	431.31
343.437	439.31
343.665	462.31
343.893	439.31
344.12	474.31
344.348	462.31
344.576	461.31
344.804	475.31
345.031	461.31
345.259	476.31
345.487	450.31
345.714	449.31
345.942	458.31
346.17	445.31
346.397	442.31
346.625	441.31
346.853	439.31
347.08	456.31
347.308	450.31
347.535	442.31
347.763	437.31
347.99	440.31
348.218	437.31
348.445	457.31
348.673	462.31
348.9	455.31
349.128	428.31
349.355	422.31
349.583	438.31
349.81	434.31
350.037	420.31
350.265	444.31
350.492	424.31
350.72	436.31
350.947	428.31
351.174	460.31
351.402	451.31
351.629	435.31
351.856	428.31
352.083	445.31
352.311	467.31
352.538	452.31
352.765	452.31
352.992	430.31
353.22	444.31
353.447	442.31
353.674	426.31
353.901	437.31
354.128	450.31
354.355	423.31
354.583	435.31
354.81	418.31
355.037	425.31
355.264	412.31
355.491	411.31
355.718	403.31
355.945	395.31
356.172	422.31
356.399	400.31
356.626	406.31
356.853	395.31
357.08	423.31
357.307	398.31
357.534	430.31
357.761	400.31
357.988	436.31
358.215	392.31
358.441	417.31
358.668	422.31
358.895	423.31
359.122	425.31
359.349	413.31
359.576	454.31
359.802	463.31
360.029	499.31
360.256	512.31
360.483	467.31
360.709	420.31
360.936	443.31
361.163	426.31
361.39	434.31
361.616	457.31
361.843	444.31
362.07	444.31
362.296	425.31
362.523	436.31
362.749	436.31
362.976	435.31
363.203	435.31
363.429	391.31
363.656	421.31
363.882	428.31
364.109	409.31
364.335	420.31
364.562	429.31
364.788	431.31
365.015	429.31
365.241	438.31
365.468	426.31
365.694	418.31
365.92	417.31
366.147	420.31
366.373	426.31
366.599	418.31
366.826	411.31
367.052	432.31
367.278	412.31
367.505	426.31
367.731	415.31
367.957	424.31
368.184	407.31
368.41	427.31
368.636	436.31
368.862	438.31
369.089	436.31
369.315	432.31
369.541	411.31
369.767	431.31
369.993	428.31
370.219	421.31
370.445	429.31
370.672	439.31
370.898	410.31
371.124	422.31
371.35	436.31
371.576	416.31
371.802	400.31
372.028	421.31
372.254	436.31
372.48	434.31
372.706	406.31
372.932	423.31
373.158	426.31
373.384	427.31
373.61	428.31
373.835	427.31
374.061	427.31
374.287	425.31
374.513	449.31
374.739	442.31
374.965	404.31
375.191	415.31
375.416	444.31
375.642	422.31
375.868	429.31
376.094	431.31
376.319	423.31
376.545	410.31
376.771	430.31
376.997	415.31
377.222	421.31
377.448	417.31
377.674	419.31
377.899	412.31
378.125	415.31
378.35	408.31
378.576	433.31
378.802	431.31
379.027	404.31
379.253	427.31
379.478	410.31
379.704	412.31
379.929	416.31
380.155	425.31
380.38	424.31
380.606	412.31
380.831	423.31
381.057	422.31
381.282	447.31
381.507	423.31
381.733	425.31
381.958	424.31
382.184	430.31
382.409	442.31
382.634	418.31
382.86	406.31
383.085	422.31
383.31	427.31
383.535	445.31
383.761	442.31
383.986	437.31
384.211	415.31
384.436	460.31
384.662	441.31
384.887	444.31
385.112	446.31
385.337	456.31
385.562	450.31
385.787	467.31
386.013	460.31
386.238	469.31
386.463	468.31
386.688	472.31
386.913	456.31
387.138	457.31
387.363	469.31
387.588	451.31
387.813	453.31
388.038	436.31
388.263	471.31
388.488	471.31
388.713	479.31
388.938	467.31
389.163	464.31
389.387	491.31
389.612	475.31
389.837	472.31
390.062	455.31
390.287	462.31
390.512	447.31
390.736	455.31
390.961	486.31
391.186	468.31
391.411	471.31
391.636	461.31
391.86	467.31
392.085	482.31
392.31	482.31
392.534	478.31
392.759	488.31
392.984	474.31
393.208	462.31
393.433	487.31
393.658	464.31
393.882	459.31
394.107	470.31
394.331	473.31
394.556	467.31
394.78	484.31
395.005	499.31
395.229	471.31
395.454	470.31
395.678	485.31
395.903	484.31
396.127	497.31
396.352	508.31
396.576	493.31
396.801	496.31
397.025	507.31
397.249	492.31
397.474	478.31
397.698	518.31
397.922	523.31
398.147	525.31
398.371	523.31
398.595	526.31
398.82	524.31
399.044	541.31
399.268	550.31
399.492	592.31
399.717	609.31
399.941	629.31
400.165	644.31
400.389	653.31
400.613	574.31
400.837	574.31
401.062	543.31
401.286	546.31
401.51	531.31
401.734	556.31
401.958	540.31
402.182	552.31
402.406	556.31
402.63	568.31
402.854	562.31
403.078	548.31
403.302	544.31
403.526	551.31
403.75	530.31
403.974	571.31
404.198	530.31
404.422	560.31
404.645	562.31
404.869	554.31
405.093	588.31
405.317	602.31
405.541	624.31
405.765	597.31
405.988	543.31
406.212	590.31
406.436	618.31
406.66	636.31
406.883	621.31
407.107	628.31
407.331	670.31
407.555	738.31
407.778	718.31
408.002	681.31
408.226	639.31
408.449	642.31
408.673	612.31
408.896	627.31
409.12	668.31
409.344	664.31
409.567	598.31
409.791	579.31
410.014	568.31
410.238	550.31
410.461	564.31
410.685	554.31
410.908	578.31
411.132	609.31
411.355	646.31
411.578	596.31
411.802	570.31
412.025	550.31
412.249	538.31
412.472	552.31
412.695	557.31
412.919	569.31
413.142	535.31
413.365	537.31
413.589	540.31
413.812	524.31
414.035	522.31
414.258	523.31
414.482	510.31
414.705	512.31
414.928	539.31
415.151	511.31
415.374	500.31
415.597	512.31
415.821	526.31
416.044	499.31
416.267	522.31
416.49	524.31
416.713	517.31
416.936	521.31
417.159	528.31
417.382	532.31
417.605	516.31
417.828	518.31
418.051	538.31
418.274	562.31
418.497	546.31
418.72	543.31
418.943	538.31
419.166	536.31
419.389	586.31
419.611	558.31
419.834	538.31
420.057	562.31
420.28	542.31
420.503	514.31
420.726	564.31
420.948	550.31
421.171	596.31
421.394	625.31
421.617	571.31
421.839	550.31
422.062	550.31
422.285	559.31
422.507	613.31
422.73	694.31
422.953	655.31
423.175	598.31
423.398	578.31
423.621	584.31
423.843	599.31
424.066	579.31
424.288	574.31
424.511	593.31
424.733	639.31
424.956	739.31
425.178	701.31
425.401	726.31
425.623	718.31
425.846	638.31
426.068	590.31
426.291	591.31
426.513	567.31
426.735	592.31
426.958	650.31
427.18	723.31
427.402	848.31
427.625	928.31
427.847	819.31
428.069	694.31
428.292	632.31
428.514	593.31
428.736	566.31
428.958	575.31
429.181	561.31
429.403	530.31
429.625	557.31
429.847	596.31
430.069	662.31
430.292	659.31
430.514	560.31
430.736	551.31
430.958	525.31
431.18	520.31
431.402	508.31
431.624	508.31
431.846	509.31
432.068	520.31
432.29	500.31
432.512	522.31
432.734	538.31
432.956	510.31
433.178	536.31
433.4	523.31
433.622	522.31
433.844	513.31
434.066	501.31
434.287	520.31
434.509	510.31
434.731	547.31
434.953	558.31
435.175	560.31
435.397	589.31
435.618	604.31
435.84	617.31
436.062	709.31
436.284	770.31
436.505	679.31
436.727	591.31
436.949	566.31
437.17	552.31
437.392	539.31
437.614	587.31
437.835	622.31
438.057	658.31
438.278	776.31
438.5	804.31
438.721	883.31
438.943	839.31
439.165	671.31
439.386	611.31
439.608	598.31
439.829	589.31
440.05	621.31
440.272	670.31
440.493	636.31
440.715	573.31
440.936	572.31
441.158	563.31
441.379	553.31
441.6	555.31
441.822	575.31
442.043	614.31
442.264	720.31
442.486	755.31
442.707	655.31
442.928	611.31
443.149	586.31
443.371	650.31
443.592	657.31
443.813	774.31
444.034	826.31
444.255	714.31
444.476	613.31
444.698	630.31
444.919	610.31
445.14	696.31
445.361	662.31
445.582	636.31
445.803	688.31
446.024	819.31
446.245	836.31
446.466	749.31
446.687	622.31
446.908	602.31
447.129	562.31
447.35	543.31
447.571	554.31
447.792	555.31
448.013	543.31
448.234	572.31
448.455	635.31
448.675	743.31
448.896	828.31
449.117	715.31
449.338	714.31
449.559	787.31
449.779	895.31
450	715.31
450.221	615.31
450.442	548.31
450.662	549.31
450.883	523.31
451.104	570.31
451.324	548.31
451.545	543.31
451.766	486.31
451.986	471.31
452.207	490.31
452.428	490.31
452.648	490.31
452.869	503.31
453.089	498.31
453.31	502.31
453.53	490.31
453.751	480.31
453.971	520.31
454.192	512.31
454.412	513.31
454.633	508.31
454.853	484.31
455.073	492.31
455.294	509.31
455.514	583.31
455.734	566.31
455.955	488.31
456.175	459.31
456.395	446.31
456.616	454.31
456.836	459.31
457.056	468.31
457.276	461.31
457.497	456.31
457.717	450.31
457.937	458.31
458.157	459.31
458.377	475.31
458.598	492.31
458.818	564.31
459.038	647.31
459.258	653.31
459.478	549.31
459.698	514.31
459.918	535.31
460.138	528.31
460.358	534.31
460.578	524.31
460.798	514.31
461.018	544.31
461.238	542.31
461.458	535.31
461.678	531.31
461.898	542.31
462.118	536.31
462.338	544.31
462.558	556.31
462.777	537.31
462.997	547.31
463.217	598.31
463.437	587.31
463.657	600.31
463.876	581.31
464.096	581.31
464.316	545.31
464.536	587.31
464.755	578.31
464.975	571.31
465.195	618.31
465.414	671.31
465.634	600.31
465.854	576.31
466.073	555.31
466.293	528.31
466.512	530.31
466.732	521.31
466.951	525.31
467.171	489.31
467.391	516.31
467.61	516.31
467.829	532.31
468.049	508.31
468.268	503.31
468.488	488.31
468.707	486.31
468.927	470.31
469.146	499.31
469.365	474.31
469.585	500.31
469.804	514.31
470.023	490.31
470.243	491.31
470.462	499.31
470.681	526.31
470.901	528.31
471.12	513.31
471.339	517.31
471.558	515.31
471.777	515.31
471.997	503.31
472.216	495.31
472.435	488.31
472.654	502.31
472.873	517.31
473.092	504.31
473.311	491.31
473.53	512.31
473.749	536.31
473.968	546.31
474.187	668.31
474.406	676.31
474.625	588.31
474.844	549.31
475.063	507.31
475.282	499.31
475.501	501.31
475.72	530.31
475.939	500.31
476.158	536.31
476.377	508.31
476.596	505.31
476.814	518.31
477.033	534.31
477.252	534.31
477.471	527.31
477.69	565.31
477.908	534.31
478.127	553.31
478.346	553.31
478.564	567.31
478.783	570.31
479.002	594.31
479.22	601.31
479.439	605.31
479.658	583.31
479.876	607.31
480.095	634.31
480.313	644.31
480.532	636.31
480.751	616.31
480.969	607.31
481.188	605.31
481.406	635.31
481.624	622.31
481.843	604.31
482.061	592.31
482.28	573.31
482.498	580.31
482.717	614.31
482.935	599.31
483.153	573.31
483.372	601.31
483.59	589.31
483.808	599.31
484.027	589.31
484.245	588.31
484.463	603.31
484.681	617.31
484.9	612.31
485.118	613.31
485.336	619.31
485.554	628.31
485.772	619.31
485.99	630.31
486.209	607.31
486.427	629.31
486.645	616.31
486.863	656.31
487.081	640.31
487.299	602.31
487.517	634.31
487.735	648.31
487.953	646.31
488.171	639.31
488.389	628.31
488.607	642.31
488.825	655.31
489.043	641.31
489.261	656.31
489.479	638.31
489.696	632.31
489.914	661.31
490.132	639.31
490.35	657.31
490.568	680.31
490.786	656.31
491.003	646.31
491.221	683.31
491.439	685.31
491.657	712.31
491.874	714.31
492.092	702.31
492.31	713.31
492.527	738.31
492.745	712.31
492.963	733.31
493.18	736.31
493.398	727.31
493.615	739.31
493.833	732.31
494.05	763.31
494.268	745.31
494.485	761.31
494.703	731.31
494.92	747.31
495.138	744.31
495.355	767.31
495.573	754.31
495.79	762.31
496.008	752.31
496.225	760.31
496.442	739.31
496.66	749.31
496.877	739.31
497.094	771.31
497.312	776.31
497.529	761.31
497.746	804.31
497.963	806.31
498.181	837.31
498.398	839.31
498.615	852.31
498.832	886.31
499.049	879.31
499.267	898.31
499.484	920.31
499.701	956.31
499.918	985.31
500.135	1034.31
500.352	1074.31
500.569	1089.31
500.786	1094.31
501.003	1083.31
501.22	1050.31
501.437	998.31
501.654	984.31
501.871	992.31
