Data from 1988.PennyLincolnUp.Lamp.En5.5.200Scan.071819.P2_HRD10591_17-18-44-971.txt Node
Date: Thu Jul 18 17:18:44 EDT 2019
User: cochatt
Spectrometer: HR+D1059
Trigger mode: 1
Integration Time (sec): 1.000000E-1
Scans to average: 1
Electric dark correction enabled: true
Nonlinearity correction enabled: false
Boxcar width: 0
XAxis mode: Wavelengths
Number of Pixels in Spectrum: 2048
>>>>>Begin Spectral Data<<<<<
223.165	-11.81
223.4	-11.81
223.635	-11.81
223.869	-21.81
224.104	-18.81
224.338	-11.81
224.573	-7.81
224.808	-13.81
225.042	-10.81
225.277	-3.81
225.511	-0.81
225.746	13.19
225.98	5.19
226.215	9.19
226.449	7.19
226.683	21.19
226.918	22.19
227.152	23.19
227.387	36.19
227.621	34.19
227.856	33.19
228.09	50.19
228.324	59.19
228.559	52.19
228.793	77.19
229.027	85.19
229.262	97.19
229.496	115.19
229.73	135.19
229.964	152.19
230.199	134.19
230.433	117.19
230.667	107.19
230.901	114.19
231.136	113.19
231.37	124.19
231.604	98.19
231.838	105.19
232.072	106.19
232.306	117.19
232.541	109.19
232.775	108.19
233.009	123.19
233.243	114.19
233.477	116.19
233.711	110.19
233.945	105.19
234.179	115.19
234.413	125.19
234.647	120.19
234.881	107.19
235.115	93.19
235.349	112.19
235.583	125.19
235.817	118.19
236.051	142.19
236.285	139.19
236.519	130.19
236.753	109.19
236.987	137.19
237.221	180.19
237.455	211.19
237.689	192.19
237.922	143.19
238.156	124.19
238.39	129.19
238.624	131.19
238.858	121.19
239.091	122.19
239.325	122.19
239.559	126.19
239.793	126.19
240.027	139.19
240.26	141.19
240.494	162.19
240.728	155.19
240.961	129.19
241.195	140.19
241.429	146.19
241.662	122.19
241.896	121.19
242.13	135.19
242.363	118.19
242.597	147.19
242.83	127.19
243.064	135.19
243.298	139.19
243.531	139.19
243.765	127.19
243.998	149.19
244.232	142.19
244.465	151.19
244.699	151.19
244.932	149.19
245.166	152.19
245.399	133.19
245.633	151.19
245.866	146.19
246.099	157.19
246.333	142.19
246.566	155.19
246.8	148.19
247.033	153.19
247.266	159.19
247.5	150.19
247.733	163.19
247.966	157.19
248.2	156.19
248.433	179.19
248.666	167.19
248.899	190.19
249.133	197.19
249.366	202.19
249.599	189.19
249.832	165.19
250.066	164.19
250.299	173.19
250.532	179.19
250.765	193.19
250.998	202.19
251.231	217.19
251.465	218.19
251.698	182.19
251.931	183.19
252.164	200.19
252.397	185.19
252.63	173.19
252.863	214.19
253.096	214.19
253.329	211.19
253.562	220.19
253.795	202.19
254.028	199.19
254.261	197.19
254.494	214.19
254.727	240.19
254.96	259.19
255.193	247.19
255.426	242.19
255.659	229.19
255.892	209.19
256.124	191.19
256.357	202.19
256.59	193.19
256.823	220.19
257.056	204.19
257.289	199.19
257.521	195.19
257.754	211.19
257.987	188.19
258.22	201.19
258.452	198.19
258.685	202.19
258.918	201.19
259.151	205.19
259.383	229.19
259.616	220.19
259.849	232.19
260.081	223.19
260.314	248.19
260.547	253.19
260.779	231.19
261.012	233.19
261.244	230.19
261.477	221.19
261.71	220.19
261.942	211.19
262.175	225.19
262.407	221.19
262.64	227.19
262.872	222.19
263.105	211.19
263.337	209.19
263.57	213.19
263.802	197.19
264.035	207.19
264.267	214.19
264.499	223.19
264.732	217.19
264.964	215.19
265.197	206.19
265.429	201.19
265.661	227.19
265.894	215.19
266.126	220.19
266.358	209.19
266.591	203.19
266.823	214.19
267.055	233.19
267.287	231.19
267.52	221.19
267.752	234.19
267.984	245.19
268.216	211.19
268.448	229.19
268.681	241.19
268.913	251.19
269.145	256.19
269.377	281.19
269.609	260.19
269.841	267.19
270.073	248.19
270.306	291.19
270.538	300.19
270.77	297.19
271.002	291.19
271.234	313.19
271.466	287.19
271.698	299.19
271.93	309.19
272.162	295.19
272.394	315.19
272.626	281.19
272.858	285.19
273.09	278.19
273.322	282.19
273.553	245.19
273.785	269.19
274.017	261.19
274.249	267.19
274.481	271.19
274.713	269.19
274.945	277.19
275.176	283.19
275.408	274.19
275.64	267.19
275.872	257.19
276.104	236.19
276.335	264.19
276.567	267.19
276.799	281.19
277.031	285.19
277.262	319.19
277.494	315.19
277.726	297.19
277.957	283.19
278.189	278.19
278.421	278.19
278.652	269.19
278.884	249.19
279.115	269.19
279.347	277.19
279.579	264.19
279.81	262.19
280.042	260.19
280.273	246.19
280.505	244.19
280.736	268.19
280.968	264.19
281.199	279.19
281.431	265.19
281.662	271.19
281.894	263.19
282.125	264.19
282.356	276.19
282.588	295.19
282.819	307.19
283.051	269.19
283.282	262.19
283.513	265.19
283.745	274.19
283.976	279.19
284.207	307.19
284.439	268.19
284.67	272.19
284.901	284.19
285.132	298.19
285.364	298.19
285.595	267.19
285.826	276.19
286.057	278.19
286.288	301.19
286.52	281.19
286.751	283.19
286.982	287.19
287.213	277.19
287.444	288.19
287.675	301.19
287.906	293.19
288.138	287.19
288.369	307.19
288.6	293.19
288.831	299.19
289.062	322.19
289.293	280.19
289.524	286.19
289.755	293.19
289.986	308.19
290.217	299.19
290.448	285.19
290.679	287.19
290.91	277.19
291.141	290.19
291.371	287.19
291.602	287.19
291.833	291.19
292.064	302.19
292.295	312.19
292.526	290.19
292.757	300.19
292.987	314.19
293.218	293.19
293.449	303.19
293.68	282.19
293.91	288.19
294.141	296.19
294.372	298.19
294.603	310.19
294.833	322.19
295.064	300.19
295.295	283.19
295.525	315.19
295.756	307.19
295.987	324.19
296.217	311.19
296.448	316.19
296.679	303.19
296.909	296.19
297.14	313.19
297.37	307.19
297.601	306.19
297.831	293.19
298.062	287.19
298.292	307.19
298.523	294.19
298.753	305.19
298.984	313.19
299.214	318.19
299.445	308.19
299.675	323.19
299.905	316.19
300.136	312.19
300.366	315.19
300.597	327.19
300.827	324.19
301.057	310.19
301.288	326.19
301.518	328.19
301.748	331.19
301.979	336.19
302.209	334.19
302.439	327.19
302.669	333.19
302.9	344.19
303.13	314.19
303.36	330.19
303.59	335.19
303.82	356.19
304.051	344.19
304.281	328.19
304.511	341.19
304.741	332.19
304.971	328.19
305.201	310.19
305.431	342.19
305.661	324.19
305.891	350.19
306.121	341.19
306.352	352.19
306.582	357.19
306.812	346.19
307.042	339.19
307.272	339.19
307.502	352.19
307.731	343.19
307.961	342.19
308.191	340.19
308.421	355.19
308.651	329.19
308.881	348.19
309.111	349.19
309.341	348.19
309.571	353.19
309.8	361.19
310.03	388.19
310.26	357.19
310.49	376.19
310.72	381.19
310.949	382.19
311.179	389.19
311.409	363.19
311.639	380.19
311.868	367.19
312.098	385.19
312.328	380.19
312.557	402.19
312.787	402.19
313.017	405.19
313.246	391.19
313.476	392.19
313.706	385.19
313.935	386.19
314.165	384.19
314.394	400.19
314.624	409.19
314.853	408.19
315.083	380.19
315.312	383.19
315.542	385.19
315.771	382.19
316.001	395.19
316.23	393.19
316.46	378.19
316.689	380.19
316.919	379.19
317.148	398.19
317.377	401.19
317.607	399.19
317.836	406.19
318.065	395.19
318.295	393.19
318.524	399.19
318.753	406.19
318.983	403.19
319.212	391.19
319.441	399.19
319.67	407.19
319.9	407.19
320.129	395.19
320.358	378.19
320.587	383.19
320.816	381.19
321.046	393.19
321.275	402.19
321.504	389.19
321.733	398.19
321.962	402.19
322.191	420.19
322.42	443.19
322.649	451.19
322.878	457.19
323.108	461.19
323.337	462.19
323.566	520.19
323.795	519.19
324.024	571.19
324.253	679.19
324.482	951.19
324.71	1469.19
324.939	2139.19
325.168	1789.19
325.397	929.19
325.626	663.19
325.855	558.19
326.084	518.19
326.313	501.19
326.542	493.19
326.77	533.19
326.999	627.19
327.228	888.19
327.457	1304.19
327.686	1572.19
327.914	1062.19
328.143	686.19
328.372	607.19
328.6	571.19
328.829	536.19
329.058	551.19
329.287	566.19
329.515	547.19
329.744	516.19
329.972	476.19
330.201	482.19
330.43	498.19
330.658	539.19
330.887	611.19
331.115	546.19
331.344	515.19
331.572	512.19
331.801	511.19
332.03	502.19
332.258	455.19
332.486	467.19
332.715	455.19
332.943	458.19
333.172	449.19
333.4	465.19
333.629	479.19
333.857	478.19
334.085	492.19
334.314	488.19
334.542	478.19
334.771	480.19
334.999	474.19
335.227	492.19
335.455	471.19
335.684	454.19
335.912	463.19
336.14	448.19
336.369	451.19
336.597	470.19
336.825	483.19
337.053	460.19
337.281	462.19
337.51	460.19
337.738	474.19
337.966	467.19
338.194	462.19
338.422	452.19
338.65	463.19
338.878	459.19
339.106	441.19
339.334	440.19
339.562	455.19
339.79	435.19
340.018	425.19
340.246	449.19
340.474	452.19
340.702	451.19
340.93	440.19
341.158	441.19
341.386	429.19
341.614	459.19
341.842	433.19
342.07	425.19
342.298	437.19
342.526	430.19
342.754	425.19
342.981	433.19
343.209	430.19
343.437	429.19
343.665	437.19
343.893	423.19
344.12	454.19
344.348	452.19
344.576	465.19
344.804	450.19
345.031	469.19
345.259	484.19
345.487	452.19
345.714	431.19
345.942	452.19
346.17	431.19
346.397	437.19
346.625	419.19
346.853	422.19
347.08	431.19
347.308	429.19
347.535	444.19
347.763	451.19
347.99	443.19
348.218	427.19
348.445	444.19
348.673	449.19
348.9	443.19
349.128	418.19
349.355	404.19
349.583	415.19
349.81	407.19
350.037	411.19
350.265	409.19
350.492	398.19
350.72	424.19
350.947	426.19
351.174	442.19
351.402	422.19
351.629	439.19
351.856	419.19
352.083	430.19
352.311	456.19
352.538	436.19
352.765	437.19
352.992	441.19
353.22	421.19
353.447	422.19
353.674	436.19
353.901	429.19
354.128	409.19
354.355	415.19
354.583	401.19
354.81	408.19
355.037	389.19
355.264	399.19
355.491	415.19
355.718	393.19
355.945	406.19
356.172	392.19
356.399	397.19
356.626	408.19
356.853	409.19
357.08	405.19
357.307	400.19
357.534	407.19
357.761	411.19
357.988	414.19
358.215	389.19
358.441	408.19
358.668	414.19
358.895	413.19
359.122	399.19
359.349	425.19
359.576	398.19
359.802	428.19
360.029	446.19
360.256	481.19
360.483	466.19
360.709	448.19
360.936	419.19
361.163	434.19
361.39	421.19
361.616	418.19
361.843	431.19
362.07	449.19
362.296	421.19
362.523	427.19
362.749	434.19
362.976	421.19
363.203	419.19
363.429	415.19
363.656	407.19
363.882	400.19
364.109	417.19
364.335	411.19
364.562	410.19
364.788	416.19
365.015	409.19
365.241	412.19
365.468	422.19
365.694	422.19
365.92	419.19
366.147	396.19
366.373	421.19
366.599	406.19
366.826	405.19
367.052	417.19
367.278	400.19
367.505	420.19
367.731	423.19
367.957	430.19
368.184	414.19
368.41	411.19
368.636	439.19
368.862	420.19
369.089	433.19
369.315	413.19
369.541	413.19
369.767	423.19
369.993	409.19
370.219	406.19
370.445	399.19
370.672	418.19
370.898	417.19
371.124	411.19
371.35	404.19
371.576	404.19
371.802	410.19
372.028	394.19
372.254	391.19
372.48	420.19
372.706	430.19
372.932	416.19
373.158	413.19
373.384	422.19
373.61	408.19
373.835	418.19
374.061	409.19
374.287	425.19
374.513	435.19
374.739	430.19
374.965	410.19
375.191	438.19
375.416	418.19
375.642	432.19
375.868	437.19
376.094	423.19
376.319	410.19
376.545	409.19
376.771	414.19
376.997	418.19
377.222	405.19
377.448	395.19
377.674	414.19
377.899	415.19
378.125	399.19
378.35	416.19
378.576	399.19
378.802	406.19
379.027	413.19
379.253	415.19
379.478	427.19
379.704	425.19
379.929	414.19
380.155	417.19
380.38	396.19
380.606	422.19
380.831	408.19
381.057	423.19
381.282	436.19
381.507	411.19
381.733	432.19
381.958	423.19
382.184	413.19
382.409	406.19
382.634	426.19
382.86	431.19
383.085	406.19
383.31	426.19
383.535	420.19
383.761	446.19
383.986	433.19
384.211	425.19
384.436	435.19
384.662	427.19
384.887	425.19
385.112	449.19
385.337	446.19
385.562	430.19
385.787	456.19
386.013	449.19
386.238	466.19
386.463	454.19
386.688	457.19
386.913	447.19
387.138	461.19
387.363	453.19
387.588	477.19
387.813	463.19
388.038	454.19
388.263	465.19
388.488	461.19
388.713	449.19
388.938	458.19
389.163	466.19
389.387	469.19
389.612	454.19
389.837	447.19
390.062	452.19
390.287	476.19
390.512	456.19
390.736	464.19
390.961	438.19
391.186	488.19
391.411	454.19
391.636	468.19
391.86	477.19
392.085	480.19
392.31	491.19
392.534	477.19
392.759	462.19
392.984	455.19
393.208	469.19
393.433	459.19
393.658	478.19
393.882	472.19
394.107	475.19
394.331	479.19
394.556	474.19
394.78	452.19
395.005	482.19
395.229	475.19
395.454	495.19
395.678	486.19
395.903	472.19
396.127	521.19
396.352	513.19
396.576	491.19
396.801	480.19
397.025	478.19
397.249	497.19
397.474	493.19
397.698	478.19
397.922	517.19
398.147	516.19
398.371	526.19
398.595	498.19
398.82	524.19
399.044	517.19
399.268	551.19
399.492	569.19
399.717	627.19
399.941	649.19
400.165	647.19
400.389	654.19
400.613	598.19
400.837	559.19
401.062	542.19
401.286	553.19
401.51	532.19
401.734	543.19
401.958	541.19
402.182	533.19
402.406	554.19
402.63	536.19
402.854	546.19
403.078	537.19
403.302	515.19
403.526	541.19
403.75	529.19
403.974	555.19
404.198	530.19
404.422	531.19
404.645	548.19
404.869	552.19
405.093	578.19
405.317	588.19
405.541	609.19
405.765	585.19
405.988	573.19
406.212	593.19
406.436	608.19
406.66	614.19
406.883	580.19
407.107	616.19
407.331	641.19
407.555	717.19
407.778	719.19
408.002	648.19
408.226	611.19
408.449	610.19
408.673	616.19
408.896	609.19
409.12	668.19
409.344	651.19
409.567	599.19
409.791	566.19
410.014	540.19
410.238	563.19
410.461	557.19
410.685	546.19
410.908	573.19
411.132	613.19
411.355	609.19
411.578	610.19
411.802	545.19
412.025	537.19
412.249	564.19
412.472	524.19
412.695	547.19
412.919	542.19
413.142	524.19
413.365	535.19
413.589	515.19
413.812	518.19
414.035	504.19
414.258	507.19
414.482	513.19
414.705	528.19
414.928	512.19
415.151	514.19
415.374	502.19
415.597	498.19
415.821	519.19
416.044	513.19
416.267	498.19
416.49	501.19
416.713	519.19
416.936	505.19
417.159	518.19
417.382	506.19
417.605	481.19
417.828	519.19
418.051	535.19
418.274	532.19
418.497	521.19
418.72	505.19
418.943	502.19
419.166	519.19
419.389	551.19
419.611	553.19
419.834	539.19
420.057	538.19
420.28	528.19
420.503	505.19
420.726	506.19
420.948	533.19
421.171	585.19
421.394	606.19
421.617	550.19
421.839	547.19
422.062	537.19
422.285	540.19
422.507	607.19
422.73	652.19
422.953	651.19
423.175	563.19
423.398	563.19
423.621	574.19
423.843	589.19
424.066	586.19
424.288	573.19
424.511	604.19
424.733	664.19
424.956	720.19
425.178	682.19
425.401	687.19
425.623	699.19
425.846	603.19
426.068	569.19
426.291	567.19
426.513	576.19
426.735	558.19
426.958	613.19
427.18	691.19
427.402	843.19
427.625	903.19
427.847	781.19
428.069	652.19
428.292	607.19
428.514	565.19
428.736	580.19
428.958	564.19
429.181	515.19
429.403	545.19
429.625	533.19
429.847	581.19
430.069	629.19
430.292	635.19
430.514	581.19
430.736	525.19
430.958	510.19
431.18	506.19
431.402	501.19
431.624	478.19
431.846	497.19
432.068	487.19
432.29	511.19
432.512	514.19
432.734	503.19
432.956	484.19
433.178	497.19
433.4	509.19
433.622	526.19
433.844	507.19
434.066	503.19
434.287	501.19
434.509	535.19
434.731	521.19
434.953	548.19
435.175	554.19
435.397	599.19
435.618	582.19
435.84	630.19
436.062	711.19
436.284	779.19
436.505	636.19
436.727	583.19
436.949	546.19
437.17	574.19
437.392	529.19
437.614	545.19
437.835	579.19
438.057	674.19
438.278	777.19
438.5	762.19
438.721	874.19
438.943	811.19
439.165	644.19
439.386	588.19
439.608	581.19
439.829	572.19
440.05	604.19
440.272	653.19
440.493	596.19
440.715	568.19
440.936	546.19
441.158	537.19
441.379	515.19
441.6	531.19
441.822	567.19
442.043	607.19
442.264	675.19
442.486	741.19
442.707	625.19
442.928	596.19
443.149	586.19
443.371	609.19
443.592	667.19
443.813	771.19
444.034	841.19
444.255	702.19
444.476	617.19
444.698	591.19
444.919	578.19
445.14	652.19
445.361	619.19
445.582	619.19
445.803	686.19
446.024	799.19
446.245	778.19
446.466	729.19
446.687	625.19
446.908	551.19
447.129	538.19
447.35	543.19
447.571	546.19
447.792	511.19
448.013	533.19
448.234	533.19
448.455	598.19
448.675	724.19
448.896	840.19
449.117	714.19
449.338	682.19
449.559	783.19
449.779	907.19
450	701.19
450.221	594.19
450.442	535.19
450.662	530.19
450.883	523.19
451.104	534.19
451.324	527.19
451.545	517.19
451.766	505.19
451.986	503.19
452.207	494.19
452.428	469.19
452.648	479.19
452.869	472.19
453.089	488.19
453.31	503.19
453.53	466.19
453.751	463.19
453.971	491.19
454.192	506.19
454.412	501.19
454.633	480.19
454.853	485.19
455.073	473.19
455.294	494.19
455.514	573.19
455.734	567.19
455.955	493.19
456.175	480.19
456.395	460.19
456.616	456.19
456.836	459.19
457.056	446.19
457.276	473.19
457.497	453.19
457.717	448.19
457.937	466.19
458.157	471.19
458.377	480.19
458.598	489.19
458.818	524.19
459.038	613.19
459.258	614.19
459.478	574.19
459.698	518.19
459.918	512.19
460.138	503.19
460.358	538.19
460.578	525.19
460.798	525.19
461.018	548.19
461.238	505.19
461.458	511.19
461.678	519.19
461.898	527.19
462.118	532.19
462.338	519.19
462.558	538.19
462.777	566.19
462.997	553.19
463.217	572.19
463.437	566.19
463.657	572.19
463.876	551.19
464.096	565.19
464.316	550.19
464.536	563.19
464.755	567.19
464.975	542.19
465.195	570.19
465.414	631.19
465.634	589.19
465.854	541.19
466.073	526.19
466.293	529.19
466.512	513.19
466.732	491.19
466.951	492.19
467.171	513.19
467.391	499.19
467.61	486.19
467.829	493.19
468.049	487.19
468.268	493.19
468.488	465.19
468.707	467.19
468.927	499.19
469.146	473.19
469.365	486.19
469.585	481.19
469.804	477.19
470.023	525.19
470.243	494.19
470.462	506.19
470.681	489.19
470.901	507.19
471.12	508.19
471.339	501.19
471.558	502.19
471.777	516.19
471.997	512.19
472.216	472.19
472.435	516.19
472.654	494.19
472.873	491.19
473.092	495.19
473.311	495.19
473.53	516.19
473.749	533.19
473.968	520.19
474.187	647.19
474.406	665.19
474.625	573.19
474.844	522.19
475.063	517.19
475.282	503.19
475.501	503.19
475.72	556.19
475.939	512.19
476.158	514.19
476.377	491.19
476.596	515.19
476.814	526.19
477.033	535.19
477.252	537.19
477.471	539.19
477.69	532.19
477.908	553.19
478.127	549.19
478.346	533.19
478.564	558.19
478.783	557.19
479.002	575.19
479.22	598.19
479.439	590.19
479.658	591.19
479.876	594.19
480.095	618.19
480.313	627.19
480.532	608.19
480.751	612.19
480.969	588.19
481.188	618.19
481.406	605.19
481.624	595.19
481.843	601.19
482.061	567.19
482.28	590.19
482.498	571.19
482.717	581.19
482.935	583.19
483.153	588.19
483.372	578.19
483.59	587.19
483.808	593.19
484.027	590.19
484.245	593.19
484.463	587.19
484.681	604.19
484.9	606.19
485.118	586.19
485.336	607.19
485.554	618.19
485.772	612.19
485.99	592.19
486.209	605.19
486.427	611.19
486.645	618.19
486.863	644.19
487.081	639.19
487.299	606.19
487.517	643.19
487.735	643.19
487.953	633.19
488.171	631.19
488.389	619.19
488.607	635.19
488.825	625.19
489.043	629.19
489.261	633.19
489.479	622.19
489.696	652.19
489.914	645.19
490.132	673.19
490.35	665.19
490.568	651.19
490.786	662.19
491.003	676.19
491.221	682.19
491.439	671.19
491.657	705.19
491.874	704.19
492.092	678.19
492.31	706.19
492.527	716.19
492.745	694.19
492.963	718.19
493.18	715.19
493.398	706.19
493.615	728.19
493.833	725.19
494.05	710.19
494.268	720.19
494.485	700.19
494.703	736.19
494.92	723.19
495.138	733.19
495.355	750.19
495.573	740.19
495.79	727.19
496.008	724.19
496.225	742.19
496.442	762.19
496.66	748.19
496.877	746.19
497.094	758.19
497.312	737.19
497.529	780.19
497.746	762.19
497.963	796.19
498.181	818.19
498.398	801.19
498.615	843.19
498.832	848.19
499.049	871.19
499.267	892.19
499.484	945.19
499.701	953.19
499.918	985.19
500.135	1037.19
500.352	1075.19
500.569	1053.19
500.786	1097.19
501.003	1061.19
501.22	1027.19
501.437	998.19
501.654	987.19
501.871	953.19
