Data from 1988.PennyLincolnUp.Lamp.En5.5.200Scan.071819.P2_HRD10591_17-18-26-971.txt Node
Date: Thu Jul 18 17:18:26 EDT 2019
User: cochatt
Spectrometer: HR+D1059
Trigger mode: 1
Integration Time (sec): 1.000000E-1
Scans to average: 1
Electric dark correction enabled: true
Nonlinearity correction enabled: false
Boxcar width: 0
XAxis mode: Wavelengths
Number of Pixels in Spectrum: 2048
>>>>>Begin Spectral Data<<<<<
223.165	-10.44
223.4	-10.44
223.635	-10.44
223.869	-12.44
224.104	-3.44
224.338	-28.44
224.573	-14.44
224.808	-21.44
225.042	9.56
225.277	-0.44
225.511	-6.44
225.746	-2.44
225.98	-10.44
226.215	15.56
226.449	9.56
226.683	9.56
226.918	30.56
227.152	35.56
227.387	42.56
227.621	26.56
227.856	42.56
228.09	64.56
228.324	40.56
228.559	60.56
228.793	55.56
229.027	79.56
229.262	86.56
229.496	92.56
229.73	111.56
229.964	120.56
230.199	101.56
230.433	91.56
230.667	108.56
230.901	105.56
231.136	89.56
231.37	105.56
231.604	105.56
231.838	106.56
232.072	95.56
232.306	90.56
232.541	106.56
232.775	105.56
233.009	117.56
233.243	97.56
233.477	101.56
233.711	106.56
233.945	100.56
234.179	117.56
234.413	115.56
234.647	101.56
234.881	105.56
235.115	98.56
235.349	108.56
235.583	111.56
235.817	97.56
236.051	118.56
236.285	119.56
236.519	111.56
236.753	120.56
236.987	122.56
237.221	169.56
237.455	191.56
237.689	161.56
237.922	129.56
238.156	120.56
238.39	119.56
238.624	121.56
238.858	114.56
239.091	115.56
239.325	120.56
239.559	127.56
239.793	125.56
240.027	124.56
240.26	121.56
240.494	136.56
240.728	124.56
240.961	137.56
241.195	130.56
241.429	133.56
241.662	116.56
241.896	124.56
242.13	104.56
242.363	127.56
242.597	124.56
242.83	136.56
243.064	116.56
243.298	123.56
243.531	129.56
243.765	127.56
243.998	138.56
244.232	124.56
244.465	127.56
244.699	135.56
244.932	126.56
245.166	122.56
245.399	134.56
245.633	132.56
245.866	144.56
246.099	150.56
246.333	141.56
246.566	128.56
246.8	140.56
247.033	149.56
247.266	136.56
247.5	139.56
247.733	146.56
247.966	161.56
248.2	137.56
248.433	160.56
248.666	160.56
248.899	184.56
249.133	177.56
249.366	167.56
249.599	189.56
249.832	141.56
250.066	166.56
250.299	170.56
250.532	171.56
250.765	164.56
250.998	164.56
251.231	202.56
251.465	180.56
251.698	179.56
251.931	163.56
252.164	148.56
252.397	178.56
252.63	181.56
252.863	166.56
253.096	192.56
253.329	183.56
253.562	191.56
253.795	182.56
254.028	188.56
254.261	210.56
254.494	182.56
254.727	204.56
254.96	216.56
255.193	211.56
255.426	211.56
255.659	207.56
255.892	195.56
256.124	184.56
256.357	189.56
256.59	183.56
256.823	179.56
257.056	183.56
257.289	183.56
257.521	193.56
257.754	188.56
257.987	194.56
258.22	179.56
258.452	193.56
258.685	182.56
258.918	193.56
259.151	179.56
259.383	197.56
259.616	205.56
259.849	188.56
260.081	192.56
260.314	224.56
260.547	213.56
260.779	203.56
261.012	191.56
261.244	196.56
261.477	212.56
261.71	194.56
261.942	198.56
262.175	205.56
262.407	200.56
262.64	199.56
262.872	203.56
263.105	177.56
263.337	205.56
263.57	198.56
263.802	189.56
264.035	179.56
264.267	199.56
264.499	179.56
264.732	186.56
264.964	201.56
265.197	207.56
265.429	186.56
265.661	192.56
265.894	201.56
266.126	193.56
266.358	195.56
266.591	195.56
266.823	203.56
267.055	193.56
267.287	187.56
267.52	214.56
267.752	195.56
267.984	206.56
268.216	208.56
268.448	207.56
268.681	222.56
268.913	214.56
269.145	228.56
269.377	230.56
269.609	237.56
269.841	252.56
270.073	224.56
270.306	233.56
270.538	259.56
270.77	244.56
271.002	248.56
271.234	251.56
271.466	258.56
271.698	252.56
271.93	272.56
272.162	263.56
272.394	273.56
272.626	273.56
272.858	256.56
273.09	245.56
273.322	243.56
273.553	225.56
273.785	228.56
274.017	234.56
274.249	253.56
274.481	220.56
274.713	229.56
274.945	241.56
275.176	208.56
275.408	225.56
275.64	242.56
275.872	228.56
276.104	244.56
276.335	240.56
276.567	235.56
276.799	255.56
277.031	253.56
277.262	263.56
277.494	275.56
277.726	268.56
277.957	248.56
278.189	253.56
278.421	254.56
278.652	237.56
278.884	239.56
279.115	228.56
279.347	247.56
279.579	256.56
279.81	236.56
280.042	236.56
280.273	245.56
280.505	240.56
280.736	221.56
280.968	246.56
281.199	247.56
281.431	246.56
281.662	237.56
281.894	237.56
282.125	243.56
282.356	271.56
282.588	264.56
282.819	233.56
283.051	237.56
283.282	237.56
283.513	245.56
283.745	254.56
283.976	258.56
284.207	269.56
284.439	244.56
284.67	252.56
284.901	258.56
285.132	276.56
285.364	258.56
285.595	240.56
285.826	270.56
286.057	269.56
286.288	259.56
286.52	263.56
286.751	244.56
286.982	267.56
287.213	263.56
287.444	262.56
287.675	259.56
287.906	268.56
288.138	275.56
288.369	273.56
288.6	263.56
288.831	272.56
289.062	267.56
289.293	270.56
289.524	269.56
289.755	263.56
289.986	261.56
290.217	277.56
290.448	259.56
290.679	274.56
290.91	267.56
291.141	260.56
291.371	261.56
291.602	271.56
291.833	269.56
292.064	263.56
292.295	277.56
292.526	280.56
292.757	259.56
292.987	254.56
293.218	264.56
293.449	280.56
293.68	271.56
293.91	248.56
294.141	255.56
294.372	264.56
294.603	266.56
294.833	291.56
295.064	283.56
295.295	265.56
295.525	275.56
295.756	257.56
295.987	268.56
296.217	303.56
296.448	283.56
296.679	287.56
296.909	262.56
297.14	265.56
297.37	279.56
297.601	283.56
297.831	270.56
298.062	278.56
298.292	292.56
298.523	263.56
298.753	284.56
298.984	289.56
299.214	294.56
299.445	299.56
299.675	292.56
299.905	277.56
300.136	279.56
300.366	281.56
300.597	277.56
300.827	290.56
301.057	300.56
301.288	309.56
301.518	293.56
301.748	284.56
301.979	324.56
302.209	307.56
302.439	307.56
302.669	318.56
302.9	308.56
303.13	295.56
303.36	305.56
303.59	289.56
303.82	320.56
304.051	307.56
304.281	296.56
304.511	298.56
304.741	309.56
304.971	315.56
305.201	308.56
305.431	308.56
305.661	302.56
305.891	291.56
306.121	302.56
306.352	310.56
306.582	325.56
306.812	309.56
307.042	316.56
307.272	307.56
307.502	296.56
307.731	315.56
307.961	310.56
308.191	320.56
308.421	313.56
308.651	320.56
308.881	303.56
309.111	320.56
309.341	317.56
309.571	321.56
309.8	324.56
310.03	318.56
310.26	344.56
310.49	344.56
310.72	347.56
310.949	349.56
311.179	351.56
311.409	350.56
311.639	340.56
311.868	341.56
312.098	334.56
312.328	339.56
312.557	347.56
312.787	356.56
313.017	356.56
313.246	331.56
313.476	341.56
313.706	342.56
313.935	332.56
314.165	341.56
314.394	349.56
314.624	346.56
314.853	348.56
315.083	354.56
315.312	351.56
315.542	353.56
315.771	351.56
316.001	349.56
316.23	339.56
316.46	337.56
316.689	345.56
316.919	330.56
317.148	337.56
317.377	356.56
317.607	343.56
317.836	365.56
318.065	334.56
318.295	361.56
318.524	354.56
318.753	339.56
318.983	334.56
319.212	350.56
319.441	339.56
319.67	356.56
319.9	363.56
320.129	357.56
320.358	364.56
320.587	367.56
320.816	365.56
321.046	377.56
321.275	356.56
321.504	357.56
321.733	353.56
321.962	379.56
322.191	377.56
322.42	395.56
322.649	383.56
322.878	403.56
323.108	404.56
323.337	414.56
323.566	403.56
323.795	427.56
324.024	481.56
324.253	528.56
324.482	700.56
324.71	1069.56
324.939	1535.56
325.168	1332.56
325.397	699.56
325.626	483.56
325.855	442.56
326.084	410.56
326.313	411.56
326.542	440.56
326.77	444.56
326.999	515.56
327.228	677.56
327.457	953.56
327.686	1135.56
327.914	780.56
328.143	556.56
328.372	477.56
328.6	482.56
328.829	450.56
329.058	460.56
329.287	449.56
329.515	460.56
329.744	421.56
329.972	419.56
330.201	407.56
330.43	451.56
330.658	458.56
330.887	477.56
331.115	488.56
331.344	457.56
331.572	432.56
331.801	439.56
332.03	405.56
332.258	432.56
332.486	435.56
332.715	425.56
332.943	409.56
333.172	413.56
333.4	433.56
333.629	414.56
333.857	437.56
334.085	429.56
334.314	439.56
334.542	423.56
334.771	433.56
334.999	438.56
335.227	416.56
335.455	412.56
335.684	416.56
335.912	396.56
336.14	397.56
336.369	419.56
336.597	410.56
336.825	413.56
337.053	421.56
337.281	406.56
337.51	399.56
337.738	391.56
337.966	413.56
338.194	414.56
338.422	401.56
338.65	417.56
338.878	397.56
339.106	409.56
339.334	411.56
339.562	404.56
339.79	420.56
340.018	402.56
340.246	407.56
340.474	400.56
340.702	411.56
340.93	405.56
341.158	390.56
341.386	385.56
341.614	411.56
341.842	416.56
342.07	395.56
342.298	397.56
342.526	408.56
342.754	404.56
342.981	392.56
343.209	379.56
343.437	399.56
343.665	417.56
343.893	413.56
344.12	410.56
344.348	420.56
344.576	419.56
344.804	421.56
345.031	417.56
345.259	395.56
345.487	392.56
345.714	397.56
345.942	410.56
346.17	388.56
346.397	387.56
346.625	376.56
346.853	401.56
347.08	383.56
347.308	388.56
347.535	387.56
347.763	387.56
347.99	379.56
348.218	375.56
348.445	383.56
348.673	397.56
348.9	393.56
349.128	372.56
349.355	387.56
349.583	394.56
349.81	375.56
350.037	355.56
350.265	383.56
350.492	377.56
350.72	379.56
350.947	383.56
351.174	383.56
351.402	378.56
351.629	383.56
351.856	374.56
352.083	385.56
352.311	392.56
352.538	392.56
352.765	404.56
352.992	405.56
353.22	374.56
353.447	379.56
353.674	388.56
353.901	385.56
354.128	375.56
354.355	352.56
354.583	373.56
354.81	364.56
355.037	367.56
355.264	347.56
355.491	364.56
355.718	377.56
355.945	365.56
356.172	374.56
356.399	367.56
356.626	379.56
356.853	349.56
357.08	358.56
357.307	373.56
357.534	359.56
357.761	356.56
357.988	352.56
358.215	364.56
358.441	380.56
358.668	380.56
358.895	385.56
359.122	391.56
359.349	377.56
359.576	381.56
359.802	384.56
360.029	412.56
360.256	419.56
360.483	393.56
360.709	375.56
360.936	384.56
361.163	391.56
361.39	373.56
361.616	392.56
361.843	389.56
362.07	377.56
362.296	373.56
362.523	395.56
362.749	379.56
362.976	383.56
363.203	393.56
363.429	375.56
363.656	369.56
363.882	393.56
364.109	375.56
364.335	362.56
364.562	373.56
364.788	383.56
365.015	388.56
365.241	367.56
365.468	389.56
365.694	377.56
365.92	360.56
366.147	366.56
366.373	373.56
366.599	385.56
366.826	368.56
367.052	365.56
367.278	367.56
367.505	394.56
367.731	397.56
367.957	393.56
368.184	378.56
368.41	371.56
368.636	394.56
368.862	395.56
369.089	390.56
369.315	371.56
369.541	382.56
369.767	387.56
369.993	376.56
370.219	396.56
370.445	359.56
370.672	377.56
370.898	361.56
371.124	375.56
371.35	403.56
371.576	395.56
371.802	377.56
372.028	378.56
372.254	373.56
372.48	372.56
372.706	385.56
372.932	375.56
373.158	374.56
373.384	389.56
373.61	388.56
373.835	373.56
374.061	385.56
374.287	395.56
374.513	389.56
374.739	390.56
374.965	392.56
375.191	406.56
375.416	402.56
375.642	381.56
375.868	411.56
376.094	399.56
376.319	380.56
376.545	409.56
376.771	376.56
376.997	375.56
377.222	375.56
377.448	371.56
377.674	369.56
377.899	384.56
378.125	386.56
378.35	390.56
378.576	387.56
378.802	373.56
379.027	402.56
379.253	390.56
379.478	379.56
379.704	368.56
379.929	397.56
380.155	375.56
380.38	388.56
380.606	394.56
380.831	394.56
381.057	404.56
381.282	387.56
381.507	385.56
381.733	397.56
381.958	391.56
382.184	382.56
382.409	383.56
382.634	382.56
382.86	401.56
383.085	390.56
383.31	398.56
383.535	400.56
383.761	418.56
383.986	409.56
384.211	400.56
384.436	429.56
384.662	407.56
384.887	419.56
385.112	426.56
385.337	419.56
385.562	428.56
385.787	437.56
386.013	447.56
386.238	427.56
386.463	437.56
386.688	417.56
386.913	423.56
387.138	431.56
387.363	439.56
387.588	440.56
387.813	434.56
388.038	422.56
388.263	435.56
388.488	409.56
388.713	447.56
388.938	447.56
389.163	419.56
389.387	415.56
389.612	419.56
389.837	432.56
390.062	428.56
390.287	426.56
390.512	403.56
390.736	405.56
390.961	422.56
391.186	428.56
391.411	431.56
391.636	441.56
391.86	440.56
392.085	438.56
392.31	439.56
392.534	440.56
392.759	445.56
392.984	410.56
393.208	444.56
393.433	463.56
393.658	458.56
393.882	454.56
394.107	443.56
394.331	435.56
394.556	439.56
394.78	426.56
395.005	429.56
395.229	426.56
395.454	443.56
395.678	424.56
395.903	456.56
396.127	456.56
396.352	453.56
396.576	462.56
396.801	459.56
397.025	450.56
397.249	433.56
397.474	453.56
397.698	471.56
397.922	451.56
398.147	482.56
398.371	474.56
398.595	489.56
398.82	480.56
399.044	509.56
399.268	535.56
399.492	538.56
399.717	548.56
399.941	583.56
400.165	604.56
400.389	604.56
400.613	535.56
400.837	517.56
401.062	500.56
401.286	492.56
401.51	502.56
401.734	478.56
401.958	495.56
402.182	474.56
402.406	506.56
402.63	491.56
402.854	485.56
403.078	481.56
403.302	508.56
403.526	525.56
403.75	531.56
403.974	491.56
404.198	490.56
404.422	504.56
404.645	501.56
404.869	488.56
405.093	523.56
405.317	503.56
405.541	548.56
405.765	544.56
405.988	517.56
406.212	521.56
406.436	540.56
406.66	551.56
406.883	548.56
407.107	573.56
407.331	585.56
407.555	639.56
407.778	641.56
408.002	616.56
408.226	557.56
408.449	550.56
408.673	554.56
408.896	584.56
409.12	594.56
409.344	586.56
409.567	547.56
409.791	531.56
410.014	524.56
410.238	515.56
410.461	513.56
410.685	502.56
410.908	515.56
411.132	538.56
411.355	585.56
411.578	575.56
411.802	504.56
412.025	507.56
412.249	491.56
412.472	501.56
412.695	483.56
412.919	515.56
413.142	494.56
413.365	483.56
413.589	472.56
413.812	487.56
414.035	485.56
414.258	470.56
414.482	485.56
414.705	490.56
414.928	496.56
415.151	499.56
415.374	489.56
415.597	505.56
415.821	484.56
416.044	495.56
416.267	459.56
416.49	468.56
416.713	476.56
416.936	468.56
417.159	464.56
417.382	468.56
417.605	460.56
417.828	480.56
418.051	486.56
418.274	481.56
418.497	482.56
418.72	460.56
418.943	476.56
419.166	495.56
419.389	530.56
419.611	501.56
419.834	500.56
420.057	472.56
420.28	491.56
420.503	471.56
420.726	491.56
420.948	482.56
421.171	515.56
421.394	538.56
421.617	531.56
421.839	495.56
422.062	498.56
422.285	499.56
422.507	554.56
422.73	597.56
422.953	607.56
423.175	538.56
423.398	522.56
423.621	511.56
423.843	520.56
424.066	532.56
424.288	537.56
424.511	534.56
424.733	559.56
424.956	644.56
425.178	613.56
425.401	621.56
425.623	629.56
425.846	559.56
426.068	536.56
426.291	511.56
426.513	517.56
426.735	524.56
426.958	575.56
427.18	637.56
427.402	755.56
427.625	814.56
427.847	671.56
428.069	573.56
428.292	529.56
428.514	519.56
428.736	485.56
428.958	479.56
429.181	488.56
429.403	479.56
429.625	476.56
429.847	495.56
430.069	584.56
430.292	562.56
430.514	483.56
430.736	479.56
430.958	461.56
431.18	455.56
431.402	455.56
431.624	456.56
431.846	452.56
432.068	456.56
432.29	467.56
432.512	450.56
432.734	477.56
432.956	462.56
433.178	471.56
433.4	445.56
433.622	481.56
433.844	473.56
434.066	456.56
434.287	466.56
434.509	477.56
434.731	501.56
434.953	505.56
435.175	495.56
435.397	513.56
435.618	499.56
435.84	553.56
436.062	612.56
436.284	724.56
436.505	592.56
436.727	498.56
436.949	497.56
437.17	489.56
437.392	492.56
437.614	483.56
437.835	540.56
438.057	589.56
438.278	681.56
438.5	672.56
438.721	769.56
438.943	719.56
439.165	588.56
439.386	533.56
439.608	509.56
439.829	526.56
440.05	527.56
440.272	563.56
440.493	525.56
440.715	495.56
440.936	496.56
441.158	498.56
441.379	510.56
441.6	500.56
441.822	513.56
442.043	551.56
442.264	601.56
442.486	665.56
442.707	563.56
442.928	530.56
443.149	525.56
443.371	546.56
443.592	559.56
443.813	651.56
444.034	713.56
444.255	603.56
444.476	563.56
444.698	543.56
444.919	543.56
445.14	611.56
445.361	582.56
445.582	559.56
445.803	577.56
446.024	680.56
446.245	685.56
446.466	640.56
446.687	545.56
446.908	516.56
447.129	502.56
447.35	498.56
447.571	482.56
447.792	491.56
448.013	482.56
448.234	481.56
448.455	526.56
448.675	644.56
448.896	771.56
449.117	603.56
449.338	584.56
449.559	689.56
449.779	789.56
450	618.56
450.221	505.56
450.442	484.56
450.662	465.56
450.883	461.56
451.104	478.56
451.324	461.56
451.545	464.56
451.766	456.56
451.986	444.56
452.207	432.56
452.428	421.56
452.648	437.56
452.869	434.56
453.089	431.56
453.31	435.56
453.53	409.56
453.751	445.56
453.971	454.56
454.192	432.56
454.412	422.56
454.633	435.56
454.853	421.56
455.073	429.56
455.294	445.56
455.514	481.56
455.734	473.56
455.955	435.56
456.175	419.56
456.395	424.56
456.616	402.56
456.836	427.56
457.056	418.56
457.276	401.56
457.497	404.56
457.717	415.56
457.937	429.56
458.157	438.56
458.377	441.56
458.598	442.56
458.818	480.56
459.038	536.56
459.258	547.56
459.478	491.56
459.698	483.56
459.918	479.56
460.138	480.56
460.358	485.56
460.578	478.56
460.798	490.56
461.018	487.56
461.238	485.56
461.458	487.56
461.678	490.56
461.898	493.56
462.118	483.56
462.338	523.56
462.558	514.56
462.777	503.56
462.997	527.56
463.217	541.56
463.437	549.56
463.657	515.56
463.876	512.56
464.096	511.56
464.316	518.56
464.536	537.56
464.755	522.56
464.975	508.56
465.195	526.56
465.414	553.56
465.634	505.56
465.854	484.56
466.073	482.56
466.293	477.56
466.512	471.56
466.732	463.56
466.951	452.56
467.171	460.56
467.391	459.56
467.61	440.56
467.829	469.56
468.049	454.56
468.268	436.56
468.488	431.56
468.707	448.56
468.927	442.56
469.146	440.56
469.365	450.56
469.585	457.56
469.804	435.56
470.023	445.56
470.243	442.56
470.462	445.56
470.681	453.56
470.901	466.56
471.12	477.56
471.339	465.56
471.558	466.56
471.777	474.56
471.997	469.56
472.216	457.56
472.435	428.56
472.654	450.56
472.873	451.56
473.092	433.56
473.311	451.56
473.53	464.56
473.749	464.56
473.968	481.56
474.187	577.56
474.406	584.56
474.625	512.56
474.844	469.56
475.063	457.56
475.282	472.56
475.501	471.56
475.72	469.56
475.939	463.56
476.158	480.56
476.377	488.56
476.596	487.56
476.814	489.56
477.033	460.56
477.252	486.56
477.471	484.56
477.69	496.56
477.908	515.56
478.127	500.56
478.346	530.56
478.564	505.56
478.783	519.56
479.002	501.56
479.22	538.56
479.439	535.56
479.658	518.56
479.876	554.56
480.095	566.56
480.313	575.56
480.532	571.56
480.751	553.56
480.969	550.56
481.188	559.56
481.406	581.56
481.624	569.56
481.843	525.56
482.061	561.56
482.28	523.56
482.498	551.56
482.717	549.56
482.935	558.56
483.153	569.56
483.372	528.56
483.59	534.56
483.808	535.56
484.027	526.56
484.245	539.56
484.463	548.56
484.681	543.56
484.9	542.56
485.118	552.56
485.336	580.56
485.554	548.56
485.772	553.56
485.99	548.56
486.209	546.56
486.427	559.56
486.645	586.56
486.863	581.56
487.081	569.56
487.299	565.56
487.517	571.56
487.735	570.56
487.953	557.56
488.171	563.56
488.389	565.56
488.607	570.56
488.825	574.56
489.043	576.56
489.261	571.56
489.479	576.56
489.696	570.56
489.914	586.56
490.132	569.56
490.35	590.56
490.568	608.56
490.786	586.56
491.003	601.56
491.221	594.56
491.439	628.56
491.657	629.56
491.874	636.56
492.092	611.56
492.31	628.56
492.527	636.56
492.745	644.56
492.963	639.56
493.18	650.56
493.398	652.56
493.615	673.56
493.833	667.56
494.05	657.56
494.268	649.56
494.485	619.56
494.703	658.56
494.92	663.56
495.138	694.56
495.355	670.56
495.573	661.56
495.79	661.56
496.008	683.56
496.225	683.56
496.442	677.56
496.66	674.56
496.877	682.56
497.094	696.56
497.312	677.56
497.529	703.56
497.746	697.56
497.963	742.56
498.181	744.56
498.398	760.56
498.615	752.56
498.832	804.56
499.049	820.56
499.267	828.56
499.484	846.56
499.701	873.56
499.918	907.56
500.135	950.56
500.352	981.56
500.569	1024.56
500.786	1017.56
501.003	971.56
501.22	953.56
501.437	945.56
501.654	888.56
501.871	900.56
502.088	839.56
