Data from 1988.PennyLincolnUp.Lamp.En5.5.200Scan.071819.P2_HRD10591_17-20-47-971.txt Node
Date: Thu Jul 18 17:20:47 EDT 2019
User: cochatt
Spectrometer: HR+D1059
Trigger mode: 1
Integration Time (sec): 1.000000E-1
Scans to average: 1
Electric dark correction enabled: true
Nonlinearity correction enabled: false
Boxcar width: 0
XAxis mode: Wavelengths
Number of Pixels in Spectrum: 2048
>>>>>Begin Spectral Data<<<<<
223.165	0.12
223.4	0.12
223.635	0.12
223.869	-3.88
224.104	-24.88
224.338	-22.88
224.573	-6.88
224.808	-20.88
225.042	-4.88
225.277	-7.88
225.511	8.12
225.746	-8.88
225.98	0.12
226.215	17.12
226.449	8.12
226.683	16.12
226.918	12.12
227.152	39.12
227.387	40.12
227.621	38.12
227.856	51.12
228.09	36.12
228.324	44.12
228.559	52.12
228.793	63.12
229.027	103.12
229.262	117.12
229.496	122.12
229.73	136.12
229.964	159.12
230.199	144.12
230.433	111.12
230.667	121.12
230.901	140.12
231.136	122.12
231.37	108.12
231.604	120.12
231.838	116.12
232.072	105.12
232.306	126.12
232.541	108.12
232.775	114.12
233.009	113.12
233.243	129.12
233.477	122.12
233.711	119.12
233.945	121.12
234.179	117.12
234.413	119.12
234.647	122.12
234.881	121.12
235.115	115.12
235.349	116.12
235.583	132.12
235.817	135.12
236.051	134.12
236.285	118.12
236.519	130.12
236.753	159.12
236.987	154.12
237.221	187.12
237.455	245.12
237.689	219.12
237.922	156.12
238.156	147.12
238.39	143.12
238.624	136.12
238.858	133.12
239.091	119.12
239.325	131.12
239.559	136.12
239.793	126.12
240.027	146.12
240.26	159.12
240.494	161.12
240.728	157.12
240.961	154.12
241.195	164.12
241.429	127.12
241.662	144.12
241.896	144.12
242.13	142.12
242.363	143.12
242.597	124.12
242.83	148.12
243.064	150.12
243.298	138.12
243.531	132.12
243.765	139.12
243.998	149.12
244.232	155.12
244.465	160.12
244.699	144.12
244.932	159.12
245.166	167.12
245.399	143.12
245.633	154.12
245.866	148.12
246.099	149.12
246.333	164.12
246.566	161.12
246.8	160.12
247.033	155.12
247.266	176.12
247.5	165.12
247.733	185.12
247.966	163.12
248.2	191.12
248.433	177.12
248.666	188.12
248.899	213.12
249.133	212.12
249.366	220.12
249.599	225.12
249.832	198.12
250.066	204.12
250.299	171.12
250.532	197.12
250.765	208.12
250.998	229.12
251.231	258.12
251.465	233.12
251.698	220.12
251.931	229.12
252.164	196.12
252.397	206.12
252.63	209.12
252.863	222.12
253.096	236.12
253.329	244.12
253.562	231.12
253.795	233.12
254.028	225.12
254.261	225.12
254.494	239.12
254.727	285.12
254.96	306.12
255.193	282.12
255.426	275.12
255.659	236.12
255.892	233.12
256.124	244.12
256.357	234.12
256.59	244.12
256.823	235.12
257.056	228.12
257.289	211.12
257.521	211.12
257.754	211.12
257.987	210.12
258.22	225.12
258.452	208.12
258.685	220.12
258.918	224.12
259.151	217.12
259.383	230.12
259.616	242.12
259.849	238.12
260.081	249.12
260.314	265.12
260.547	290.12
260.779	273.12
261.012	261.12
261.244	249.12
261.477	227.12
261.71	219.12
261.942	229.12
262.175	256.12
262.407	233.12
262.64	222.12
262.872	222.12
263.105	240.12
263.337	242.12
263.57	225.12
263.802	226.12
264.035	225.12
264.267	218.12
264.499	219.12
264.732	208.12
264.964	219.12
265.197	239.12
265.429	235.12
265.661	256.12
265.894	226.12
266.126	240.12
266.358	245.12
266.591	235.12
266.823	237.12
267.055	249.12
267.287	240.12
267.52	225.12
267.752	230.12
267.984	252.12
268.216	251.12
268.448	254.12
268.681	271.12
268.913	259.12
269.145	282.12
269.377	295.12
269.609	291.12
269.841	295.12
270.073	308.12
270.306	314.12
270.538	336.12
270.77	350.12
271.002	319.12
271.234	298.12
271.466	323.12
271.698	331.12
271.93	329.12
272.162	327.12
272.394	351.12
272.626	347.12
272.858	318.12
273.09	306.12
273.322	299.12
273.553	289.12
273.785	278.12
274.017	275.12
274.249	280.12
274.481	279.12
274.713	282.12
274.945	289.12
275.176	289.12
275.408	270.12
275.64	298.12
275.872	278.12
276.104	280.12
276.335	300.12
276.567	293.12
276.799	291.12
277.031	341.12
277.262	329.12
277.494	331.12
277.726	348.12
277.957	308.12
278.189	323.12
278.421	286.12
278.652	276.12
278.884	280.12
279.115	290.12
279.347	282.12
279.579	296.12
279.81	312.12
280.042	276.12
280.273	298.12
280.505	281.12
280.736	286.12
280.968	290.12
281.199	280.12
281.431	292.12
281.662	288.12
281.894	299.12
282.125	288.12
282.356	295.12
282.588	320.12
282.819	343.12
283.051	305.12
283.282	301.12
283.513	310.12
283.745	308.12
283.976	308.12
284.207	321.12
284.439	318.12
284.67	309.12
284.901	306.12
285.132	326.12
285.364	312.12
285.595	288.12
285.826	292.12
286.057	321.12
286.288	302.12
286.52	299.12
286.751	294.12
286.982	303.12
287.213	310.12
287.444	309.12
287.675	322.12
287.906	322.12
288.138	309.12
288.369	315.12
288.6	323.12
288.831	332.12
289.062	333.12
289.293	331.12
289.524	320.12
289.755	308.12
289.986	297.12
290.217	320.12
290.448	319.12
290.679	310.12
290.91	312.12
291.141	309.12
291.371	319.12
291.602	315.12
291.833	301.12
292.064	320.12
292.295	317.12
292.526	339.12
292.757	337.12
292.987	303.12
293.218	304.12
293.449	321.12
293.68	311.12
293.91	315.12
294.141	311.12
294.372	316.12
294.603	327.12
294.833	319.12
295.064	312.12
295.295	325.12
295.525	328.12
295.756	329.12
295.987	328.12
296.217	362.12
296.448	358.12
296.679	334.12
296.909	321.12
297.14	331.12
297.37	331.12
297.601	346.12
297.831	326.12
298.062	327.12
298.292	333.12
298.523	328.12
298.753	344.12
298.984	355.12
299.214	325.12
299.445	337.12
299.675	348.12
299.905	354.12
300.136	340.12
300.366	335.12
300.597	332.12
300.827	353.12
301.057	373.12
301.288	363.12
301.518	367.12
301.748	373.12
301.979	370.12
302.209	365.12
302.439	359.12
302.669	376.12
302.9	360.12
303.13	367.12
303.36	354.12
303.59	358.12
303.82	368.12
304.051	366.12
304.281	366.12
304.511	358.12
304.741	362.12
304.971	358.12
305.201	346.12
305.431	343.12
305.661	355.12
305.891	350.12
306.121	355.12
306.352	384.12
306.582	366.12
306.812	372.12
307.042	360.12
307.272	360.12
307.502	374.12
307.731	360.12
307.961	376.12
308.191	368.12
308.421	354.12
308.651	384.12
308.881	359.12
309.111	386.12
309.341	372.12
309.571	388.12
309.8	393.12
310.03	422.12
310.26	416.12
310.49	406.12
310.72	403.12
310.949	438.12
311.179	436.12
311.409	418.12
311.639	417.12
311.868	397.12
312.098	434.12
312.328	409.12
312.557	454.12
312.787	450.12
313.017	436.12
313.246	431.12
313.476	418.12
313.706	427.12
313.935	430.12
314.165	425.12
314.394	436.12
314.624	451.12
314.853	432.12
315.083	405.12
315.312	418.12
315.542	406.12
315.771	425.12
316.001	416.12
316.23	397.12
316.46	407.12
316.689	414.12
316.919	428.12
317.148	450.12
317.377	415.12
317.607	418.12
317.836	435.12
318.065	427.12
318.295	422.12
318.524	407.12
318.753	427.12
318.983	403.12
319.212	418.12
319.441	438.12
319.67	428.12
319.9	437.12
320.129	411.12
320.358	432.12
320.587	430.12
320.816	425.12
321.046	464.12
321.275	447.12
321.504	441.12
321.733	451.12
321.962	463.12
322.191	454.12
322.42	486.12
322.649	491.12
322.878	503.12
323.108	528.12
323.337	544.12
323.566	567.12
323.795	580.12
324.024	648.12
324.253	790.12
324.482	1111.12
324.71	1779.12
324.939	2682.12
325.168	2311.12
325.397	1156.12
325.626	772.12
325.855	641.12
326.084	590.12
326.313	581.12
326.542	586.12
326.77	628.12
326.999	741.12
327.228	994.12
327.457	1550.12
327.686	1976.12
327.914	1278.12
328.143	822.12
328.372	696.12
328.6	671.12
328.829	616.12
329.058	640.12
329.287	668.12
329.515	617.12
329.744	568.12
329.972	558.12
330.201	585.12
330.43	579.12
330.658	618.12
330.887	672.12
331.115	684.12
331.344	604.12
331.572	568.12
331.801	533.12
332.03	570.12
332.258	545.12
332.486	526.12
332.715	517.12
332.943	512.12
333.172	526.12
333.4	525.12
333.629	514.12
333.857	522.12
334.085	553.12
334.314	541.12
334.542	523.12
334.771	549.12
334.999	551.12
335.227	528.12
335.455	511.12
335.684	507.12
335.912	505.12
336.14	486.12
336.369	514.12
336.597	534.12
336.825	538.12
337.053	499.12
337.281	516.12
337.51	489.12
337.738	483.12
337.966	497.12
338.194	492.12
338.422	502.12
338.65	491.12
338.878	479.12
339.106	466.12
339.334	492.12
339.562	485.12
339.79	488.12
340.018	475.12
340.246	490.12
340.474	515.12
340.702	512.12
340.93	486.12
341.158	479.12
341.386	499.12
341.614	506.12
341.842	477.12
342.07	502.12
342.298	462.12
342.526	471.12
342.754	466.12
342.981	452.12
343.209	465.12
343.437	476.12
343.665	465.12
343.893	486.12
344.12	506.12
344.348	515.12
344.576	509.12
344.804	498.12
345.031	520.12
345.259	519.12
345.487	500.12
345.714	480.12
345.942	484.12
346.17	498.12
346.397	488.12
346.625	467.12
346.853	487.12
347.08	447.12
347.308	464.12
347.535	502.12
347.763	511.12
347.99	503.12
348.218	504.12
348.445	508.12
348.673	495.12
348.9	475.12
349.128	486.12
349.355	459.12
349.583	466.12
349.81	441.12
350.037	457.12
350.265	473.12
350.492	475.12
350.72	468.12
350.947	470.12
351.174	492.12
351.402	469.12
351.629	480.12
351.856	491.12
352.083	480.12
352.311	485.12
352.538	480.12
352.765	507.12
352.992	488.12
353.22	473.12
353.447	472.12
353.674	467.12
353.901	472.12
354.128	455.12
354.355	444.12
354.583	461.12
354.81	446.12
355.037	433.12
355.264	428.12
355.491	428.12
355.718	425.12
355.945	445.12
356.172	440.12
356.399	446.12
356.626	457.12
356.853	441.12
357.08	452.12
357.307	442.12
357.534	430.12
357.761	436.12
357.988	418.12
358.215	447.12
358.441	442.12
358.668	469.12
358.895	439.12
359.122	470.12
359.349	466.12
359.576	476.12
359.802	494.12
360.029	526.12
360.256	552.12
360.483	515.12
360.709	516.12
360.936	482.12
361.163	476.12
361.39	503.12
361.616	497.12
361.843	455.12
362.07	473.12
362.296	484.12
362.523	496.12
362.749	472.12
362.976	464.12
363.203	459.12
363.429	452.12
363.656	453.12
363.882	469.12
364.109	463.12
364.335	461.12
364.562	446.12
364.788	464.12
365.015	462.12
365.241	485.12
365.468	465.12
365.694	474.12
365.92	467.12
366.147	451.12
366.373	447.12
366.599	464.12
366.826	459.12
367.052	456.12
367.278	460.12
367.505	467.12
367.731	471.12
367.957	426.12
368.184	445.12
368.41	459.12
368.636	468.12
368.862	467.12
369.089	480.12
369.315	457.12
369.541	451.12
369.767	448.12
369.993	432.12
370.219	454.12
370.445	476.12
370.672	446.12
370.898	428.12
371.124	458.12
371.35	443.12
371.576	440.12
371.802	451.12
372.028	457.12
372.254	460.12
372.48	463.12
372.706	452.12
372.932	471.12
373.158	466.12
373.384	459.12
373.61	468.12
373.835	491.12
374.061	454.12
374.287	494.12
374.513	465.12
374.739	455.12
374.965	461.12
375.191	458.12
375.416	476.12
375.642	471.12
375.868	472.12
376.094	459.12
376.319	469.12
376.545	442.12
376.771	455.12
376.997	478.12
377.222	442.12
377.448	459.12
377.674	437.12
377.899	448.12
378.125	456.12
378.35	462.12
378.576	458.12
378.802	471.12
379.027	450.12
379.253	475.12
379.478	466.12
379.704	473.12
379.929	449.12
380.155	454.12
380.38	456.12
380.606	454.12
380.831	482.12
381.057	463.12
381.282	472.12
381.507	468.12
381.733	457.12
381.958	451.12
382.184	467.12
382.409	483.12
382.634	475.12
382.86	447.12
383.085	476.12
383.31	481.12
383.535	484.12
383.761	480.12
383.986	488.12
384.211	494.12
384.436	493.12
384.662	499.12
384.887	504.12
385.112	480.12
385.337	507.12
385.562	503.12
385.787	488.12
386.013	535.12
386.238	525.12
386.463	513.12
386.688	522.12
386.913	506.12
387.138	513.12
387.363	508.12
387.588	503.12
387.813	512.12
388.038	512.12
388.263	518.12
388.488	499.12
388.713	498.12
388.938	512.12
389.163	498.12
389.387	524.12
389.612	502.12
389.837	475.12
390.062	490.12
390.287	512.12
390.512	491.12
390.736	490.12
390.961	497.12
391.186	508.12
391.411	523.12
391.636	521.12
391.86	523.12
392.085	547.12
392.31	514.12
392.534	519.12
392.759	513.12
392.984	521.12
393.208	515.12
393.433	504.12
393.658	517.12
393.882	508.12
394.107	501.12
394.331	504.12
394.556	515.12
394.78	521.12
395.005	523.12
395.229	543.12
395.454	527.12
395.678	533.12
395.903	558.12
396.127	578.12
396.352	582.12
396.576	544.12
396.801	544.12
397.025	532.12
397.249	534.12
397.474	553.12
397.698	537.12
397.922	561.12
398.147	595.12
398.371	582.12
398.595	597.12
398.82	593.12
399.044	587.12
399.268	627.12
399.492	650.12
399.717	688.12
399.941	718.12
400.165	722.12
400.389	763.12
400.613	675.12
400.837	634.12
401.062	608.12
401.286	594.12
401.51	605.12
401.734	590.12
401.958	578.12
402.182	574.12
402.406	613.12
402.63	602.12
402.854	604.12
403.078	634.12
403.302	640.12
403.526	623.12
403.75	627.12
403.974	612.12
404.198	622.12
404.422	624.12
404.645	634.12
404.869	626.12
405.093	640.12
405.317	668.12
405.541	715.12
405.765	670.12
405.988	660.12
406.212	663.12
406.436	675.12
406.66	686.12
406.883	692.12
407.107	694.12
407.331	767.12
407.555	840.12
407.778	825.12
408.002	767.12
408.226	724.12
408.449	687.12
408.673	690.12
408.896	731.12
409.12	766.12
409.344	726.12
409.567	643.12
409.791	638.12
410.014	646.12
410.238	631.12
410.461	625.12
410.685	629.12
410.908	654.12
411.132	695.12
411.355	722.12
411.578	696.12
411.802	633.12
412.025	632.12
412.249	632.12
412.472	644.12
412.695	663.12
412.919	650.12
413.142	625.12
413.365	579.12
413.589	605.12
413.812	561.12
414.035	574.12
414.258	569.12
414.482	570.12
414.705	582.12
414.928	584.12
415.151	570.12
415.374	590.12
415.597	601.12
415.821	536.12
416.044	592.12
416.267	606.12
416.49	602.12
416.713	549.12
416.936	594.12
417.159	569.12
417.382	596.12
417.605	583.12
417.828	593.12
418.051	609.12
418.274	598.12
418.497	581.12
418.72	622.12
418.943	600.12
419.166	613.12
419.389	638.12
419.611	628.12
419.834	609.12
420.057	628.12
420.28	606.12
420.503	595.12
420.726	598.12
420.948	606.12
421.171	651.12
421.394	719.12
421.617	642.12
421.839	616.12
422.062	596.12
422.285	624.12
422.507	712.12
422.73	786.12
422.953	740.12
423.175	657.12
423.398	645.12
423.621	642.12
423.843	652.12
424.066	643.12
424.288	650.12
424.511	684.12
424.733	745.12
424.956	830.12
425.178	814.12
425.401	802.12
425.623	849.12
425.846	704.12
426.068	678.12
426.291	657.12
426.513	647.12
426.735	661.12
426.958	710.12
427.18	796.12
427.402	967.12
427.625	1062.12
427.847	903.12
428.069	755.12
428.292	691.12
428.514	640.12
428.736	638.12
428.958	632.12
429.181	634.12
429.403	601.12
429.625	628.12
429.847	670.12
430.069	736.12
430.292	746.12
430.514	653.12
430.736	615.12
430.958	587.12
431.18	580.12
431.402	596.12
431.624	575.12
431.846	582.12
432.068	576.12
432.29	570.12
432.512	584.12
432.734	608.12
432.956	578.12
433.178	598.12
433.4	599.12
433.622	587.12
433.844	599.12
434.066	593.12
434.287	587.12
434.509	588.12
434.731	589.12
434.953	598.12
435.175	635.12
435.397	638.12
435.618	660.12
435.84	710.12
436.062	843.12
436.284	924.12
436.505	764.12
436.727	675.12
436.949	625.12
437.17	619.12
437.392	615.12
437.614	641.12
437.835	665.12
438.057	779.12
438.278	894.12
438.5	920.12
438.721	1022.12
438.943	957.12
439.165	732.12
439.386	677.12
439.608	677.12
439.829	709.12
440.05	734.12
440.272	764.12
440.493	715.12
440.715	652.12
440.936	626.12
441.158	629.12
441.379	627.12
441.6	651.12
441.822	678.12
442.043	683.12
442.264	793.12
442.486	856.12
442.707	741.12
442.928	692.12
443.149	705.12
443.371	725.12
443.592	757.12
443.813	886.12
444.034	943.12
444.255	808.12
444.476	731.12
444.698	688.12
444.919	696.12
445.14	804.12
445.361	738.12
445.582	719.12
445.803	784.12
446.024	927.12
446.245	938.12
446.466	849.12
446.687	730.12
446.908	669.12
447.129	640.12
447.35	640.12
447.571	610.12
447.792	606.12
448.013	599.12
448.234	649.12
448.455	690.12
448.675	834.12
448.896	978.12
449.117	823.12
449.338	775.12
449.559	898.12
449.779	1014.12
450	805.12
450.221	651.12
450.442	626.12
450.662	607.12
450.883	592.12
451.104	610.12
451.324	602.12
451.545	592.12
451.766	579.12
451.986	556.12
452.207	543.12
452.428	555.12
452.648	549.12
452.869	548.12
453.089	573.12
453.31	592.12
453.53	571.12
453.751	546.12
453.971	568.12
454.192	580.12
454.412	560.12
454.633	563.12
454.853	558.12
455.073	534.12
455.294	583.12
455.514	667.12
455.734	644.12
455.955	552.12
456.175	533.12
456.395	546.12
456.616	542.12
456.836	533.12
457.056	528.12
457.276	508.12
457.497	542.12
457.717	542.12
457.937	510.12
458.157	530.12
458.377	554.12
458.598	584.12
458.818	624.12
459.038	729.12
459.258	762.12
459.478	635.12
459.698	583.12
459.918	579.12
460.138	568.12
460.358	608.12
460.578	590.12
460.798	610.12
461.018	593.12
461.238	599.12
461.458	612.12
461.678	590.12
461.898	600.12
462.118	588.12
462.338	613.12
462.558	616.12
462.777	629.12
462.997	642.12
463.217	647.12
463.437	641.12
463.657	630.12
463.876	663.12
464.096	636.12
464.316	632.12
464.536	638.12
464.755	635.12
464.975	634.12
465.195	681.12
465.414	770.12
465.634	678.12
465.854	630.12
466.073	599.12
466.293	586.12
466.512	563.12
466.732	562.12
466.951	563.12
467.171	581.12
467.391	555.12
467.61	591.12
467.829	572.12
468.049	567.12
468.268	566.12
468.488	562.12
468.707	558.12
468.927	564.12
469.146	553.12
469.365	537.12
469.585	571.12
469.804	558.12
470.023	566.12
470.243	565.12
470.462	584.12
470.681	606.12
470.901	595.12
471.12	571.12
471.339	574.12
471.558	575.12
471.777	581.12
471.997	581.12
472.216	555.12
472.435	574.12
472.654	553.12
472.873	554.12
473.092	575.12
473.311	562.12
473.53	550.12
473.749	583.12
473.968	640.12
474.187	747.12
474.406	769.12
474.625	660.12
474.844	566.12
475.063	569.12
475.282	587.12
475.501	573.12
475.72	583.12
475.939	578.12
476.158	593.12
476.377	585.12
476.596	589.12
476.814	606.12
477.033	597.12
477.252	586.12
477.471	598.12
477.69	632.12
477.908	606.12
478.127	627.12
478.346	626.12
478.564	646.12
478.783	627.12
479.002	636.12
479.22	650.12
479.439	671.12
479.658	680.12
479.876	691.12
480.095	697.12
480.313	750.12
480.532	714.12
480.751	699.12
480.969	714.12
481.188	721.12
481.406	712.12
481.624	713.12
481.843	678.12
482.061	694.12
482.28	688.12
482.498	667.12
482.717	670.12
482.935	663.12
483.153	666.12
483.372	657.12
483.59	660.12
483.808	656.12
484.027	669.12
484.245	669.12
484.463	701.12
484.681	675.12
484.9	697.12
485.118	680.12
485.336	707.12
485.554	679.12
485.772	701.12
485.99	704.12
486.209	724.12
486.427	723.12
486.645	713.12
486.863	733.12
487.081	733.12
487.299	721.12
487.517	735.12
487.735	748.12
487.953	734.12
488.171	728.12
488.389	708.12
488.607	733.12
488.825	713.12
489.043	724.12
489.261	711.12
489.479	730.12
489.696	734.12
489.914	732.12
490.132	734.12
490.35	761.12
490.568	752.12
490.786	770.12
491.003	785.12
491.221	776.12
491.439	806.12
491.657	801.12
491.874	787.12
492.092	832.12
492.31	836.12
492.527	833.12
492.745	820.12
492.963	811.12
493.18	827.12
493.398	807.12
493.615	828.12
493.833	851.12
494.05	868.12
494.268	826.12
494.485	848.12
494.703	840.12
494.92	863.12
495.138	839.12
495.355	870.12
495.573	856.12
495.79	874.12
496.008	873.12
496.225	863.12
496.442	851.12
496.66	867.12
496.877	867.12
497.094	882.12
497.312	893.12
497.529	901.12
497.746	899.12
497.963	931.12
498.181	947.12
498.398	955.12
498.615	966.12
498.832	964.12
499.049	1004.12
499.267	1027.12
499.484	1080.12
499.701	1104.12
499.918	1137.12
500.135	1175.12
500.352	1223.12
500.569	1235.12
500.786	1240.12
501.003	1233.12
501.22	1232.12
501.437	1169.12
501.654	1137.12
501.871	1116.12
