Data from 1988.PennyLincolnUp.Lamp.En5.5.200Scan.071819.P2_HRD10591_17-21-14-972.txt Node
Date: Thu Jul 18 17:21:14 EDT 2019
User: cochatt
Spectrometer: HR+D1059
Trigger mode: 1
Integration Time (sec): 1.000000E-1
Scans to average: 1
Electric dark correction enabled: true
Nonlinearity correction enabled: false
Boxcar width: 0
XAxis mode: Wavelengths
Number of Pixels in Spectrum: 2048
>>>>>Begin Spectral Data<<<<<
223.165	-14.75
223.4	-14.75
223.635	-14.75
223.869	-16.75
224.104	-38.75
224.338	-10.75
224.573	-11.75
224.808	-13.75
225.042	-8.75
225.277	-14.75
225.511	-3.75
225.746	-5.75
225.98	24.25
226.215	10.25
226.449	11.25
226.683	28.25
226.918	25.25
227.152	40.25
227.387	40.25
227.621	35.25
227.856	43.25
228.09	51.25
228.324	39.25
228.559	57.25
228.793	61.25
229.027	106.25
229.262	110.25
229.496	125.25
229.73	161.25
229.964	175.25
230.199	157.25
230.433	135.25
230.667	126.25
230.901	123.25
231.136	118.25
231.37	113.25
231.604	119.25
231.838	114.25
232.072	119.25
232.306	121.25
232.541	121.25
232.775	129.25
233.009	142.25
233.243	116.25
233.477	117.25
233.711	129.25
233.945	117.25
234.179	127.25
234.413	125.25
234.647	117.25
234.881	120.25
235.115	120.25
235.349	133.25
235.583	150.25
235.817	139.25
236.051	125.25
236.285	134.25
236.519	152.25
236.753	149.25
236.987	153.25
237.221	202.25
237.455	275.25
237.689	189.25
237.922	152.25
238.156	153.25
238.39	126.25
238.624	137.25
238.858	132.25
239.091	136.25
239.325	125.25
239.559	143.25
239.793	142.25
240.027	146.25
240.26	159.25
240.494	188.25
240.728	168.25
240.961	156.25
241.195	156.25
241.429	138.25
241.662	159.25
241.896	133.25
242.13	130.25
242.363	142.25
242.597	135.25
242.83	145.25
243.064	150.25
243.298	141.25
243.531	141.25
243.765	149.25
243.998	147.25
244.232	142.25
244.465	163.25
244.699	149.25
244.932	157.25
245.166	165.25
245.399	147.25
245.633	165.25
245.866	141.25
246.099	153.25
246.333	149.25
246.566	154.25
246.8	179.25
247.033	165.25
247.266	157.25
247.5	189.25
247.733	194.25
247.966	191.25
248.2	199.25
248.433	183.25
248.666	192.25
248.899	197.25
249.133	233.25
249.366	219.25
249.599	220.25
249.832	179.25
250.066	198.25
250.299	192.25
250.532	213.25
250.765	227.25
250.998	236.25
251.231	260.25
251.465	242.25
251.698	214.25
251.931	215.25
252.164	187.25
252.397	209.25
252.63	223.25
252.863	231.25
253.096	227.25
253.329	246.25
253.562	245.25
253.795	243.25
254.028	230.25
254.261	229.25
254.494	243.25
254.727	269.25
254.96	321.25
255.193	305.25
255.426	260.25
255.659	259.25
255.892	244.25
256.124	239.25
256.357	247.25
256.59	237.25
256.823	220.25
257.056	215.25
257.289	203.25
257.521	232.25
257.754	230.25
257.987	222.25
258.22	242.25
258.452	215.25
258.685	230.25
258.918	236.25
259.151	232.25
259.383	237.25
259.616	232.25
259.849	243.25
260.081	271.25
260.314	284.25
260.547	271.25
260.779	286.25
261.012	242.25
261.244	244.25
261.477	232.25
261.71	236.25
261.942	238.25
262.175	250.25
262.407	245.25
262.64	249.25
262.872	243.25
263.105	234.25
263.337	238.25
263.57	213.25
263.802	223.25
264.035	234.25
264.267	249.25
264.499	209.25
264.732	221.25
264.964	219.25
265.197	216.25
265.429	206.25
265.661	242.25
265.894	236.25
266.126	222.25
266.358	232.25
266.591	223.25
266.823	236.25
267.055	235.25
267.287	246.25
267.52	247.25
267.752	271.25
267.984	243.25
268.216	262.25
268.448	276.25
268.681	268.25
268.913	261.25
269.145	271.25
269.377	288.25
269.609	267.25
269.841	297.25
270.073	305.25
270.306	308.25
270.538	349.25
270.77	343.25
271.002	326.25
271.234	314.25
271.466	334.25
271.698	337.25
271.93	341.25
272.162	339.25
272.394	329.25
272.626	313.25
272.858	310.25
273.09	288.25
273.322	293.25
273.553	299.25
273.785	292.25
274.017	275.25
274.249	294.25
274.481	279.25
274.713	277.25
274.945	275.25
275.176	291.25
275.408	275.25
275.64	278.25
275.872	280.25
276.104	295.25
276.335	289.25
276.567	290.25
276.799	321.25
277.031	339.25
277.262	347.25
277.494	331.25
277.726	341.25
277.957	319.25
278.189	313.25
278.421	279.25
278.652	313.25
278.884	310.25
279.115	281.25
279.347	307.25
279.579	285.25
279.81	268.25
280.042	283.25
280.273	295.25
280.505	292.25
280.736	306.25
280.968	290.25
281.199	283.25
281.431	289.25
281.662	297.25
281.894	297.25
282.125	291.25
282.356	334.25
282.588	324.25
282.819	334.25
283.051	314.25
283.282	279.25
283.513	300.25
283.745	305.25
283.976	309.25
284.207	303.25
284.439	296.25
284.67	291.25
284.901	314.25
285.132	306.25
285.364	292.25
285.595	323.25
285.826	309.25
286.057	309.25
286.288	310.25
286.52	306.25
286.751	299.25
286.982	306.25
287.213	319.25
287.444	314.25
287.675	317.25
287.906	318.25
288.138	333.25
288.369	324.25
288.6	329.25
288.831	323.25
289.062	320.25
289.293	310.25
289.524	307.25
289.755	314.25
289.986	292.25
290.217	306.25
290.448	327.25
290.679	313.25
290.91	313.25
291.141	320.25
291.371	323.25
291.602	323.25
291.833	332.25
292.064	296.25
292.295	301.25
292.526	331.25
292.757	333.25
292.987	301.25
293.218	322.25
293.449	325.25
293.68	317.25
293.91	309.25
294.141	311.25
294.372	321.25
294.603	301.25
294.833	319.25
295.064	320.25
295.295	319.25
295.525	318.25
295.756	321.25
295.987	335.25
296.217	356.25
296.448	358.25
296.679	336.25
296.909	330.25
297.14	323.25
297.37	331.25
297.601	327.25
297.831	333.25
298.062	330.25
298.292	318.25
298.523	329.25
298.753	336.25
298.984	338.25
299.214	322.25
299.445	339.25
299.675	355.25
299.905	343.25
300.136	348.25
300.366	326.25
300.597	327.25
300.827	340.25
301.057	360.25
301.288	376.25
301.518	363.25
301.748	355.25
301.979	377.25
302.209	371.25
302.439	367.25
302.669	361.25
302.9	359.25
303.13	345.25
303.36	371.25
303.59	377.25
303.82	371.25
304.051	355.25
304.281	373.25
304.511	360.25
304.741	357.25
304.971	359.25
305.201	360.25
305.431	375.25
305.661	356.25
305.891	341.25
306.121	357.25
306.352	377.25
306.582	366.25
306.812	379.25
307.042	361.25
307.272	357.25
307.502	355.25
307.731	353.25
307.961	362.25
308.191	364.25
308.421	364.25
308.651	374.25
308.881	366.25
309.111	363.25
309.341	382.25
309.571	422.25
309.8	395.25
310.03	422.25
310.26	430.25
310.49	428.25
310.72	430.25
310.949	444.25
311.179	437.25
311.409	425.25
311.639	414.25
311.868	420.25
312.098	429.25
312.328	437.25
312.557	459.25
312.787	433.25
313.017	459.25
313.246	428.25
313.476	409.25
313.706	420.25
313.935	433.25
314.165	427.25
314.394	458.25
314.624	451.25
314.853	428.25
315.083	435.25
315.312	410.25
315.542	411.25
315.771	411.25
316.001	410.25
316.23	398.25
316.46	426.25
316.689	408.25
316.919	410.25
317.148	429.25
317.377	444.25
317.607	419.25
317.836	423.25
318.065	416.25
318.295	429.25
318.524	408.25
318.753	409.25
318.983	443.25
319.212	411.25
319.441	423.25
319.67	437.25
319.9	437.25
320.129	451.25
320.358	419.25
320.587	436.25
320.816	437.25
321.046	437.25
321.275	448.25
321.504	455.25
321.733	463.25
321.962	469.25
322.191	471.25
322.42	483.25
322.649	483.25
322.878	502.25
323.108	527.25
323.337	557.25
323.566	566.25
323.795	589.25
324.024	640.25
324.253	790.25
324.482	1153.25
324.71	1808.25
324.939	2705.25
325.168	2312.25
325.397	1145.25
325.626	766.25
325.855	620.25
326.084	587.25
326.313	555.25
326.542	594.25
326.77	637.25
326.999	737.25
327.228	1035.25
327.457	1581.25
327.686	1992.25
327.914	1336.25
328.143	841.25
328.372	718.25
328.6	655.25
328.829	638.25
329.058	640.25
329.287	641.25
329.515	612.25
329.744	577.25
329.972	583.25
330.201	565.25
330.43	590.25
330.658	641.25
330.887	671.25
331.115	666.25
331.344	595.25
331.572	564.25
331.801	540.25
332.03	570.25
332.258	553.25
332.486	535.25
332.715	488.25
332.943	504.25
333.172	537.25
333.4	510.25
333.629	510.25
333.857	549.25
334.085	556.25
334.314	540.25
334.542	556.25
334.771	562.25
334.999	561.25
335.227	515.25
335.455	511.25
335.684	515.25
335.912	519.25
336.14	507.25
336.369	525.25
336.597	491.25
336.825	497.25
337.053	491.25
337.281	478.25
337.51	487.25
337.738	491.25
337.966	520.25
338.194	513.25
338.422	489.25
338.65	500.25
338.878	480.25
339.106	466.25
339.334	491.25
339.562	490.25
339.79	488.25
340.018	483.25
340.246	492.25
340.474	487.25
340.702	509.25
340.93	482.25
341.158	478.25
341.386	489.25
341.614	485.25
341.842	472.25
342.07	469.25
342.298	473.25
342.526	461.25
342.754	467.25
342.981	494.25
343.209	470.25
343.437	488.25
343.665	492.25
343.893	500.25
344.12	505.25
344.348	517.25
344.576	471.25
344.804	507.25
345.031	511.25
345.259	528.25
345.487	502.25
345.714	498.25
345.942	495.25
346.17	455.25
346.397	479.25
346.625	481.25
346.853	463.25
347.08	475.25
347.308	483.25
347.535	497.25
347.763	480.25
347.99	501.25
348.218	503.25
348.445	499.25
348.673	500.25
348.9	466.25
349.128	462.25
349.355	462.25
349.583	467.25
349.81	451.25
350.037	477.25
350.265	471.25
350.492	462.25
350.72	465.25
350.947	459.25
351.174	475.25
351.402	502.25
351.629	505.25
351.856	492.25
352.083	495.25
352.311	493.25
352.538	493.25
352.765	499.25
352.992	518.25
353.22	480.25
353.447	469.25
353.674	471.25
353.901	460.25
354.128	475.25
354.355	441.25
354.583	451.25
354.81	456.25
355.037	441.25
355.264	434.25
355.491	441.25
355.718	450.25
355.945	452.25
356.172	430.25
356.399	426.25
356.626	446.25
356.853	454.25
357.08	460.25
357.307	439.25
357.534	438.25
357.761	429.25
357.988	445.25
358.215	417.25
358.441	445.25
358.668	452.25
358.895	462.25
359.122	443.25
359.349	461.25
359.576	479.25
359.802	506.25
360.029	530.25
360.256	550.25
360.483	547.25
360.709	508.25
360.936	474.25
361.163	457.25
361.39	468.25
361.616	481.25
361.843	473.25
362.07	462.25
362.296	507.25
362.523	477.25
362.749	459.25
362.976	486.25
363.203	463.25
363.429	475.25
363.656	445.25
363.882	461.25
364.109	452.25
364.335	475.25
364.562	463.25
364.788	445.25
365.015	465.25
365.241	453.25
365.468	470.25
365.694	485.25
365.92	457.25
366.147	468.25
366.373	461.25
366.599	455.25
366.826	467.25
367.052	465.25
367.278	463.25
367.505	451.25
367.731	456.25
367.957	465.25
368.184	447.25
368.41	466.25
368.636	479.25
368.862	488.25
369.089	445.25
369.315	462.25
369.541	469.25
369.767	492.25
369.993	467.25
370.219	465.25
370.445	474.25
370.672	462.25
370.898	469.25
371.124	463.25
371.35	450.25
371.576	459.25
371.802	473.25
372.028	452.25
372.254	468.25
372.48	463.25
372.706	460.25
372.932	485.25
373.158	443.25
373.384	470.25
373.61	469.25
373.835	462.25
374.061	459.25
374.287	468.25
374.513	446.25
374.739	482.25
374.965	465.25
375.191	480.25
375.416	475.25
375.642	487.25
375.868	466.25
376.094	456.25
376.319	455.25
376.545	467.25
376.771	477.25
376.997	472.25
377.222	467.25
377.448	469.25
377.674	440.25
377.899	451.25
378.125	461.25
378.35	432.25
378.576	462.25
378.802	453.25
379.027	479.25
379.253	441.25
379.478	462.25
379.704	458.25
379.929	456.25
380.155	483.25
380.38	465.25
380.606	460.25
380.831	445.25
381.057	499.25
381.282	493.25
381.507	467.25
381.733	468.25
381.958	459.25
382.184	481.25
382.409	476.25
382.634	449.25
382.86	462.25
383.085	483.25
383.31	493.25
383.535	475.25
383.761	474.25
383.986	476.25
384.211	504.25
384.436	492.25
384.662	494.25
384.887	485.25
385.112	489.25
385.337	495.25
385.562	497.25
385.787	498.25
386.013	511.25
386.238	523.25
386.463	506.25
386.688	505.25
386.913	513.25
387.138	513.25
387.363	515.25
387.588	513.25
387.813	537.25
388.038	534.25
388.263	519.25
388.488	494.25
388.713	519.25
388.938	523.25
389.163	522.25
389.387	504.25
389.612	525.25
389.837	522.25
390.062	489.25
390.287	534.25
390.512	530.25
390.736	493.25
390.961	533.25
391.186	525.25
391.411	513.25
391.636	513.25
391.86	525.25
392.085	524.25
392.31	539.25
392.534	523.25
392.759	517.25
392.984	534.25
393.208	515.25
393.433	532.25
393.658	507.25
393.882	502.25
394.107	510.25
394.331	552.25
394.556	535.25
394.78	526.25
395.005	528.25
395.229	527.25
395.454	536.25
395.678	531.25
395.903	541.25
396.127	589.25
396.352	566.25
396.576	553.25
396.801	563.25
397.025	539.25
397.249	539.25
397.474	578.25
397.698	551.25
397.922	564.25
398.147	597.25
398.371	589.25
398.595	585.25
398.82	564.25
399.044	595.25
399.268	631.25
399.492	658.25
399.717	655.25
399.941	717.25
400.165	741.25
400.389	750.25
400.613	702.25
400.837	634.25
401.062	631.25
401.286	613.25
401.51	610.25
401.734	558.25
401.958	625.25
402.182	591.25
402.406	617.25
402.63	606.25
402.854	601.25
403.078	607.25
403.302	600.25
403.526	628.25
403.75	616.25
403.974	626.25
404.198	615.25
404.422	625.25
404.645	645.25
404.869	633.25
405.093	661.25
405.317	683.25
405.541	718.25
405.765	663.25
405.988	637.25
406.212	668.25
406.436	683.25
406.66	710.25
406.883	663.25
407.107	709.25
407.331	719.25
407.555	861.25
407.778	837.25
408.002	723.25
408.226	710.25
408.449	689.25
408.673	681.25
408.896	722.25
409.12	765.25
409.344	737.25
409.567	658.25
409.791	641.25
410.014	665.25
410.238	643.25
410.461	641.25
410.685	651.25
410.908	639.25
411.132	712.25
411.355	751.25
411.578	695.25
411.802	645.25
412.025	621.25
412.249	632.25
412.472	647.25
412.695	646.25
412.919	638.25
413.142	607.25
413.365	588.25
413.589	591.25
413.812	588.25
414.035	610.25
414.258	582.25
414.482	596.25
414.705	598.25
414.928	587.25
415.151	581.25
415.374	587.25
415.597	591.25
415.821	594.25
416.044	559.25
416.267	591.25
416.49	571.25
416.713	584.25
416.936	581.25
417.159	584.25
417.382	582.25
417.605	597.25
417.828	595.25
418.051	611.25
418.274	603.25
418.497	577.25
418.72	574.25
418.943	593.25
419.166	599.25
419.389	643.25
419.611	617.25
419.834	633.25
420.057	603.25
420.28	634.25
420.503	594.25
420.726	617.25
420.948	614.25
421.171	660.25
421.394	687.25
421.617	640.25
421.839	625.25
422.062	626.25
422.285	640.25
422.507	693.25
422.73	803.25
422.953	751.25
423.175	691.25
423.398	651.25
423.621	617.25
423.843	666.25
424.066	658.25
424.288	682.25
424.511	682.25
424.733	761.25
424.956	860.25
425.178	825.25
425.401	804.25
425.623	833.25
425.846	708.25
426.068	678.25
426.291	673.25
426.513	660.25
426.735	679.25
426.958	722.25
427.18	815.25
427.402	980.25
427.625	1069.25
427.847	909.25
428.069	778.25
428.292	717.25
428.514	669.25
428.736	616.25
428.958	649.25
429.181	628.25
429.403	618.25
429.625	625.25
429.847	642.25
430.069	748.25
430.292	746.25
430.514	643.25
430.736	632.25
430.958	617.25
431.18	588.25
431.402	589.25
431.624	568.25
431.846	577.25
432.068	586.25
432.29	562.25
432.512	578.25
432.734	603.25
432.956	600.25
433.178	605.25
433.4	606.25
433.622	578.25
433.844	567.25
434.066	586.25
434.287	598.25
434.509	617.25
434.731	599.25
434.953	615.25
435.175	604.25
435.397	668.25
435.618	675.25
435.84	737.25
436.062	833.25
436.284	931.25
436.505	757.25
436.727	676.25
436.949	633.25
437.17	642.25
437.392	629.25
437.614	645.25
437.835	671.25
438.057	796.25
438.278	912.25
438.5	896.25
438.721	1002.25
438.943	972.25
439.165	760.25
439.386	694.25
439.608	695.25
439.829	678.25
440.05	712.25
440.272	758.25
440.493	729.25
440.715	668.25
440.936	627.25
441.158	621.25
441.379	589.25
441.6	644.25
441.822	665.25
442.043	711.25
442.264	809.25
442.486	862.25
442.707	760.25
442.928	689.25
443.149	693.25
443.371	699.25
443.592	762.25
443.813	866.25
444.034	954.25
444.255	811.25
444.476	736.25
444.698	673.25
444.919	667.25
445.14	775.25
445.361	719.25
445.582	731.25
445.803	798.25
446.024	928.25
446.245	947.25
446.466	859.25
446.687	710.25
446.908	666.25
447.129	632.25
447.35	630.25
447.571	630.25
447.792	625.25
448.013	616.25
448.234	632.25
448.455	715.25
448.675	822.25
448.896	967.25
449.117	839.25
449.338	779.25
449.559	914.25
449.779	1049.25
450	840.25
450.221	685.25
450.442	629.25
450.662	625.25
450.883	618.25
451.104	637.25
451.324	615.25
451.545	610.25
451.766	578.25
451.986	562.25
452.207	551.25
452.428	547.25
452.648	546.25
452.869	557.25
453.089	539.25
453.31	566.25
453.53	551.25
453.751	561.25
453.971	539.25
454.192	567.25
454.412	586.25
454.633	559.25
454.853	529.25
455.073	546.25
455.294	573.25
455.514	664.25
455.734	661.25
455.955	578.25
456.175	539.25
456.395	506.25
456.616	521.25
456.836	526.25
457.056	509.25
457.276	505.25
457.497	517.25
457.717	524.25
457.937	526.25
458.157	524.25
458.377	546.25
458.598	565.25
458.818	634.25
459.038	736.25
459.258	730.25
459.478	649.25
459.698	610.25
459.918	580.25
460.138	602.25
460.358	627.25
460.578	603.25
460.798	595.25
461.018	611.25
461.238	596.25
461.458	603.25
461.678	588.25
461.898	595.25
462.118	618.25
462.338	613.25
462.558	630.25
462.777	631.25
462.997	640.25
463.217	652.25
463.437	659.25
463.657	653.25
463.876	637.25
464.096	656.25
464.316	626.25
464.536	636.25
464.755	648.25
464.975	647.25
465.195	679.25
465.414	770.25
465.634	691.25
465.854	636.25
466.073	597.25
466.293	600.25
466.512	576.25
466.732	574.25
466.951	567.25
467.171	573.25
467.391	565.25
467.61	603.25
467.829	593.25
468.049	590.25
468.268	569.25
468.488	562.25
468.707	565.25
468.927	539.25
469.146	547.25
469.365	558.25
469.585	559.25
469.804	541.25
470.023	576.25
470.243	565.25
470.462	588.25
470.681	595.25
470.901	596.25
471.12	583.25
471.339	573.25
471.558	573.25
471.777	578.25
471.997	544.25
472.216	569.25
472.435	588.25
472.654	569.25
472.873	565.25
473.092	549.25
473.311	563.25
473.53	582.25
473.749	569.25
473.968	621.25
474.187	741.25
474.406	755.25
474.625	649.25
474.844	598.25
475.063	598.25
475.282	568.25
475.501	596.25
475.72	581.25
475.939	587.25
476.158	599.25
476.377	597.25
476.596	574.25
476.814	598.25
477.033	597.25
477.252	615.25
477.471	635.25
477.69	606.25
477.908	625.25
478.127	637.25
478.346	639.25
478.564	637.25
478.783	620.25
479.002	627.25
479.22	675.25
479.439	666.25
479.658	692.25
479.876	681.25
480.095	702.25
480.313	744.25
480.532	703.25
480.751	693.25
480.969	698.25
481.188	730.25
481.406	724.25
481.624	691.25
481.843	669.25
482.061	669.25
482.28	687.25
482.498	657.25
482.717	669.25
482.935	690.25
483.153	669.25
483.372	657.25
483.59	686.25
483.808	694.25
484.027	673.25
484.245	677.25
484.463	680.25
484.681	691.25
484.9	685.25
485.118	697.25
485.336	685.25
485.554	699.25
485.772	693.25
485.99	685.25
486.209	711.25
486.427	707.25
486.645	708.25
486.863	737.25
487.081	736.25
487.299	721.25
487.517	734.25
487.735	719.25
487.953	678.25
488.171	732.25
488.389	734.25
488.607	729.25
488.825	726.25
489.043	751.25
489.261	758.25
489.479	744.25
489.696	723.25
489.914	761.25
490.132	747.25
490.35	741.25
490.568	773.25
490.786	783.25
491.003	803.25
491.221	789.25
491.439	808.25
491.657	811.25
491.874	838.25
492.092	819.25
492.31	836.25
492.527	844.25
492.745	835.25
492.963	834.25
493.18	856.25
493.398	866.25
493.615	854.25
493.833	855.25
494.05	863.25
494.268	848.25
494.485	839.25
494.703	859.25
494.92	863.25
495.138	867.25
495.355	853.25
495.573	872.25
495.79	888.25
496.008	860.25
496.225	849.25
496.442	886.25
496.66	871.25
496.877	858.25
497.094	900.25
497.312	886.25
497.529	903.25
497.746	917.25
497.963	874.25
498.181	950.25
498.398	981.25
498.615	974.25
498.832	973.25
499.049	965.25
499.267	1031.25
499.484	1075.25
499.701	1099.25
499.918	1133.25
500.135	1214.25
500.352	1201.25
500.569	1209.25
500.786	1266.25
501.003	1216.25
501.22	1198.25
501.437	1157.25
501.654	1144.25
