Data from 1988.PennyLincolnUp.Lamp.En5.5.200Scan.071819.P2_HRD10591_17-21-07-971.txt Node
Date: Thu Jul 18 17:21:07 EDT 2019
User: cochatt
Spectrometer: HR+D1059
Trigger mode: 1
Integration Time (sec): 1.000000E-1
Scans to average: 1
Electric dark correction enabled: true
Nonlinearity correction enabled: false
Boxcar width: 0
XAxis mode: Wavelengths
Number of Pixels in Spectrum: 2048
>>>>>Begin Spectral Data<<<<<
223.165	-6.56
223.4	-6.56
223.635	-6.56
223.869	-14.56
224.104	-25.56
224.338	-28.56
224.573	-19.56
224.808	-12.56
225.042	-19.56
225.277	2.44
225.511	-9.56
225.746	4.44
225.98	18.44
226.215	5.44
226.449	16.44
226.683	30.44
226.918	27.44
227.152	31.44
227.387	40.44
227.621	42.44
227.856	50.44
228.09	50.44
228.324	60.44
228.559	38.44
228.793	66.44
229.027	90.44
229.262	105.44
229.496	100.44
229.73	141.44
229.964	171.44
230.199	133.44
230.433	115.44
230.667	112.44
230.901	107.44
231.136	118.44
231.37	128.44
231.604	111.44
231.838	114.44
232.072	123.44
232.306	112.44
232.541	119.44
232.775	107.44
233.009	130.44
233.243	114.44
233.477	115.44
233.711	109.44
233.945	118.44
234.179	122.44
234.413	113.44
234.647	120.44
234.881	124.44
235.115	123.44
235.349	125.44
235.583	123.44
235.817	135.44
236.051	118.44
236.285	112.44
236.519	130.44
236.753	136.44
236.987	151.44
237.221	203.44
237.455	256.44
237.689	198.44
237.922	161.44
238.156	140.44
238.39	133.44
238.624	144.44
238.858	126.44
239.091	126.44
239.325	139.44
239.559	147.44
239.793	153.44
240.027	148.44
240.26	155.44
240.494	163.44
240.728	164.44
240.961	152.44
241.195	154.44
241.429	160.44
241.662	136.44
241.896	135.44
242.13	152.44
242.363	128.44
242.597	148.44
242.83	154.44
243.064	144.44
243.298	118.44
243.531	135.44
243.765	139.44
243.998	135.44
244.232	144.44
244.465	155.44
244.699	160.44
244.932	144.44
245.166	157.44
245.399	148.44
245.633	135.44
245.866	163.44
246.099	157.44
246.333	159.44
246.566	167.44
246.8	159.44
247.033	147.44
247.266	152.44
247.5	172.44
247.733	179.44
247.966	198.44
248.2	210.44
248.433	171.44
248.666	186.44
248.899	199.44
249.133	213.44
249.366	214.44
249.599	220.44
249.832	187.44
250.066	187.44
250.299	197.44
250.532	199.44
250.765	212.44
250.998	233.44
251.231	242.44
251.465	239.44
251.698	216.44
251.931	195.44
252.164	207.44
252.397	203.44
252.63	187.44
252.863	224.44
253.096	226.44
253.329	241.44
253.562	238.44
253.795	242.44
254.028	227.44
254.261	228.44
254.494	234.44
254.727	268.44
254.96	290.44
255.193	283.44
255.426	260.44
255.659	235.44
255.892	229.44
256.124	211.44
256.357	231.44
256.59	244.44
256.823	203.44
257.056	224.44
257.289	217.44
257.521	231.44
257.754	242.44
257.987	217.44
258.22	216.44
258.452	214.44
258.685	226.44
258.918	227.44
259.151	215.44
259.383	228.44
259.616	235.44
259.849	244.44
260.081	229.44
260.314	271.44
260.547	275.44
260.779	277.44
261.012	235.44
261.244	256.44
261.477	246.44
261.71	255.44
261.942	245.44
262.175	253.44
262.407	255.44
262.64	225.44
262.872	222.44
263.105	232.44
263.337	227.44
263.57	237.44
263.802	223.44
264.035	219.44
264.267	226.44
264.499	219.44
264.732	226.44
264.964	231.44
265.197	216.44
265.429	221.44
265.661	231.44
265.894	210.44
266.126	237.44
266.358	235.44
266.591	238.44
266.823	240.44
267.055	246.44
267.287	231.44
267.52	241.44
267.752	240.44
267.984	257.44
268.216	246.44
268.448	238.44
268.681	242.44
268.913	258.44
269.145	287.44
269.377	292.44
269.609	281.44
269.841	284.44
270.073	280.44
270.306	311.44
270.538	320.44
270.77	340.44
271.002	347.44
271.234	304.44
271.466	328.44
271.698	323.44
271.93	348.44
272.162	335.44
272.394	351.44
272.626	325.44
272.858	308.44
273.09	304.44
273.322	276.44
273.553	288.44
273.785	284.44
274.017	277.44
274.249	279.44
274.481	282.44
274.713	279.44
274.945	280.44
275.176	280.44
275.408	299.44
275.64	283.44
275.872	278.44
276.104	294.44
276.335	283.44
276.567	288.44
276.799	313.44
277.031	323.44
277.262	335.44
277.494	357.44
277.726	345.44
277.957	336.44
278.189	308.44
278.421	290.44
278.652	299.44
278.884	280.44
279.115	264.44
279.347	298.44
279.579	297.44
279.81	293.44
280.042	281.44
280.273	290.44
280.505	277.44
280.736	293.44
280.968	288.44
281.199	283.44
281.431	291.44
281.662	294.44
281.894	302.44
282.125	296.44
282.356	304.44
282.588	341.44
282.819	316.44
283.051	307.44
283.282	275.44
283.513	272.44
283.745	310.44
283.976	308.44
284.207	301.44
284.439	314.44
284.67	303.44
284.901	291.44
285.132	301.44
285.364	298.44
285.595	314.44
285.826	325.44
286.057	312.44
286.288	305.44
286.52	323.44
286.751	309.44
286.982	313.44
287.213	310.44
287.444	306.44
287.675	313.44
287.906	315.44
288.138	337.44
288.369	318.44
288.6	318.44
288.831	329.44
289.062	302.44
289.293	338.44
289.524	322.44
289.755	331.44
289.986	312.44
290.217	316.44
290.448	299.44
290.679	305.44
290.91	323.44
291.141	312.44
291.371	300.44
291.602	328.44
291.833	321.44
292.064	331.44
292.295	313.44
292.526	318.44
292.757	318.44
292.987	320.44
293.218	318.44
293.449	312.44
293.68	327.44
293.91	329.44
294.141	320.44
294.372	318.44
294.603	310.44
294.833	323.44
295.064	327.44
295.295	324.44
295.525	348.44
295.756	318.44
295.987	320.44
296.217	355.44
296.448	373.44
296.679	338.44
296.909	346.44
297.14	324.44
297.37	329.44
297.601	335.44
297.831	327.44
298.062	326.44
298.292	332.44
298.523	342.44
298.753	310.44
298.984	322.44
299.214	312.44
299.445	336.44
299.675	334.44
299.905	363.44
300.136	330.44
300.366	336.44
300.597	327.44
300.827	355.44
301.057	369.44
301.288	366.44
301.518	362.44
301.748	359.44
301.979	349.44
302.209	350.44
302.439	374.44
302.669	364.44
302.9	355.44
303.13	359.44
303.36	356.44
303.59	355.44
303.82	387.44
304.051	375.44
304.281	362.44
304.511	368.44
304.741	372.44
304.971	364.44
305.201	366.44
305.431	374.44
305.661	353.44
305.891	370.44
306.121	350.44
306.352	359.44
306.582	368.44
306.812	376.44
307.042	370.44
307.272	363.44
307.502	371.44
307.731	369.44
307.961	371.44
308.191	355.44
308.421	380.44
308.651	376.44
308.881	352.44
309.111	373.44
309.341	390.44
309.571	401.44
309.8	386.44
310.03	400.44
310.26	416.44
310.49	409.44
310.72	427.44
310.949	447.44
311.179	459.44
311.409	423.44
311.639	405.44
311.868	422.44
312.098	421.44
312.328	434.44
312.557	436.44
312.787	461.44
313.017	458.44
313.246	441.44
313.476	422.44
313.706	415.44
313.935	408.44
314.165	432.44
314.394	437.44
314.624	447.44
314.853	420.44
315.083	416.44
315.312	412.44
315.542	421.44
315.771	410.44
316.001	410.44
316.23	413.44
316.46	415.44
316.689	405.44
316.919	417.44
317.148	424.44
317.377	439.44
317.607	424.44
317.836	408.44
318.065	388.44
318.295	422.44
318.524	429.44
318.753	411.44
318.983	410.44
319.212	420.44
319.441	411.44
319.67	435.44
319.9	444.44
320.129	403.44
320.358	426.44
320.587	420.44
320.816	436.44
321.046	452.44
321.275	464.44
321.504	453.44
321.733	474.44
321.962	448.44
322.191	461.44
322.42	482.44
322.649	490.44
322.878	481.44
323.108	522.44
323.337	548.44
323.566	551.44
323.795	585.44
324.024	678.44
324.253	798.44
324.482	1130.44
324.71	1764.44
324.939	2698.44
325.168	2330.44
325.397	1165.44
325.626	771.44
325.855	656.44
326.084	591.44
326.313	579.44
326.542	583.44
326.77	636.44
326.999	734.44
327.228	1006.44
327.457	1592.44
327.686	2011.44
327.914	1310.44
328.143	807.44
328.372	707.44
328.6	652.44
328.829	623.44
329.058	646.44
329.287	659.44
329.515	594.44
329.744	558.44
329.972	559.44
330.201	583.44
330.43	588.44
330.658	618.44
330.887	664.44
331.115	652.44
331.344	619.44
331.572	527.44
331.801	532.44
332.03	532.44
332.258	527.44
332.486	502.44
332.715	514.44
332.943	496.44
333.172	516.44
333.4	520.44
333.629	542.44
333.857	550.44
334.085	519.44
334.314	551.44
334.542	533.44
334.771	548.44
334.999	551.44
335.227	500.44
335.455	530.44
335.684	513.44
335.912	522.44
336.14	476.44
336.369	487.44
336.597	504.44
336.825	531.44
337.053	511.44
337.281	475.44
337.51	503.44
337.738	494.44
337.966	495.44
338.194	519.44
338.422	507.44
338.65	487.44
338.878	491.44
339.106	484.44
339.334	489.44
339.562	478.44
339.79	482.44
340.018	497.44
340.246	481.44
340.474	490.44
340.702	482.44
340.93	487.44
341.158	473.44
341.386	481.44
341.614	504.44
341.842	484.44
342.07	491.44
342.298	482.44
342.526	495.44
342.754	463.44
342.981	472.44
343.209	478.44
343.437	502.44
343.665	483.44
343.893	500.44
344.12	479.44
344.348	491.44
344.576	500.44
344.804	500.44
345.031	498.44
345.259	504.44
345.487	506.44
345.714	481.44
345.942	473.44
346.17	483.44
346.397	468.44
346.625	462.44
346.853	483.44
347.08	478.44
347.308	475.44
347.535	481.44
347.763	484.44
347.99	474.44
348.218	468.44
348.445	473.44
348.673	487.44
348.9	472.44
349.128	476.44
349.355	466.44
349.583	452.44
349.81	453.44
350.037	465.44
350.265	455.44
350.492	450.44
350.72	484.44
350.947	487.44
351.174	500.44
351.402	479.44
351.629	470.44
351.856	483.44
352.083	485.44
352.311	484.44
352.538	513.44
352.765	502.44
352.992	479.44
353.22	475.44
353.447	485.44
353.674	457.44
353.901	458.44
354.128	462.44
354.355	459.44
354.583	449.44
354.81	436.44
355.037	450.44
355.264	450.44
355.491	445.44
355.718	427.44
355.945	436.44
356.172	448.44
356.399	448.44
356.626	442.44
356.853	430.44
357.08	464.44
357.307	440.44
357.534	451.44
357.761	451.44
357.988	452.44
358.215	436.44
358.441	447.44
358.668	430.44
358.895	450.44
359.122	435.44
359.349	465.44
359.576	481.44
359.802	483.44
360.029	538.44
360.256	542.44
360.483	507.44
360.709	501.44
360.936	459.44
361.163	451.44
361.39	477.44
361.616	491.44
361.843	488.44
362.07	455.44
362.296	471.44
362.523	474.44
362.749	470.44
362.976	474.44
363.203	485.44
363.429	454.44
363.656	467.44
363.882	451.44
364.109	447.44
364.335	450.44
364.562	458.44
364.788	448.44
365.015	454.44
365.241	450.44
365.468	460.44
365.694	453.44
365.92	459.44
366.147	472.44
366.373	461.44
366.599	468.44
366.826	444.44
367.052	445.44
367.278	464.44
367.505	460.44
367.731	474.44
367.957	450.44
368.184	478.44
368.41	478.44
368.636	465.44
368.862	489.44
369.089	470.44
369.315	454.44
369.541	440.44
369.767	464.44
369.993	454.44
370.219	465.44
370.445	454.44
370.672	454.44
370.898	443.44
371.124	464.44
371.35	459.44
371.576	452.44
371.802	447.44
372.028	452.44
372.254	471.44
372.48	443.44
372.706	466.44
372.932	465.44
373.158	468.44
373.384	485.44
373.61	470.44
373.835	431.44
374.061	450.44
374.287	468.44
374.513	456.44
374.739	466.44
374.965	466.44
375.191	473.44
375.416	482.44
375.642	481.44
375.868	449.44
376.094	465.44
376.319	454.44
376.545	473.44
376.771	449.44
376.997	435.44
377.222	466.44
377.448	467.44
377.674	442.44
377.899	459.44
378.125	458.44
378.35	461.44
378.576	449.44
378.802	467.44
379.027	447.44
379.253	458.44
379.478	446.44
379.704	438.44
379.929	438.44
380.155	450.44
380.38	469.44
380.606	442.44
380.831	450.44
381.057	460.44
381.282	450.44
381.507	451.44
381.733	465.44
381.958	464.44
382.184	451.44
382.409	459.44
382.634	483.44
382.86	479.44
383.085	508.44
383.31	480.44
383.535	468.44
383.761	510.44
383.986	473.44
384.211	467.44
384.436	481.44
384.662	471.44
384.887	489.44
385.112	518.44
385.337	481.44
385.562	488.44
385.787	510.44
386.013	528.44
386.238	521.44
386.463	509.44
386.688	528.44
386.913	478.44
387.138	499.44
387.363	511.44
387.588	507.44
387.813	503.44
388.038	507.44
388.263	514.44
388.488	504.44
388.713	477.44
388.938	494.44
389.163	531.44
389.387	501.44
389.612	488.44
389.837	498.44
390.062	490.44
390.287	508.44
390.512	496.44
390.736	532.44
390.961	512.44
391.186	512.44
391.411	527.44
391.636	512.44
391.86	518.44
392.085	520.44
392.31	529.44
392.534	539.44
392.759	522.44
392.984	497.44
393.208	524.44
393.433	528.44
393.658	515.44
393.882	527.44
394.107	508.44
394.331	518.44
394.556	523.44
394.78	510.44
395.005	528.44
395.229	543.44
395.454	535.44
395.678	533.44
395.903	533.44
396.127	570.44
396.352	568.44
396.576	552.44
396.801	553.44
397.025	520.44
397.249	534.44
397.474	578.44
397.698	540.44
397.922	579.44
398.147	565.44
398.371	582.44
398.595	578.44
398.82	591.44
399.044	614.44
399.268	636.44
399.492	648.44
399.717	689.44
399.941	694.44
400.165	713.44
400.389	744.44
400.613	690.44
400.837	638.44
401.062	619.44
401.286	604.44
401.51	598.44
401.734	572.44
401.958	619.44
402.182	601.44
402.406	618.44
402.63	626.44
402.854	610.44
403.078	600.44
403.302	616.44
403.526	598.44
403.75	596.44
403.974	617.44
404.198	606.44
404.422	594.44
404.645	633.44
404.869	604.44
405.093	659.44
405.317	664.44
405.541	730.44
405.765	633.44
405.988	616.44
406.212	672.44
406.436	669.44
406.66	713.44
406.883	708.44
407.107	715.44
407.331	741.44
407.555	838.44
407.778	861.44
408.002	768.44
408.226	715.44
408.449	678.44
408.673	667.44
408.896	738.44
409.12	775.44
409.344	719.44
409.567	656.44
409.791	610.44
410.014	642.44
410.238	620.44
410.461	604.44
410.685	635.44
410.908	615.44
411.132	686.44
411.355	738.44
411.578	679.44
411.802	632.44
412.025	632.44
412.249	615.44
412.472	652.44
412.695	665.44
412.919	658.44
413.142	616.44
413.365	600.44
413.589	594.44
413.812	608.44
414.035	598.44
414.258	579.44
414.482	571.44
414.705	567.44
414.928	587.44
415.151	579.44
415.374	598.44
415.597	586.44
415.821	585.44
416.044	586.44
416.267	601.44
416.49	595.44
416.713	588.44
416.936	594.44
417.159	583.44
417.382	598.44
417.605	582.44
417.828	587.44
418.051	628.44
418.274	592.44
418.497	607.44
418.72	601.44
418.943	578.44
419.166	589.44
419.389	620.44
419.611	617.44
419.834	609.44
420.057	601.44
420.28	598.44
420.503	586.44
420.726	624.44
420.948	633.44
421.171	684.44
421.394	716.44
421.617	613.44
421.839	585.44
422.062	610.44
422.285	614.44
422.507	675.44
422.73	786.44
422.953	751.44
423.175	664.44
423.398	642.44
423.621	617.44
423.843	677.44
424.066	669.44
424.288	652.44
424.511	683.44
424.733	730.44
424.956	843.44
425.178	805.44
425.401	787.44
425.623	807.44
425.846	720.44
426.068	668.44
426.291	675.44
426.513	644.44
426.735	681.44
426.958	743.44
427.18	822.44
427.402	972.44
427.625	1075.44
427.847	976.44
428.069	801.44
428.292	698.44
428.514	668.44
428.736	627.44
428.958	597.44
429.181	611.44
429.403	592.44
429.625	635.44
429.847	659.44
430.069	743.44
430.292	729.44
430.514	641.44
430.736	609.44
430.958	609.44
431.18	580.44
431.402	571.44
431.624	581.44
431.846	566.44
432.068	585.44
432.29	584.44
432.512	593.44
432.734	611.44
432.956	581.44
433.178	592.44
433.4	590.44
433.622	584.44
433.844	591.44
434.066	578.44
434.287	564.44
434.509	585.44
434.731	583.44
434.953	593.44
435.175	620.44
435.397	635.44
435.618	667.44
435.84	693.44
436.062	845.44
436.284	889.44
436.505	739.44
436.727	657.44
436.949	635.44
437.17	618.44
437.392	603.44
437.614	629.44
437.835	675.44
438.057	785.44
438.278	898.44
438.5	906.44
438.721	992.44
438.943	956.44
439.165	745.44
439.386	676.44
439.608	668.44
439.829	663.44
440.05	703.44
440.272	763.44
440.493	745.44
440.715	675.44
440.936	631.44
441.158	623.44
441.379	606.44
441.6	636.44
441.822	651.44
442.043	715.44
442.264	801.44
442.486	873.44
442.707	741.44
442.928	676.44
443.149	638.44
443.371	715.44
443.592	772.44
443.813	873.44
444.034	935.44
444.255	806.44
444.476	662.44
444.698	679.44
444.919	669.44
445.14	795.44
445.361	717.44
445.582	730.44
445.803	795.44
446.024	907.44
446.245	912.44
446.466	851.44
446.687	727.44
446.908	647.44
447.129	634.44
447.35	590.44
447.571	618.44
447.792	600.44
448.013	613.44
448.234	648.44
448.455	701.44
448.675	848.44
448.896	974.44
449.117	831.44
449.338	801.44
449.559	909.44
449.779	1028.44
450	839.44
450.221	674.44
450.442	598.44
450.662	596.44
450.883	608.44
451.104	615.44
451.324	603.44
451.545	560.44
451.766	562.44
451.986	546.44
452.207	543.44
452.428	549.44
452.648	542.44
452.869	558.44
453.089	522.44
453.31	567.44
453.53	568.44
453.751	531.44
453.971	546.44
454.192	568.44
454.412	538.44
454.633	538.44
454.853	520.44
455.073	556.44
455.294	577.44
455.514	643.44
455.734	651.44
455.955	539.44
456.175	524.44
456.395	522.44
456.616	524.44
456.836	540.44
457.056	513.44
457.276	472.44
457.497	524.44
457.717	521.44
457.937	537.44
458.157	538.44
458.377	560.44
458.598	553.44
458.818	644.44
459.038	710.44
459.258	754.44
459.478	651.44
459.698	610.44
459.918	587.44
460.138	589.44
460.358	598.44
460.578	584.44
460.798	609.44
461.018	602.44
461.238	585.44
461.458	591.44
461.678	576.44
461.898	588.44
462.118	611.44
462.338	601.44
462.558	644.44
462.777	636.44
462.997	650.44
463.217	645.44
463.437	657.44
463.657	638.44
463.876	649.44
464.096	626.44
464.316	632.44
464.536	640.44
464.755	639.44
464.975	661.44
465.195	691.44
465.414	753.44
465.634	692.44
465.854	650.44
466.073	622.44
466.293	572.44
466.512	560.44
466.732	587.44
466.951	559.44
467.171	546.44
467.391	567.44
467.61	587.44
467.829	585.44
468.049	575.44
468.268	548.44
468.488	552.44
468.707	570.44
468.927	535.44
469.146	532.44
469.365	559.44
469.585	530.44
469.804	555.44
470.023	584.44
470.243	571.44
470.462	567.44
470.681	581.44
470.901	607.44
471.12	584.44
471.339	572.44
471.558	575.44
471.777	584.44
471.997	554.44
472.216	539.44
472.435	580.44
472.654	579.44
472.873	564.44
473.092	540.44
473.311	575.44
473.53	565.44
473.749	571.44
473.968	628.44
474.187	743.44
474.406	772.44
474.625	620.44
474.844	601.44
475.063	567.44
475.282	579.44
475.501	585.44
475.72	585.44
475.939	568.44
476.158	598.44
476.377	577.44
476.596	568.44
476.814	568.44
477.033	615.44
477.252	609.44
477.471	599.44
477.69	626.44
477.908	603.44
478.127	613.44
478.346	614.44
478.564	655.44
478.783	635.44
479.002	635.44
479.22	640.44
479.439	655.44
479.658	691.44
479.876	697.44
480.095	695.44
480.313	725.44
480.532	730.44
480.751	708.44
480.969	695.44
481.188	714.44
481.406	740.44
481.624	690.44
481.843	693.44
482.061	669.44
482.28	661.44
482.498	666.44
482.717	673.44
482.935	673.44
483.153	649.44
483.372	670.44
483.59	678.44
483.808	668.44
484.027	675.44
484.245	670.44
484.463	660.44
484.681	670.44
484.9	705.44
485.118	698.44
485.336	699.44
485.554	704.44
485.772	687.44
485.99	699.44
486.209	718.44
486.427	689.44
486.645	692.44
486.863	731.44
487.081	719.44
487.299	730.44
487.517	710.44
487.735	706.44
487.953	718.44
488.171	713.44
488.389	723.44
488.607	727.44
488.825	689.44
489.043	723.44
489.261	744.44
489.479	729.44
489.696	737.44
489.914	726.44
490.132	725.44
490.35	749.44
490.568	753.44
490.786	751.44
491.003	751.44
491.221	808.44
491.439	809.44
491.657	821.44
491.874	812.44
492.092	800.44
492.31	839.44
492.527	828.44
492.745	830.44
492.963	795.44
493.18	830.44
493.398	827.44
493.615	843.44
493.833	841.44
494.05	850.44
494.268	856.44
494.485	837.44
494.703	843.44
494.92	844.44
495.138	854.44
495.355	862.44
495.573	862.44
495.79	840.44
496.008	859.44
496.225	850.44
496.442	844.44
496.66	882.44
496.877	890.44
497.094	868.44
497.312	896.44
497.529	899.44
497.746	923.44
497.963	940.44
498.181	966.44
498.398	974.44
498.615	961.44
498.832	998.44
499.049	1018.44
499.267	1011.44
499.484	1045.44
499.701	1090.44
499.918	1141.44
500.135	1168.44
500.352	1244.44
500.569	1258.44
500.786	1227.44
501.003	1232.44
501.22	1166.44
501.437	1149.44
501.654	1121.44
