Data from 1988.PennyLincolnUp.Lamp.En5.5.200Scan.071819.P2_HRD10591_17-21-00-974.txt Node
Date: Thu Jul 18 17:21:00 EDT 2019
User: cochatt
Spectrometer: HR+D1059
Trigger mode: 1
Integration Time (sec): 1.000000E-1
Scans to average: 1
Electric dark correction enabled: true
Nonlinearity correction enabled: false
Boxcar width: 0
XAxis mode: Wavelengths
Number of Pixels in Spectrum: 2048
>>>>>Begin Spectral Data<<<<<
223.165	-13.19
223.4	-13.19
223.635	-13.19
223.869	-25.19
224.104	-16.19
224.338	-15.19
224.573	-1.19
224.808	-13.19
225.042	-18.19
225.277	9.81
225.511	-1.19
225.746	10.81
225.98	12.81
226.215	9.81
226.449	12.81
226.683	2.81
226.918	17.81
227.152	26.81
227.387	53.81
227.621	33.81
227.856	58.81
228.09	52.81
228.324	44.81
228.559	54.81
228.793	85.81
229.027	120.81
229.262	128.81
229.496	126.81
229.73	145.81
229.964	185.81
230.199	138.81
230.433	119.81
230.667	125.81
230.901	122.81
231.136	128.81
231.37	112.81
231.604	114.81
231.838	125.81
232.072	134.81
232.306	125.81
232.541	129.81
232.775	125.81
233.009	127.81
233.243	135.81
233.477	138.81
233.711	116.81
233.945	131.81
234.179	126.81
234.413	127.81
234.647	115.81
234.881	132.81
235.115	127.81
235.349	121.81
235.583	111.81
235.817	130.81
236.051	135.81
236.285	139.81
236.519	141.81
236.753	162.81
236.987	164.81
237.221	201.81
237.455	265.81
237.689	206.81
237.922	173.81
238.156	148.81
238.39	135.81
238.624	139.81
238.858	140.81
239.091	136.81
239.325	151.81
239.559	152.81
239.793	135.81
240.027	140.81
240.26	166.81
240.494	177.81
240.728	176.81
240.961	158.81
241.195	159.81
241.429	162.81
241.662	149.81
241.896	152.81
242.13	139.81
242.363	145.81
242.597	147.81
242.83	144.81
243.064	145.81
243.298	153.81
243.531	151.81
243.765	151.81
243.998	137.81
244.232	162.81
244.465	147.81
244.699	158.81
244.932	161.81
245.166	151.81
245.399	163.81
245.633	169.81
245.866	185.81
246.099	170.81
246.333	157.81
246.566	177.81
246.8	161.81
247.033	164.81
247.266	177.81
247.5	183.81
247.733	185.81
247.966	208.81
248.2	180.81
248.433	194.81
248.666	195.81
248.899	192.81
249.133	210.81
249.366	237.81
249.599	212.81
249.832	188.81
250.066	204.81
250.299	186.81
250.532	202.81
250.765	200.81
250.998	236.81
251.231	250.81
251.465	257.81
251.698	218.81
251.931	224.81
252.164	236.81
252.397	216.81
252.63	226.81
252.863	214.81
253.096	231.81
253.329	258.81
253.562	236.81
253.795	236.81
254.028	235.81
254.261	231.81
254.494	254.81
254.727	282.81
254.96	302.81
255.193	302.81
255.426	280.81
255.659	249.81
255.892	243.81
256.124	250.81
256.357	248.81
256.59	230.81
256.823	224.81
257.056	243.81
257.289	218.81
257.521	220.81
257.754	244.81
257.987	223.81
258.22	221.81
258.452	202.81
258.685	216.81
258.918	221.81
259.151	238.81
259.383	243.81
259.616	238.81
259.849	253.81
260.081	258.81
260.314	297.81
260.547	286.81
260.779	286.81
261.012	251.81
261.244	258.81
261.477	241.81
261.71	247.81
261.942	244.81
262.175	280.81
262.407	270.81
262.64	244.81
262.872	244.81
263.105	241.81
263.337	233.81
263.57	239.81
263.802	236.81
264.035	211.81
264.267	238.81
264.499	246.81
264.732	236.81
264.964	223.81
265.197	225.81
265.429	240.81
265.661	218.81
265.894	246.81
266.126	234.81
266.358	223.81
266.591	248.81
266.823	256.81
267.055	258.81
267.287	247.81
267.52	244.81
267.752	245.81
267.984	255.81
268.216	234.81
268.448	275.81
268.681	256.81
268.913	270.81
269.145	299.81
269.377	322.81
269.609	322.81
269.841	291.81
270.073	294.81
270.306	338.81
270.538	340.81
270.77	350.81
271.002	333.81
271.234	325.81
271.466	327.81
271.698	321.81
271.93	354.81
272.162	344.81
272.394	353.81
272.626	331.81
272.858	322.81
273.09	323.81
273.322	300.81
273.553	286.81
273.785	313.81
274.017	297.81
274.249	294.81
274.481	292.81
274.713	289.81
274.945	299.81
275.176	304.81
275.408	294.81
275.64	293.81
275.872	297.81
276.104	295.81
276.335	286.81
276.567	298.81
276.799	316.81
277.031	348.81
277.262	336.81
277.494	339.81
277.726	335.81
277.957	341.81
278.189	290.81
278.421	294.81
278.652	299.81
278.884	290.81
279.115	298.81
279.347	284.81
279.579	280.81
279.81	285.81
280.042	298.81
280.273	287.81
280.505	296.81
280.736	293.81
280.968	302.81
281.199	282.81
281.431	279.81
281.662	280.81
281.894	267.81
282.125	294.81
282.356	314.81
282.588	343.81
282.819	344.81
283.051	319.81
283.282	309.81
283.513	297.81
283.745	299.81
283.976	293.81
284.207	300.81
284.439	304.81
284.67	310.81
284.901	290.81
285.132	306.81
285.364	325.81
285.595	298.81
285.826	316.81
286.057	305.81
286.288	319.81
286.52	304.81
286.751	284.81
286.982	315.81
287.213	320.81
287.444	314.81
287.675	320.81
287.906	316.81
288.138	330.81
288.369	347.81
288.6	363.81
288.831	318.81
289.062	337.81
289.293	342.81
289.524	323.81
289.755	307.81
289.986	324.81
290.217	323.81
290.448	320.81
290.679	307.81
290.91	329.81
291.141	312.81
291.371	325.81
291.602	315.81
291.833	313.81
292.064	321.81
292.295	331.81
292.526	288.81
292.757	328.81
292.987	320.81
293.218	327.81
293.449	328.81
293.68	329.81
293.91	336.81
294.141	338.81
294.372	324.81
294.603	303.81
294.833	335.81
295.064	319.81
295.295	321.81
295.525	326.81
295.756	340.81
295.987	342.81
296.217	371.81
296.448	383.81
296.679	349.81
296.909	320.81
297.14	334.81
297.37	331.81
297.601	335.81
297.831	314.81
298.062	327.81
298.292	339.81
298.523	344.81
298.753	344.81
298.984	337.81
299.214	321.81
299.445	351.81
299.675	331.81
299.905	348.81
300.136	340.81
300.366	336.81
300.597	355.81
300.827	349.81
301.057	366.81
301.288	378.81
301.518	366.81
301.748	349.81
301.979	362.81
302.209	352.81
302.439	379.81
302.669	361.81
302.9	360.81
303.13	358.81
303.36	357.81
303.59	372.81
303.82	381.81
304.051	386.81
304.281	369.81
304.511	346.81
304.741	366.81
304.971	371.81
305.201	376.81
305.431	357.81
305.661	350.81
305.891	352.81
306.121	347.81
306.352	381.81
306.582	380.81
306.812	367.81
307.042	366.81
307.272	359.81
307.502	370.81
307.731	352.81
307.961	368.81
308.191	368.81
308.421	378.81
308.651	370.81
308.881	374.81
309.111	378.81
309.341	386.81
309.571	390.81
309.8	418.81
310.03	414.81
310.26	404.81
310.49	448.81
310.72	432.81
310.949	436.81
311.179	451.81
311.409	419.81
311.639	424.81
311.868	419.81
312.098	451.81
312.328	427.81
312.557	443.81
312.787	453.81
313.017	479.81
313.246	441.81
313.476	416.81
313.706	431.81
313.935	428.81
314.165	445.81
314.394	445.81
314.624	473.81
314.853	434.81
315.083	418.81
315.312	421.81
315.542	427.81
315.771	415.81
316.001	411.81
316.23	411.81
316.46	400.81
316.689	415.81
316.919	432.81
317.148	429.81
317.377	440.81
317.607	451.81
317.836	450.81
318.065	427.81
318.295	424.81
318.524	448.81
318.753	410.81
318.983	420.81
319.212	441.81
319.441	426.81
319.67	450.81
319.9	429.81
320.129	430.81
320.358	419.81
320.587	452.81
320.816	421.81
321.046	459.81
321.275	462.81
321.504	454.81
321.733	465.81
321.962	482.81
322.191	477.81
322.42	491.81
322.649	499.81
322.878	532.81
323.108	531.81
323.337	564.81
323.566	577.81
323.795	612.81
324.024	657.81
324.253	788.81
324.482	1166.81
324.71	1797.81
324.939	2724.81
325.168	2395.81
325.397	1164.81
325.626	768.81
325.855	658.81
326.084	582.81
326.313	584.81
326.542	576.81
326.77	612.81
326.999	758.81
327.228	1051.81
327.457	1608.81
327.686	2044.81
327.914	1315.81
328.143	861.81
328.372	729.81
328.6	672.81
328.829	640.81
329.058	652.81
329.287	685.81
329.515	614.81
329.744	564.81
329.972	573.81
330.201	596.81
330.43	628.81
330.658	649.81
330.887	686.81
331.115	689.81
331.344	591.81
331.572	559.81
331.801	535.81
332.03	570.81
332.258	534.81
332.486	526.81
332.715	528.81
332.943	526.81
333.172	538.81
333.4	512.81
333.629	543.81
333.857	529.81
334.085	538.81
334.314	506.81
334.542	546.81
334.771	548.81
334.999	549.81
335.227	542.81
335.455	509.81
335.684	525.81
335.912	507.81
336.14	520.81
336.369	526.81
336.597	548.81
336.825	530.81
337.053	506.81
337.281	514.81
337.51	473.81
337.738	494.81
337.966	530.81
338.194	516.81
338.422	518.81
338.65	494.81
338.878	508.81
339.106	494.81
339.334	481.81
339.562	490.81
339.79	481.81
340.018	487.81
340.246	467.81
340.474	500.81
340.702	491.81
340.93	479.81
341.158	478.81
341.386	503.81
341.614	499.81
341.842	497.81
342.07	506.81
342.298	481.81
342.526	471.81
342.754	472.81
342.981	463.81
343.209	468.81
343.437	486.81
343.665	502.81
343.893	504.81
344.12	519.81
344.348	506.81
344.576	515.81
344.804	495.81
345.031	523.81
345.259	530.81
345.487	513.81
345.714	502.81
345.942	486.81
346.17	480.81
346.397	474.81
346.625	492.81
346.853	480.81
347.08	473.81
347.308	483.81
347.535	503.81
347.763	494.81
347.99	506.81
348.218	494.81
348.445	493.81
348.673	494.81
348.9	472.81
349.128	463.81
349.355	474.81
349.583	456.81
349.81	463.81
350.037	470.81
350.265	444.81
350.492	471.81
350.72	470.81
350.947	468.81
351.174	452.81
351.402	483.81
351.629	493.81
351.856	494.81
352.083	516.81
352.311	506.81
352.538	495.81
352.765	510.81
352.992	499.81
353.22	513.81
353.447	484.81
353.674	459.81
353.901	460.81
354.128	453.81
354.355	449.81
354.583	450.81
354.81	439.81
355.037	430.81
355.264	444.81
355.491	448.81
355.718	444.81
355.945	445.81
356.172	436.81
356.399	454.81
356.626	426.81
356.853	455.81
357.08	449.81
357.307	424.81
357.534	449.81
357.761	464.81
357.988	450.81
358.215	458.81
358.441	445.81
358.668	426.81
358.895	465.81
359.122	462.81
359.349	454.81
359.576	464.81
359.802	481.81
360.029	528.81
360.256	556.81
360.483	513.81
360.709	479.81
360.936	477.81
361.163	465.81
361.39	491.81
361.616	498.81
361.843	468.81
362.07	498.81
362.296	498.81
362.523	482.81
362.749	479.81
362.976	467.81
363.203	474.81
363.429	473.81
363.656	467.81
363.882	478.81
364.109	468.81
364.335	454.81
364.562	473.81
364.788	464.81
365.015	457.81
365.241	454.81
365.468	474.81
365.694	464.81
365.92	482.81
366.147	479.81
366.373	470.81
366.599	461.81
366.826	473.81
367.052	447.81
367.278	455.81
367.505	482.81
367.731	460.81
367.957	436.81
368.184	463.81
368.41	468.81
368.636	463.81
368.862	495.81
369.089	466.81
369.315	470.81
369.541	460.81
369.767	460.81
369.993	458.81
370.219	482.81
370.445	469.81
370.672	475.81
370.898	451.81
371.124	482.81
371.35	464.81
371.576	475.81
371.802	454.81
372.028	467.81
372.254	470.81
372.48	447.81
372.706	465.81
372.932	462.81
373.158	477.81
373.384	454.81
373.61	462.81
373.835	463.81
374.061	489.81
374.287	470.81
374.513	472.81
374.739	490.81
374.965	495.81
375.191	478.81
375.416	475.81
375.642	480.81
375.868	469.81
376.094	439.81
376.319	445.81
376.545	470.81
376.771	462.81
376.997	463.81
377.222	464.81
377.448	461.81
377.674	452.81
377.899	454.81
378.125	463.81
378.35	451.81
378.576	432.81
378.802	455.81
379.027	484.81
379.253	489.81
379.478	441.81
379.704	466.81
379.929	456.81
380.155	458.81
380.38	470.81
380.606	451.81
380.831	465.81
381.057	443.81
381.282	462.81
381.507	480.81
381.733	466.81
381.958	489.81
382.184	467.81
382.409	476.81
382.634	498.81
382.86	495.81
383.085	475.81
383.31	490.81
383.535	499.81
383.761	492.81
383.986	477.81
384.211	486.81
384.436	473.81
384.662	505.81
384.887	491.81
385.112	491.81
385.337	497.81
385.562	501.81
385.787	531.81
386.013	521.81
386.238	519.81
386.463	524.81
386.688	515.81
386.913	512.81
387.138	502.81
387.363	496.81
387.588	500.81
387.813	497.81
388.038	508.81
388.263	506.81
388.488	493.81
388.713	491.81
388.938	514.81
389.163	551.81
389.387	523.81
389.612	522.81
389.837	509.81
390.062	522.81
390.287	512.81
390.512	516.81
390.736	519.81
390.961	518.81
391.186	524.81
391.411	532.81
391.636	539.81
391.86	537.81
392.085	528.81
392.31	529.81
392.534	530.81
392.759	518.81
392.984	537.81
393.208	534.81
393.433	519.81
393.658	522.81
393.882	521.81
394.107	538.81
394.331	531.81
394.556	523.81
394.78	522.81
395.005	546.81
395.229	524.81
395.454	556.81
395.678	524.81
395.903	567.81
396.127	577.81
396.352	604.81
396.576	564.81
396.801	535.81
397.025	563.81
397.249	533.81
397.474	528.81
397.698	554.81
397.922	578.81
398.147	580.81
398.371	596.81
398.595	607.81
398.82	612.81
399.044	605.81
399.268	632.81
399.492	642.81
399.717	651.81
399.941	692.81
400.165	736.81
400.389	742.81
400.613	678.81
400.837	627.81
401.062	623.81
401.286	623.81
401.51	595.81
401.734	597.81
401.958	603.81
402.182	611.81
402.406	583.81
402.63	595.81
402.854	616.81
403.078	637.81
403.302	624.81
403.526	619.81
403.75	622.81
403.974	632.81
404.198	604.81
404.422	620.81
404.645	618.81
404.869	628.81
405.093	695.81
405.317	674.81
405.541	715.81
405.765	658.81
405.988	639.81
406.212	669.81
406.436	673.81
406.66	698.81
406.883	692.81
407.107	694.81
407.331	720.81
407.555	828.81
407.778	851.81
408.002	759.81
408.226	704.81
408.449	690.81
408.673	686.81
408.896	730.81
409.12	753.81
409.344	706.81
409.567	657.81
409.791	639.81
410.014	606.81
410.238	634.81
410.461	638.81
410.685	603.81
410.908	672.81
411.132	710.81
411.355	724.81
411.578	690.81
411.802	644.81
412.025	652.81
412.249	622.81
412.472	646.81
412.695	665.81
412.919	666.81
413.142	610.81
413.365	611.81
413.589	601.81
413.812	601.81
414.035	597.81
414.258	581.81
414.482	582.81
414.705	588.81
414.928	608.81
415.151	586.81
415.374	595.81
415.597	591.81
415.821	595.81
416.044	579.81
416.267	587.81
416.49	568.81
416.713	572.81
416.936	578.81
417.159	563.81
417.382	589.81
417.605	603.81
417.828	611.81
418.051	607.81
418.274	616.81
418.497	603.81
418.72	592.81
418.943	570.81
419.166	598.81
419.389	608.81
419.611	633.81
419.834	614.81
420.057	619.81
420.28	617.81
420.503	590.81
420.726	602.81
420.948	614.81
421.171	667.81
421.394	705.81
421.617	626.81
421.839	613.81
422.062	636.81
422.285	638.81
422.507	689.81
422.73	778.81
422.953	760.81
423.175	668.81
423.398	634.81
423.621	650.81
423.843	649.81
424.066	663.81
424.288	674.81
424.511	674.81
424.733	754.81
424.956	836.81
425.178	823.81
425.401	825.81
425.623	842.81
425.846	713.81
426.068	682.81
426.291	670.81
426.513	665.81
426.735	666.81
426.958	731.81
427.18	832.81
427.402	965.81
427.625	1081.81
427.847	951.81
428.069	802.81
428.292	700.81
428.514	673.81
428.736	641.81
428.958	621.81
429.181	630.81
429.403	622.81
429.625	622.81
429.847	658.81
430.069	725.81
430.292	747.81
430.514	639.81
430.736	631.81
430.958	630.81
431.18	591.81
431.402	602.81
431.624	566.81
431.846	581.81
432.068	586.81
432.29	585.81
432.512	569.81
432.734	595.81
432.956	587.81
433.178	599.81
433.4	614.81
433.622	579.81
433.844	596.81
434.066	576.81
434.287	569.81
434.509	600.81
434.731	587.81
434.953	606.81
435.175	641.81
435.397	666.81
435.618	674.81
435.84	725.81
436.062	839.81
436.284	908.81
436.505	772.81
436.727	712.81
436.949	635.81
437.17	630.81
437.392	624.81
437.614	660.81
437.835	698.81
438.057	785.81
438.278	904.81
438.5	912.81
438.721	1048.81
438.943	968.81
439.165	758.81
439.386	687.81
439.608	663.81
439.829	667.81
440.05	707.81
440.272	786.81
440.493	734.81
440.715	667.81
440.936	622.81
441.158	646.81
441.379	629.81
441.6	634.81
441.822	682.81
442.043	722.81
442.264	801.81
442.486	895.81
442.707	752.81
442.928	709.81
443.149	712.81
443.371	732.81
443.592	770.81
443.813	850.81
444.034	927.81
444.255	770.81
444.476	733.81
444.698	684.81
444.919	670.81
445.14	801.81
445.361	725.81
445.582	737.81
445.803	777.81
446.024	924.81
446.245	936.81
446.466	831.81
446.687	712.81
446.908	672.81
447.129	653.81
447.35	597.81
447.571	608.81
447.792	625.81
448.013	627.81
448.234	626.81
448.455	714.81
448.675	841.81
448.896	983.81
449.117	837.81
449.338	763.81
449.559	894.81
449.779	1034.81
450	822.81
450.221	672.81
450.442	614.81
450.662	606.81
450.883	591.81
451.104	633.81
451.324	598.81
451.545	601.81
451.766	577.81
451.986	547.81
452.207	543.81
452.428	541.81
452.648	553.81
452.869	557.81
453.089	586.81
453.31	556.81
453.53	579.81
453.751	559.81
453.971	547.81
454.192	557.81
454.412	571.81
454.633	550.81
454.853	561.81
455.073	549.81
455.294	583.81
455.514	677.81
455.734	642.81
455.955	554.81
456.175	533.81
456.395	519.81
456.616	536.81
456.836	510.81
457.056	518.81
457.276	524.81
457.497	519.81
457.717	495.81
457.937	556.81
458.157	546.81
458.377	532.81
458.598	568.81
458.818	627.81
459.038	746.81
459.258	779.81
459.478	639.81
459.698	606.81
459.918	596.81
460.138	590.81
460.358	614.81
460.578	601.81
460.798	615.81
461.018	599.81
461.238	605.81
461.458	575.81
461.678	579.81
461.898	607.81
462.118	592.81
462.338	619.81
462.558	615.81
462.777	615.81
462.997	649.81
463.217	655.81
463.437	651.81
463.657	655.81
463.876	646.81
464.096	617.81
464.316	620.81
464.536	670.81
464.755	648.81
464.975	644.81
465.195	687.81
465.414	770.81
465.634	699.81
465.854	635.81
466.073	606.81
466.293	568.81
466.512	588.81
466.732	567.81
466.951	554.81
467.171	540.81
467.391	578.81
467.61	562.81
467.829	584.81
468.049	602.81
468.268	562.81
468.488	568.81
468.707	550.81
468.927	563.81
469.146	543.81
469.365	558.81
469.585	550.81
469.804	580.81
470.023	579.81
470.243	577.81
470.462	574.81
470.681	596.81
470.901	611.81
471.12	575.81
471.339	576.81
471.558	577.81
471.777	559.81
471.997	543.81
472.216	551.81
472.435	566.81
472.654	572.81
472.873	562.81
473.092	563.81
473.311	553.81
473.53	582.81
473.749	582.81
473.968	612.81
474.187	744.81
474.406	767.81
474.625	654.81
474.844	597.81
475.063	606.81
475.282	589.81
475.501	584.81
475.72	587.81
475.939	569.81
476.158	600.81
476.377	580.81
476.596	576.81
476.814	590.81
477.033	608.81
477.252	622.81
477.471	618.81
477.69	616.81
477.908	614.81
478.127	642.81
478.346	642.81
478.564	636.81
478.783	628.81
479.002	664.81
479.22	647.81
479.439	684.81
479.658	669.81
479.876	703.81
480.095	723.81
480.313	723.81
480.532	711.81
480.751	699.81
480.969	702.81
481.188	734.81
481.406	724.81
481.624	704.81
481.843	681.81
482.061	678.81
482.28	668.81
482.498	671.81
482.717	666.81
482.935	690.81
483.153	691.81
483.372	655.81
483.59	676.81
483.808	679.81
484.027	668.81
484.245	686.81
484.463	675.81
484.681	691.81
484.9	696.81
485.118	680.81
485.336	682.81
485.554	688.81
485.772	705.81
485.99	682.81
486.209	675.81
486.427	708.81
486.645	724.81
486.863	743.81
487.081	742.81
487.299	724.81
487.517	713.81
487.735	721.81
487.953	726.81
488.171	730.81
488.389	732.81
488.607	732.81
488.825	734.81
489.043	750.81
489.261	721.81
489.479	730.81
489.696	734.81
489.914	748.81
490.132	743.81
490.35	754.81
490.568	766.81
490.786	771.81
491.003	801.81
491.221	807.81
491.439	795.81
491.657	814.81
491.874	807.81
492.092	828.81
492.31	810.81
492.527	832.81
492.745	827.81
492.963	852.81
493.18	820.81
493.398	830.81
493.615	853.81
493.833	859.81
494.05	840.81
494.268	848.81
494.485	823.81
494.703	840.81
494.92	851.81
495.138	867.81
495.355	883.81
495.573	883.81
495.79	849.81
496.008	862.81
496.225	870.81
496.442	877.81
496.66	877.81
496.877	858.81
497.094	887.81
497.312	878.81
497.529	891.81
497.746	912.81
497.963	929.81
498.181	954.81
498.398	938.81
498.615	981.81
498.832	974.81
499.049	970.81
499.267	1038.81
499.484	1076.81
499.701	1091.81
499.918	1123.81
500.135	1190.81
500.352	1227.81
500.569	1240.81
500.786	1254.81
501.003	1224.81
501.22	1179.81
501.437	1184.81
501.654	1146.81
