Data from 1988.PennyLincolnUp.Lamp.En5.5.200Scan.071819.P2_HRD10591_17-19-25-971.txt Node
Date: Thu Jul 18 17:19:25 EDT 2019
User: cochatt
Spectrometer: HR+D1059
Trigger mode: 1
Integration Time (sec): 1.000000E-1
Scans to average: 1
Electric dark correction enabled: true
Nonlinearity correction enabled: false
Boxcar width: 0
XAxis mode: Wavelengths
Number of Pixels in Spectrum: 2048
>>>>>Begin Spectral Data<<<<<
223.165	-14.31
223.4	-14.31
223.635	-14.31
223.869	-19.31
224.104	-17.31
224.338	-19.31
224.573	3.69
224.808	-20.31
225.042	-4.31
225.277	-11.31
225.511	-0.31
225.746	11.69
225.98	9.69
226.215	3.69
226.449	-2.31
226.683	20.69
226.918	25.69
227.152	33.69
227.387	31.69
227.621	33.69
227.856	35.69
228.09	37.69
228.324	50.69
228.559	54.69
228.793	80.69
229.027	82.69
229.262	96.69
229.496	108.69
229.73	134.69
229.964	154.69
230.199	137.69
230.433	117.69
230.667	122.69
230.901	121.69
231.136	111.69
231.37	111.69
231.604	92.69
231.838	128.69
232.072	92.69
232.306	117.69
232.541	120.69
232.775	118.69
233.009	114.69
233.243	108.69
233.477	116.69
233.711	122.69
233.945	116.69
234.179	122.69
234.413	107.69
234.647	123.69
234.881	121.69
235.115	121.69
235.349	119.69
235.583	119.69
235.817	124.69
236.051	119.69
236.285	135.69
236.519	121.69
236.753	136.69
236.987	139.69
237.221	171.69
237.455	242.69
237.689	177.69
237.922	142.69
238.156	119.69
238.39	115.69
238.624	133.69
238.858	133.69
239.091	124.69
239.325	132.69
239.559	131.69
239.793	133.69
240.027	119.69
240.26	152.69
240.494	157.69
240.728	150.69
240.961	152.69
241.195	152.69
241.429	140.69
241.662	125.69
241.896	130.69
242.13	130.69
242.363	129.69
242.597	117.69
242.83	135.69
243.064	138.69
243.298	131.69
243.531	136.69
243.765	139.69
243.998	153.69
244.232	147.69
244.465	150.69
244.699	143.69
244.932	149.69
245.166	143.69
245.399	138.69
245.633	147.69
245.866	141.69
246.099	140.69
246.333	162.69
246.566	127.69
246.8	144.69
247.033	172.69
247.266	161.69
247.5	168.69
247.733	164.69
247.966	166.69
248.2	177.69
248.433	163.69
248.666	184.69
248.899	187.69
249.133	193.69
249.366	208.69
249.599	184.69
249.832	202.69
250.066	197.69
250.299	185.69
250.532	185.69
250.765	199.69
250.998	199.69
251.231	232.69
251.465	213.69
251.698	215.69
251.931	204.69
252.164	189.69
252.397	206.69
252.63	199.69
252.863	207.69
253.096	202.69
253.329	222.69
253.562	231.69
253.795	212.69
254.028	217.69
254.261	222.69
254.494	219.69
254.727	263.69
254.96	282.69
255.193	273.69
255.426	247.69
255.659	220.69
255.892	231.69
256.124	200.69
256.357	212.69
256.59	224.69
256.823	211.69
257.056	201.69
257.289	202.69
257.521	186.69
257.754	202.69
257.987	215.69
258.22	213.69
258.452	209.69
258.685	202.69
258.918	216.69
259.151	199.69
259.383	217.69
259.616	213.69
259.849	221.69
260.081	247.69
260.314	257.69
260.547	254.69
260.779	232.69
261.012	231.69
261.244	241.69
261.477	224.69
261.71	232.69
261.942	205.69
262.175	224.69
262.407	239.69
262.64	214.69
262.872	224.69
263.105	203.69
263.337	209.69
263.57	224.69
263.802	215.69
264.035	211.69
264.267	230.69
264.499	224.69
264.732	218.69
264.964	223.69
265.197	215.69
265.429	214.69
265.661	217.69
265.894	223.69
266.126	219.69
266.358	229.69
266.591	230.69
266.823	213.69
267.055	243.69
267.287	236.69
267.52	224.69
267.752	237.69
267.984	235.69
268.216	243.69
268.448	231.69
268.681	233.69
268.913	242.69
269.145	263.69
269.377	279.69
269.609	282.69
269.841	263.69
270.073	269.69
270.306	283.69
270.538	297.69
270.77	329.69
271.002	290.69
271.234	282.69
271.466	298.69
271.698	311.69
271.93	321.69
272.162	316.69
272.394	296.69
272.626	310.69
272.858	287.69
273.09	273.69
273.322	285.69
273.553	276.69
273.785	276.69
274.017	270.69
274.249	262.69
274.481	263.69
274.713	268.69
274.945	273.69
275.176	255.69
275.408	263.69
275.64	275.69
275.872	284.69
276.104	260.69
276.335	283.69
276.567	285.69
276.799	282.69
277.031	287.69
277.262	331.69
277.494	311.69
277.726	308.69
277.957	296.69
278.189	269.69
278.421	294.69
278.652	264.69
278.884	248.69
279.115	252.69
279.347	269.69
279.579	267.69
279.81	289.69
280.042	281.69
280.273	283.69
280.505	266.69
280.736	273.69
280.968	262.69
281.199	280.69
281.431	270.69
281.662	266.69
281.894	269.69
282.125	291.69
282.356	321.69
282.588	298.69
282.819	321.69
283.051	273.69
283.282	276.69
283.513	285.69
283.745	288.69
283.976	277.69
284.207	268.69
284.439	290.69
284.67	282.69
284.901	291.69
285.132	294.69
285.364	265.69
285.595	278.69
285.826	299.69
286.057	273.69
286.288	296.69
286.52	304.69
286.751	305.69
286.982	295.69
287.213	293.69
287.444	280.69
287.675	309.69
287.906	313.69
288.138	326.69
288.369	311.69
288.6	323.69
288.831	315.69
289.062	288.69
289.293	295.69
289.524	275.69
289.755	290.69
289.986	276.69
290.217	300.69
290.448	283.69
290.679	306.69
290.91	291.69
291.141	272.69
291.371	291.69
291.602	288.69
291.833	300.69
292.064	298.69
292.295	294.69
292.526	305.69
292.757	300.69
292.987	299.69
293.218	301.69
293.449	290.69
293.68	304.69
293.91	288.69
294.141	296.69
294.372	291.69
294.603	312.69
294.833	295.69
295.064	291.69
295.295	314.69
295.525	307.69
295.756	318.69
295.987	325.69
296.217	322.69
296.448	351.69
296.679	327.69
296.909	327.69
297.14	322.69
297.37	303.69
297.601	307.69
297.831	310.69
298.062	319.69
298.292	308.69
298.523	329.69
298.753	313.69
298.984	325.69
299.214	315.69
299.445	319.69
299.675	300.69
299.905	317.69
300.136	320.69
300.366	337.69
300.597	331.69
300.827	330.69
301.057	340.69
301.288	350.69
301.518	338.69
301.748	331.69
301.979	347.69
302.209	351.69
302.439	345.69
302.669	349.69
302.9	353.69
303.13	348.69
303.36	345.69
303.59	352.69
303.82	339.69
304.051	342.69
304.281	355.69
304.511	343.69
304.741	339.69
304.971	336.69
305.201	344.69
305.431	344.69
305.661	354.69
305.891	349.69
306.121	337.69
306.352	349.69
306.582	365.69
306.812	377.69
307.042	356.69
307.272	355.69
307.502	339.69
307.731	341.69
307.961	335.69
308.191	336.69
308.421	341.69
308.651	340.69
308.881	368.69
309.111	359.69
309.341	344.69
309.571	387.69
309.8	375.69
310.03	383.69
310.26	410.69
310.49	403.69
310.72	394.69
310.949	394.69
311.179	419.69
311.409	397.69
311.639	424.69
311.868	397.69
312.098	410.69
312.328	399.69
312.557	425.69
312.787	425.69
313.017	422.69
313.246	419.69
313.476	393.69
313.706	397.69
313.935	397.69
314.165	423.69
314.394	405.69
314.624	422.69
314.853	424.69
315.083	396.69
315.312	397.69
315.542	406.69
315.771	397.69
316.001	393.69
316.23	396.69
316.46	378.69
316.689	399.69
316.919	393.69
317.148	431.69
317.377	422.69
317.607	394.69
317.836	397.69
318.065	404.69
318.295	387.69
318.524	404.69
318.753	403.69
318.983	414.69
319.212	394.69
319.441	406.69
319.67	427.69
319.9	411.69
320.129	402.69
320.358	397.69
320.587	400.69
320.816	419.69
321.046	404.69
321.275	424.69
321.504	421.69
321.733	424.69
321.962	419.69
322.191	448.69
322.42	464.69
322.649	462.69
322.878	486.69
323.108	484.69
323.337	500.69
323.566	516.69
323.795	577.69
324.024	612.69
324.253	721.69
324.482	1055.69
324.71	1653.69
324.939	2334.69
325.168	2041.69
325.397	1023.69
325.626	706.69
325.855	595.69
326.084	555.69
326.313	544.69
326.542	545.69
326.77	572.69
326.999	678.69
327.228	955.69
327.457	1474.69
327.686	1731.69
327.914	1150.69
328.143	767.69
328.372	643.69
328.6	605.69
328.829	586.69
329.058	621.69
329.287	615.69
329.515	582.69
329.744	536.69
329.972	504.69
330.201	525.69
330.43	555.69
330.658	584.69
330.887	619.69
331.115	636.69
331.344	545.69
331.572	529.69
331.801	502.69
332.03	528.69
332.258	509.69
332.486	485.69
332.715	474.69
332.943	469.69
333.172	481.69
333.4	485.69
333.629	457.69
333.857	508.69
334.085	505.69
334.314	486.69
334.542	485.69
334.771	503.69
334.999	495.69
335.227	477.69
335.455	459.69
335.684	476.69
335.912	475.69
336.14	464.69
336.369	476.69
336.597	468.69
336.825	486.69
337.053	457.69
337.281	489.69
337.51	484.69
337.738	470.69
337.966	465.69
338.194	461.69
338.422	456.69
338.65	464.69
338.878	445.69
339.106	461.69
339.334	442.69
339.562	426.69
339.79	447.69
340.018	467.69
340.246	457.69
340.474	479.69
340.702	460.69
340.93	450.69
341.158	452.69
341.386	466.69
341.614	477.69
341.842	456.69
342.07	457.69
342.298	452.69
342.526	445.69
342.754	425.69
342.981	433.69
343.209	431.69
343.437	451.69
343.665	446.69
343.893	453.69
344.12	465.69
344.348	470.69
344.576	475.69
344.804	457.69
345.031	473.69
345.259	496.69
345.487	476.69
345.714	470.69
345.942	463.69
346.17	451.69
346.397	434.69
346.625	426.69
346.853	459.69
347.08	435.69
347.308	438.69
347.535	448.69
347.763	457.69
347.99	452.69
348.218	444.69
348.445	442.69
348.673	436.69
348.9	434.69
349.128	432.69
349.355	450.69
349.583	444.69
349.81	426.69
350.037	416.69
350.265	436.69
350.492	434.69
350.72	432.69
350.947	427.69
351.174	453.69
351.402	440.69
351.629	441.69
351.856	451.69
352.083	439.69
352.311	469.69
352.538	452.69
352.765	452.69
352.992	448.69
353.22	438.69
353.447	421.69
353.674	422.69
353.901	419.69
354.128	405.69
354.355	417.69
354.583	405.69
354.81	415.69
355.037	408.69
355.264	415.69
355.491	406.69
355.718	410.69
355.945	409.69
356.172	404.69
356.399	408.69
356.626	426.69
356.853	413.69
357.08	383.69
357.307	417.69
357.534	412.69
357.761	407.69
357.988	412.69
358.215	438.69
358.441	420.69
358.668	401.69
358.895	424.69
359.122	425.69
359.349	422.69
359.576	439.69
359.802	460.69
360.029	487.69
360.256	493.69
360.483	503.69
360.709	459.69
360.936	440.69
361.163	412.69
361.39	451.69
361.616	465.69
361.843	440.69
362.07	433.69
362.296	449.69
362.523	448.69
362.749	439.69
362.976	427.69
363.203	435.69
363.429	419.69
363.656	443.69
363.882	405.69
364.109	410.69
364.335	425.69
364.562	421.69
364.788	415.69
365.015	413.69
365.241	413.69
365.468	412.69
365.694	445.69
365.92	424.69
366.147	403.69
366.373	418.69
366.599	405.69
366.826	421.69
367.052	417.69
367.278	420.69
367.505	434.69
367.731	434.69
367.957	421.69
368.184	424.69
368.41	411.69
368.636	434.69
368.862	433.69
369.089	440.69
369.315	408.69
369.541	404.69
369.767	422.69
369.993	429.69
370.219	421.69
370.445	424.69
370.672	411.69
370.898	399.69
371.124	426.69
371.35	437.69
371.576	413.69
371.802	421.69
372.028	418.69
372.254	433.69
372.48	414.69
372.706	404.69
372.932	411.69
373.158	431.69
373.384	445.69
373.61	417.69
373.835	405.69
374.061	436.69
374.287	429.69
374.513	438.69
374.739	435.69
374.965	442.69
375.191	439.69
375.416	438.69
375.642	431.69
375.868	405.69
376.094	416.69
376.319	426.69
376.545	419.69
376.771	434.69
376.997	403.69
377.222	419.69
377.448	419.69
377.674	424.69
377.899	411.69
378.125	412.69
378.35	418.69
378.576	407.69
378.802	395.69
379.027	411.69
379.253	415.69
379.478	433.69
379.704	427.69
379.929	436.69
380.155	433.69
380.38	426.69
380.606	438.69
380.831	458.69
381.057	428.69
381.282	452.69
381.507	413.69
381.733	412.69
381.958	434.69
382.184	435.69
382.409	428.69
382.634	423.69
382.86	435.69
383.085	433.69
383.31	444.69
383.535	435.69
383.761	446.69
383.986	443.69
384.211	459.69
384.436	451.69
384.662	465.69
384.887	456.69
385.112	449.69
385.337	456.69
385.562	460.69
385.787	471.69
386.013	481.69
386.238	479.69
386.463	453.69
386.688	455.69
386.913	455.69
387.138	483.69
387.363	437.69
387.588	477.69
387.813	450.69
388.038	467.69
388.263	476.69
388.488	475.69
388.713	468.69
388.938	459.69
389.163	458.69
389.387	469.69
389.612	452.69
389.837	467.69
390.062	474.69
390.287	459.69
390.512	482.69
390.736	454.69
390.961	437.69
391.186	481.69
391.411	454.69
391.636	471.69
391.86	490.69
392.085	481.69
392.31	472.69
392.534	454.69
392.759	479.69
392.984	468.69
393.208	475.69
393.433	481.69
393.658	470.69
393.882	449.69
394.107	451.69
394.331	468.69
394.556	461.69
394.78	449.69
395.005	467.69
395.229	485.69
395.454	475.69
395.678	471.69
395.903	506.69
396.127	501.69
396.352	520.69
396.576	480.69
396.801	486.69
397.025	488.69
397.249	502.69
397.474	500.69
397.698	505.69
397.922	519.69
398.147	535.69
398.371	546.69
398.595	528.69
398.82	520.69
399.044	556.69
399.268	567.69
399.492	576.69
399.717	608.69
399.941	639.69
400.165	672.69
400.389	673.69
400.613	602.69
400.837	575.69
401.062	563.69
401.286	540.69
401.51	546.69
401.734	535.69
401.958	549.69
402.182	569.69
402.406	545.69
402.63	545.69
402.854	548.69
403.078	512.69
403.302	547.69
403.526	520.69
403.75	561.69
403.974	553.69
404.198	548.69
404.422	571.69
404.645	577.69
404.869	585.69
405.093	573.69
405.317	603.69
405.541	633.69
405.765	597.69
405.988	584.69
406.212	584.69
406.436	613.69
406.66	650.69
406.883	585.69
407.107	635.69
407.331	670.69
407.555	742.69
407.778	755.69
408.002	700.69
408.226	619.69
408.449	612.69
408.673	614.69
408.896	653.69
409.12	679.69
409.344	635.69
409.567	569.69
409.791	570.69
410.014	567.69
410.238	565.69
410.461	563.69
410.685	573.69
410.908	595.69
411.132	614.69
411.355	642.69
411.578	623.69
411.802	571.69
412.025	571.69
412.249	554.69
412.472	567.69
412.695	583.69
412.919	570.69
413.142	537.69
413.365	554.69
413.589	557.69
413.812	541.69
414.035	545.69
414.258	533.69
414.482	527.69
414.705	516.69
414.928	533.69
415.151	539.69
415.374	535.69
415.597	508.69
415.821	507.69
416.044	523.69
416.267	531.69
416.49	515.69
416.713	529.69
416.936	521.69
417.159	519.69
417.382	527.69
417.605	492.69
417.828	510.69
418.051	519.69
418.274	521.69
418.497	500.69
418.72	516.69
418.943	493.69
419.166	529.69
419.389	587.69
419.611	569.69
419.834	541.69
420.057	550.69
420.28	530.69
420.503	539.69
420.726	536.69
420.948	546.69
421.171	584.69
421.394	633.69
421.617	580.69
421.839	569.69
422.062	554.69
422.285	561.69
422.507	615.69
422.73	691.69
422.953	684.69
423.175	614.69
423.398	563.69
423.621	559.69
423.843	576.69
424.066	586.69
424.288	589.69
424.511	610.69
424.733	667.69
424.956	754.69
425.178	723.69
425.401	703.69
425.623	771.69
425.846	625.69
426.068	607.69
426.291	594.69
426.513	580.69
426.735	601.69
426.958	644.69
427.18	699.69
427.402	850.69
427.625	942.69
427.847	823.69
428.069	693.69
428.292	629.69
428.514	585.69
428.736	556.69
428.958	573.69
429.181	572.69
429.403	537.69
429.625	547.69
429.847	589.69
430.069	665.69
430.292	670.69
430.514	575.69
430.736	562.69
430.958	545.69
431.18	532.69
431.402	498.69
431.624	515.69
431.846	513.69
432.068	524.69
432.29	513.69
432.512	525.69
432.734	507.69
432.956	516.69
433.178	545.69
433.4	535.69
433.622	510.69
433.844	496.69
434.066	492.69
434.287	520.69
434.509	513.69
434.731	519.69
434.953	552.69
435.175	570.69
435.397	588.69
435.618	589.69
435.84	643.69
436.062	761.69
436.284	799.69
436.505	650.69
436.727	594.69
436.949	551.69
437.17	557.69
437.392	541.69
437.614	563.69
437.835	578.69
438.057	688.69
438.278	801.69
438.5	808.69
438.721	888.69
438.943	849.69
439.165	691.69
439.386	634.69
439.608	591.69
439.829	591.69
440.05	605.69
440.272	647.69
440.493	623.69
440.715	572.69
440.936	543.69
441.158	539.69
441.379	535.69
441.6	564.69
441.822	577.69
442.043	644.69
442.264	739.69
442.486	760.69
442.707	655.69
442.928	593.69
443.149	629.69
443.371	645.69
443.592	666.69
443.813	777.69
444.034	847.69
444.255	705.69
444.476	626.69
444.698	633.69
444.919	598.69
445.14	697.69
445.361	641.69
445.582	644.69
445.803	711.69
446.024	779.69
446.245	847.69
446.466	730.69
446.687	623.69
446.908	589.69
447.129	569.69
447.35	523.69
447.571	547.69
447.792	524.69
448.013	538.69
448.234	563.69
448.455	613.69
448.675	725.69
448.896	861.69
449.117	713.69
449.338	680.69
449.559	785.69
449.779	909.69
450	719.69
450.221	579.69
450.442	551.69
450.662	547.69
450.883	542.69
451.104	562.69
451.324	534.69
451.545	526.69
451.766	492.69
451.986	513.69
452.207	490.69
452.428	504.69
452.648	498.69
452.869	508.69
453.089	503.69
453.31	532.69
453.53	511.69
453.751	493.69
453.971	484.69
454.192	520.69
454.412	516.69
454.633	485.69
454.853	488.69
455.073	497.69
455.294	524.69
455.514	585.69
455.734	577.69
455.955	482.69
456.175	466.69
456.395	459.69
456.616	453.69
456.836	456.69
457.056	440.69
457.276	453.69
457.497	479.69
457.717	447.69
457.937	479.69
458.157	484.69
458.377	470.69
458.598	509.69
458.818	566.69
459.038	639.69
459.258	657.69
459.478	560.69
459.698	524.69
459.918	521.69
460.138	514.69
460.358	512.69
460.578	525.69
460.798	538.69
461.018	536.69
461.238	519.69
461.458	555.69
461.678	526.69
461.898	524.69
462.118	506.69
462.338	553.69
462.558	545.69
462.777	550.69
462.997	575.69
463.217	563.69
463.437	576.69
463.657	570.69
463.876	563.69
464.096	567.69
464.316	570.69
464.536	572.69
464.755	550.69
464.975	552.69
465.195	616.69
465.414	658.69
465.634	607.69
465.854	553.69
466.073	553.69
466.293	528.69
466.512	511.69
466.732	508.69
466.951	496.69
467.171	503.69
467.391	498.69
467.61	518.69
467.829	551.69
468.049	524.69
468.268	505.69
468.488	490.69
468.707	486.69
468.927	486.69
469.146	486.69
469.365	501.69
469.585	489.69
469.804	489.69
470.023	513.69
470.243	513.69
470.462	524.69
470.681	540.69
470.901	535.69
471.12	533.69
471.339	487.69
471.558	533.69
471.777	501.69
471.997	485.69
472.216	501.69
472.435	495.69
472.654	486.69
472.873	490.69
473.092	487.69
473.311	492.69
473.53	499.69
473.749	530.69
473.968	573.69
474.187	669.69
474.406	696.69
474.625	592.69
474.844	515.69
475.063	509.69
475.282	508.69
475.501	499.69
475.72	524.69
475.939	514.69
476.158	533.69
476.377	531.69
476.596	518.69
476.814	523.69
477.033	523.69
477.252	533.69
477.471	521.69
477.69	580.69
477.908	545.69
478.127	556.69
478.346	564.69
478.564	559.69
478.783	594.69
479.002	581.69
479.22	589.69
479.439	588.69
479.658	620.69
479.876	624.69
480.095	617.69
480.313	662.69
480.532	638.69
480.751	613.69
480.969	617.69
481.188	611.69
481.406	635.69
481.624	641.69
481.843	610.69
482.061	601.69
482.28	585.69
482.498	572.69
482.717	600.69
482.935	607.69
483.153	597.69
483.372	609.69
483.59	605.69
483.808	588.69
484.027	587.69
484.245	572.69
484.463	601.69
484.681	612.69
484.9	582.69
485.118	593.69
485.336	617.69
485.554	620.69
485.772	620.69
485.99	616.69
486.209	644.69
486.427	634.69
486.645	643.69
486.863	672.69
487.081	638.69
487.299	645.69
487.517	643.69
487.735	644.69
487.953	639.69
488.171	660.69
488.389	673.69
488.607	645.69
488.825	645.69
489.043	635.69
489.261	639.69
489.479	661.69
489.696	638.69
489.914	651.69
490.132	643.69
490.35	674.69
490.568	652.69
490.786	688.69
491.003	682.69
491.221	678.69
491.439	724.69
491.657	707.69
491.874	708.69
492.092	711.69
492.31	710.69
492.527	726.69
492.745	730.69
492.963	714.69
493.18	748.69
493.398	739.69
493.615	740.69
493.833	735.69
494.05	749.69
494.268	742.69
494.485	759.69
494.703	732.69
494.92	754.69
495.138	758.69
495.355	779.69
495.573	751.69
495.79	755.69
496.008	788.69
496.225	762.69
496.442	765.69
496.66	772.69
496.877	772.69
497.094	779.69
497.312	785.69
497.529	787.69
497.746	791.69
497.963	808.69
498.181	845.69
498.398	849.69
498.615	857.69
498.832	904.69
499.049	881.69
499.267	892.69
499.484	916.69
499.701	983.69
499.918	999.69
500.135	1055.69
500.352	1076.69
500.569	1095.69
500.786	1055.69
501.003	1092.69
501.22	1031.69
501.437	1023.69
501.654	1010.69
501.871	964.69
