Data from 1988.PennyLincolnUp.Lamp.En5.5.200Scan.071819.P2_HRD10591_17-20-26-972.txt Node
Date: Thu Jul 18 17:20:26 EDT 2019
User: cochatt
Spectrometer: HR+D1059
Trigger mode: 1
Integration Time (sec): 1.000000E-1
Scans to average: 1
Electric dark correction enabled: true
Nonlinearity correction enabled: false
Boxcar width: 0
XAxis mode: Wavelengths
Number of Pixels in Spectrum: 2048
>>>>>Begin Spectral Data<<<<<
223.165	-15.56
223.4	-15.56
223.635	-15.56
223.869	-13.56
224.104	-22.56
224.338	-10.56
224.573	-22.56
224.808	-0.56
225.042	-16.56
225.277	-0.56
225.511	-2.56
225.746	14.44
225.98	-2.56
226.215	4.44
226.449	23.44
226.683	26.44
226.918	14.44
227.152	24.44
227.387	32.44
227.621	40.44
227.856	46.44
228.09	41.44
228.324	55.44
228.559	42.44
228.793	58.44
229.027	98.44
229.262	107.44
229.496	130.44
229.73	155.44
229.964	166.44
230.199	145.44
230.433	121.44
230.667	108.44
230.901	127.44
231.136	123.44
231.37	113.44
231.604	123.44
231.838	133.44
232.072	119.44
232.306	119.44
232.541	107.44
232.775	110.44
233.009	112.44
233.243	120.44
233.477	132.44
233.711	124.44
233.945	133.44
234.179	106.44
234.413	118.44
234.647	113.44
234.881	119.44
235.115	125.44
235.349	122.44
235.583	128.44
235.817	106.44
236.051	136.44
236.285	135.44
236.519	124.44
236.753	139.44
236.987	141.44
237.221	186.44
237.455	260.44
237.689	199.44
237.922	140.44
238.156	117.44
238.39	133.44
238.624	138.44
238.858	139.44
239.091	132.44
239.325	125.44
239.559	151.44
239.793	135.44
240.027	146.44
240.26	157.44
240.494	173.44
240.728	166.44
240.961	169.44
241.195	154.44
241.429	159.44
241.662	151.44
241.896	134.44
242.13	137.44
242.363	150.44
242.597	139.44
242.83	144.44
243.064	154.44
243.298	142.44
243.531	158.44
243.765	162.44
243.998	147.44
244.232	144.44
244.465	162.44
244.699	170.44
244.932	161.44
245.166	154.44
245.399	137.44
245.633	150.44
245.866	173.44
246.099	169.44
246.333	161.44
246.566	140.44
246.8	167.44
247.033	166.44
247.266	165.44
247.5	163.44
247.733	175.44
247.966	201.44
248.2	193.44
248.433	184.44
248.666	181.44
248.899	193.44
249.133	197.44
249.366	225.44
249.599	210.44
249.832	183.44
250.066	189.44
250.299	188.44
250.532	206.44
250.765	218.44
250.998	233.44
251.231	226.44
251.465	208.44
251.698	213.44
251.931	211.44
252.164	225.44
252.397	219.44
252.63	206.44
252.863	217.44
253.096	225.44
253.329	251.44
253.562	239.44
253.795	231.44
254.028	233.44
254.261	210.44
254.494	238.44
254.727	279.44
254.96	318.44
255.193	285.44
255.426	255.44
255.659	260.44
255.892	250.44
256.124	231.44
256.357	222.44
256.59	220.44
256.823	230.44
257.056	241.44
257.289	214.44
257.521	217.44
257.754	222.44
257.987	228.44
258.22	221.44
258.452	215.44
258.685	218.44
258.918	213.44
259.151	235.44
259.383	249.44
259.616	249.44
259.849	242.44
260.081	258.44
260.314	269.44
260.547	288.44
260.779	276.44
261.012	248.44
261.244	247.44
261.477	251.44
261.71	238.44
261.942	249.44
262.175	259.44
262.407	232.44
262.64	243.44
262.872	229.44
263.105	222.44
263.337	223.44
263.57	227.44
263.802	228.44
264.035	217.44
264.267	218.44
264.499	210.44
264.732	220.44
264.964	225.44
265.197	219.44
265.429	237.44
265.661	230.44
265.894	223.44
266.126	222.44
266.358	223.44
266.591	234.44
266.823	233.44
267.055	245.44
267.287	243.44
267.52	244.44
267.752	243.44
267.984	233.44
268.216	237.44
268.448	243.44
268.681	250.44
268.913	277.44
269.145	280.44
269.377	301.44
269.609	300.44
269.841	279.44
270.073	306.44
270.306	308.44
270.538	349.44
270.77	342.44
271.002	327.44
271.234	304.44
271.466	303.44
271.698	333.44
271.93	317.44
272.162	338.44
272.394	328.44
272.626	313.44
272.858	305.44
273.09	281.44
273.322	269.44
273.553	282.44
273.785	287.44
274.017	285.44
274.249	280.44
274.481	279.44
274.713	283.44
274.945	306.44
275.176	299.44
275.408	282.44
275.64	273.44
275.872	274.44
276.104	271.44
276.335	296.44
276.567	283.44
276.799	298.44
277.031	332.44
277.262	338.44
277.494	334.44
277.726	311.44
277.957	302.44
278.189	302.44
278.421	295.44
278.652	281.44
278.884	283.44
279.115	287.44
279.347	279.44
279.579	286.44
279.81	267.44
280.042	276.44
280.273	287.44
280.505	285.44
280.736	279.44
280.968	274.44
281.199	288.44
281.431	267.44
281.662	280.44
281.894	282.44
282.125	290.44
282.356	319.44
282.588	321.44
282.819	323.44
283.051	318.44
283.282	279.44
283.513	278.44
283.745	300.44
283.976	284.44
284.207	303.44
284.439	297.44
284.67	298.44
284.901	287.44
285.132	298.44
285.364	304.44
285.595	315.44
285.826	298.44
286.057	281.44
286.288	293.44
286.52	283.44
286.751	291.44
286.982	328.44
287.213	303.44
287.444	317.44
287.675	319.44
287.906	310.44
288.138	317.44
288.369	338.44
288.6	340.44
288.831	317.44
289.062	340.44
289.293	323.44
289.524	310.44
289.755	299.44
289.986	310.44
290.217	322.44
290.448	315.44
290.679	303.44
290.91	309.44
291.141	322.44
291.371	316.44
291.602	321.44
291.833	311.44
292.064	315.44
292.295	341.44
292.526	317.44
292.757	322.44
292.987	315.44
293.218	315.44
293.449	336.44
293.68	318.44
293.91	301.44
294.141	297.44
294.372	310.44
294.603	316.44
294.833	321.44
295.064	324.44
295.295	315.44
295.525	306.44
295.756	325.44
295.987	355.44
296.217	346.44
296.448	350.44
296.679	328.44
296.909	319.44
297.14	326.44
297.37	339.44
297.601	347.44
297.831	323.44
298.062	334.44
298.292	326.44
298.523	338.44
298.753	326.44
298.984	315.44
299.214	338.44
299.445	340.44
299.675	323.44
299.905	338.44
300.136	358.44
300.366	349.44
300.597	365.44
300.827	345.44
301.057	347.44
301.288	363.44
301.518	347.44
301.748	353.44
301.979	364.44
302.209	356.44
302.439	356.44
302.669	366.44
302.9	359.44
303.13	364.44
303.36	360.44
303.59	350.44
303.82	346.44
304.051	363.44
304.281	356.44
304.511	358.44
304.741	349.44
304.971	359.44
305.201	379.44
305.431	369.44
305.661	367.44
305.891	335.44
306.121	362.44
306.352	348.44
306.582	360.44
306.812	358.44
307.042	375.44
307.272	358.44
307.502	365.44
307.731	354.44
307.961	360.44
308.191	351.44
308.421	361.44
308.651	365.44
308.881	388.44
309.111	371.44
309.341	369.44
309.571	376.44
309.8	392.44
310.03	425.44
310.26	417.44
310.49	405.44
310.72	418.44
310.949	410.44
311.179	434.44
311.409	423.44
311.639	417.44
311.868	421.44
312.098	421.44
312.328	408.44
312.557	433.44
312.787	459.44
313.017	436.44
313.246	423.44
313.476	422.44
313.706	416.44
313.935	427.44
314.165	455.44
314.394	429.44
314.624	444.44
314.853	431.44
315.083	419.44
315.312	412.44
315.542	410.44
315.771	426.44
316.001	408.44
316.23	414.44
316.46	408.44
316.689	424.44
316.919	415.44
317.148	444.44
317.377	433.44
317.607	437.44
317.836	392.44
318.065	419.44
318.295	421.44
318.524	411.44
318.753	408.44
318.983	397.44
319.212	427.44
319.441	412.44
319.67	439.44
319.9	422.44
320.129	422.44
320.358	422.44
320.587	424.44
320.816	450.44
321.046	441.44
321.275	444.44
321.504	436.44
321.733	454.44
321.962	471.44
322.191	462.44
322.42	481.44
322.649	494.44
322.878	518.44
323.108	527.44
323.337	535.44
323.566	546.44
323.795	589.44
324.024	655.44
324.253	749.44
324.482	1086.44
324.71	1755.44
324.939	2578.44
325.168	2204.44
325.397	1113.44
325.626	737.44
325.855	645.44
326.084	582.44
326.313	564.44
326.542	581.44
326.77	584.44
326.999	731.44
327.228	987.44
327.457	1548.44
327.686	1921.44
327.914	1263.44
328.143	804.44
328.372	705.44
328.6	633.44
328.829	609.44
329.058	635.44
329.287	652.44
329.515	601.44
329.744	552.44
329.972	559.44
330.201	538.44
330.43	588.44
330.658	599.44
330.887	658.44
331.115	676.44
331.344	600.44
331.572	561.44
331.801	558.44
332.03	539.44
332.258	513.44
332.486	493.44
332.715	534.44
332.943	489.44
333.172	496.44
333.4	505.44
333.629	492.44
333.857	526.44
334.085	523.44
334.314	527.44
334.542	523.44
334.771	531.44
334.999	534.44
335.227	501.44
335.455	491.44
335.684	520.44
335.912	474.44
336.14	513.44
336.369	488.44
336.597	488.44
336.825	509.44
337.053	495.44
337.281	492.44
337.51	498.44
337.738	498.44
337.966	500.44
338.194	518.44
338.422	462.44
338.65	495.44
338.878	486.44
339.106	489.44
339.334	483.44
339.562	478.44
339.79	468.44
340.018	497.44
340.246	468.44
340.474	499.44
340.702	494.44
340.93	467.44
341.158	487.44
341.386	479.44
341.614	486.44
341.842	475.44
342.07	478.44
342.298	481.44
342.526	477.44
342.754	468.44
342.981	460.44
343.209	461.44
343.437	480.44
343.665	482.44
343.893	490.44
344.12	493.44
344.348	486.44
344.576	477.44
344.804	491.44
345.031	499.44
345.259	513.44
345.487	493.44
345.714	499.44
345.942	469.44
346.17	476.44
346.397	483.44
346.625	473.44
346.853	474.44
347.08	462.44
347.308	485.44
347.535	485.44
347.763	475.44
347.99	486.44
348.218	473.44
348.445	475.44
348.673	485.44
348.9	471.44
349.128	459.44
349.355	453.44
349.583	459.44
349.81	466.44
350.037	459.44
350.265	468.44
350.492	452.44
350.72	454.44
350.947	461.44
351.174	458.44
351.402	467.44
351.629	449.44
351.856	471.44
352.083	468.44
352.311	483.44
352.538	501.44
352.765	501.44
352.992	477.44
353.22	483.44
353.447	468.44
353.674	467.44
353.901	458.44
354.128	444.44
354.355	437.44
354.583	422.44
354.81	456.44
355.037	452.44
355.264	423.44
355.491	416.44
355.718	426.44
355.945	442.44
356.172	437.44
356.399	429.44
356.626	433.44
356.853	421.44
357.08	414.44
357.307	431.44
357.534	435.44
357.761	444.44
357.988	432.44
358.215	439.44
358.441	437.44
358.668	443.44
358.895	456.44
359.122	448.44
359.349	459.44
359.576	468.44
359.802	503.44
360.029	491.44
360.256	535.44
360.483	523.44
360.709	487.44
360.936	469.44
361.163	476.44
361.39	465.44
361.616	474.44
361.843	468.44
362.07	487.44
362.296	492.44
362.523	507.44
362.749	477.44
362.976	453.44
363.203	467.44
363.429	464.44
363.656	439.44
363.882	468.44
364.109	441.44
364.335	455.44
364.562	470.44
364.788	441.44
365.015	440.44
365.241	456.44
365.468	466.44
365.694	446.44
365.92	467.44
366.147	478.44
366.373	459.44
366.599	450.44
366.826	453.44
367.052	437.44
367.278	459.44
367.505	474.44
367.731	460.44
367.957	459.44
368.184	450.44
368.41	453.44
368.636	470.44
368.862	493.44
369.089	445.44
369.315	449.44
369.541	461.44
369.767	467.44
369.993	457.44
370.219	446.44
370.445	479.44
370.672	477.44
370.898	465.44
371.124	452.44
371.35	455.44
371.576	458.44
371.802	446.44
372.028	457.44
372.254	434.44
372.48	461.44
372.706	446.44
372.932	455.44
373.158	460.44
373.384	467.44
373.61	461.44
373.835	455.44
374.061	453.44
374.287	463.44
374.513	461.44
374.739	483.44
374.965	475.44
375.191	472.44
375.416	453.44
375.642	484.44
375.868	460.44
376.094	463.44
376.319	486.44
376.545	453.44
376.771	456.44
376.997	451.44
377.222	441.44
377.448	471.44
377.674	446.44
377.899	465.44
378.125	466.44
378.35	443.44
378.576	442.44
378.802	440.44
379.027	446.44
379.253	455.44
379.478	443.44
379.704	437.44
379.929	449.44
380.155	454.44
380.38	475.44
380.606	462.44
380.831	471.44
381.057	468.44
381.282	458.44
381.507	444.44
381.733	468.44
381.958	489.44
382.184	462.44
382.409	459.44
382.634	472.44
382.86	478.44
383.085	488.44
383.31	484.44
383.535	468.44
383.761	485.44
383.986	488.44
384.211	486.44
384.436	482.44
384.662	501.44
384.887	468.44
385.112	497.44
385.337	507.44
385.562	495.44
385.787	497.44
386.013	507.44
386.238	500.44
386.463	504.44
386.688	501.44
386.913	494.44
387.138	499.44
387.363	515.44
387.588	516.44
387.813	519.44
388.038	514.44
388.263	518.44
388.488	497.44
388.713	498.44
388.938	516.44
389.163	511.44
389.387	502.44
389.612	491.44
389.837	492.44
390.062	493.44
390.287	524.44
390.512	520.44
390.736	515.44
390.961	537.44
391.186	499.44
391.411	522.44
391.636	508.44
391.86	492.44
392.085	507.44
392.31	527.44
392.534	523.44
392.759	535.44
392.984	513.44
393.208	499.44
393.433	524.44
393.658	504.44
393.882	526.44
394.107	509.44
394.331	509.44
394.556	511.44
394.78	514.44
395.005	516.44
395.229	533.44
395.454	542.44
395.678	512.44
395.903	531.44
396.127	570.44
396.352	563.44
396.576	559.44
396.801	539.44
397.025	541.44
397.249	553.44
397.474	545.44
397.698	535.44
397.922	552.44
398.147	600.44
398.371	574.44
398.595	572.44
398.82	570.44
399.044	590.44
399.268	608.44
399.492	665.44
399.717	695.44
399.941	707.44
400.165	715.44
400.389	727.44
400.613	704.44
400.837	633.44
401.062	611.44
401.286	600.44
401.51	605.44
401.734	588.44
401.958	613.44
402.182	598.44
402.406	611.44
402.63	616.44
402.854	603.44
403.078	595.44
403.302	595.44
403.526	604.44
403.75	631.44
403.974	637.44
404.198	625.44
404.422	625.44
404.645	612.44
404.869	590.44
405.093	627.44
405.317	669.44
405.541	701.44
405.765	660.44
405.988	629.44
406.212	616.44
406.436	657.44
406.66	690.44
406.883	667.44
407.107	692.44
407.331	738.44
407.555	838.44
407.778	809.44
408.002	731.44
408.226	713.44
408.449	667.44
408.673	661.44
408.896	701.44
409.12	763.44
409.344	717.44
409.567	647.44
409.791	648.44
410.014	637.44
410.238	606.44
410.461	621.44
410.685	635.44
410.908	658.44
411.132	682.44
411.355	702.44
411.578	670.44
411.802	656.44
412.025	592.44
412.249	628.44
412.472	625.44
412.695	616.44
412.919	639.44
413.142	602.44
413.365	598.44
413.589	595.44
413.812	591.44
414.035	584.44
414.258	590.44
414.482	583.44
414.705	588.44
414.928	577.44
415.151	554.44
415.374	576.44
415.597	577.44
415.821	587.44
416.044	579.44
416.267	596.44
416.49	583.44
416.713	584.44
416.936	571.44
417.159	579.44
417.382	587.44
417.605	582.44
417.828	588.44
418.051	600.44
418.274	591.44
418.497	588.44
418.72	595.44
418.943	570.44
419.166	597.44
419.389	635.44
419.611	614.44
419.834	617.44
420.057	605.44
420.28	573.44
420.503	594.44
420.726	602.44
420.948	607.44
421.171	661.44
421.394	702.44
421.617	622.44
421.839	613.44
422.062	629.44
422.285	617.44
422.507	706.44
422.73	791.44
422.953	742.44
423.175	661.44
423.398	629.44
423.621	635.44
423.843	652.44
424.066	649.44
424.288	648.44
424.511	692.44
424.733	742.44
424.956	821.44
425.178	827.44
425.401	818.44
425.623	830.44
425.846	707.44
426.068	665.44
426.291	667.44
426.513	668.44
426.735	666.44
426.958	697.44
427.18	799.44
427.402	944.44
427.625	1049.44
427.847	901.44
428.069	760.44
428.292	705.44
428.514	675.44
428.736	636.44
428.958	641.44
429.181	612.44
429.403	597.44
429.625	625.44
429.847	660.44
430.069	729.44
430.292	728.44
430.514	634.44
430.736	590.44
430.958	586.44
431.18	577.44
431.402	571.44
431.624	580.44
431.846	587.44
432.068	558.44
432.29	579.44
432.512	575.44
432.734	609.44
432.956	588.44
433.178	587.44
433.4	600.44
433.622	613.44
433.844	587.44
434.066	584.44
434.287	576.44
434.509	574.44
434.731	611.44
434.953	610.44
435.175	625.44
435.397	643.44
435.618	659.44
435.84	697.44
436.062	825.44
436.284	887.44
436.505	739.44
436.727	665.44
436.949	635.44
437.17	632.44
437.392	593.44
437.614	622.44
437.835	659.44
438.057	771.44
438.278	893.44
438.5	867.44
438.721	971.44
438.943	913.44
439.165	747.44
439.386	693.44
439.608	678.44
439.829	673.44
440.05	722.44
440.272	757.44
440.493	721.44
440.715	665.44
440.936	618.44
441.158	607.44
441.379	604.44
441.6	636.44
441.822	647.44
442.043	690.44
442.264	798.44
442.486	859.44
442.707	713.44
442.928	679.44
443.149	690.44
443.371	713.44
443.592	745.44
443.813	860.44
444.034	945.44
444.255	777.44
444.476	667.44
444.698	686.44
444.919	677.44
445.14	812.44
445.361	748.44
445.582	721.44
445.803	783.44
446.024	873.44
446.245	929.44
446.466	836.44
446.687	713.44
446.908	682.44
447.129	637.44
447.35	588.44
447.571	617.44
447.792	601.44
448.013	602.44
448.234	617.44
448.455	720.44
448.675	846.44
448.896	938.44
449.117	794.44
449.338	774.44
449.559	891.44
449.779	1006.44
450	832.44
450.221	669.44
450.442	629.44
450.662	614.44
450.883	589.44
451.104	616.44
451.324	618.44
451.545	575.44
451.766	555.44
451.986	560.44
452.207	553.44
452.428	533.44
452.648	547.44
452.869	555.44
453.089	563.44
453.31	553.44
453.53	535.44
453.751	546.44
453.971	542.44
454.192	570.44
454.412	562.44
454.633	550.44
454.853	537.44
455.073	563.44
455.294	609.44
455.514	655.44
455.734	635.44
455.955	545.44
456.175	541.44
456.395	529.44
456.616	532.44
456.836	509.44
457.056	514.44
457.276	498.44
457.497	519.44
457.717	524.44
457.937	534.44
458.157	531.44
458.377	526.44
458.598	567.44
458.818	615.44
459.038	708.44
459.258	757.44
459.478	646.44
459.698	589.44
459.918	573.44
460.138	580.44
460.358	594.44
460.578	575.44
460.798	585.44
461.018	612.44
461.238	598.44
461.458	611.44
461.678	592.44
461.898	587.44
462.118	583.44
462.338	611.44
462.558	610.44
462.777	632.44
462.997	664.44
463.217	638.44
463.437	661.44
463.657	632.44
463.876	627.44
464.096	633.44
464.316	624.44
464.536	632.44
464.755	632.44
464.975	650.44
465.195	675.44
465.414	758.44
465.634	667.44
465.854	630.44
466.073	585.44
466.293	588.44
466.512	573.44
466.732	538.44
466.951	558.44
467.171	586.44
467.391	589.44
467.61	563.44
467.829	568.44
468.049	577.44
468.268	551.44
468.488	553.44
468.707	555.44
468.927	571.44
469.146	546.44
469.365	531.44
469.585	541.44
469.804	565.44
470.023	565.44
470.243	549.44
470.462	570.44
470.681	609.44
470.901	595.44
471.12	573.44
471.339	570.44
471.558	539.44
471.777	572.44
471.997	541.44
472.216	545.44
472.435	564.44
472.654	533.44
472.873	546.44
473.092	551.44
473.311	577.44
473.53	587.44
473.749	565.44
473.968	599.44
474.187	760.44
474.406	761.44
474.625	623.44
474.844	600.44
475.063	585.44
475.282	564.44
475.501	552.44
475.72	571.44
475.939	576.44
476.158	590.44
476.377	585.44
476.596	590.44
476.814	590.44
477.033	602.44
477.252	606.44
477.471	595.44
477.69	602.44
477.908	628.44
478.127	615.44
478.346	609.44
478.564	656.44
478.783	626.44
479.002	663.44
479.22	634.44
479.439	678.44
479.658	685.44
479.876	690.44
480.095	706.44
480.313	713.44
480.532	696.44
480.751	697.44
480.969	674.44
481.188	705.44
481.406	715.44
481.624	674.44
481.843	692.44
482.061	664.44
482.28	678.44
482.498	669.44
482.717	646.44
482.935	650.44
483.153	658.44
483.372	674.44
483.59	684.44
483.808	667.44
484.027	644.44
484.245	671.44
484.463	685.44
484.681	660.44
484.9	673.44
485.118	681.44
485.336	681.44
485.554	686.44
485.772	687.44
485.99	698.44
486.209	705.44
486.427	706.44
486.645	714.44
486.863	717.44
487.081	721.44
487.299	718.44
487.517	716.44
487.735	694.44
487.953	712.44
488.171	707.44
488.389	743.44
488.607	723.44
488.825	722.44
489.043	691.44
489.261	739.44
489.479	717.44
489.696	719.44
489.914	717.44
490.132	752.44
490.35	732.44
490.568	753.44
490.786	757.44
491.003	743.44
491.221	783.44
491.439	781.44
491.657	794.44
491.874	787.44
492.092	829.44
492.31	809.44
492.527	830.44
492.745	826.44
492.963	827.44
493.18	827.44
493.398	853.44
493.615	849.44
493.833	835.44
494.05	829.44
494.268	857.44
494.485	864.44
494.703	840.44
494.92	827.44
495.138	832.44
495.355	859.44
495.573	854.44
495.79	841.44
496.008	875.44
496.225	864.44
496.442	842.44
496.66	852.44
496.877	855.44
497.094	862.44
497.312	882.44
497.529	917.44
497.746	892.44
497.963	931.44
498.181	921.44
498.398	950.44
498.615	951.44
498.832	982.44
499.049	974.44
499.267	1031.44
499.484	1059.44
499.701	1060.44
499.918	1111.44
500.135	1142.44
500.352	1225.44
500.569	1227.44
500.786	1220.44
501.003	1232.44
501.22	1171.44
501.437	1134.44
501.654	1126.44
