Data from 1988.PennyLincolnUp.Lamp.En5.5.200Scan.071819.P2_HRD10591_17-20-59-972.txt Node
Date: Thu Jul 18 17:20:59 EDT 2019
User: cochatt
Spectrometer: HR+D1059
Trigger mode: 1
Integration Time (sec): 1.000000E-1
Scans to average: 1
Electric dark correction enabled: true
Nonlinearity correction enabled: false
Boxcar width: 0
XAxis mode: Wavelengths
Number of Pixels in Spectrum: 2048
>>>>>Begin Spectral Data<<<<<
223.165	-22.62
223.4	-22.62
223.635	-22.62
223.869	-14.62
224.104	-17.62
224.338	-8.62
224.573	-11.62
224.808	-5.62
225.042	-17.62
225.277	-10.62
225.511	-13.62
225.746	-2.62
225.98	7.38
226.215	22.38
226.449	20.38
226.683	27.38
226.918	20.38
227.152	27.38
227.387	34.38
227.621	29.38
227.856	38.38
228.09	33.38
228.324	45.38
228.559	53.38
228.793	74.38
229.027	102.38
229.262	120.38
229.496	125.38
229.73	126.38
229.964	176.38
230.199	137.38
230.433	119.38
230.667	112.38
230.901	104.38
231.136	127.38
231.37	117.38
231.604	105.38
231.838	117.38
232.072	97.38
232.306	103.38
232.541	114.38
232.775	114.38
233.009	118.38
233.243	106.38
233.477	90.38
233.711	121.38
233.945	114.38
234.179	129.38
234.413	115.38
234.647	120.38
234.881	112.38
235.115	99.38
235.349	121.38
235.583	125.38
235.817	118.38
236.051	129.38
236.285	125.38
236.519	122.38
236.753	148.38
236.987	153.38
237.221	184.38
237.455	263.38
237.689	202.38
237.922	152.38
238.156	142.38
238.39	131.38
238.624	133.38
238.858	122.38
239.091	131.38
239.325	137.38
239.559	139.38
239.793	133.38
240.027	122.38
240.26	167.38
240.494	167.38
240.728	168.38
240.961	155.38
241.195	146.38
241.429	147.38
241.662	145.38
241.896	151.38
242.13	146.38
242.363	142.38
242.597	130.38
242.83	136.38
243.064	142.38
243.298	143.38
243.531	155.38
243.765	138.38
243.998	145.38
244.232	143.38
244.465	159.38
244.699	147.38
244.932	162.38
245.166	154.38
245.399	149.38
245.633	159.38
245.866	157.38
246.099	153.38
246.333	139.38
246.566	152.38
246.8	148.38
247.033	159.38
247.266	152.38
247.5	164.38
247.733	167.38
247.966	170.38
248.2	161.38
248.433	193.38
248.666	179.38
248.899	178.38
249.133	194.38
249.366	228.38
249.599	201.38
249.832	192.38
250.066	183.38
250.299	193.38
250.532	189.38
250.765	201.38
250.998	233.38
251.231	234.38
251.465	226.38
251.698	198.38
251.931	200.38
252.164	218.38
252.397	205.38
252.63	224.38
252.863	228.38
253.096	234.38
253.329	237.38
253.562	224.38
253.795	237.38
254.028	225.38
254.261	230.38
254.494	249.38
254.727	258.38
254.96	311.38
255.193	297.38
255.426	262.38
255.659	261.38
255.892	241.38
256.124	223.38
256.357	235.38
256.59	233.38
256.823	230.38
257.056	211.38
257.289	213.38
257.521	224.38
257.754	229.38
257.987	228.38
258.22	227.38
258.452	214.38
258.685	207.38
258.918	227.38
259.151	227.38
259.383	242.38
259.616	222.38
259.849	225.38
260.081	229.38
260.314	256.38
260.547	270.38
260.779	272.38
261.012	257.38
261.244	247.38
261.477	239.38
261.71	229.38
261.942	245.38
262.175	251.38
262.407	233.38
262.64	249.38
262.872	227.38
263.105	207.38
263.337	214.38
263.57	230.38
263.802	244.38
264.035	244.38
264.267	243.38
264.499	225.38
264.732	226.38
264.964	212.38
265.197	227.38
265.429	215.38
265.661	221.38
265.894	211.38
266.126	231.38
266.358	230.38
266.591	241.38
266.823	263.38
267.055	254.38
267.287	233.38
267.52	244.38
267.752	257.38
267.984	257.38
268.216	241.38
268.448	254.38
268.681	260.38
268.913	262.38
269.145	256.38
269.377	307.38
269.609	298.38
269.841	301.38
270.073	296.38
270.306	295.38
270.538	339.38
270.77	342.38
271.002	329.38
271.234	291.38
271.466	318.38
271.698	323.38
271.93	328.38
272.162	347.38
272.394	356.38
272.626	331.38
272.858	317.38
273.09	295.38
273.322	295.38
273.553	294.38
273.785	284.38
274.017	294.38
274.249	282.38
274.481	291.38
274.713	285.38
274.945	296.38
275.176	288.38
275.408	289.38
275.64	289.38
275.872	303.38
276.104	282.38
276.335	284.38
276.567	278.38
276.799	312.38
277.031	341.38
277.262	338.38
277.494	330.38
277.726	323.38
277.957	298.38
278.189	272.38
278.421	285.38
278.652	272.38
278.884	282.38
279.115	290.38
279.347	281.38
279.579	299.38
279.81	273.38
280.042	289.38
280.273	292.38
280.505	298.38
280.736	282.38
280.968	283.38
281.199	290.38
281.431	294.38
281.662	279.38
281.894	291.38
282.125	302.38
282.356	301.38
282.588	307.38
282.819	339.38
283.051	306.38
283.282	315.38
283.513	291.38
283.745	301.38
283.976	293.38
284.207	299.38
284.439	307.38
284.67	300.38
284.901	306.38
285.132	291.38
285.364	293.38
285.595	315.38
285.826	318.38
286.057	298.38
286.288	321.38
286.52	292.38
286.751	305.38
286.982	303.38
287.213	315.38
287.444	304.38
287.675	296.38
287.906	305.38
288.138	337.38
288.369	335.38
288.6	321.38
288.831	332.38
289.062	321.38
289.293	326.38
289.524	298.38
289.755	324.38
289.986	317.38
290.217	306.38
290.448	323.38
290.679	331.38
290.91	309.38
291.141	319.38
291.371	323.38
291.602	336.38
291.833	315.38
292.064	329.38
292.295	307.38
292.526	310.38
292.757	314.38
292.987	332.38
293.218	328.38
293.449	331.38
293.68	310.38
293.91	323.38
294.141	328.38
294.372	309.38
294.603	324.38
294.833	321.38
295.064	341.38
295.295	333.38
295.525	319.38
295.756	327.38
295.987	338.38
296.217	352.38
296.448	367.38
296.679	336.38
296.909	340.38
297.14	327.38
297.37	334.38
297.601	326.38
297.831	330.38
298.062	329.38
298.292	338.38
298.523	339.38
298.753	357.38
298.984	333.38
299.214	340.38
299.445	337.38
299.675	331.38
299.905	336.38
300.136	329.38
300.366	349.38
300.597	340.38
300.827	347.38
301.057	360.38
301.288	377.38
301.518	361.38
301.748	367.38
301.979	365.38
302.209	360.38
302.439	365.38
302.669	373.38
302.9	375.38
303.13	349.38
303.36	359.38
303.59	355.38
303.82	373.38
304.051	374.38
304.281	367.38
304.511	354.38
304.741	365.38
304.971	359.38
305.201	373.38
305.431	358.38
305.661	350.38
305.891	358.38
306.121	362.38
306.352	351.38
306.582	357.38
306.812	356.38
307.042	362.38
307.272	365.38
307.502	349.38
307.731	371.38
307.961	375.38
308.191	366.38
308.421	354.38
308.651	369.38
308.881	373.38
309.111	382.38
309.341	363.38
309.571	377.38
309.8	395.38
310.03	400.38
310.26	409.38
310.49	404.38
310.72	415.38
310.949	421.38
311.179	448.38
311.409	424.38
311.639	405.38
311.868	418.38
312.098	399.38
312.328	415.38
312.557	452.38
312.787	446.38
313.017	449.38
313.246	419.38
313.476	429.38
313.706	423.38
313.935	429.38
314.165	447.38
314.394	429.38
314.624	451.38
314.853	425.38
315.083	442.38
315.312	416.38
315.542	421.38
315.771	404.38
316.001	395.38
316.23	421.38
316.46	421.38
316.689	423.38
316.919	426.38
317.148	430.38
317.377	404.38
317.607	428.38
317.836	415.38
318.065	435.38
318.295	412.38
318.524	401.38
318.753	415.38
318.983	418.38
319.212	415.38
319.441	453.38
319.67	448.38
319.9	436.38
320.129	424.38
320.358	438.38
320.587	434.38
320.816	462.38
321.046	449.38
321.275	427.38
321.504	456.38
321.733	426.38
321.962	462.38
322.191	495.38
322.42	463.38
322.649	505.38
322.878	513.38
323.108	504.38
323.337	573.38
323.566	569.38
323.795	613.38
324.024	658.38
324.253	792.38
324.482	1142.38
324.71	1857.38
324.939	2682.38
325.168	2307.38
325.397	1185.38
325.626	768.38
325.855	642.38
326.084	611.38
326.313	577.38
326.542	586.38
326.77	648.38
326.999	749.38
327.228	1065.38
327.457	1634.38
327.686	2019.38
327.914	1301.38
328.143	811.38
328.372	713.38
328.6	677.38
328.829	634.38
329.058	663.38
329.287	672.38
329.515	635.38
329.744	600.38
329.972	571.38
330.201	559.38
330.43	607.38
330.658	616.38
330.887	679.38
331.115	687.38
331.344	609.38
331.572	577.38
331.801	571.38
332.03	567.38
332.258	561.38
332.486	525.38
332.715	513.38
332.943	495.38
333.172	507.38
333.4	517.38
333.629	552.38
333.857	529.38
334.085	527.38
334.314	533.38
334.542	528.38
334.771	546.38
334.999	520.38
335.227	522.38
335.455	525.38
335.684	506.38
335.912	527.38
336.14	519.38
336.369	510.38
336.597	518.38
336.825	526.38
337.053	506.38
337.281	509.38
337.51	476.38
337.738	487.38
337.966	499.38
338.194	489.38
338.422	501.38
338.65	491.38
338.878	489.38
339.106	494.38
339.334	472.38
339.562	473.38
339.79	479.38
340.018	497.38
340.246	510.38
340.474	498.38
340.702	497.38
340.93	474.38
341.158	484.38
341.386	485.38
341.614	511.38
341.842	493.38
342.07	462.38
342.298	486.38
342.526	470.38
342.754	473.38
342.981	467.38
343.209	474.38
343.437	464.38
343.665	466.38
343.893	487.38
344.12	512.38
344.348	527.38
344.576	504.38
344.804	520.38
345.031	517.38
345.259	536.38
345.487	522.38
345.714	521.38
345.942	474.38
346.17	485.38
346.397	474.38
346.625	451.38
346.853	478.38
347.08	487.38
347.308	464.38
347.535	489.38
347.763	481.38
347.99	481.38
348.218	481.38
348.445	484.38
348.673	486.38
348.9	468.38
349.128	469.38
349.355	462.38
349.583	494.38
349.81	448.38
350.037	465.38
350.265	483.38
350.492	473.38
350.72	459.38
350.947	454.38
351.174	480.38
351.402	471.38
351.629	486.38
351.856	470.38
352.083	497.38
352.311	480.38
352.538	498.38
352.765	498.38
352.992	490.38
353.22	468.38
353.447	445.38
353.674	485.38
353.901	476.38
354.128	467.38
354.355	477.38
354.583	444.38
354.81	448.38
355.037	438.38
355.264	435.38
355.491	442.38
355.718	424.38
355.945	438.38
356.172	414.38
356.399	457.38
356.626	426.38
356.853	437.38
357.08	451.38
357.307	434.38
357.534	441.38
357.761	454.38
357.988	441.38
358.215	437.38
358.441	441.38
358.668	441.38
358.895	456.38
359.122	460.38
359.349	484.38
359.576	494.38
359.802	508.38
360.029	543.38
360.256	572.38
360.483	541.38
360.709	493.38
360.936	498.38
361.163	504.38
361.39	466.38
361.616	463.38
361.843	473.38
362.07	473.38
362.296	487.38
362.523	486.38
362.749	479.38
362.976	459.38
363.203	503.38
363.429	460.38
363.656	467.38
363.882	471.38
364.109	459.38
364.335	468.38
364.562	478.38
364.788	478.38
365.015	469.38
365.241	468.38
365.468	464.38
365.694	467.38
365.92	474.38
366.147	453.38
366.373	448.38
366.599	474.38
366.826	467.38
367.052	456.38
367.278	461.38
367.505	461.38
367.731	478.38
367.957	479.38
368.184	458.38
368.41	477.38
368.636	470.38
368.862	467.38
369.089	469.38
369.315	469.38
369.541	451.38
369.767	458.38
369.993	484.38
370.219	465.38
370.445	469.38
370.672	463.38
370.898	477.38
371.124	455.38
371.35	458.38
371.576	446.38
371.802	458.38
372.028	461.38
372.254	488.38
372.48	463.38
372.706	460.38
372.932	472.38
373.158	455.38
373.384	475.38
373.61	481.38
373.835	468.38
374.061	458.38
374.287	461.38
374.513	486.38
374.739	470.38
374.965	485.38
375.191	463.38
375.416	473.38
375.642	463.38
375.868	473.38
376.094	457.38
376.319	467.38
376.545	478.38
376.771	450.38
376.997	474.38
377.222	432.38
377.448	467.38
377.674	448.38
377.899	468.38
378.125	455.38
378.35	459.38
378.576	458.38
378.802	469.38
379.027	451.38
379.253	456.38
379.478	446.38
379.704	440.38
379.929	460.38
380.155	480.38
380.38	453.38
380.606	441.38
380.831	483.38
381.057	476.38
381.282	472.38
381.507	465.38
381.733	473.38
381.958	445.38
382.184	461.38
382.409	459.38
382.634	474.38
382.86	478.38
383.085	486.38
383.31	486.38
383.535	506.38
383.761	484.38
383.986	499.38
384.211	472.38
384.436	489.38
384.662	498.38
384.887	488.38
385.112	466.38
385.337	513.38
385.562	483.38
385.787	486.38
386.013	513.38
386.238	515.38
386.463	511.38
386.688	499.38
386.913	523.38
387.138	498.38
387.363	522.38
387.588	519.38
387.813	510.38
388.038	517.38
388.263	495.38
388.488	522.38
388.713	509.38
388.938	499.38
389.163	531.38
389.387	527.38
389.612	490.38
389.837	497.38
390.062	507.38
390.287	494.38
390.512	501.38
390.736	541.38
390.961	521.38
391.186	521.38
391.411	530.38
391.636	542.38
391.86	526.38
392.085	517.38
392.31	533.38
392.534	525.38
392.759	515.38
392.984	536.38
393.208	493.38
393.433	539.38
393.658	525.38
393.882	527.38
394.107	523.38
394.331	513.38
394.556	502.38
394.78	539.38
395.005	551.38
395.229	516.38
395.454	530.38
395.678	529.38
395.903	550.38
396.127	589.38
396.352	587.38
396.576	566.38
396.801	550.38
397.025	523.38
397.249	544.38
397.474	568.38
397.698	545.38
397.922	561.38
398.147	585.38
398.371	614.38
398.595	584.38
398.82	570.38
399.044	600.38
399.268	602.38
399.492	669.38
399.717	685.38
399.941	721.38
400.165	763.38
400.389	763.38
400.613	697.38
400.837	673.38
401.062	618.38
401.286	607.38
401.51	596.38
401.734	621.38
401.958	591.38
402.182	579.38
402.406	601.38
402.63	609.38
402.854	616.38
403.078	614.38
403.302	637.38
403.526	618.38
403.75	610.38
403.974	629.38
404.198	615.38
404.422	621.38
404.645	614.38
404.869	645.38
405.093	657.38
405.317	702.38
405.541	729.38
405.765	687.38
405.988	654.38
406.212	657.38
406.436	706.38
406.66	682.38
406.883	678.38
407.107	725.38
407.331	759.38
407.555	864.38
407.778	828.38
408.002	753.38
408.226	717.38
408.449	682.38
408.673	685.38
408.896	737.38
409.12	776.38
409.344	751.38
409.567	656.38
409.791	657.38
410.014	635.38
410.238	637.38
410.461	623.38
410.685	625.38
410.908	639.38
411.132	715.38
411.355	738.38
411.578	684.38
411.802	662.38
412.025	618.38
412.249	594.38
412.472	618.38
412.695	650.38
412.919	650.38
413.142	644.38
413.365	595.38
413.589	620.38
413.812	597.38
414.035	578.38
414.258	593.38
414.482	578.38
414.705	601.38
414.928	565.38
415.151	594.38
415.374	627.38
415.597	583.38
415.821	589.38
416.044	571.38
416.267	590.38
416.49	574.38
416.713	580.38
416.936	584.38
417.159	587.38
417.382	581.38
417.605	614.38
417.828	635.38
418.051	616.38
418.274	612.38
418.497	587.38
418.72	614.38
418.943	575.38
419.166	596.38
419.389	633.38
419.611	616.38
419.834	625.38
420.057	613.38
420.28	618.38
420.503	616.38
420.726	619.38
420.948	628.38
421.171	669.38
421.394	739.38
421.617	645.38
421.839	623.38
422.062	616.38
422.285	635.38
422.507	708.38
422.73	806.38
422.953	766.38
423.175	698.38
423.398	662.38
423.621	634.38
423.843	658.38
424.066	653.38
424.288	644.38
424.511	696.38
424.733	754.38
424.956	833.38
425.178	817.38
425.401	804.38
425.623	829.38
425.846	734.38
426.068	688.38
426.291	661.38
426.513	691.38
426.735	658.38
426.958	710.38
427.18	830.38
427.402	985.38
427.625	1073.38
427.847	937.38
428.069	777.38
428.292	717.38
428.514	667.38
428.736	648.38
428.958	635.38
429.181	605.38
429.403	609.38
429.625	621.38
429.847	663.38
430.069	748.38
430.292	755.38
430.514	652.38
430.736	613.38
430.958	577.38
431.18	603.38
431.402	603.38
431.624	564.38
431.846	615.38
432.068	577.38
432.29	590.38
432.512	591.38
432.734	593.38
432.956	598.38
433.178	585.38
433.4	614.38
433.622	602.38
433.844	585.38
434.066	565.38
434.287	576.38
434.509	583.38
434.731	608.38
434.953	633.38
435.175	643.38
435.397	665.38
435.618	665.38
435.84	714.38
436.062	838.38
436.284	919.38
436.505	754.38
436.727	681.38
436.949	627.38
437.17	631.38
437.392	608.38
437.614	623.38
437.835	649.38
438.057	777.38
438.278	913.38
438.5	906.38
438.721	998.38
438.943	936.38
439.165	769.38
439.386	665.38
439.608	684.38
439.829	701.38
440.05	712.38
440.272	815.38
440.493	723.38
440.715	660.38
440.936	627.38
441.158	621.38
441.379	618.38
441.6	673.38
441.822	657.38
442.043	740.38
442.264	818.38
442.486	871.38
442.707	731.38
442.928	686.38
443.149	697.38
443.371	690.38
443.592	757.38
443.813	861.38
444.034	947.38
444.255	797.38
444.476	701.38
444.698	679.38
444.919	697.38
445.14	791.38
445.361	758.38
445.582	719.38
445.803	803.38
446.024	928.38
446.245	929.38
446.466	885.38
446.687	735.38
446.908	671.38
447.129	644.38
447.35	627.38
447.571	607.38
447.792	623.38
448.013	609.38
448.234	640.38
448.455	711.38
448.675	835.38
448.896	963.38
449.117	822.38
449.338	793.38
449.559	913.38
449.779	998.38
450	824.38
450.221	666.38
450.442	632.38
450.662	607.38
450.883	617.38
451.104	631.38
451.324	638.38
451.545	607.38
451.766	590.38
451.986	569.38
452.207	539.38
452.428	561.38
452.648	567.38
452.869	549.38
453.089	560.38
453.31	579.38
453.53	594.38
453.751	575.38
453.971	554.38
454.192	571.38
454.412	579.38
454.633	573.38
454.853	568.38
455.073	568.38
455.294	573.38
455.514	653.38
455.734	617.38
455.955	533.38
456.175	528.38
456.395	526.38
456.616	501.38
456.836	536.38
457.056	519.38
457.276	504.38
457.497	515.38
457.717	531.38
457.937	531.38
458.157	532.38
458.377	544.38
458.598	568.38
458.818	621.38
459.038	731.38
459.258	777.38
459.478	657.38
459.698	609.38
459.918	626.38
460.138	601.38
460.358	588.38
460.578	577.38
460.798	589.38
461.018	590.38
461.238	602.38
461.458	588.38
461.678	595.38
461.898	591.38
462.118	602.38
462.338	630.38
462.558	623.38
462.777	626.38
462.997	635.38
463.217	657.38
463.437	635.38
463.657	648.38
463.876	642.38
464.096	640.38
464.316	640.38
464.536	650.38
464.755	662.38
464.975	621.38
465.195	690.38
465.414	761.38
465.634	684.38
465.854	641.38
466.073	594.38
466.293	600.38
466.512	594.38
466.732	553.38
466.951	580.38
467.171	585.38
467.391	573.38
467.61	579.38
467.829	603.38
468.049	571.38
468.268	576.38
468.488	566.38
468.707	577.38
468.927	561.38
469.146	550.38
469.365	557.38
469.585	546.38
469.804	542.38
470.023	555.38
470.243	566.38
470.462	593.38
470.681	597.38
470.901	596.38
471.12	590.38
471.339	583.38
471.558	584.38
471.777	591.38
471.997	560.38
472.216	559.38
472.435	587.38
472.654	554.38
472.873	559.38
473.092	571.38
473.311	573.38
473.53	573.38
473.749	566.38
473.968	618.38
474.187	738.38
474.406	772.38
474.625	648.38
474.844	602.38
475.063	572.38
475.282	582.38
475.501	585.38
475.72	597.38
475.939	618.38
476.158	595.38
476.377	574.38
476.596	586.38
476.814	595.38
477.033	618.38
477.252	589.38
477.471	585.38
477.69	586.38
477.908	633.38
478.127	629.38
478.346	635.38
478.564	638.38
478.783	639.38
479.002	662.38
479.22	686.38
479.439	692.38
479.658	715.38
479.876	690.38
480.095	693.38
480.313	742.38
480.532	707.38
480.751	672.38
480.969	708.38
481.188	712.38
481.406	726.38
481.624	714.38
481.843	664.38
482.061	681.38
482.28	689.38
482.498	685.38
482.717	652.38
482.935	674.38
483.153	652.38
483.372	685.38
483.59	669.38
483.808	664.38
484.027	674.38
484.245	663.38
484.463	696.38
484.681	701.38
484.9	688.38
485.118	680.38
485.336	694.38
485.554	677.38
485.772	687.38
485.99	695.38
486.209	701.38
486.427	682.38
486.645	718.38
486.863	723.38
487.081	714.38
487.299	709.38
487.517	736.38
487.735	718.38
487.953	725.38
488.171	720.38
488.389	712.38
488.607	763.38
488.825	717.38
489.043	714.38
489.261	714.38
489.479	745.38
489.696	754.38
489.914	739.38
490.132	757.38
490.35	763.38
490.568	777.38
490.786	784.38
491.003	769.38
491.221	793.38
491.439	810.38
491.657	839.38
491.874	823.38
492.092	825.38
492.31	818.38
492.527	811.38
492.745	825.38
492.963	861.38
493.18	847.38
493.398	845.38
493.615	823.38
493.833	847.38
494.05	867.38
494.268	832.38
494.485	840.38
494.703	834.38
494.92	874.38
495.138	886.38
495.355	871.38
495.573	869.38
495.79	863.38
496.008	857.38
496.225	863.38
496.442	854.38
496.66	861.38
496.877	879.38
497.094	881.38
497.312	879.38
497.529	884.38
497.746	907.38
497.963	927.38
498.181	964.38
498.398	960.38
498.615	980.38
498.832	988.38
499.049	1013.38
499.267	1031.38
499.484	1082.38
499.701	1090.38
499.918	1131.38
500.135	1185.38
500.352	1222.38
500.569	1214.38
500.786	1246.38
501.003	1210.38
501.22	1190.38
501.437	1130.38
501.654	1144.38
