Data from 1988.PennyLincolnUp.Lamp.En5.5.200Scan.071819.P2_HRD10591_17-20-06-972.txt Node
Date: Thu Jul 18 17:20:06 EDT 2019
User: cochatt
Spectrometer: HR+D1059
Trigger mode: 1
Integration Time (sec): 1.000000E-1
Scans to average: 1
Electric dark correction enabled: true
Nonlinearity correction enabled: false
Boxcar width: 0
XAxis mode: Wavelengths
Number of Pixels in Spectrum: 2048
>>>>>Begin Spectral Data<<<<<
223.165	-9.31
223.4	-9.31
223.635	-9.31
223.869	-4.31
224.104	-21.31
224.338	-18.31
224.573	-22.31
224.808	-16.31
225.042	-5.31
225.277	-6.31
225.511	4.69
225.746	1.69
225.98	25.69
226.215	6.69
226.449	15.69
226.683	7.69
226.918	18.69
227.152	22.69
227.387	31.69
227.621	39.69
227.856	48.69
228.09	52.69
228.324	38.69
228.559	47.69
228.793	64.69
229.027	97.69
229.262	117.69
229.496	131.69
229.73	137.69
229.964	163.69
230.199	132.69
230.433	102.69
230.667	111.69
230.901	114.69
231.136	114.69
231.37	130.69
231.604	102.69
231.838	118.69
232.072	104.69
232.306	115.69
232.541	118.69
232.775	112.69
233.009	108.69
233.243	128.69
233.477	130.69
233.711	120.69
233.945	125.69
234.179	120.69
234.413	118.69
234.647	122.69
234.881	118.69
235.115	114.69
235.349	120.69
235.583	124.69
235.817	120.69
236.051	125.69
236.285	126.69
236.519	130.69
236.753	132.69
236.987	158.69
237.221	205.69
237.455	244.69
237.689	197.69
237.922	148.69
238.156	150.69
238.39	137.69
238.624	139.69
238.858	127.69
239.091	128.69
239.325	110.69
239.559	128.69
239.793	130.69
240.027	151.69
240.26	146.69
240.494	175.69
240.728	168.69
240.961	152.69
241.195	158.69
241.429	131.69
241.662	130.69
241.896	138.69
242.13	147.69
242.363	156.69
242.597	123.69
242.83	149.69
243.064	148.69
243.298	136.69
243.531	134.69
243.765	146.69
243.998	150.69
244.232	150.69
244.465	154.69
244.699	154.69
244.932	159.69
245.166	150.69
245.399	145.69
245.633	160.69
245.866	165.69
246.099	150.69
246.333	152.69
246.566	161.69
246.8	169.69
247.033	170.69
247.266	165.69
247.5	155.69
247.733	163.69
247.966	167.69
248.2	170.69
248.433	175.69
248.666	181.69
248.899	201.69
249.133	212.69
249.366	201.69
249.599	199.69
249.832	195.69
250.066	177.69
250.299	203.69
250.532	198.69
250.765	203.69
250.998	224.69
251.231	234.69
251.465	225.69
251.698	211.69
251.931	220.69
252.164	203.69
252.397	218.69
252.63	201.69
252.863	212.69
253.096	231.69
253.329	237.69
253.562	230.69
253.795	208.69
254.028	216.69
254.261	227.69
254.494	244.69
254.727	282.69
254.96	271.69
255.193	270.69
255.426	256.69
255.659	250.69
255.892	242.69
256.124	234.69
256.357	222.69
256.59	224.69
256.823	213.69
257.056	214.69
257.289	217.69
257.521	227.69
257.754	216.69
257.987	210.69
258.22	217.69
258.452	204.69
258.685	215.69
258.918	214.69
259.151	218.69
259.383	218.69
259.616	238.69
259.849	220.69
260.081	254.69
260.314	276.69
260.547	276.69
260.779	251.69
261.012	250.69
261.244	252.69
261.477	234.69
261.71	246.69
261.942	211.69
262.175	242.69
262.407	238.69
262.64	231.69
262.872	223.69
263.105	219.69
263.337	227.69
263.57	242.69
263.802	225.69
264.035	231.69
264.267	240.69
264.499	224.69
264.732	220.69
264.964	233.69
265.197	219.69
265.429	227.69
265.661	240.69
265.894	225.69
266.126	208.69
266.358	232.69
266.591	238.69
266.823	235.69
267.055	231.69
267.287	239.69
267.52	218.69
267.752	252.69
267.984	256.69
268.216	231.69
268.448	264.69
268.681	248.69
268.913	263.69
269.145	280.69
269.377	303.69
269.609	302.69
269.841	273.69
270.073	267.69
270.306	314.69
270.538	329.69
270.77	318.69
271.002	331.69
271.234	298.69
271.466	306.69
271.698	324.69
271.93	337.69
272.162	327.69
272.394	337.69
272.626	302.69
272.858	286.69
273.09	295.69
273.322	287.69
273.553	288.69
273.785	296.69
274.017	271.69
274.249	288.69
274.481	274.69
274.713	282.69
274.945	282.69
275.176	275.69
275.408	256.69
275.64	283.69
275.872	264.69
276.104	272.69
276.335	284.69
276.567	289.69
276.799	308.69
277.031	321.69
277.262	324.69
277.494	327.69
277.726	304.69
277.957	318.69
278.189	298.69
278.421	281.69
278.652	266.69
278.884	308.69
279.115	275.69
279.347	287.69
279.579	283.69
279.81	272.69
280.042	287.69
280.273	286.69
280.505	282.69
280.736	273.69
280.968	279.69
281.199	282.69
281.431	290.69
281.662	273.69
281.894	266.69
282.125	291.69
282.356	302.69
282.588	314.69
282.819	324.69
283.051	298.69
283.282	300.69
283.513	305.69
283.745	304.69
283.976	298.69
284.207	303.69
284.439	304.69
284.67	292.69
284.901	294.69
285.132	278.69
285.364	286.69
285.595	294.69
285.826	295.69
286.057	284.69
286.288	310.69
286.52	304.69
286.751	302.69
286.982	297.69
287.213	283.69
287.444	294.69
287.675	306.69
287.906	322.69
288.138	319.69
288.369	320.69
288.6	324.69
288.831	312.69
289.062	323.69
289.293	322.69
289.524	320.69
289.755	308.69
289.986	317.69
290.217	314.69
290.448	295.69
290.679	316.69
290.91	314.69
291.141	297.69
291.371	303.69
291.602	323.69
291.833	296.69
292.064	314.69
292.295	310.69
292.526	299.69
292.757	295.69
292.987	338.69
293.218	313.69
293.449	317.69
293.68	334.69
293.91	312.69
294.141	320.69
294.372	323.69
294.603	307.69
294.833	332.69
295.064	308.69
295.295	316.69
295.525	314.69
295.756	335.69
295.987	327.69
296.217	353.69
296.448	366.69
296.679	336.69
296.909	329.69
297.14	322.69
297.37	332.69
297.601	342.69
297.831	311.69
298.062	338.69
298.292	340.69
298.523	352.69
298.753	360.69
298.984	352.69
299.214	371.69
299.445	324.69
299.675	340.69
299.905	339.69
300.136	350.69
300.366	345.69
300.597	324.69
300.827	342.69
301.057	379.69
301.288	354.69
301.518	366.69
301.748	376.69
301.979	351.69
302.209	340.69
302.439	358.69
302.669	368.69
302.9	352.69
303.13	343.69
303.36	357.69
303.59	349.69
303.82	361.69
304.051	359.69
304.281	357.69
304.511	342.69
304.741	333.69
304.971	356.69
305.201	368.69
305.431	368.69
305.661	379.69
305.891	353.69
306.121	349.69
306.352	375.69
306.582	376.69
306.812	356.69
307.042	368.69
307.272	351.69
307.502	351.69
307.731	362.69
307.961	374.69
308.191	374.69
308.421	374.69
308.651	368.69
308.881	375.69
309.111	379.69
309.341	387.69
309.571	402.69
309.8	396.69
310.03	406.69
310.26	393.69
310.49	427.69
310.72	419.69
310.949	435.69
311.179	436.69
311.409	403.69
311.639	419.69
311.868	415.69
312.098	401.69
312.328	411.69
312.557	424.69
312.787	433.69
313.017	448.69
313.246	438.69
313.476	419.69
313.706	419.69
313.935	407.69
314.165	437.69
314.394	436.69
314.624	444.69
314.853	433.69
315.083	411.69
315.312	427.69
315.542	410.69
315.771	416.69
316.001	411.69
316.23	425.69
316.46	420.69
316.689	430.69
316.919	416.69
317.148	427.69
317.377	416.69
317.607	438.69
317.836	433.69
318.065	423.69
318.295	420.69
318.524	410.69
318.753	405.69
318.983	413.69
319.212	404.69
319.441	418.69
319.67	436.69
319.9	419.69
320.129	422.69
320.358	418.69
320.587	422.69
320.816	436.69
321.046	446.69
321.275	444.69
321.504	442.69
321.733	436.69
321.962	449.69
322.191	496.69
322.42	494.69
322.649	502.69
322.878	501.69
323.108	535.69
323.337	539.69
323.566	546.69
323.795	587.69
324.024	631.69
324.253	756.69
324.482	1081.69
324.71	1681.69
324.939	2505.69
325.168	2198.69
325.397	1078.69
325.626	739.69
325.855	627.69
326.084	567.69
326.313	567.69
326.542	548.69
326.77	626.69
326.999	725.69
327.228	982.69
327.457	1506.69
327.686	1889.69
327.914	1242.69
328.143	799.69
328.372	670.69
328.6	652.69
328.829	639.69
329.058	640.69
329.287	649.69
329.515	600.69
329.744	560.69
329.972	532.69
330.201	566.69
330.43	568.69
330.658	614.69
330.887	659.69
331.115	634.69
331.344	550.69
331.572	534.69
331.801	533.69
332.03	548.69
332.258	528.69
332.486	520.69
332.715	504.69
332.943	497.69
333.172	496.69
333.4	511.69
333.629	491.69
333.857	521.69
334.085	530.69
334.314	527.69
334.542	522.69
334.771	524.69
334.999	518.69
335.227	502.69
335.455	527.69
335.684	511.69
335.912	512.69
336.14	498.69
336.369	499.69
336.597	511.69
336.825	495.69
337.053	471.69
337.281	502.69
337.51	483.69
337.738	498.69
337.966	497.69
338.194	526.69
338.422	495.69
338.65	512.69
338.878	498.69
339.106	504.69
339.334	481.69
339.562	494.69
339.79	477.69
340.018	491.69
340.246	477.69
340.474	498.69
340.702	500.69
340.93	486.69
341.158	499.69
341.386	469.69
341.614	468.69
341.842	494.69
342.07	484.69
342.298	485.69
342.526	480.69
342.754	470.69
342.981	465.69
343.209	483.69
343.437	468.69
343.665	493.69
343.893	490.69
344.12	495.69
344.348	498.69
344.576	497.69
344.804	505.69
345.031	505.69
345.259	518.69
345.487	510.69
345.714	483.69
345.942	468.69
346.17	459.69
346.397	476.69
346.625	476.69
346.853	479.69
347.08	470.69
347.308	474.69
347.535	472.69
347.763	486.69
347.99	487.69
348.218	471.69
348.445	487.69
348.673	480.69
348.9	474.69
349.128	474.69
349.355	469.69
349.583	459.69
349.81	447.69
350.037	444.69
350.265	466.69
350.492	471.69
350.72	456.69
350.947	479.69
351.174	474.69
351.402	469.69
351.629	476.69
351.856	480.69
352.083	484.69
352.311	495.69
352.538	472.69
352.765	485.69
352.992	481.69
353.22	472.69
353.447	469.69
353.674	481.69
353.901	466.69
354.128	446.69
354.355	460.69
354.583	452.69
354.81	458.69
355.037	450.69
355.264	434.69
355.491	436.69
355.718	415.69
355.945	422.69
356.172	434.69
356.399	428.69
356.626	450.69
356.853	457.69
357.08	425.69
357.307	432.69
357.534	442.69
357.761	436.69
357.988	452.69
358.215	445.69
358.441	452.69
358.668	446.69
358.895	433.69
359.122	440.69
359.349	477.69
359.576	470.69
359.802	479.69
360.029	535.69
360.256	528.69
360.483	519.69
360.709	496.69
360.936	486.69
361.163	467.69
361.39	483.69
361.616	464.69
361.843	471.69
362.07	487.69
362.296	475.69
362.523	478.69
362.749	457.69
362.976	467.69
363.203	464.69
363.429	449.69
363.656	459.69
363.882	447.69
364.109	433.69
364.335	455.69
364.562	448.69
364.788	478.69
365.015	471.69
365.241	450.69
365.468	466.69
365.694	469.69
365.92	465.69
366.147	453.69
366.373	458.69
366.599	449.69
366.826	439.69
367.052	451.69
367.278	464.69
367.505	467.69
367.731	479.69
367.957	451.69
368.184	472.69
368.41	474.69
368.636	478.69
368.862	494.69
369.089	502.69
369.315	444.69
369.541	439.69
369.767	452.69
369.993	461.69
370.219	446.69
370.445	449.69
370.672	447.69
370.898	454.69
371.124	443.69
371.35	458.69
371.576	445.69
371.802	472.69
372.028	448.69
372.254	460.69
372.48	451.69
372.706	460.69
372.932	464.69
373.158	444.69
373.384	464.69
373.61	446.69
373.835	456.69
374.061	462.69
374.287	483.69
374.513	451.69
374.739	459.69
374.965	469.69
375.191	472.69
375.416	469.69
375.642	447.69
375.868	458.69
376.094	459.69
376.319	462.69
376.545	459.69
376.771	438.69
376.997	448.69
377.222	439.69
377.448	459.69
377.674	475.69
377.899	464.69
378.125	451.69
378.35	464.69
378.576	461.69
378.802	468.69
379.027	442.69
379.253	449.69
379.478	456.69
379.704	466.69
379.929	479.69
380.155	453.69
380.38	447.69
380.606	438.69
380.831	475.69
381.057	467.69
381.282	460.69
381.507	462.69
381.733	474.69
381.958	455.69
382.184	444.69
382.409	449.69
382.634	464.69
382.86	458.69
383.085	453.69
383.31	480.69
383.535	478.69
383.761	472.69
383.986	501.69
384.211	472.69
384.436	483.69
384.662	495.69
384.887	501.69
385.112	501.69
385.337	516.69
385.562	502.69
385.787	509.69
386.013	501.69
386.238	515.69
386.463	521.69
386.688	517.69
386.913	487.69
387.138	495.69
387.363	494.69
387.588	512.69
387.813	513.69
388.038	512.69
388.263	531.69
388.488	524.69
388.713	510.69
388.938	484.69
389.163	522.69
389.387	517.69
389.612	540.69
389.837	508.69
390.062	517.69
390.287	511.69
390.512	500.69
390.736	508.69
390.961	510.69
391.186	499.69
391.411	516.69
391.636	520.69
391.86	516.69
392.085	528.69
392.31	527.69
392.534	508.69
392.759	514.69
392.984	508.69
393.208	518.69
393.433	516.69
393.658	519.69
393.882	517.69
394.107	519.69
394.331	515.69
394.556	505.69
394.78	522.69
395.005	530.69
395.229	531.69
395.454	539.69
395.678	545.69
395.903	548.69
396.127	590.69
396.352	585.69
396.576	552.69
396.801	547.69
397.025	550.69
397.249	529.69
397.474	536.69
397.698	545.69
397.922	569.69
398.147	590.69
398.371	598.69
398.595	577.69
398.82	570.69
399.044	587.69
399.268	610.69
399.492	676.69
399.717	700.69
399.941	714.69
400.165	742.69
400.389	753.69
400.613	686.69
400.837	653.69
401.062	616.69
401.286	611.69
401.51	615.69
401.734	591.69
401.958	581.69
402.182	600.69
402.406	624.69
402.63	613.69
402.854	638.69
403.078	625.69
403.302	615.69
403.526	614.69
403.75	598.69
403.974	638.69
404.198	614.69
404.422	616.69
404.645	631.69
404.869	596.69
405.093	635.69
405.317	660.69
405.541	678.69
405.765	642.69
405.988	642.69
406.212	670.69
406.436	666.69
406.66	679.69
406.883	685.69
407.107	690.69
407.331	753.69
407.555	833.69
407.778	811.69
408.002	755.69
408.226	724.69
408.449	680.69
408.673	657.69
408.896	708.69
409.12	786.69
409.344	705.69
409.567	646.69
409.791	640.69
410.014	643.69
410.238	616.69
410.461	648.69
410.685	652.69
410.908	634.69
411.132	673.69
411.355	729.69
411.578	700.69
411.802	623.69
412.025	608.69
412.249	638.69
412.472	619.69
412.695	622.69
412.919	632.69
413.142	596.69
413.365	595.69
413.589	600.69
413.812	576.69
414.035	580.69
414.258	587.69
414.482	584.69
414.705	582.69
414.928	579.69
415.151	598.69
415.374	582.69
415.597	576.69
415.821	578.69
416.044	583.69
416.267	606.69
416.49	584.69
416.713	579.69
416.936	577.69
417.159	582.69
417.382	581.69
417.605	587.69
417.828	586.69
418.051	618.69
418.274	592.69
418.497	574.69
418.72	587.69
418.943	596.69
419.166	610.69
419.389	624.69
419.611	625.69
419.834	597.69
420.057	601.69
420.28	593.69
420.503	615.69
420.726	587.69
420.948	614.69
421.171	668.69
421.394	700.69
421.617	625.69
421.839	594.69
422.062	607.69
422.285	638.69
422.507	702.69
422.73	799.69
422.953	768.69
423.175	677.69
423.398	624.69
423.621	643.69
423.843	646.69
424.066	638.69
424.288	644.69
424.511	668.69
424.733	742.69
424.956	842.69
425.178	808.69
425.401	796.69
425.623	816.69
425.846	720.69
426.068	639.69
426.291	626.69
426.513	643.69
426.735	663.69
426.958	697.69
427.18	785.69
427.402	962.69
427.625	1091.69
427.847	897.69
428.069	778.69
428.292	675.69
428.514	644.69
428.736	648.69
428.958	626.69
429.181	633.69
429.403	614.69
429.625	614.69
429.847	659.69
430.069	735.69
430.292	708.69
430.514	656.69
430.736	611.69
430.958	594.69
431.18	604.69
431.402	580.69
431.624	588.69
431.846	584.69
432.068	577.69
432.29	581.69
432.512	550.69
432.734	601.69
432.956	562.69
433.178	598.69
433.4	603.69
433.622	581.69
433.844	580.69
434.066	584.69
434.287	583.69
434.509	588.69
434.731	584.69
434.953	611.69
435.175	622.69
435.397	634.69
435.618	661.69
435.84	688.69
436.062	836.69
436.284	905.69
436.505	726.69
436.727	678.69
436.949	645.69
437.17	599.69
437.392	624.69
437.614	619.69
437.835	679.69
438.057	792.69
438.278	894.69
438.5	899.69
438.721	958.69
438.943	937.69
439.165	772.69
439.386	678.69
439.608	651.69
439.829	678.69
440.05	689.69
440.272	764.69
440.493	726.69
440.715	637.69
440.936	632.69
441.158	638.69
441.379	614.69
441.6	650.69
441.822	680.69
442.043	714.69
442.264	812.69
442.486	862.69
442.707	702.69
442.928	665.69
443.149	702.69
443.371	682.69
443.592	751.69
443.813	871.69
444.034	946.69
444.255	778.69
444.476	707.69
444.698	656.69
444.919	677.69
445.14	797.69
445.361	746.69
445.582	713.69
445.803	794.69
446.024	902.69
446.245	928.69
446.466	817.69
446.687	706.69
446.908	659.69
447.129	615.69
447.35	627.69
447.571	620.69
447.792	592.69
448.013	626.69
448.234	617.69
448.455	711.69
448.675	830.69
448.896	956.69
449.117	814.69
449.338	786.69
449.559	889.69
449.779	992.69
450	807.69
450.221	653.69
450.442	608.69
450.662	597.69
450.883	595.69
451.104	602.69
451.324	597.69
451.545	573.69
451.766	582.69
451.986	554.69
452.207	554.69
452.428	534.69
452.648	562.69
452.869	557.69
453.089	567.69
453.31	551.69
453.53	546.69
453.751	542.69
453.971	560.69
454.192	568.69
454.412	548.69
454.633	538.69
454.853	550.69
455.073	546.69
455.294	591.69
455.514	616.69
455.734	644.69
455.955	542.69
456.175	524.69
456.395	520.69
456.616	512.69
456.836	518.69
457.056	484.69
457.276	508.69
457.497	502.69
457.717	520.69
457.937	530.69
458.157	532.69
458.377	545.69
458.598	551.69
458.818	638.69
459.038	696.69
459.258	757.69
459.478	655.69
459.698	569.69
459.918	574.69
460.138	586.69
460.358	574.69
460.578	580.69
460.798	604.69
461.018	600.69
461.238	574.69
461.458	592.69
461.678	567.69
461.898	602.69
462.118	615.69
462.338	611.69
462.558	617.69
462.777	626.69
462.997	628.69
463.217	642.69
463.437	662.69
463.657	650.69
463.876	658.69
464.096	641.69
464.316	624.69
464.536	621.69
464.755	633.69
464.975	633.69
465.195	673.69
465.414	739.69
465.634	678.69
465.854	639.69
466.073	604.69
466.293	573.69
466.512	585.69
466.732	573.69
466.951	553.69
467.171	570.69
467.391	574.69
467.61	562.69
467.829	564.69
468.049	575.69
468.268	557.69
468.488	544.69
468.707	553.69
468.927	535.69
469.146	534.69
469.365	550.69
469.585	554.69
469.804	560.69
470.023	571.69
470.243	582.69
470.462	584.69
470.681	591.69
470.901	586.69
471.12	561.69
471.339	556.69
471.558	574.69
471.777	579.69
471.997	571.69
472.216	559.69
472.435	582.69
472.654	557.69
472.873	582.69
473.092	547.69
473.311	569.69
473.53	558.69
473.749	575.69
473.968	614.69
474.187	737.69
474.406	747.69
474.625	623.69
474.844	588.69
475.063	582.69
475.282	574.69
475.501	593.69
475.72	570.69
475.939	579.69
476.158	592.69
476.377	589.69
476.596	595.69
476.814	597.69
477.033	594.69
477.252	602.69
477.471	608.69
477.69	627.69
477.908	618.69
478.127	634.69
478.346	614.69
478.564	660.69
478.783	626.69
479.002	656.69
479.22	682.69
479.439	672.69
479.658	683.69
479.876	688.69
480.095	677.69
480.313	719.69
480.532	704.69
480.751	688.69
480.969	690.69
481.188	707.69
481.406	727.69
481.624	677.69
481.843	661.69
482.061	664.69
482.28	651.69
482.498	659.69
482.717	632.69
482.935	657.69
483.153	676.69
483.372	652.69
483.59	656.69
483.808	666.69
484.027	671.69
484.245	664.69
484.463	680.69
484.681	692.69
484.9	694.69
485.118	689.69
485.336	682.69
485.554	678.69
485.772	675.69
485.99	692.69
486.209	689.69
486.427	694.69
486.645	692.69
486.863	727.69
487.081	717.69
487.299	719.69
487.517	721.69
487.735	730.69
487.953	711.69
488.171	709.69
488.389	727.69
488.607	717.69
488.825	715.69
489.043	725.69
489.261	720.69
489.479	727.69
489.696	754.69
489.914	727.69
490.132	749.69
490.35	755.69
490.568	740.69
490.786	759.69
491.003	764.69
491.221	768.69
491.439	784.69
491.657	785.69
491.874	794.69
492.092	809.69
492.31	777.69
492.527	828.69
492.745	803.69
492.963	811.69
493.18	832.69
493.398	811.69
493.615	841.69
493.833	826.69
494.05	824.69
494.268	826.69
494.485	840.69
494.703	846.69
494.92	824.69
495.138	824.69
495.355	855.69
495.573	855.69
495.79	864.69
496.008	862.69
496.225	842.69
496.442	860.69
496.66	864.69
496.877	867.69
497.094	862.69
497.312	850.69
497.529	876.69
497.746	872.69
497.963	945.69
498.181	959.69
498.398	958.69
498.615	978.69
498.832	983.69
499.049	993.69
499.267	1011.69
499.484	1048.69
499.701	1100.69
499.918	1129.69
500.135	1203.69
500.352	1211.69
500.569	1209.69
500.786	1251.69
501.003	1219.69
501.22	1202.69
501.437	1140.69
501.654	1122.69
501.871	1122.69
