Data from 1988.PennyLincolnUp.Lamp.En5.5.200Scan.071819.P2_HRD10591_17-20-48-973.txt Node
Date: Thu Jul 18 17:20:48 EDT 2019
User: cochatt
Spectrometer: HR+D1059
Trigger mode: 1
Integration Time (sec): 1.000000E-1
Scans to average: 1
Electric dark correction enabled: true
Nonlinearity correction enabled: false
Boxcar width: 0
XAxis mode: Wavelengths
Number of Pixels in Spectrum: 2048
>>>>>Begin Spectral Data<<<<<
223.165	-9.69
223.4	-9.69
223.635	-9.69
223.869	-30.69
224.104	-13.69
224.338	-10.69
224.573	-17.69
224.808	-2.69
225.042	-11.69
225.277	-10.69
225.511	-14.69
225.746	1.31
225.98	14.31
226.215	16.31
226.449	14.31
226.683	14.31
226.918	28.31
227.152	33.31
227.387	21.31
227.621	31.31
227.856	37.31
228.09	56.31
228.324	37.31
228.559	51.31
228.793	74.31
229.027	115.31
229.262	103.31
229.496	127.31
229.73	145.31
229.964	165.31
230.199	146.31
230.433	117.31
230.667	121.31
230.901	120.31
231.136	121.31
231.37	125.31
231.604	117.31
231.838	115.31
232.072	108.31
232.306	118.31
232.541	114.31
232.775	123.31
233.009	124.31
233.243	119.31
233.477	132.31
233.711	127.31
233.945	110.31
234.179	111.31
234.413	127.31
234.647	120.31
234.881	107.31
235.115	111.31
235.349	116.31
235.583	122.31
235.817	120.31
236.051	128.31
236.285	133.31
236.519	123.31
236.753	135.31
236.987	152.31
237.221	206.31
237.455	270.31
237.689	194.31
237.922	157.31
238.156	141.31
238.39	141.31
238.624	130.31
238.858	127.31
239.091	125.31
239.325	127.31
239.559	132.31
239.793	144.31
240.027	143.31
240.26	162.31
240.494	169.31
240.728	157.31
240.961	164.31
241.195	172.31
241.429	145.31
241.662	131.31
241.896	156.31
242.13	147.31
242.363	145.31
242.597	137.31
242.83	147.31
243.064	152.31
243.298	137.31
243.531	158.31
243.765	151.31
243.998	155.31
244.232	139.31
244.465	136.31
244.699	145.31
244.932	180.31
245.166	151.31
245.399	151.31
245.633	166.31
245.866	148.31
246.099	159.31
246.333	170.31
246.566	156.31
246.8	148.31
247.033	167.31
247.266	151.31
247.5	164.31
247.733	172.31
247.966	187.31
248.2	179.31
248.433	190.31
248.666	176.31
248.899	188.31
249.133	220.31
249.366	218.31
249.599	209.31
249.832	195.31
250.066	200.31
250.299	185.31
250.532	193.31
250.765	206.31
250.998	223.31
251.231	220.31
251.465	219.31
251.698	218.31
251.931	212.31
252.164	199.31
252.397	210.31
252.63	218.31
252.863	215.31
253.096	231.31
253.329	249.31
253.562	231.31
253.795	227.31
254.028	215.31
254.261	224.31
254.494	240.31
254.727	273.31
254.96	285.31
255.193	290.31
255.426	274.31
255.659	254.31
255.892	241.31
256.124	234.31
256.357	239.31
256.59	235.31
256.823	217.31
257.056	221.31
257.289	224.31
257.521	212.31
257.754	227.31
257.987	210.31
258.22	224.31
258.452	212.31
258.685	217.31
258.918	209.31
259.151	218.31
259.383	241.31
259.616	236.31
259.849	233.31
260.081	241.31
260.314	255.31
260.547	270.31
260.779	243.31
261.012	265.31
261.244	222.31
261.477	239.31
261.71	260.31
261.942	246.31
262.175	250.31
262.407	243.31
262.64	230.31
262.872	220.31
263.105	229.31
263.337	230.31
263.57	228.31
263.802	241.31
264.035	237.31
264.267	233.31
264.499	208.31
264.732	246.31
264.964	235.31
265.197	214.31
265.429	209.31
265.661	229.31
265.894	218.31
266.126	233.31
266.358	231.31
266.591	234.31
266.823	229.31
267.055	241.31
267.287	261.31
267.52	246.31
267.752	244.31
267.984	236.31
268.216	259.31
268.448	258.31
268.681	255.31
268.913	277.31
269.145	291.31
269.377	285.31
269.609	298.31
269.841	287.31
270.073	279.31
270.306	311.31
270.538	347.31
270.77	319.31
271.002	307.31
271.234	311.31
271.466	308.31
271.698	347.31
271.93	345.31
272.162	334.31
272.394	332.31
272.626	320.31
272.858	319.31
273.09	279.31
273.322	289.31
273.553	291.31
273.785	290.31
274.017	279.31
274.249	290.31
274.481	265.31
274.713	274.31
274.945	283.31
275.176	273.31
275.408	279.31
275.64	263.31
275.872	290.31
276.104	280.31
276.335	284.31
276.567	302.31
276.799	309.31
277.031	329.31
277.262	336.31
277.494	345.31
277.726	302.31
277.957	315.31
278.189	312.31
278.421	296.31
278.652	313.31
278.884	284.31
279.115	294.31
279.347	279.31
279.579	273.31
279.81	285.31
280.042	279.31
280.273	269.31
280.505	267.31
280.736	293.31
280.968	285.31
281.199	290.31
281.431	286.31
281.662	295.31
281.894	291.31
282.125	288.31
282.356	291.31
282.588	330.31
282.819	333.31
283.051	301.31
283.282	289.31
283.513	304.31
283.745	311.31
283.976	309.31
284.207	304.31
284.439	306.31
284.67	321.31
284.901	293.31
285.132	321.31
285.364	296.31
285.595	294.31
285.826	317.31
286.057	316.31
286.288	292.31
286.52	311.31
286.751	335.31
286.982	310.31
287.213	315.31
287.444	325.31
287.675	317.31
287.906	332.31
288.138	304.31
288.369	316.31
288.6	343.31
288.831	324.31
289.062	300.31
289.293	314.31
289.524	296.31
289.755	311.31
289.986	303.31
290.217	290.31
290.448	308.31
290.679	312.31
290.91	328.31
291.141	321.31
291.371	314.31
291.602	319.31
291.833	307.31
292.064	320.31
292.295	317.31
292.526	300.31
292.757	300.31
292.987	309.31
293.218	319.31
293.449	314.31
293.68	325.31
293.91	314.31
294.141	318.31
294.372	309.31
294.603	299.31
294.833	321.31
295.064	307.31
295.295	326.31
295.525	324.31
295.756	334.31
295.987	323.31
296.217	356.31
296.448	351.31
296.679	335.31
296.909	337.31
297.14	317.31
297.37	309.31
297.601	336.31
297.831	352.31
298.062	328.31
298.292	318.31
298.523	332.31
298.753	346.31
298.984	330.31
299.214	346.31
299.445	335.31
299.675	346.31
299.905	347.31
300.136	356.31
300.366	370.31
300.597	361.31
300.827	362.31
301.057	361.31
301.288	373.31
301.518	352.31
301.748	365.31
301.979	341.31
302.209	371.31
302.439	363.31
302.669	372.31
302.9	350.31
303.13	343.31
303.36	366.31
303.59	372.31
303.82	368.31
304.051	370.31
304.281	357.31
304.511	368.31
304.741	356.31
304.971	355.31
305.201	361.31
305.431	347.31
305.661	350.31
305.891	355.31
306.121	346.31
306.352	360.31
306.582	348.31
306.812	344.31
307.042	359.31
307.272	351.31
307.502	343.31
307.731	373.31
307.961	359.31
308.191	371.31
308.421	352.31
308.651	379.31
308.881	375.31
309.111	369.31
309.341	376.31
309.571	372.31
309.8	403.31
310.03	397.31
310.26	391.31
310.49	414.31
310.72	407.31
310.949	443.31
311.179	455.31
311.409	408.31
311.639	396.31
311.868	393.31
312.098	413.31
312.328	419.31
312.557	417.31
312.787	451.31
313.017	426.31
313.246	421.31
313.476	421.31
313.706	424.31
313.935	400.31
314.165	419.31
314.394	447.31
314.624	433.31
314.853	427.31
315.083	413.31
315.312	407.31
315.542	409.31
315.771	386.31
316.001	412.31
316.23	401.31
316.46	425.31
316.689	415.31
316.919	419.31
317.148	421.31
317.377	434.31
317.607	428.31
317.836	413.31
318.065	409.31
318.295	417.31
318.524	414.31
318.753	430.31
318.983	393.31
319.212	415.31
319.441	423.31
319.67	442.31
319.9	418.31
320.129	428.31
320.358	414.31
320.587	413.31
320.816	411.31
321.046	442.31
321.275	450.31
321.504	447.31
321.733	444.31
321.962	449.31
322.191	452.31
322.42	473.31
322.649	480.31
322.878	514.31
323.108	513.31
323.337	517.31
323.566	547.31
323.795	599.31
324.024	620.31
324.253	769.31
324.482	1087.31
324.71	1721.31
324.939	2611.31
325.168	2244.31
325.397	1100.31
325.626	757.31
325.855	619.31
326.084	572.31
326.313	571.31
326.542	572.31
326.77	617.31
326.999	694.31
327.228	1010.31
327.457	1531.31
327.686	1919.31
327.914	1237.31
328.143	817.31
328.372	687.31
328.6	653.31
328.829	628.31
329.058	627.31
329.287	633.31
329.515	598.31
329.744	560.31
329.972	539.31
330.201	545.31
330.43	589.31
330.658	620.31
330.887	676.31
331.115	659.31
331.344	595.31
331.572	536.31
331.801	551.31
332.03	557.31
332.258	540.31
332.486	503.31
332.715	504.31
332.943	481.31
333.172	509.31
333.4	508.31
333.629	526.31
333.857	529.31
334.085	534.31
334.314	524.31
334.542	504.31
334.771	518.31
334.999	511.31
335.227	515.31
335.455	522.31
335.684	525.31
335.912	523.31
336.14	501.31
336.369	515.31
336.597	520.31
336.825	494.31
337.053	506.31
337.281	515.31
337.51	501.31
337.738	514.31
337.966	516.31
338.194	498.31
338.422	521.31
338.65	479.31
338.878	489.31
339.106	471.31
339.334	483.31
339.562	486.31
339.79	497.31
340.018	480.31
340.246	473.31
340.474	480.31
340.702	490.31
340.93	500.31
341.158	474.31
341.386	498.31
341.614	484.31
341.842	483.31
342.07	475.31
342.298	472.31
342.526	503.31
342.754	482.31
342.981	460.31
343.209	462.31
343.437	466.31
343.665	478.31
343.893	507.31
344.12	501.31
344.348	484.31
344.576	495.31
344.804	513.31
345.031	504.31
345.259	515.31
345.487	488.31
345.714	459.31
345.942	463.31
346.17	478.31
346.397	505.31
346.625	476.31
346.853	474.31
347.08	472.31
347.308	460.31
347.535	467.31
347.763	469.31
347.99	477.31
348.218	481.31
348.445	485.31
348.673	482.31
348.9	457.31
349.128	479.31
349.355	449.31
349.583	454.31
349.81	454.31
350.037	449.31
350.265	452.31
350.492	452.31
350.72	463.31
350.947	447.31
351.174	455.31
351.402	495.31
351.629	481.31
351.856	482.31
352.083	480.31
352.311	492.31
352.538	486.31
352.765	473.31
352.992	498.31
353.22	486.31
353.447	463.31
353.674	473.31
353.901	472.31
354.128	432.31
354.355	453.31
354.583	462.31
354.81	443.31
355.037	442.31
355.264	455.31
355.491	455.31
355.718	418.31
355.945	453.31
356.172	448.31
356.399	446.31
356.626	438.31
356.853	432.31
357.08	439.31
357.307	427.31
357.534	461.31
357.761	450.31
357.988	450.31
358.215	436.31
358.441	428.31
358.668	439.31
358.895	459.31
359.122	442.31
359.349	471.31
359.576	481.31
359.802	482.31
360.029	539.31
360.256	534.31
360.483	513.31
360.709	504.31
360.936	501.31
361.163	451.31
361.39	482.31
361.616	475.31
361.843	448.31
362.07	458.31
362.296	473.31
362.523	469.31
362.749	461.31
362.976	460.31
363.203	452.31
363.429	457.31
363.656	452.31
363.882	466.31
364.109	457.31
364.335	454.31
364.562	451.31
364.788	446.31
365.015	458.31
365.241	452.31
365.468	459.31
365.694	441.31
365.92	461.31
366.147	468.31
366.373	472.31
366.599	465.31
366.826	441.31
367.052	469.31
367.278	448.31
367.505	465.31
367.731	453.31
367.957	459.31
368.184	445.31
368.41	466.31
368.636	463.31
368.862	477.31
369.089	467.31
369.315	487.31
369.541	446.31
369.767	465.31
369.993	460.31
370.219	448.31
370.445	464.31
370.672	443.31
370.898	476.31
371.124	454.31
371.35	468.31
371.576	439.31
371.802	470.31
372.028	444.31
372.254	448.31
372.48	448.31
372.706	450.31
372.932	442.31
373.158	437.31
373.384	467.31
373.61	468.31
373.835	472.31
374.061	463.31
374.287	466.31
374.513	464.31
374.739	455.31
374.965	465.31
375.191	456.31
375.416	484.31
375.642	457.31
375.868	459.31
376.094	454.31
376.319	460.31
376.545	465.31
376.771	470.31
376.997	467.31
377.222	459.31
377.448	447.31
377.674	463.31
377.899	439.31
378.125	444.31
378.35	440.31
378.576	454.31
378.802	449.31
379.027	452.31
379.253	474.31
379.478	447.31
379.704	461.31
379.929	473.31
380.155	467.31
380.38	451.31
380.606	468.31
380.831	456.31
381.057	466.31
381.282	429.31
381.507	460.31
381.733	463.31
381.958	478.31
382.184	476.31
382.409	465.31
382.634	476.31
382.86	461.31
383.085	482.31
383.31	480.31
383.535	480.31
383.761	492.31
383.986	461.31
384.211	488.31
384.436	483.31
384.662	484.31
384.887	472.31
385.112	485.31
385.337	475.31
385.562	475.31
385.787	504.31
386.013	522.31
386.238	513.31
386.463	531.31
386.688	512.31
386.913	505.31
387.138	492.31
387.363	503.31
387.588	480.31
387.813	491.31
388.038	491.31
388.263	519.31
388.488	484.31
388.713	519.31
388.938	516.31
389.163	530.31
389.387	517.31
389.612	496.31
389.837	500.31
390.062	489.31
390.287	516.31
390.512	501.31
390.736	534.31
390.961	516.31
391.186	501.31
391.411	515.31
391.636	520.31
391.86	525.31
392.085	509.31
392.31	522.31
392.534	517.31
392.759	546.31
392.984	532.31
393.208	517.31
393.433	502.31
393.658	505.31
393.882	501.31
394.107	509.31
394.331	529.31
394.556	491.31
394.78	499.31
395.005	540.31
395.229	521.31
395.454	539.31
395.678	540.31
395.903	545.31
396.127	553.31
396.352	561.31
396.576	551.31
396.801	529.31
397.025	541.31
397.249	540.31
397.474	556.31
397.698	541.31
397.922	564.31
398.147	579.31
398.371	587.31
398.595	578.31
398.82	578.31
399.044	611.31
399.268	617.31
399.492	628.31
399.717	676.31
399.941	697.31
400.165	745.31
400.389	737.31
400.613	701.31
400.837	641.31
401.062	615.31
401.286	602.31
401.51	595.31
401.734	583.31
401.958	595.31
402.182	592.31
402.406	612.31
402.63	610.31
402.854	584.31
403.078	602.31
403.302	596.31
403.526	604.31
403.75	644.31
403.974	609.31
404.198	629.31
404.422	628.31
404.645	615.31
404.869	621.31
405.093	648.31
405.317	689.31
405.541	723.31
405.765	644.31
405.988	611.31
406.212	655.31
406.436	676.31
406.66	700.31
406.883	667.31
407.107	676.31
407.331	738.31
407.555	786.31
407.778	804.31
408.002	733.31
408.226	681.31
408.449	705.31
408.673	689.31
408.896	716.31
409.12	774.31
409.344	713.31
409.567	651.31
409.791	650.31
410.014	636.31
410.238	612.31
410.461	624.31
410.685	625.31
410.908	639.31
411.132	681.31
411.355	735.31
411.578	691.31
411.802	637.31
412.025	597.31
412.249	629.31
412.472	627.31
412.695	615.31
412.919	635.31
413.142	635.31
413.365	615.31
413.589	584.31
413.812	599.31
414.035	574.31
414.258	621.31
414.482	602.31
414.705	583.31
414.928	573.31
415.151	586.31
415.374	594.31
415.597	589.31
415.821	577.31
416.044	575.31
416.267	586.31
416.49	589.31
416.713	591.31
416.936	595.31
417.159	577.31
417.382	578.31
417.605	591.31
417.828	574.31
418.051	615.31
418.274	603.31
418.497	597.31
418.72	602.31
418.943	566.31
419.166	600.31
419.389	629.31
419.611	623.31
419.834	627.31
420.057	618.31
420.28	611.31
420.503	579.31
420.726	583.31
420.948	622.31
421.171	679.31
421.394	699.31
421.617	645.31
421.839	617.31
422.062	610.31
422.285	641.31
422.507	690.31
422.73	787.31
422.953	757.31
423.175	683.31
423.398	635.31
423.621	634.31
423.843	673.31
424.066	657.31
424.288	668.31
424.511	679.31
424.733	747.31
424.956	851.31
425.178	802.31
425.401	797.31
425.623	817.31
425.846	699.31
426.068	671.31
426.291	653.31
426.513	657.31
426.735	689.31
426.958	722.31
427.18	828.31
427.402	970.31
427.625	1073.31
427.847	927.31
428.069	777.31
428.292	697.31
428.514	648.31
428.736	627.31
428.958	645.31
429.181	635.31
429.403	635.31
429.625	610.31
429.847	677.31
430.069	753.31
430.292	739.31
430.514	632.31
430.736	615.31
430.958	589.31
431.18	582.31
431.402	592.31
431.624	589.31
431.846	567.31
432.068	579.31
432.29	578.31
432.512	584.31
432.734	583.31
432.956	565.31
433.178	612.31
433.4	609.31
433.622	573.31
433.844	574.31
434.066	587.31
434.287	572.31
434.509	571.31
434.731	612.31
434.953	600.31
435.175	636.31
435.397	645.31
435.618	648.31
435.84	711.31
436.062	809.31
436.284	902.31
436.505	759.31
436.727	673.31
436.949	635.31
437.17	605.31
437.392	619.31
437.614	610.31
437.835	663.31
438.057	759.31
438.278	872.31
438.5	891.31
438.721	982.31
438.943	931.31
439.165	751.31
439.386	699.31
439.608	673.31
439.829	664.31
440.05	698.31
440.272	763.31
440.493	708.31
440.715	673.31
440.936	636.31
441.158	643.31
441.379	622.31
441.6	627.31
441.822	672.31
442.043	715.31
442.264	799.31
442.486	883.31
442.707	729.31
442.928	683.31
443.149	694.31
443.371	687.31
443.592	755.31
443.813	853.31
444.034	945.31
444.255	775.31
444.476	698.31
444.698	671.31
444.919	680.31
445.14	817.31
445.361	730.31
445.582	717.31
445.803	764.31
446.024	907.31
446.245	901.31
446.466	819.31
446.687	723.31
446.908	649.31
447.129	621.31
447.35	607.31
447.571	623.31
447.792	598.31
448.013	609.31
448.234	628.31
448.455	697.31
448.675	842.31
448.896	966.31
449.117	830.31
449.338	777.31
449.559	901.31
449.779	1057.31
450	796.31
450.221	676.31
450.442	645.31
450.662	600.31
450.883	607.31
451.104	632.31
451.324	616.31
451.545	565.31
451.766	567.31
451.986	552.31
452.207	544.31
452.428	548.31
452.648	531.31
452.869	552.31
453.089	555.31
453.31	589.31
453.53	554.31
453.751	543.31
453.971	547.31
454.192	555.31
454.412	561.31
454.633	551.31
454.853	542.31
455.073	546.31
455.294	559.31
455.514	657.31
455.734	627.31
455.955	556.31
456.175	512.31
456.395	523.31
456.616	511.31
456.836	524.31
457.056	503.31
457.276	496.31
457.497	509.31
457.717	500.31
457.937	508.31
458.157	531.31
458.377	543.31
458.598	531.31
458.818	630.31
459.038	721.31
459.258	743.31
459.478	635.31
459.698	589.31
459.918	587.31
460.138	579.31
460.358	581.31
460.578	577.31
460.798	596.31
461.018	599.31
461.238	613.31
461.458	589.31
461.678	596.31
461.898	605.31
462.118	593.31
462.338	620.31
462.558	633.31
462.777	648.31
462.997	651.31
463.217	660.31
463.437	639.31
463.657	644.31
463.876	661.31
464.096	652.31
464.316	625.31
464.536	669.31
464.755	636.31
464.975	627.31
465.195	656.31
465.414	738.31
465.634	697.31
465.854	635.31
466.073	610.31
466.293	614.31
466.512	577.31
466.732	552.31
466.951	570.31
467.171	562.31
467.391	582.31
467.61	551.31
467.829	588.31
468.049	578.31
468.268	548.31
468.488	545.31
468.707	540.31
468.927	551.31
469.146	525.31
469.365	548.31
469.585	536.31
469.804	555.31
470.023	570.31
470.243	559.31
470.462	556.31
470.681	594.31
470.901	574.31
471.12	573.31
471.339	564.31
471.558	568.31
471.777	587.31
471.997	574.31
472.216	553.31
472.435	585.31
472.654	579.31
472.873	576.31
473.092	552.31
473.311	555.31
473.53	575.31
473.749	587.31
473.968	628.31
474.187	756.31
474.406	752.31
474.625	634.31
474.844	603.31
475.063	570.31
475.282	592.31
475.501	564.31
475.72	602.31
475.939	575.31
476.158	577.31
476.377	578.31
476.596	559.31
476.814	611.31
477.033	594.31
477.252	612.31
477.471	613.31
477.69	604.31
477.908	611.31
478.127	616.31
478.346	628.31
478.564	630.31
478.783	628.31
479.002	650.31
479.22	653.31
479.439	658.31
479.658	688.31
479.876	684.31
480.095	687.31
480.313	709.31
480.532	699.31
480.751	692.31
480.969	689.31
481.188	728.31
481.406	724.31
481.624	695.31
481.843	684.31
482.061	664.31
482.28	664.31
482.498	643.31
482.717	673.31
482.935	681.31
483.153	657.31
483.372	687.31
483.59	664.31
483.808	649.31
484.027	672.31
484.245	657.31
484.463	674.31
484.681	683.31
484.9	689.31
485.118	676.31
485.336	682.31
485.554	690.31
485.772	687.31
485.99	696.31
486.209	688.31
486.427	683.31
486.645	702.31
486.863	719.31
487.081	705.31
487.299	728.31
487.517	714.31
487.735	715.31
487.953	709.31
488.171	729.31
488.389	735.31
488.607	693.31
488.825	713.31
489.043	703.31
489.261	738.31
489.479	726.31
489.696	709.31
489.914	727.31
490.132	709.31
490.35	728.31
490.568	735.31
490.786	774.31
491.003	767.31
491.221	785.31
491.439	780.31
491.657	790.31
491.874	817.31
492.092	821.31
492.31	838.31
492.527	817.31
492.745	862.31
492.963	810.31
493.18	833.31
493.398	827.31
493.615	834.31
493.833	814.31
494.05	850.31
494.268	861.31
494.485	852.31
494.703	830.31
494.92	854.31
495.138	841.31
495.355	817.31
495.573	856.31
495.79	853.31
496.008	869.31
496.225	858.31
496.442	879.31
496.66	866.31
496.877	871.31
497.094	881.31
497.312	886.31
497.529	876.31
497.746	891.31
497.963	893.31
498.181	932.31
498.398	955.31
498.615	966.31
498.832	987.31
499.049	1017.31
499.267	1037.31
499.484	1050.31
499.701	1084.31
499.918	1104.31
500.135	1174.31
500.352	1210.31
500.569	1194.31
500.786	1220.31
501.003	1210.31
501.22	1203.31
501.437	1139.31
501.654	1131.31
