Data from 1988.PennyLincolnUp.Lamp.En5.5.200Scan.071819.P2_HRD10591_17-20-37-971.txt Node
Date: Thu Jul 18 17:20:37 EDT 2019
User: cochatt
Spectrometer: HR+D1059
Trigger mode: 1
Integration Time (sec): 1.000000E-1
Scans to average: 1
Electric dark correction enabled: true
Nonlinearity correction enabled: false
Boxcar width: 0
XAxis mode: Wavelengths
Number of Pixels in Spectrum: 2048
>>>>>Begin Spectral Data<<<<<
223.165	-19.31
223.4	-19.31
223.635	-19.31
223.869	-12.31
224.104	-19.31
224.338	-8.31
224.573	-9.31
224.808	-27.31
225.042	-6.31
225.277	-4.31
225.511	5.69
225.746	4.69
225.98	20.69
226.215	12.69
226.449	20.69
226.683	13.69
226.918	2.69
227.152	25.69
227.387	18.69
227.621	33.69
227.856	45.69
228.09	35.69
228.324	42.69
228.559	49.69
228.793	68.69
229.027	97.69
229.262	126.69
229.496	122.69
229.73	131.69
229.964	179.69
230.199	142.69
230.433	131.69
230.667	119.69
230.901	120.69
231.136	106.69
231.37	133.69
231.604	113.69
231.838	138.69
232.072	125.69
232.306	124.69
232.541	125.69
232.775	129.69
233.009	121.69
233.243	126.69
233.477	117.69
233.711	123.69
233.945	128.69
234.179	126.69
234.413	126.69
234.647	117.69
234.881	118.69
235.115	125.69
235.349	128.69
235.583	141.69
235.817	131.69
236.051	143.69
236.285	133.69
236.519	136.69
236.753	142.69
236.987	154.69
237.221	186.69
237.455	268.69
237.689	211.69
237.922	142.69
238.156	149.69
238.39	138.69
238.624	135.69
238.858	133.69
239.091	148.69
239.325	140.69
239.559	146.69
239.793	128.69
240.027	135.69
240.26	153.69
240.494	157.69
240.728	168.69
240.961	156.69
241.195	148.69
241.429	152.69
241.662	156.69
241.896	130.69
242.13	152.69
242.363	156.69
242.597	147.69
242.83	148.69
243.064	153.69
243.298	150.69
243.531	148.69
243.765	135.69
243.998	141.69
244.232	146.69
244.465	146.69
244.699	147.69
244.932	151.69
245.166	148.69
245.399	161.69
245.633	154.69
245.866	157.69
246.099	168.69
246.333	148.69
246.566	165.69
246.8	166.69
247.033	146.69
247.266	177.69
247.5	183.69
247.733	173.69
247.966	185.69
248.2	177.69
248.433	183.69
248.666	207.69
248.899	207.69
249.133	208.69
249.366	230.69
249.599	212.69
249.832	196.69
250.066	202.69
250.299	195.69
250.532	189.69
250.765	205.69
250.998	249.69
251.231	222.69
251.465	235.69
251.698	210.69
251.931	219.69
252.164	208.69
252.397	212.69
252.63	198.69
252.863	213.69
253.096	219.69
253.329	242.69
253.562	245.69
253.795	229.69
254.028	243.69
254.261	242.69
254.494	227.69
254.727	242.69
254.96	288.69
255.193	301.69
255.426	268.69
255.659	232.69
255.892	234.69
256.124	255.69
256.357	220.69
256.59	235.69
256.823	209.69
257.056	219.69
257.289	230.69
257.521	218.69
257.754	211.69
257.987	218.69
258.22	243.69
258.452	210.69
258.685	227.69
258.918	225.69
259.151	224.69
259.383	230.69
259.616	220.69
259.849	232.69
260.081	266.69
260.314	264.69
260.547	271.69
260.779	267.69
261.012	254.69
261.244	235.69
261.477	228.69
261.71	243.69
261.942	249.69
262.175	258.69
262.407	247.69
262.64	224.69
262.872	235.69
263.105	218.69
263.337	209.69
263.57	216.69
263.802	249.69
264.035	233.69
264.267	232.69
264.499	205.69
264.732	226.69
264.964	220.69
265.197	236.69
265.429	228.69
265.661	206.69
265.894	254.69
266.126	240.69
266.358	232.69
266.591	214.69
266.823	237.69
267.055	247.69
267.287	252.69
267.52	232.69
267.752	236.69
267.984	235.69
268.216	259.69
268.448	236.69
268.681	232.69
268.913	269.69
269.145	280.69
269.377	279.69
269.609	282.69
269.841	304.69
270.073	296.69
270.306	308.69
270.538	344.69
270.77	357.69
271.002	319.69
271.234	318.69
271.466	329.69
271.698	331.69
271.93	349.69
272.162	340.69
272.394	332.69
272.626	326.69
272.858	305.69
273.09	297.69
273.322	290.69
273.553	288.69
273.785	292.69
274.017	277.69
274.249	300.69
274.481	268.69
274.713	288.69
274.945	275.69
275.176	276.69
275.408	293.69
275.64	296.69
275.872	270.69
276.104	292.69
276.335	292.69
276.567	297.69
276.799	285.69
277.031	326.69
277.262	342.69
277.494	330.69
277.726	325.69
277.957	296.69
278.189	312.69
278.421	297.69
278.652	299.69
278.884	305.69
279.115	307.69
279.347	289.69
279.579	289.69
279.81	291.69
280.042	284.69
280.273	295.69
280.505	288.69
280.736	288.69
280.968	270.69
281.199	286.69
281.431	289.69
281.662	292.69
281.894	291.69
282.125	283.69
282.356	328.69
282.588	337.69
282.819	334.69
283.051	301.69
283.282	287.69
283.513	288.69
283.745	311.69
283.976	306.69
284.207	291.69
284.439	295.69
284.67	311.69
284.901	312.69
285.132	279.69
285.364	268.69
285.595	280.69
285.826	272.69
286.057	304.69
286.288	300.69
286.52	300.69
286.751	307.69
286.982	306.69
287.213	310.69
287.444	318.69
287.675	336.69
287.906	322.69
288.138	342.69
288.369	338.69
288.6	321.69
288.831	332.69
289.062	314.69
289.293	305.69
289.524	314.69
289.755	309.69
289.986	308.69
290.217	308.69
290.448	299.69
290.679	328.69
290.91	325.69
291.141	318.69
291.371	313.69
291.602	315.69
291.833	299.69
292.064	298.69
292.295	329.69
292.526	304.69
292.757	314.69
292.987	323.69
293.218	297.69
293.449	333.69
293.68	317.69
293.91	308.69
294.141	301.69
294.372	313.69
294.603	319.69
294.833	312.69
295.064	306.69
295.295	308.69
295.525	328.69
295.756	331.69
295.987	309.69
296.217	348.69
296.448	361.69
296.679	320.69
296.909	329.69
297.14	322.69
297.37	353.69
297.601	337.69
297.831	323.69
298.062	326.69
298.292	326.69
298.523	345.69
298.753	334.69
298.984	329.69
299.214	329.69
299.445	330.69
299.675	369.69
299.905	361.69
300.136	359.69
300.366	337.69
300.597	334.69
300.827	345.69
301.057	350.69
301.288	354.69
301.518	368.69
301.748	340.69
301.979	351.69
302.209	365.69
302.439	360.69
302.669	365.69
302.9	350.69
303.13	353.69
303.36	357.69
303.59	386.69
303.82	349.69
304.051	382.69
304.281	354.69
304.511	359.69
304.741	363.69
304.971	351.69
305.201	349.69
305.431	360.69
305.661	370.69
305.891	341.69
306.121	359.69
306.352	373.69
306.582	386.69
306.812	363.69
307.042	350.69
307.272	372.69
307.502	370.69
307.731	384.69
307.961	366.69
308.191	345.69
308.421	362.69
308.651	371.69
308.881	369.69
309.111	392.69
309.341	380.69
309.571	379.69
309.8	386.69
310.03	411.69
310.26	417.69
310.49	414.69
310.72	416.69
310.949	426.69
311.179	442.69
311.409	414.69
311.639	396.69
311.868	412.69
312.098	422.69
312.328	392.69
312.557	442.69
312.787	442.69
313.017	449.69
313.246	422.69
313.476	403.69
313.706	404.69
313.935	402.69
314.165	438.69
314.394	460.69
314.624	454.69
314.853	433.69
315.083	408.69
315.312	395.69
315.542	413.69
315.771	410.69
316.001	387.69
316.23	408.69
316.46	419.69
316.689	426.69
316.919	435.69
317.148	406.69
317.377	417.69
317.607	408.69
317.836	424.69
318.065	406.69
318.295	413.69
318.524	401.69
318.753	408.69
318.983	408.69
319.212	419.69
319.441	432.69
319.67	435.69
319.9	438.69
320.129	409.69
320.358	428.69
320.587	417.69
320.816	445.69
321.046	446.69
321.275	461.69
321.504	443.69
321.733	448.69
321.962	450.69
322.191	467.69
322.42	479.69
322.649	494.69
322.878	504.69
323.108	496.69
323.337	560.69
323.566	568.69
323.795	581.69
324.024	636.69
324.253	767.69
324.482	1110.69
324.71	1752.69
324.939	2672.69
325.168	2283.69
325.397	1125.69
325.626	755.69
325.855	626.69
326.084	584.69
326.313	586.69
326.542	568.69
326.77	625.69
326.999	745.69
327.228	996.69
327.457	1558.69
327.686	1951.69
327.914	1269.69
328.143	806.69
328.372	717.69
328.6	660.69
328.829	598.69
329.058	644.69
329.287	674.69
329.515	621.69
329.744	578.69
329.972	558.69
330.201	540.69
330.43	608.69
330.658	613.69
330.887	693.69
331.115	631.69
331.344	578.69
331.572	570.69
331.801	541.69
332.03	561.69
332.258	532.69
332.486	520.69
332.715	527.69
332.943	520.69
333.172	500.69
333.4	517.69
333.629	506.69
333.857	505.69
334.085	526.69
334.314	518.69
334.542	542.69
334.771	521.69
334.999	537.69
335.227	515.69
335.455	506.69
335.684	493.69
335.912	502.69
336.14	501.69
336.369	522.69
336.597	502.69
336.825	511.69
337.053	501.69
337.281	498.69
337.51	493.69
337.738	475.69
337.966	485.69
338.194	490.69
338.422	492.69
338.65	496.69
338.878	499.69
339.106	486.69
339.334	491.69
339.562	478.69
339.79	479.69
340.018	486.69
340.246	491.69
340.474	496.69
340.702	492.69
340.93	483.69
341.158	480.69
341.386	472.69
341.614	491.69
341.842	518.69
342.07	493.69
342.298	470.69
342.526	470.69
342.754	480.69
342.981	468.69
343.209	492.69
343.437	480.69
343.665	470.69
343.893	476.69
344.12	487.69
344.348	489.69
344.576	501.69
344.804	486.69
345.031	496.69
345.259	513.69
345.487	501.69
345.714	496.69
345.942	496.69
346.17	489.69
346.397	480.69
346.625	476.69
346.853	475.69
347.08	459.69
347.308	492.69
347.535	473.69
347.763	477.69
347.99	468.69
348.218	494.69
348.445	508.69
348.673	513.69
348.9	482.69
349.128	468.69
349.355	443.69
349.583	463.69
349.81	452.69
350.037	471.69
350.265	471.69
350.492	457.69
350.72	444.69
350.947	443.69
351.174	484.69
351.402	500.69
351.629	489.69
351.856	475.69
352.083	476.69
352.311	498.69
352.538	481.69
352.765	491.69
352.992	474.69
353.22	458.69
353.447	457.69
353.674	474.69
353.901	448.69
354.128	450.69
354.355	441.69
354.583	445.69
354.81	441.69
355.037	441.69
355.264	440.69
355.491	420.69
355.718	444.69
355.945	436.69
356.172	416.69
356.399	440.69
356.626	420.69
356.853	434.69
357.08	416.69
357.307	438.69
357.534	439.69
357.761	432.69
357.988	442.69
358.215	428.69
358.441	443.69
358.668	441.69
358.895	457.69
359.122	464.69
359.349	461.69
359.576	473.69
359.802	476.69
360.029	499.69
360.256	516.69
360.483	545.69
360.709	486.69
360.936	468.69
361.163	465.69
361.39	482.69
361.616	493.69
361.843	462.69
362.07	472.69
362.296	490.69
362.523	492.69
362.749	476.69
362.976	464.69
363.203	466.69
363.429	441.69
363.656	471.69
363.882	455.69
364.109	441.69
364.335	465.69
364.562	451.69
364.788	452.69
365.015	427.69
365.241	462.69
365.468	453.69
365.694	444.69
365.92	457.69
366.147	461.69
366.373	456.69
366.599	438.69
366.826	468.69
367.052	438.69
367.278	420.69
367.505	454.69
367.731	470.69
367.957	464.69
368.184	461.69
368.41	465.69
368.636	453.69
368.862	482.69
369.089	452.69
369.315	464.69
369.541	461.69
369.767	466.69
369.993	446.69
370.219	466.69
370.445	462.69
370.672	469.69
370.898	445.69
371.124	460.69
371.35	459.69
371.576	455.69
371.802	437.69
372.028	452.69
372.254	470.69
372.48	467.69
372.706	456.69
372.932	460.69
373.158	444.69
373.384	460.69
373.61	453.69
373.835	463.69
374.061	467.69
374.287	471.69
374.513	469.69
374.739	482.69
374.965	483.69
375.191	456.69
375.416	481.69
375.642	477.69
375.868	454.69
376.094	461.69
376.319	460.69
376.545	459.69
376.771	456.69
376.997	438.69
377.222	451.69
377.448	480.69
377.674	453.69
377.899	443.69
378.125	448.69
378.35	453.69
378.576	438.69
378.802	446.69
379.027	464.69
379.253	459.69
379.478	446.69
379.704	465.69
379.929	473.69
380.155	445.69
380.38	454.69
380.606	462.69
380.831	475.69
381.057	466.69
381.282	458.69
381.507	454.69
381.733	482.69
381.958	448.69
382.184	450.69
382.409	459.69
382.634	466.69
382.86	477.69
383.085	473.69
383.31	465.69
383.535	473.69
383.761	485.69
383.986	484.69
384.211	496.69
384.436	496.69
384.662	505.69
384.887	501.69
385.112	479.69
385.337	506.69
385.562	491.69
385.787	493.69
386.013	536.69
386.238	490.69
386.463	507.69
386.688	501.69
386.913	493.69
387.138	508.69
387.363	516.69
387.588	492.69
387.813	510.69
388.038	507.69
388.263	501.69
388.488	530.69
388.713	518.69
388.938	517.69
389.163	527.69
389.387	511.69
389.612	499.69
389.837	515.69
390.062	523.69
390.287	501.69
390.512	510.69
390.736	505.69
390.961	507.69
391.186	500.69
391.411	498.69
391.636	527.69
391.86	530.69
392.085	538.69
392.31	521.69
392.534	533.69
392.759	493.69
392.984	500.69
393.208	510.69
393.433	482.69
393.658	502.69
393.882	522.69
394.107	530.69
394.331	550.69
394.556	518.69
394.78	533.69
395.005	511.69
395.229	517.69
395.454	545.69
395.678	529.69
395.903	556.69
396.127	562.69
396.352	554.69
396.576	547.69
396.801	532.69
397.025	562.69
397.249	534.69
397.474	575.69
397.698	542.69
397.922	573.69
398.147	567.69
398.371	581.69
398.595	602.69
398.82	578.69
399.044	590.69
399.268	611.69
399.492	634.69
399.717	677.69
399.941	698.69
400.165	725.69
400.389	726.69
400.613	699.69
400.837	615.69
401.062	602.69
401.286	588.69
401.51	588.69
401.734	590.69
401.958	587.69
402.182	594.69
402.406	606.69
402.63	610.69
402.854	586.69
403.078	596.69
403.302	602.69
403.526	606.69
403.75	629.69
403.974	605.69
404.198	594.69
404.422	597.69
404.645	612.69
404.869	604.69
405.093	645.69
405.317	660.69
405.541	702.69
405.765	653.69
405.988	632.69
406.212	660.69
406.436	672.69
406.66	695.69
406.883	655.69
407.107	710.69
407.331	768.69
407.555	838.69
407.778	824.69
408.002	760.69
408.226	699.69
408.449	685.69
408.673	690.69
408.896	714.69
409.12	763.69
409.344	720.69
409.567	662.69
409.791	636.69
410.014	613.69
410.238	627.69
410.461	636.69
410.685	636.69
410.908	632.69
411.132	660.69
411.355	716.69
411.578	654.69
411.802	624.69
412.025	621.69
412.249	612.69
412.472	617.69
412.695	632.69
412.919	642.69
413.142	626.69
413.365	605.69
413.589	594.69
413.812	582.69
414.035	576.69
414.258	575.69
414.482	600.69
414.705	584.69
414.928	598.69
415.151	584.69
415.374	588.69
415.597	591.69
415.821	591.69
416.044	576.69
416.267	586.69
416.49	577.69
416.713	561.69
416.936	583.69
417.159	581.69
417.382	577.69
417.605	592.69
417.828	588.69
418.051	604.69
418.274	583.69
418.497	605.69
418.72	589.69
418.943	571.69
419.166	630.69
419.389	637.69
419.611	611.69
419.834	606.69
420.057	616.69
420.28	614.69
420.503	595.69
420.726	600.69
420.948	620.69
421.171	660.69
421.394	712.69
421.617	654.69
421.839	608.69
422.062	644.69
422.285	646.69
422.507	709.69
422.73	766.69
422.953	771.69
423.175	682.69
423.398	660.69
423.621	636.69
423.843	658.69
424.066	650.69
424.288	648.69
424.511	679.69
424.733	739.69
424.956	853.69
425.178	820.69
425.401	795.69
425.623	827.69
425.846	708.69
426.068	688.69
426.291	658.69
426.513	647.69
426.735	685.69
426.958	708.69
427.18	801.69
427.402	989.69
427.625	1084.69
427.847	903.69
428.069	769.69
428.292	691.69
428.514	638.69
428.736	609.69
428.958	645.69
429.181	599.69
429.403	604.69
429.625	628.69
429.847	665.69
430.069	732.69
430.292	731.69
430.514	617.69
430.736	600.69
430.958	628.69
431.18	590.69
431.402	582.69
431.624	568.69
431.846	598.69
432.068	576.69
432.29	570.69
432.512	594.69
432.734	594.69
432.956	565.69
433.178	598.69
433.4	595.69
433.622	598.69
433.844	563.69
434.066	584.69
434.287	572.69
434.509	562.69
434.731	580.69
434.953	607.69
435.175	618.69
435.397	635.69
435.618	647.69
435.84	704.69
436.062	833.69
436.284	890.69
436.505	742.69
436.727	680.69
436.949	620.69
437.17	595.69
437.392	622.69
437.614	624.69
437.835	674.69
438.057	774.69
438.278	883.69
438.5	908.69
438.721	1013.69
438.943	932.69
439.165	752.69
439.386	666.69
439.608	658.69
439.829	667.69
440.05	714.69
440.272	733.69
440.493	704.69
440.715	654.69
440.936	665.69
441.158	629.69
441.379	625.69
441.6	637.69
441.822	668.69
442.043	712.69
442.264	800.69
442.486	869.69
442.707	744.69
442.928	683.69
443.149	696.69
443.371	697.69
443.592	765.69
443.813	892.69
444.034	946.69
444.255	773.69
444.476	704.69
444.698	673.69
444.919	666.69
445.14	812.69
445.361	733.69
445.582	712.69
445.803	799.69
446.024	900.69
446.245	920.69
446.466	824.69
446.687	701.69
446.908	664.69
447.129	622.69
447.35	610.69
447.571	573.69
447.792	598.69
448.013	601.69
448.234	618.69
448.455	676.69
448.675	851.69
448.896	944.69
449.117	812.69
449.338	771.69
449.559	887.69
449.779	1019.69
450	797.69
450.221	677.69
450.442	625.69
450.662	599.69
450.883	599.69
451.104	633.69
451.324	603.69
451.545	593.69
451.766	580.69
451.986	569.69
452.207	569.69
452.428	553.69
452.648	571.69
452.869	550.69
453.089	552.69
453.31	584.69
453.53	564.69
453.751	565.69
453.971	564.69
454.192	568.69
454.412	571.69
454.633	535.69
454.853	531.69
455.073	541.69
455.294	566.69
455.514	634.69
455.734	620.69
455.955	558.69
456.175	549.69
456.395	520.69
456.616	540.69
456.836	546.69
457.056	530.69
457.276	494.69
457.497	503.69
457.717	503.69
457.937	532.69
458.157	518.69
458.377	530.69
458.598	569.69
458.818	649.69
459.038	741.69
459.258	769.69
459.478	652.69
459.698	579.69
459.918	603.69
460.138	587.69
460.358	589.69
460.578	606.69
460.798	581.69
461.018	620.69
461.238	588.69
461.458	615.69
461.678	587.69
461.898	590.69
462.118	606.69
462.338	608.69
462.558	602.69
462.777	645.69
462.997	635.69
463.217	660.69
463.437	654.69
463.657	644.69
463.876	652.69
464.096	627.69
464.316	623.69
464.536	636.69
464.755	650.69
464.975	634.69
465.195	712.69
465.414	757.69
465.634	692.69
465.854	633.69
466.073	617.69
466.293	594.69
466.512	585.69
466.732	563.69
466.951	575.69
467.171	563.69
467.391	571.69
467.61	578.69
467.829	572.69
468.049	566.69
468.268	560.69
468.488	549.69
468.707	553.69
468.927	541.69
469.146	547.69
469.365	564.69
469.585	552.69
469.804	567.69
470.023	572.69
470.243	571.69
470.462	565.69
470.681	606.69
470.901	593.69
471.12	576.69
471.339	598.69
471.558	566.69
471.777	570.69
471.997	540.69
472.216	544.69
472.435	581.69
472.654	582.69
472.873	537.69
473.092	554.69
473.311	562.69
473.53	565.69
473.749	565.69
473.968	627.69
474.187	717.69
474.406	753.69
474.625	652.69
474.844	567.69
475.063	578.69
475.282	570.69
475.501	582.69
475.72	589.69
475.939	576.69
476.158	590.69
476.377	573.69
476.596	605.69
476.814	606.69
477.033	634.69
477.252	612.69
477.471	604.69
477.69	618.69
477.908	612.69
478.127	634.69
478.346	623.69
478.564	654.69
478.783	637.69
479.002	640.69
479.22	647.69
479.439	664.69
479.658	706.69
479.876	699.69
480.095	701.69
480.313	757.69
480.532	717.69
480.751	698.69
480.969	694.69
481.188	719.69
481.406	705.69
481.624	690.69
481.843	662.69
482.061	683.69
482.28	662.69
482.498	651.69
482.717	652.69
482.935	631.69
483.153	649.69
483.372	654.69
483.59	678.69
483.808	669.69
484.027	646.69
484.245	694.69
484.463	676.69
484.681	683.69
484.9	669.69
485.118	690.69
485.336	692.69
485.554	673.69
485.772	690.69
485.99	699.69
486.209	704.69
486.427	674.69
486.645	692.69
486.863	728.69
487.081	754.69
487.299	727.69
487.517	719.69
487.735	729.69
487.953	717.69
488.171	724.69
488.389	707.69
488.607	736.69
488.825	721.69
489.043	741.69
489.261	744.69
489.479	744.69
489.696	726.69
489.914	738.69
490.132	755.69
490.35	747.69
490.568	737.69
490.786	741.69
491.003	765.69
491.221	790.69
491.439	828.69
491.657	796.69
491.874	783.69
492.092	811.69
492.31	814.69
492.527	816.69
492.745	828.69
492.963	833.69
493.18	836.69
493.398	832.69
493.615	827.69
493.833	852.69
494.05	832.69
494.268	846.69
494.485	855.69
494.703	840.69
494.92	859.69
495.138	835.69
495.355	859.69
495.573	833.69
495.79	831.69
496.008	863.69
496.225	833.69
496.442	849.69
496.66	892.69
496.877	880.69
497.094	891.69
497.312	884.69
497.529	876.69
497.746	930.69
497.963	897.69
498.181	941.69
498.398	953.69
498.615	948.69
498.832	972.69
499.049	986.69
499.267	1030.69
499.484	1039.69
499.701	1118.69
499.918	1139.69
500.135	1163.69
500.352	1220.69
500.569	1245.69
500.786	1237.69
501.003	1233.69
501.22	1182.69
501.437	1163.69
501.654	1121.69
