Data from 1988.PennyLincolnUp.Lamp.En5.5.200Scan.071819.P2_HRD10591_17-18-28-971.txt Node
Date: Thu Jul 18 17:18:28 EDT 2019
User: cochatt
Spectrometer: HR+D1059
Trigger mode: 1
Integration Time (sec): 1.000000E-1
Scans to average: 1
Electric dark correction enabled: true
Nonlinearity correction enabled: false
Boxcar width: 0
XAxis mode: Wavelengths
Number of Pixels in Spectrum: 2048
>>>>>Begin Spectral Data<<<<<
223.165	-9.56
223.4	-9.56
223.635	-9.56
223.869	-15.56
224.104	-1.56
224.338	-8.56
224.573	-22.56
224.808	-17.56
225.042	-14.56
225.277	-1.56
225.511	5.44
225.746	5.44
225.98	2.44
226.215	9.44
226.449	6.44
226.683	24.44
226.918	14.44
227.152	23.44
227.387	29.44
227.621	33.44
227.856	28.44
228.09	28.44
228.324	57.44
228.559	46.44
228.793	71.44
229.027	92.44
229.262	95.44
229.496	93.44
229.73	122.44
229.964	140.44
230.199	127.44
230.433	103.44
230.667	108.44
230.901	110.44
231.136	106.44
231.37	109.44
231.604	104.44
231.838	112.44
232.072	109.44
232.306	109.44
232.541	102.44
232.775	98.44
233.009	110.44
233.243	103.44
233.477	108.44
233.711	104.44
233.945	113.44
234.179	110.44
234.413	117.44
234.647	114.44
234.881	112.44
235.115	104.44
235.349	116.44
235.583	104.44
235.817	112.44
236.051	114.44
236.285	120.44
236.519	131.44
236.753	113.44
236.987	124.44
237.221	157.44
237.455	196.44
237.689	141.44
237.922	117.44
238.156	113.44
238.39	113.44
238.624	120.44
238.858	120.44
239.091	119.44
239.325	116.44
239.559	122.44
239.793	118.44
240.027	119.44
240.26	128.44
240.494	135.44
240.728	126.44
240.961	130.44
241.195	138.44
241.429	133.44
241.662	119.44
241.896	137.44
242.13	127.44
242.363	118.44
242.597	108.44
242.83	108.44
243.064	118.44
243.298	120.44
243.531	120.44
243.765	127.44
243.998	143.44
244.232	132.44
244.465	130.44
244.699	126.44
244.932	126.44
245.166	138.44
245.399	148.44
245.633	137.44
245.866	119.44
246.099	134.44
246.333	130.44
246.566	132.44
246.8	128.44
247.033	137.44
247.266	157.44
247.5	133.44
247.733	148.44
247.966	162.44
248.2	164.44
248.433	148.44
248.666	166.44
248.899	160.44
249.133	158.44
249.366	169.44
249.599	164.44
249.832	156.44
250.066	163.44
250.299	154.44
250.532	180.44
250.765	182.44
250.998	173.44
251.231	190.44
251.465	188.44
251.698	174.44
251.931	181.44
252.164	161.44
252.397	184.44
252.63	172.44
252.863	176.44
253.096	190.44
253.329	183.44
253.562	188.44
253.795	204.44
254.028	190.44
254.261	181.44
254.494	185.44
254.727	208.44
254.96	232.44
255.193	215.44
255.426	215.44
255.659	202.44
255.892	203.44
256.124	197.44
256.357	176.44
256.59	179.44
256.823	189.44
257.056	180.44
257.289	186.44
257.521	182.44
257.754	185.44
257.987	174.44
258.22	180.44
258.452	176.44
258.685	196.44
258.918	190.44
259.151	187.44
259.383	204.44
259.616	198.44
259.849	186.44
260.081	209.44
260.314	202.44
260.547	224.44
260.779	205.44
261.012	211.44
261.244	204.44
261.477	183.44
261.71	196.44
261.942	199.44
262.175	203.44
262.407	202.44
262.64	202.44
262.872	200.44
263.105	188.44
263.337	189.44
263.57	184.44
263.802	199.44
264.035	184.44
264.267	184.44
264.499	189.44
264.732	202.44
264.964	192.44
265.197	190.44
265.429	203.44
265.661	204.44
265.894	204.44
266.126	188.44
266.358	200.44
266.591	214.44
266.823	200.44
267.055	196.44
267.287	181.44
267.52	198.44
267.752	205.44
267.984	204.44
268.216	203.44
268.448	200.44
268.681	202.44
268.913	226.44
269.145	221.44
269.377	218.44
269.609	216.44
269.841	227.44
270.073	236.44
270.306	245.44
270.538	274.44
270.77	262.44
271.002	245.44
271.234	255.44
271.466	240.44
271.698	281.44
271.93	282.44
272.162	258.44
272.394	265.44
272.626	268.44
272.858	256.44
273.09	244.44
273.322	225.44
273.553	209.44
273.785	232.44
274.017	238.44
274.249	227.44
274.481	214.44
274.713	234.44
274.945	243.44
275.176	224.44
275.408	235.44
275.64	232.44
275.872	236.44
276.104	230.44
276.335	242.44
276.567	218.44
276.799	243.44
277.031	264.44
277.262	274.44
277.494	272.44
277.726	244.44
277.957	257.44
278.189	240.44
278.421	235.44
278.652	236.44
278.884	245.44
279.115	246.44
279.347	236.44
279.579	254.44
279.81	246.44
280.042	242.44
280.273	235.44
280.505	232.44
280.736	253.44
280.968	233.44
281.199	242.44
281.431	241.44
281.662	234.44
281.894	230.44
282.125	237.44
282.356	229.44
282.588	253.44
282.819	265.44
283.051	232.44
283.282	264.44
283.513	245.44
283.745	248.44
283.976	238.44
284.207	260.44
284.439	266.44
284.67	262.44
284.901	256.44
285.132	260.44
285.364	260.44
285.595	234.44
285.826	245.44
286.057	237.44
286.288	256.44
286.52	228.44
286.751	253.44
286.982	261.44
287.213	264.44
287.444	275.44
287.675	252.44
287.906	268.44
288.138	262.44
288.369	283.44
288.6	256.44
288.831	252.44
289.062	270.44
289.293	262.44
289.524	267.44
289.755	264.44
289.986	263.44
290.217	267.44
290.448	268.44
290.679	263.44
290.91	271.44
291.141	257.44
291.371	272.44
291.602	264.44
291.833	269.44
292.064	272.44
292.295	246.44
292.526	283.44
292.757	276.44
292.987	266.44
293.218	264.44
293.449	262.44
293.68	273.44
293.91	268.44
294.141	259.44
294.372	279.44
294.603	272.44
294.833	281.44
295.064	271.44
295.295	273.44
295.525	264.44
295.756	260.44
295.987	275.44
296.217	276.44
296.448	291.44
296.679	268.44
296.909	274.44
297.14	282.44
297.37	276.44
297.601	266.44
297.831	276.44
298.062	288.44
298.292	276.44
298.523	277.44
298.753	270.44
298.984	270.44
299.214	306.44
299.445	270.44
299.675	292.44
299.905	287.44
300.136	289.44
300.366	283.44
300.597	274.44
300.827	280.44
301.057	291.44
301.288	314.44
301.518	304.44
301.748	308.44
301.979	280.44
302.209	305.44
302.439	300.44
302.669	288.44
302.9	312.44
303.13	298.44
303.36	298.44
303.59	307.44
303.82	308.44
304.051	308.44
304.281	308.44
304.511	299.44
304.741	274.44
304.971	299.44
305.201	308.44
305.431	306.44
305.661	295.44
305.891	299.44
306.121	307.44
306.352	312.44
306.582	300.44
306.812	276.44
307.042	327.44
307.272	316.44
307.502	305.44
307.731	310.44
307.961	290.44
308.191	294.44
308.421	312.44
308.651	289.44
308.881	313.44
309.111	306.44
309.341	296.44
309.571	290.44
309.8	326.44
310.03	312.44
310.26	328.44
310.49	329.44
310.72	333.44
310.949	340.44
311.179	333.44
311.409	338.44
311.639	344.44
311.868	332.44
312.098	342.44
312.328	341.44
312.557	339.44
312.787	357.44
313.017	373.44
313.246	333.44
313.476	340.44
313.706	336.44
313.935	340.44
314.165	357.44
314.394	341.44
314.624	338.44
314.853	349.44
315.083	360.44
315.312	331.44
315.542	342.44
315.771	330.44
316.001	352.44
316.23	337.44
316.46	333.44
316.689	322.44
316.919	349.44
317.148	347.44
317.377	356.44
317.607	359.44
317.836	362.44
318.065	334.44
318.295	339.44
318.524	328.44
318.753	344.44
318.983	349.44
319.212	338.44
319.441	345.44
319.67	359.44
319.9	349.44
320.129	352.44
320.358	360.44
320.587	345.44
320.816	355.44
321.046	359.44
321.275	357.44
321.504	370.44
321.733	338.44
321.962	342.44
322.191	393.44
322.42	374.44
322.649	382.44
322.878	398.44
323.108	406.44
323.337	407.44
323.566	426.44
323.795	438.44
324.024	478.44
324.253	572.44
324.482	742.44
324.71	1131.44
324.939	1610.44
325.168	1399.44
325.397	722.44
325.626	518.44
325.855	442.44
326.084	440.44
326.313	406.44
326.542	430.44
326.77	485.44
326.999	525.44
327.228	684.44
327.457	1003.44
327.686	1225.44
327.914	826.44
328.143	569.44
328.372	493.44
328.6	456.44
328.829	466.44
329.058	470.44
329.287	480.44
329.515	440.44
329.744	410.44
329.972	418.44
330.201	413.44
330.43	434.44
330.658	462.44
330.887	478.44
331.115	477.44
331.344	440.44
331.572	403.44
331.801	436.44
332.03	432.44
332.258	397.44
332.486	394.44
332.715	421.44
332.943	408.44
333.172	419.44
333.4	421.44
333.629	408.44
333.857	402.44
334.085	442.44
334.314	413.44
334.542	432.44
334.771	418.44
334.999	420.44
335.227	408.44
335.455	416.44
335.684	410.44
335.912	396.44
336.14	398.44
336.369	389.44
336.597	409.44
336.825	398.44
337.053	403.44
337.281	420.44
337.51	403.44
337.738	412.44
337.966	400.44
338.194	410.44
338.422	417.44
338.65	400.44
338.878	391.44
339.106	384.44
339.334	396.44
339.562	389.44
339.79	405.44
340.018	385.44
340.246	395.44
340.474	386.44
340.702	404.44
340.93	376.44
341.158	377.44
341.386	393.44
341.614	389.44
341.842	378.44
342.07	386.44
342.298	392.44
342.526	390.44
342.754	388.44
342.981	376.44
343.209	366.44
343.437	388.44
343.665	393.44
343.893	392.44
344.12	413.44
344.348	383.44
344.576	407.44
344.804	410.44
345.031	397.44
345.259	421.44
345.487	402.44
345.714	401.44
345.942	363.44
346.17	380.44
346.397	380.44
346.625	399.44
346.853	382.44
347.08	377.44
347.308	387.44
347.535	378.44
347.763	405.44
347.99	394.44
348.218	375.44
348.445	404.44
348.673	398.44
348.9	391.44
349.128	368.44
349.355	365.44
349.583	364.44
349.81	365.44
350.037	374.44
350.265	361.44
350.492	376.44
350.72	371.44
350.947	382.44
351.174	398.44
351.402	380.44
351.629	360.44
351.856	372.44
352.083	397.44
352.311	387.44
352.538	405.44
352.765	405.44
352.992	408.44
353.22	388.44
353.447	375.44
353.674	369.44
353.901	349.44
354.128	353.44
354.355	369.44
354.583	379.44
354.81	365.44
355.037	362.44
355.264	364.44
355.491	350.44
355.718	376.44
355.945	354.44
356.172	372.44
356.399	355.44
356.626	350.44
356.853	349.44
357.08	359.44
357.307	354.44
357.534	354.44
357.761	359.44
357.988	372.44
358.215	382.44
358.441	365.44
358.668	365.44
358.895	348.44
359.122	361.44
359.349	370.44
359.576	392.44
359.802	386.44
360.029	404.44
360.256	429.44
360.483	395.44
360.709	397.44
360.936	385.44
361.163	388.44
361.39	371.44
361.616	400.44
361.843	376.44
362.07	372.44
362.296	372.44
362.523	358.44
362.749	363.44
362.976	370.44
363.203	370.44
363.429	363.44
363.656	353.44
363.882	376.44
364.109	373.44
364.335	358.44
364.562	375.44
364.788	356.44
365.015	367.44
365.241	378.44
365.468	357.44
365.694	353.44
365.92	384.44
366.147	349.44
366.373	356.44
366.599	382.44
366.826	378.44
367.052	369.44
367.278	370.44
367.505	363.44
367.731	371.44
367.957	369.44
368.184	369.44
368.41	379.44
368.636	393.44
368.862	378.44
369.089	380.44
369.315	372.44
369.541	372.44
369.767	360.44
369.993	363.44
370.219	361.44
370.445	363.44
370.672	363.44
370.898	384.44
371.124	358.44
371.35	379.44
371.576	378.44
371.802	363.44
372.028	380.44
372.254	382.44
372.48	380.44
372.706	378.44
372.932	365.44
373.158	377.44
373.384	388.44
373.61	372.44
373.835	383.44
374.061	380.44
374.287	379.44
374.513	380.44
374.739	387.44
374.965	387.44
375.191	392.44
375.416	398.44
375.642	372.44
375.868	384.44
376.094	408.44
376.319	389.44
376.545	376.44
376.771	374.44
376.997	371.44
377.222	372.44
377.448	386.44
377.674	389.44
377.899	366.44
378.125	374.44
378.35	380.44
378.576	364.44
378.802	374.44
379.027	362.44
379.253	377.44
379.478	393.44
379.704	376.44
379.929	392.44
380.155	388.44
380.38	385.44
380.606	378.44
380.831	381.44
381.057	394.44
381.282	380.44
381.507	375.44
381.733	398.44
381.958	381.44
382.184	379.44
382.409	381.44
382.634	395.44
382.86	391.44
383.085	370.44
383.31	392.44
383.535	394.44
383.761	385.44
383.986	389.44
384.211	408.44
384.436	409.44
384.662	406.44
384.887	406.44
385.112	408.44
385.337	419.44
385.562	412.44
385.787	402.44
386.013	438.44
386.238	425.44
386.463	423.44
386.688	430.44
386.913	433.44
387.138	443.44
387.363	424.44
387.588	422.44
387.813	392.44
388.038	424.44
388.263	405.44
388.488	411.44
388.713	422.44
388.938	414.44
389.163	419.44
389.387	414.44
389.612	403.44
389.837	410.44
390.062	404.44
390.287	413.44
390.512	400.44
390.736	422.44
390.961	399.44
391.186	416.44
391.411	411.44
391.636	428.44
391.86	425.44
392.085	428.44
392.31	400.44
392.534	412.44
392.759	437.44
392.984	434.44
393.208	449.44
393.433	446.44
393.658	443.44
393.882	402.44
394.107	421.44
394.331	427.44
394.556	436.44
394.78	409.44
395.005	432.44
395.229	432.44
395.454	442.44
395.678	421.44
395.903	443.44
396.127	462.44
396.352	478.44
396.576	460.44
396.801	458.44
397.025	450.44
397.249	434.44
397.474	476.44
397.698	442.44
397.922	467.44
398.147	458.44
398.371	477.44
398.595	470.44
398.82	474.44
399.044	490.44
399.268	496.44
399.492	510.44
399.717	541.44
399.941	570.44
400.165	573.44
400.389	581.44
400.613	542.44
400.837	522.44
401.062	494.44
401.286	497.44
401.51	484.44
401.734	479.44
401.958	477.44
402.182	473.44
402.406	471.44
402.63	486.44
402.854	502.44
403.078	492.44
403.302	472.44
403.526	505.44
403.75	490.44
403.974	486.44
404.198	479.44
404.422	497.44
404.645	501.44
404.869	491.44
405.093	516.44
405.317	546.44
405.541	558.44
405.765	533.44
405.988	517.44
406.212	511.44
406.436	516.44
406.66	549.44
406.883	540.44
407.107	548.44
407.331	609.44
407.555	637.44
407.778	629.44
408.002	583.44
408.226	548.44
408.449	538.44
408.673	552.44
408.896	567.44
409.12	587.44
409.344	595.44
409.567	526.44
409.791	516.44
410.014	494.44
410.238	493.44
410.461	502.44
410.685	502.44
410.908	524.44
411.132	540.44
411.355	574.44
411.578	529.44
411.802	516.44
412.025	483.44
412.249	489.44
412.472	481.44
412.695	487.44
412.919	483.44
413.142	477.44
413.365	490.44
413.589	492.44
413.812	468.44
414.035	483.44
414.258	464.44
414.482	462.44
414.705	476.44
414.928	476.44
415.151	464.44
415.374	470.44
415.597	474.44
415.821	468.44
416.044	460.44
416.267	459.44
416.49	449.44
416.713	459.44
416.936	466.44
417.159	463.44
417.382	475.44
417.605	470.44
417.828	468.44
418.051	481.44
418.274	464.44
418.497	469.44
418.72	476.44
418.943	472.44
419.166	498.44
419.389	532.44
419.611	478.44
419.834	484.44
420.057	470.44
420.28	492.44
420.503	467.44
420.726	461.44
420.948	468.44
421.171	516.44
421.394	546.44
421.617	500.44
421.839	490.44
422.062	477.44
422.285	524.44
422.507	562.44
422.73	628.44
422.953	596.44
423.175	515.44
423.398	505.44
423.621	497.44
423.843	521.44
424.066	550.44
424.288	496.44
424.511	524.44
424.733	566.44
424.956	627.44
425.178	608.44
425.401	615.44
425.623	620.44
425.846	560.44
426.068	532.44
426.291	501.44
426.513	526.44
426.735	532.44
426.958	560.44
427.18	626.44
427.402	717.44
427.625	821.44
427.847	700.44
428.069	594.44
428.292	551.44
428.514	510.44
428.736	480.44
428.958	486.44
429.181	472.44
429.403	499.44
429.625	481.44
429.847	514.44
430.069	549.44
430.292	548.44
430.514	500.44
430.736	475.44
430.958	477.44
431.18	433.44
431.402	460.44
431.624	452.44
431.846	459.44
432.068	446.44
432.29	466.44
432.512	439.44
432.734	478.44
432.956	455.44
433.178	485.44
433.4	473.44
433.622	476.44
433.844	475.44
434.066	451.44
434.287	462.44
434.509	460.44
434.731	459.44
434.953	469.44
435.175	496.44
435.397	487.44
435.618	498.44
435.84	546.44
436.062	620.44
436.284	681.44
436.505	550.44
436.727	528.44
436.949	497.44
437.17	468.44
437.392	492.44
437.614	487.44
437.835	514.44
438.057	588.44
438.278	655.44
438.5	690.44
438.721	742.44
438.943	718.44
439.165	582.44
439.386	514.44
439.608	520.44
439.829	510.44
440.05	525.44
440.272	587.44
440.493	553.44
440.715	504.44
440.936	488.44
441.158	481.44
441.379	489.44
441.6	484.44
441.822	519.44
442.043	554.44
442.264	617.44
442.486	657.44
442.707	557.44
442.928	558.44
443.149	535.44
443.371	556.44
443.592	583.44
443.813	639.44
444.034	710.44
444.255	597.44
444.476	566.44
444.698	524.44
444.919	524.44
445.14	633.44
445.361	590.44
445.582	564.44
445.803	605.44
446.024	668.44
446.245	693.44
446.466	622.44
446.687	554.44
446.908	533.44
447.129	506.44
447.35	487.44
447.571	469.44
447.792	478.44
448.013	473.44
448.234	488.44
448.455	526.44
448.675	636.44
448.896	762.44
449.117	643.44
449.338	597.44
449.559	683.44
449.779	773.44
450	624.44
450.221	510.44
450.442	467.44
450.662	469.44
450.883	461.44
451.104	474.44
451.324	464.44
451.545	442.44
451.766	434.44
451.986	448.44
452.207	421.44
452.428	426.44
452.648	414.44
452.869	433.44
453.089	441.44
453.31	434.44
453.53	421.44
453.751	436.44
453.971	435.44
454.192	433.44
454.412	453.44
454.633	427.44
454.853	436.44
455.073	439.44
455.294	449.44
455.514	503.44
455.734	475.44
455.955	444.44
456.175	405.44
456.395	404.44
456.616	418.44
456.836	427.44
457.056	399.44
457.276	397.44
457.497	435.44
457.717	419.44
457.937	421.44
458.157	427.44
458.377	428.44
458.598	445.44
458.818	494.44
459.038	547.44
459.258	546.44
459.478	499.44
459.698	478.44
459.918	436.44
460.138	467.44
460.358	470.44
460.578	481.44
460.798	475.44
461.018	468.44
461.238	462.44
461.458	483.44
461.678	460.44
461.898	488.44
462.118	466.44
462.338	505.44
462.558	505.44
462.777	496.44
462.997	501.44
463.217	520.44
463.437	532.44
463.657	525.44
463.876	525.44
464.096	511.44
464.316	485.44
464.536	497.44
464.755	508.44
464.975	498.44
465.195	528.44
465.414	562.44
465.634	510.44
465.854	465.44
466.073	472.44
466.293	464.44
466.512	445.44
466.732	453.44
466.951	458.44
467.171	461.44
467.391	459.44
467.61	454.44
467.829	441.44
468.049	436.44
468.268	459.44
468.488	444.44
468.707	432.44
468.927	428.44
469.146	421.44
469.365	436.44
469.585	437.44
469.804	442.44
470.023	441.44
470.243	429.44
470.462	445.44
470.681	478.44
470.901	477.44
471.12	452.44
471.339	452.44
471.558	441.44
471.777	447.44
471.997	444.44
472.216	430.44
472.435	443.44
472.654	450.44
472.873	447.44
473.092	455.44
473.311	448.44
473.53	448.44
473.749	462.44
473.968	505.44
474.187	564.44
474.406	568.44
474.625	502.44
474.844	488.44
475.063	448.44
475.282	451.44
475.501	472.44
475.72	461.44
475.939	468.44
476.158	484.44
476.377	475.44
476.596	477.44
476.814	481.44
477.033	481.44
477.252	477.44
477.471	468.44
477.69	475.44
477.908	490.44
478.127	501.44
478.346	522.44
478.564	490.44
478.783	502.44
479.002	500.44
479.22	524.44
479.439	550.44
479.658	545.44
479.876	541.44
480.095	557.44
480.313	570.44
480.532	564.44
480.751	546.44
480.969	555.44
481.188	537.44
481.406	551.44
481.624	563.44
481.843	536.44
482.061	521.44
482.28	538.44
482.498	543.44
482.717	527.44
482.935	512.44
483.153	516.44
483.372	540.44
483.59	508.44
483.808	521.44
484.027	522.44
484.245	553.44
484.463	536.44
484.681	540.44
484.9	527.44
485.118	530.44
485.336	530.44
485.554	544.44
485.772	548.44
485.99	555.44
486.209	560.44
486.427	534.44
486.645	562.44
486.863	576.44
487.081	585.44
487.299	560.44
487.517	552.44
487.735	539.44
487.953	562.44
488.171	566.44
488.389	570.44
488.607	570.44
488.825	579.44
489.043	578.44
489.261	565.44
489.479	566.44
489.696	579.44
489.914	581.44
490.132	584.44
490.35	582.44
490.568	600.44
490.786	585.44
491.003	577.44
491.221	601.44
491.439	609.44
491.657	613.44
491.874	633.44
492.092	616.44
492.31	619.44
492.527	628.44
492.745	643.44
492.963	633.44
493.18	616.44
493.398	654.44
493.615	641.44
493.833	650.44
494.05	662.44
494.268	660.44
494.485	635.44
494.703	658.44
494.92	644.44
495.138	642.44
495.355	673.44
495.573	670.44
495.79	668.44
496.008	688.44
496.225	670.44
496.442	666.44
496.66	675.44
496.877	647.44
497.094	661.44
497.312	675.44
497.529	672.44
497.746	697.44
497.963	692.44
498.181	718.44
498.398	743.44
498.615	736.44
498.832	788.44
499.049	789.44
499.267	778.44
499.484	841.44
499.701	871.44
499.918	897.44
500.135	928.44
500.352	958.44
500.569	970.44
500.786	981.44
501.003	982.44
501.22	910.44
501.437	914.44
501.654	887.44
501.871	860.44
502.088	852.44
