Data from 1988.PennyLincolnUp.Lamp.En5.5.200Scan.071819.P2_HRD10591_17-19-58-973.txt Node
Date: Thu Jul 18 17:19:58 EDT 2019
User: cochatt
Spectrometer: HR+D1059
Trigger mode: 1
Integration Time (sec): 1.000000E-1
Scans to average: 1
Electric dark correction enabled: true
Nonlinearity correction enabled: false
Boxcar width: 0
XAxis mode: Wavelengths
Number of Pixels in Spectrum: 2048
>>>>>Begin Spectral Data<<<<<
223.165	-4.56
223.4	-4.56
223.635	-4.56
223.869	-33.56
224.104	-27.56
224.338	-14.56
224.573	-13.56
224.808	-13.56
225.042	-2.56
225.277	-4.56
225.511	4.44
225.746	4.44
225.98	4.44
226.215	18.44
226.449	9.44
226.683	15.44
226.918	29.44
227.152	28.44
227.387	25.44
227.621	39.44
227.856	39.44
228.09	38.44
228.324	36.44
228.559	58.44
228.793	55.44
229.027	98.44
229.262	117.44
229.496	119.44
229.73	145.44
229.964	159.44
230.199	147.44
230.433	112.44
230.667	119.44
230.901	116.44
231.136	115.44
231.37	98.44
231.604	96.44
231.838	117.44
232.072	111.44
232.306	91.44
232.541	106.44
232.775	115.44
233.009	120.44
233.243	103.44
233.477	112.44
233.711	121.44
233.945	102.44
234.179	125.44
234.413	131.44
234.647	121.44
234.881	108.44
235.115	115.44
235.349	111.44
235.583	116.44
235.817	127.44
236.051	130.44
236.285	117.44
236.519	137.44
236.753	132.44
236.987	131.44
237.221	180.44
237.455	257.44
237.689	183.44
237.922	161.44
238.156	126.44
238.39	128.44
238.624	138.44
238.858	119.44
239.091	119.44
239.325	133.44
239.559	111.44
239.793	132.44
240.027	141.44
240.26	147.44
240.494	148.44
240.728	160.44
240.961	159.44
241.195	159.44
241.429	135.44
241.662	150.44
241.896	139.44
242.13	134.44
242.363	144.44
242.597	145.44
242.83	143.44
243.064	153.44
243.298	117.44
243.531	145.44
243.765	146.44
243.998	151.44
244.232	140.44
244.465	145.44
244.699	177.44
244.932	156.44
245.166	140.44
245.399	145.44
245.633	159.44
245.866	155.44
246.099	162.44
246.333	138.44
246.566	166.44
246.8	163.44
247.033	159.44
247.266	180.44
247.5	163.44
247.733	178.44
247.966	169.44
248.2	185.44
248.433	168.44
248.666	182.44
248.899	178.44
249.133	204.44
249.366	220.44
249.599	207.44
249.832	192.44
250.066	187.44
250.299	173.44
250.532	164.44
250.765	205.44
250.998	240.44
251.231	242.44
251.465	225.44
251.698	201.44
251.931	212.44
252.164	218.44
252.397	197.44
252.63	215.44
252.863	215.44
253.096	231.44
253.329	213.44
253.562	243.44
253.795	232.44
254.028	220.44
254.261	223.44
254.494	229.44
254.727	271.44
254.96	276.44
255.193	287.44
255.426	272.44
255.659	239.44
255.892	239.44
256.124	217.44
256.357	240.44
256.59	232.44
256.823	213.44
257.056	208.44
257.289	203.44
257.521	221.44
257.754	208.44
257.987	232.44
258.22	221.44
258.452	186.44
258.685	197.44
258.918	194.44
259.151	209.44
259.383	226.44
259.616	233.44
259.849	244.44
260.081	225.44
260.314	259.44
260.547	271.44
260.779	253.44
261.012	243.44
261.244	229.44
261.477	253.44
261.71	224.44
261.942	230.44
262.175	249.44
262.407	245.44
262.64	228.44
262.872	221.44
263.105	220.44
263.337	231.44
263.57	214.44
263.802	224.44
264.035	225.44
264.267	217.44
264.499	225.44
264.732	213.44
264.964	216.44
265.197	215.44
265.429	230.44
265.661	204.44
265.894	211.44
266.126	231.44
266.358	217.44
266.591	213.44
266.823	247.44
267.055	243.44
267.287	239.44
267.52	251.44
267.752	235.44
267.984	254.44
268.216	254.44
268.448	239.44
268.681	255.44
268.913	254.44
269.145	297.44
269.377	290.44
269.609	288.44
269.841	274.44
270.073	277.44
270.306	305.44
270.538	318.44
270.77	335.44
271.002	319.44
271.234	304.44
271.466	313.44
271.698	333.44
271.93	327.44
272.162	334.44
272.394	335.44
272.626	311.44
272.858	290.44
273.09	300.44
273.322	299.44
273.553	301.44
273.785	269.44
274.017	269.44
274.249	274.44
274.481	275.44
274.713	268.44
274.945	274.44
275.176	284.44
275.408	272.44
275.64	271.44
275.872	265.44
276.104	258.44
276.335	278.44
276.567	281.44
276.799	292.44
277.031	310.44
277.262	314.44
277.494	326.44
277.726	323.44
277.957	302.44
278.189	285.44
278.421	269.44
278.652	276.44
278.884	288.44
279.115	293.44
279.347	293.44
279.579	284.44
279.81	299.44
280.042	304.44
280.273	301.44
280.505	291.44
280.736	270.44
280.968	287.44
281.199	270.44
281.431	289.44
281.662	277.44
281.894	259.44
282.125	284.44
282.356	316.44
282.588	308.44
282.819	336.44
283.051	307.44
283.282	293.44
283.513	303.44
283.745	269.44
283.976	293.44
284.207	315.44
284.439	303.44
284.67	305.44
284.901	285.44
285.132	291.44
285.364	302.44
285.595	325.44
285.826	273.44
286.057	285.44
286.288	294.44
286.52	306.44
286.751	303.44
286.982	284.44
287.213	283.44
287.444	299.44
287.675	292.44
287.906	297.44
288.138	307.44
288.369	314.44
288.6	317.44
288.831	312.44
289.062	290.44
289.293	321.44
289.524	303.44
289.755	301.44
289.986	307.44
290.217	280.44
290.448	305.44
290.679	315.44
290.91	308.44
291.141	303.44
291.371	287.44
291.602	307.44
291.833	297.44
292.064	317.44
292.295	304.44
292.526	316.44
292.757	295.44
292.987	308.44
293.218	308.44
293.449	308.44
293.68	317.44
293.91	305.44
294.141	303.44
294.372	293.44
294.603	309.44
294.833	309.44
295.064	308.44
295.295	318.44
295.525	350.44
295.756	324.44
295.987	329.44
296.217	348.44
296.448	346.44
296.679	320.44
296.909	301.44
297.14	328.44
297.37	317.44
297.601	322.44
297.831	312.44
298.062	304.44
298.292	335.44
298.523	322.44
298.753	327.44
298.984	338.44
299.214	335.44
299.445	348.44
299.675	338.44
299.905	347.44
300.136	328.44
300.366	327.44
300.597	345.44
300.827	331.44
301.057	334.44
301.288	342.44
301.518	353.44
301.748	364.44
301.979	352.44
302.209	344.44
302.439	348.44
302.669	364.44
302.9	346.44
303.13	353.44
303.36	369.44
303.59	349.44
303.82	381.44
304.051	360.44
304.281	352.44
304.511	367.44
304.741	365.44
304.971	329.44
305.201	372.44
305.431	369.44
305.661	353.44
305.891	344.44
306.121	335.44
306.352	349.44
306.582	366.44
306.812	350.44
307.042	355.44
307.272	349.44
307.502	355.44
307.731	349.44
307.961	354.44
308.191	344.44
308.421	363.44
308.651	347.44
308.881	366.44
309.111	371.44
309.341	370.44
309.571	379.44
309.8	382.44
310.03	390.44
310.26	393.44
310.49	394.44
310.72	411.44
310.949	431.44
311.179	411.44
311.409	404.44
311.639	405.44
311.868	393.44
312.098	410.44
312.328	397.44
312.557	424.44
312.787	438.44
313.017	447.44
313.246	428.44
313.476	406.44
313.706	404.44
313.935	424.44
314.165	412.44
314.394	421.44
314.624	425.44
314.853	433.44
315.083	410.44
315.312	403.44
315.542	401.44
315.771	400.44
316.001	398.44
316.23	390.44
316.46	415.44
316.689	416.44
316.919	404.44
317.148	414.44
317.377	431.44
317.607	421.44
317.836	424.44
318.065	419.44
318.295	395.44
318.524	403.44
318.753	395.44
318.983	410.44
319.212	410.44
319.441	393.44
319.67	456.44
319.9	416.44
320.129	412.44
320.358	415.44
320.587	420.44
320.816	425.44
321.046	427.44
321.275	420.44
321.504	444.44
321.733	447.44
321.962	429.44
322.191	468.44
322.42	453.44
322.649	506.44
322.878	483.44
323.108	475.44
323.337	527.44
323.566	585.44
323.795	575.44
324.024	635.44
324.253	740.44
324.482	1078.44
324.71	1750.44
324.939	2617.44
325.168	2227.44
325.397	1075.44
325.626	733.44
325.855	601.44
326.084	584.44
326.313	555.44
326.542	556.44
326.77	611.44
326.999	702.44
327.228	980.44
327.457	1536.44
327.686	1925.44
327.914	1263.44
328.143	819.44
328.372	683.44
328.6	652.44
328.829	622.44
329.058	653.44
329.287	616.44
329.515	585.44
329.744	566.44
329.972	565.44
330.201	548.44
330.43	571.44
330.658	609.44
330.887	657.44
331.115	633.44
331.344	555.44
331.572	524.44
331.801	532.44
332.03	542.44
332.258	531.44
332.486	498.44
332.715	519.44
332.943	505.44
333.172	508.44
333.4	494.44
333.629	496.44
333.857	539.44
334.085	526.44
334.314	527.44
334.542	527.44
334.771	530.44
334.999	480.44
335.227	502.44
335.455	485.44
335.684	501.44
335.912	483.44
336.14	496.44
336.369	494.44
336.597	464.44
336.825	511.44
337.053	481.44
337.281	494.44
337.51	485.44
337.738	460.44
337.966	494.44
338.194	492.44
338.422	500.44
338.65	470.44
338.878	462.44
339.106	442.44
339.334	467.44
339.562	476.44
339.79	465.44
340.018	468.44
340.246	471.44
340.474	502.44
340.702	470.44
340.93	464.44
341.158	477.44
341.386	481.44
341.614	480.44
341.842	467.44
342.07	461.44
342.298	478.44
342.526	457.44
342.754	459.44
342.981	462.44
343.209	444.44
343.437	487.44
343.665	470.44
343.893	477.44
344.12	495.44
344.348	491.44
344.576	501.44
344.804	489.44
345.031	485.44
345.259	511.44
345.487	491.44
345.714	484.44
345.942	488.44
346.17	471.44
346.397	467.44
346.625	453.44
346.853	469.44
347.08	462.44
347.308	462.44
347.535	476.44
347.763	487.44
347.99	464.44
348.218	462.44
348.445	488.44
348.673	479.44
348.9	465.44
349.128	465.44
349.355	445.44
349.583	457.44
349.81	447.44
350.037	455.44
350.265	444.44
350.492	467.44
350.72	429.44
350.947	440.44
351.174	463.44
351.402	473.44
351.629	446.44
351.856	479.44
352.083	479.44
352.311	475.44
352.538	485.44
352.765	488.44
352.992	461.44
353.22	461.44
353.447	479.44
353.674	459.44
353.901	471.44
354.128	453.44
354.355	422.44
354.583	434.44
354.81	446.44
355.037	447.44
355.264	438.44
355.491	409.44
355.718	439.44
355.945	417.44
356.172	440.44
356.399	428.44
356.626	437.44
356.853	437.44
357.08	447.44
357.307	432.44
357.534	439.44
357.761	422.44
357.988	419.44
358.215	434.44
358.441	424.44
358.668	422.44
358.895	462.44
359.122	461.44
359.349	459.44
359.576	476.44
359.802	495.44
360.029	508.44
360.256	533.44
360.483	514.44
360.709	475.44
360.936	452.44
361.163	468.44
361.39	470.44
361.616	469.44
361.843	459.44
362.07	469.44
362.296	488.44
362.523	486.44
362.749	459.44
362.976	465.44
363.203	464.44
363.429	457.44
363.656	456.44
363.882	453.44
364.109	441.44
364.335	443.44
364.562	435.44
364.788	433.44
365.015	468.44
365.241	438.44
365.468	447.44
365.694	458.44
365.92	439.44
366.147	436.44
366.373	456.44
366.599	448.44
366.826	413.44
367.052	438.44
367.278	438.44
367.505	432.44
367.731	452.44
367.957	432.44
368.184	462.44
368.41	461.44
368.636	460.44
368.862	470.44
369.089	457.44
369.315	455.44
369.541	463.44
369.767	443.44
369.993	442.44
370.219	446.44
370.445	456.44
370.672	453.44
370.898	448.44
371.124	455.44
371.35	467.44
371.576	447.44
371.802	428.44
372.028	433.44
372.254	451.44
372.48	463.44
372.706	465.44
372.932	464.44
373.158	457.44
373.384	453.44
373.61	440.44
373.835	453.44
374.061	467.44
374.287	456.44
374.513	461.44
374.739	467.44
374.965	438.44
375.191	442.44
375.416	468.44
375.642	445.44
375.868	449.44
376.094	467.44
376.319	441.44
376.545	458.44
376.771	453.44
376.997	468.44
377.222	461.44
377.448	447.44
377.674	454.44
377.899	450.44
378.125	414.44
378.35	466.44
378.576	428.44
378.802	431.44
379.027	431.44
379.253	446.44
379.478	460.44
379.704	439.44
379.929	443.44
380.155	441.44
380.38	446.44
380.606	465.44
380.831	460.44
381.057	448.44
381.282	437.44
381.507	463.44
381.733	452.44
381.958	447.44
382.184	452.44
382.409	471.44
382.634	452.44
382.86	457.44
383.085	455.44
383.31	453.44
383.535	456.44
383.761	465.44
383.986	462.44
384.211	483.44
384.436	476.44
384.662	485.44
384.887	484.44
385.112	483.44
385.337	467.44
385.562	474.44
385.787	484.44
386.013	504.44
386.238	529.44
386.463	511.44
386.688	502.44
386.913	484.44
387.138	482.44
387.363	497.44
387.588	491.44
387.813	517.44
388.038	514.44
388.263	484.44
388.488	497.44
388.713	503.44
388.938	461.44
389.163	487.44
389.387	521.44
389.612	505.44
389.837	470.44
390.062	493.44
390.287	513.44
390.512	493.44
390.736	500.44
390.961	499.44
391.186	517.44
391.411	497.44
391.636	510.44
391.86	514.44
392.085	526.44
392.31	514.44
392.534	515.44
392.759	521.44
392.984	516.44
393.208	509.44
393.433	501.44
393.658	510.44
393.882	502.44
394.107	504.44
394.331	511.44
394.556	498.44
394.78	511.44
395.005	493.44
395.229	498.44
395.454	521.44
395.678	506.44
395.903	558.44
396.127	577.44
396.352	557.44
396.576	537.44
396.801	550.44
397.025	523.44
397.249	514.44
397.474	539.44
397.698	551.44
397.922	558.44
398.147	561.44
398.371	568.44
398.595	547.44
398.82	596.44
399.044	592.44
399.268	619.44
399.492	641.44
399.717	646.44
399.941	701.44
400.165	701.44
400.389	720.44
400.613	671.44
400.837	616.44
401.062	629.44
401.286	584.44
401.51	586.44
401.734	583.44
401.958	612.44
402.182	589.44
402.406	582.44
402.63	579.44
402.854	589.44
403.078	609.44
403.302	620.44
403.526	610.44
403.75	592.44
403.974	604.44
404.198	594.44
404.422	558.44
404.645	615.44
404.869	613.44
405.093	642.44
405.317	664.44
405.541	701.44
405.765	637.44
405.988	625.44
406.212	655.44
406.436	676.44
406.66	677.44
406.883	637.44
407.107	679.44
407.331	726.44
407.555	803.44
407.778	806.44
408.002	708.44
408.226	672.44
408.449	668.44
408.673	665.44
408.896	702.44
409.12	732.44
409.344	686.44
409.567	649.44
409.791	639.44
410.014	608.44
410.238	611.44
410.461	607.44
410.685	626.44
410.908	645.44
411.132	678.44
411.355	728.44
411.578	687.44
411.802	609.44
412.025	606.44
412.249	602.44
412.472	627.44
412.695	611.44
412.919	607.44
413.142	587.44
413.365	584.44
413.589	600.44
413.812	576.44
414.035	581.44
414.258	592.44
414.482	593.44
414.705	564.44
414.928	576.44
415.151	590.44
415.374	576.44
415.597	543.44
415.821	582.44
416.044	580.44
416.267	603.44
416.49	578.44
416.713	579.44
416.936	568.44
417.159	555.44
417.382	579.44
417.605	556.44
417.828	593.44
418.051	598.44
418.274	599.44
418.497	574.44
418.72	572.44
418.943	560.44
419.166	586.44
419.389	630.44
419.611	629.44
419.834	602.44
420.057	599.44
420.28	573.44
420.503	564.44
420.726	576.44
420.948	625.44
421.171	655.44
421.394	697.44
421.617	610.44
421.839	627.44
422.062	612.44
422.285	617.44
422.507	669.44
422.73	770.44
422.953	762.44
423.175	648.44
423.398	628.44
423.621	626.44
423.843	637.44
424.066	677.44
424.288	655.44
424.511	691.44
424.733	759.44
424.956	856.44
425.178	788.44
425.401	784.44
425.623	830.44
425.846	692.44
426.068	663.44
426.291	642.44
426.513	622.44
426.735	670.44
426.958	709.44
427.18	800.44
427.402	972.44
427.625	1067.44
427.847	897.44
428.069	791.44
428.292	663.44
428.514	639.44
428.736	625.44
428.958	623.44
429.181	601.44
429.403	604.44
429.625	620.44
429.847	655.44
430.069	712.44
430.292	731.44
430.514	639.44
430.736	599.44
430.958	587.44
431.18	583.44
431.402	560.44
431.624	576.44
431.846	561.44
432.068	571.44
432.29	578.44
432.512	583.44
432.734	599.44
432.956	565.44
433.178	567.44
433.4	604.44
433.622	607.44
433.844	574.44
434.066	567.44
434.287	579.44
434.509	587.44
434.731	575.44
434.953	569.44
435.175	599.44
435.397	638.44
435.618	640.44
435.84	688.44
436.062	818.44
436.284	888.44
436.505	755.44
436.727	672.44
436.949	615.44
437.17	600.44
437.392	613.44
437.614	610.44
437.835	654.44
438.057	740.44
438.278	909.44
438.5	896.44
438.721	976.44
438.943	927.44
439.165	738.44
439.386	665.44
439.608	652.44
439.829	677.44
440.05	697.44
440.272	771.44
440.493	705.44
440.715	644.44
440.936	614.44
441.158	606.44
441.379	615.44
441.6	642.44
441.822	651.44
442.043	688.44
442.264	797.44
442.486	827.44
442.707	735.44
442.928	684.44
443.149	695.44
443.371	727.44
443.592	734.44
443.813	853.44
444.034	965.44
444.255	769.44
444.476	726.44
444.698	669.44
444.919	678.44
445.14	769.44
445.361	717.44
445.582	726.44
445.803	774.44
446.024	903.44
446.245	925.44
446.466	847.44
446.687	720.44
446.908	663.44
447.129	607.44
447.35	574.44
447.571	576.44
447.792	602.44
448.013	617.44
448.234	633.44
448.455	694.44
448.675	800.44
448.896	939.44
449.117	819.44
449.338	752.44
449.559	873.44
449.779	994.44
450	802.44
450.221	662.44
450.442	627.44
450.662	596.44
450.883	598.44
451.104	624.44
451.324	595.44
451.545	563.44
451.766	544.44
451.986	551.44
452.207	544.44
452.428	521.44
452.648	521.44
452.869	533.44
453.089	550.44
453.31	557.44
453.53	529.44
453.751	557.44
453.971	562.44
454.192	571.44
454.412	565.44
454.633	535.44
454.853	513.44
455.073	488.44
455.294	547.44
455.514	656.44
455.734	618.44
455.955	553.44
456.175	528.44
456.395	527.44
456.616	516.44
456.836	519.44
457.056	509.44
457.276	503.44
457.497	504.44
457.717	518.44
457.937	511.44
458.157	534.44
458.377	525.44
458.598	543.44
458.818	609.44
459.038	707.44
459.258	711.44
459.478	630.44
459.698	599.44
459.918	581.44
460.138	578.44
460.358	603.44
460.578	588.44
460.798	553.44
461.018	576.44
461.238	575.44
461.458	591.44
461.678	591.44
461.898	590.44
462.118	593.44
462.338	614.44
462.558	629.44
462.777	608.44
462.997	613.44
463.217	639.44
463.437	649.44
463.657	615.44
463.876	612.44
464.096	635.44
464.316	633.44
464.536	631.44
464.755	619.44
464.975	642.44
465.195	683.44
465.414	754.44
465.634	657.44
465.854	631.44
466.073	617.44
466.293	582.44
466.512	543.44
466.732	558.44
466.951	529.44
467.171	533.44
467.391	561.44
467.61	548.44
467.829	568.44
468.049	584.44
468.268	539.44
468.488	526.44
468.707	561.44
468.927	534.44
469.146	539.44
469.365	569.44
469.585	553.44
469.804	543.44
470.023	563.44
470.243	560.44
470.462	555.44
470.681	566.44
470.901	586.44
471.12	577.44
471.339	569.44
471.558	564.44
471.777	571.44
471.997	564.44
472.216	555.44
472.435	565.44
472.654	552.44
472.873	518.44
473.092	520.44
473.311	560.44
473.53	560.44
473.749	583.44
473.968	612.44
474.187	706.44
474.406	740.44
474.625	623.44
474.844	608.44
475.063	569.44
475.282	559.44
475.501	589.44
475.72	568.44
475.939	565.44
476.158	594.44
476.377	591.44
476.596	567.44
476.814	581.44
477.033	579.44
477.252	598.44
477.471	601.44
477.69	596.44
477.908	601.44
478.127	624.44
478.346	624.44
478.564	625.44
478.783	632.44
479.002	627.44
479.22	646.44
479.439	661.44
479.658	690.44
479.876	681.44
480.095	687.44
480.313	708.44
480.532	690.44
480.751	693.44
480.969	712.44
481.188	710.44
481.406	701.44
481.624	670.44
481.843	660.44
482.061	663.44
482.28	675.44
482.498	659.44
482.717	651.44
482.935	649.44
483.153	666.44
483.372	645.44
483.59	650.44
483.808	662.44
484.027	669.44
484.245	671.44
484.463	662.44
484.681	674.44
484.9	650.44
485.118	662.44
485.336	693.44
485.554	680.44
485.772	663.44
485.99	692.44
486.209	662.44
486.427	703.44
486.645	681.44
486.863	730.44
487.081	710.44
487.299	694.44
487.517	704.44
487.735	699.44
487.953	709.44
488.171	724.44
488.389	706.44
488.607	712.44
488.825	718.44
489.043	691.44
489.261	720.44
489.479	718.44
489.696	718.44
489.914	725.44
490.132	719.44
490.35	744.44
490.568	747.44
490.786	765.44
491.003	781.44
491.221	784.44
491.439	775.44
491.657	801.44
491.874	825.44
492.092	814.44
492.31	802.44
492.527	815.44
492.745	811.44
492.963	813.44
493.18	820.44
493.398	814.44
493.615	846.44
493.833	831.44
494.05	837.44
494.268	832.44
494.485	813.44
494.703	846.44
494.92	841.44
495.138	827.44
495.355	831.44
495.573	855.44
495.79	857.44
496.008	847.44
496.225	853.44
496.442	832.44
496.66	855.44
496.877	811.44
497.094	864.44
497.312	874.44
497.529	857.44
497.746	883.44
497.963	856.44
498.181	913.44
498.398	931.44
498.615	967.44
498.832	962.44
499.049	972.44
499.267	1005.44
499.484	1053.44
499.701	1085.44
499.918	1111.44
500.135	1120.44
500.352	1198.44
500.569	1210.44
500.786	1208.44
501.003	1214.44
501.22	1147.44
501.437	1172.44
501.654	1108.44
501.871	1110.44
