Data from 1988.PennyLincolnUp.Lamp.En5.5.200Scan.071819.P2_HRD10591_17-19-16-972.txt Node
Date: Thu Jul 18 17:19:16 EDT 2019
User: cochatt
Spectrometer: HR+D1059
Trigger mode: 1
Integration Time (sec): 1.000000E-1
Scans to average: 1
Electric dark correction enabled: true
Nonlinearity correction enabled: false
Boxcar width: 0
XAxis mode: Wavelengths
Number of Pixels in Spectrum: 2048
>>>>>Begin Spectral Data<<<<<
223.165	-14.06
223.4	-14.06
223.635	-14.06
223.869	-15.06
224.104	-13.06
224.338	-16.06
224.573	-9.06
224.808	-16.06
225.042	-6.06
225.277	-14.06
225.511	-14.06
225.746	-6.06
225.98	13.94
226.215	23.94
226.449	19.94
226.683	23.94
226.918	11.94
227.152	29.94
227.387	39.94
227.621	36.94
227.856	45.94
228.09	53.94
228.324	49.94
228.559	55.94
228.793	60.94
229.027	98.94
229.262	100.94
229.496	115.94
229.73	133.94
229.964	155.94
230.199	137.94
230.433	134.94
230.667	109.94
230.901	100.94
231.136	107.94
231.37	121.94
231.604	114.94
231.838	101.94
232.072	108.94
232.306	119.94
232.541	107.94
232.775	103.94
233.009	104.94
233.243	127.94
233.477	121.94
233.711	112.94
233.945	122.94
234.179	116.94
234.413	119.94
234.647	112.94
234.881	107.94
235.115	118.94
235.349	114.94
235.583	130.94
235.817	128.94
236.051	127.94
236.285	123.94
236.519	123.94
236.753	146.94
236.987	138.94
237.221	161.94
237.455	227.94
237.689	202.94
237.922	131.94
238.156	122.94
238.39	123.94
238.624	119.94
238.858	125.94
239.091	108.94
239.325	137.94
239.559	135.94
239.793	124.94
240.027	149.94
240.26	133.94
240.494	169.94
240.728	164.94
240.961	169.94
241.195	130.94
241.429	147.94
241.662	147.94
241.896	139.94
242.13	142.94
242.363	123.94
242.597	140.94
242.83	126.94
243.064	132.94
243.298	138.94
243.531	123.94
243.765	135.94
243.998	127.94
244.232	156.94
244.465	142.94
244.699	138.94
244.932	153.94
245.166	137.94
245.399	135.94
245.633	128.94
245.866	149.94
246.099	139.94
246.333	153.94
246.566	156.94
246.8	140.94
247.033	151.94
247.266	150.94
247.5	169.94
247.733	161.94
247.966	175.94
248.2	155.94
248.433	173.94
248.666	166.94
248.899	192.94
249.133	186.94
249.366	221.94
249.599	185.94
249.832	187.94
250.066	183.94
250.299	190.94
250.532	170.94
250.765	209.94
250.998	215.94
251.231	230.94
251.465	234.94
251.698	197.94
251.931	186.94
252.164	192.94
252.397	185.94
252.63	204.94
252.863	200.94
253.096	202.94
253.329	205.94
253.562	237.94
253.795	213.94
254.028	223.94
254.261	214.94
254.494	205.94
254.727	253.94
254.96	258.94
255.193	251.94
255.426	231.94
255.659	222.94
255.892	205.94
256.124	217.94
256.357	221.94
256.59	191.94
256.823	196.94
257.056	194.94
257.289	204.94
257.521	193.94
257.754	194.94
257.987	201.94
258.22	221.94
258.452	195.94
258.685	189.94
258.918	214.94
259.151	201.94
259.383	213.94
259.616	223.94
259.849	225.94
260.081	241.94
260.314	238.94
260.547	255.94
260.779	255.94
261.012	223.94
261.244	226.94
261.477	222.94
261.71	217.94
261.942	225.94
262.175	234.94
262.407	242.94
262.64	216.94
262.872	221.94
263.105	188.94
263.337	222.94
263.57	207.94
263.802	205.94
264.035	227.94
264.267	201.94
264.499	201.94
264.732	217.94
264.964	218.94
265.197	213.94
265.429	214.94
265.661	212.94
265.894	226.94
266.126	218.94
266.358	215.94
266.591	223.94
266.823	233.94
267.055	231.94
267.287	237.94
267.52	227.94
267.752	231.94
267.984	215.94
268.216	219.94
268.448	215.94
268.681	245.94
268.913	247.94
269.145	248.94
269.377	275.94
269.609	259.94
269.841	266.94
270.073	283.94
270.306	279.94
270.538	323.94
270.77	310.94
271.002	298.94
271.234	289.94
271.466	287.94
271.698	293.94
271.93	322.94
272.162	309.94
272.394	320.94
272.626	298.94
272.858	298.94
273.09	270.94
273.322	265.94
273.553	266.94
273.785	268.94
274.017	267.94
274.249	279.94
274.481	263.94
274.713	265.94
274.945	266.94
275.176	265.94
275.408	272.94
275.64	278.94
275.872	275.94
276.104	268.94
276.335	261.94
276.567	284.94
276.799	290.94
277.031	298.94
277.262	324.94
277.494	322.94
277.726	293.94
277.957	267.94
278.189	293.94
278.421	268.94
278.652	270.94
278.884	266.94
279.115	282.94
279.347	259.94
279.579	265.94
279.81	255.94
280.042	273.94
280.273	278.94
280.505	286.94
280.736	269.94
280.968	270.94
281.199	252.94
281.431	270.94
281.662	273.94
281.894	265.94
282.125	253.94
282.356	279.94
282.588	317.94
282.819	328.94
283.051	291.94
283.282	297.94
283.513	285.94
283.745	293.94
283.976	294.94
284.207	261.94
284.439	283.94
284.67	285.94
284.901	271.94
285.132	285.94
285.364	276.94
285.595	281.94
285.826	268.94
286.057	271.94
286.288	293.94
286.52	269.94
286.751	283.94
286.982	272.94
287.213	306.94
287.444	288.94
287.675	285.94
287.906	317.94
288.138	295.94
288.369	310.94
288.6	307.94
288.831	302.94
289.062	286.94
289.293	286.94
289.524	305.94
289.755	293.94
289.986	308.94
290.217	308.94
290.448	290.94
290.679	300.94
290.91	284.94
291.141	291.94
291.371	299.94
291.602	297.94
291.833	306.94
292.064	283.94
292.295	323.94
292.526	300.94
292.757	310.94
292.987	293.94
293.218	300.94
293.449	305.94
293.68	296.94
293.91	321.94
294.141	298.94
294.372	292.94
294.603	296.94
294.833	302.94
295.064	302.94
295.295	303.94
295.525	300.94
295.756	318.94
295.987	315.94
296.217	339.94
296.448	338.94
296.679	332.94
296.909	301.94
297.14	311.94
297.37	305.94
297.601	274.94
297.831	302.94
298.062	319.94
298.292	318.94
298.523	325.94
298.753	336.94
298.984	315.94
299.214	314.94
299.445	309.94
299.675	309.94
299.905	319.94
300.136	347.94
300.366	320.94
300.597	334.94
300.827	321.94
301.057	338.94
301.288	344.94
301.518	335.94
301.748	345.94
301.979	349.94
302.209	346.94
302.439	340.94
302.669	321.94
302.9	356.94
303.13	356.94
303.36	353.94
303.59	337.94
303.82	335.94
304.051	351.94
304.281	330.94
304.511	333.94
304.741	313.94
304.971	334.94
305.201	342.94
305.431	338.94
305.661	324.94
305.891	331.94
306.121	323.94
306.352	352.94
306.582	353.94
306.812	359.94
307.042	341.94
307.272	349.94
307.502	330.94
307.731	347.94
307.961	341.94
308.191	344.94
308.421	342.94
308.651	339.94
308.881	356.94
309.111	339.94
309.341	356.94
309.571	356.94
309.8	364.94
310.03	391.94
310.26	385.94
310.49	402.94
310.72	376.94
310.949	389.94
311.179	411.94
311.409	390.94
311.639	385.94
311.868	373.94
312.098	393.94
312.328	387.94
312.557	412.94
312.787	437.94
313.017	423.94
313.246	423.94
313.476	389.94
313.706	395.94
313.935	381.94
314.165	424.94
314.394	419.94
314.624	408.94
314.853	403.94
315.083	399.94
315.312	393.94
315.542	384.94
315.771	393.94
316.001	390.94
316.23	376.94
316.46	395.94
316.689	412.94
316.919	420.94
317.148	418.94
317.377	390.94
317.607	395.94
317.836	395.94
318.065	399.94
318.295	411.94
318.524	403.94
318.753	385.94
318.983	380.94
319.212	383.94
319.441	413.94
319.67	412.94
319.9	401.94
320.129	388.94
320.358	394.94
320.587	406.94
320.816	395.94
321.046	424.94
321.275	425.94
321.504	424.94
321.733	425.94
321.962	421.94
322.191	432.94
322.42	467.94
322.649	458.94
322.878	469.94
323.108	485.94
323.337	503.94
323.566	521.94
323.795	563.94
324.024	593.94
324.253	732.94
324.482	1023.94
324.71	1610.94
324.939	2348.94
325.168	2000.94
325.397	1059.94
325.626	705.94
325.855	598.94
326.084	553.94
326.313	548.94
326.542	535.94
326.77	590.94
326.999	693.94
327.228	945.94
327.457	1437.94
327.686	1719.94
327.914	1151.94
328.143	761.94
328.372	629.94
328.6	611.94
328.829	584.94
329.058	565.94
329.287	597.94
329.515	580.94
329.744	533.94
329.972	499.94
330.201	518.94
330.43	533.94
330.658	602.94
330.887	656.94
331.115	612.94
331.344	531.94
331.572	492.94
331.801	493.94
332.03	514.94
332.258	510.94
332.486	487.94
332.715	471.94
332.943	461.94
333.172	463.94
333.4	477.94
333.629	486.94
333.857	485.94
334.085	483.94
334.314	471.94
334.542	516.94
334.771	463.94
334.999	467.94
335.227	474.94
335.455	464.94
335.684	481.94
335.912	460.94
336.14	467.94
336.369	469.94
336.597	484.94
336.825	471.94
337.053	471.94
337.281	450.94
337.51	455.94
337.738	466.94
337.966	451.94
338.194	466.94
338.422	468.94
338.65	462.94
338.878	449.94
339.106	442.94
339.334	441.94
339.562	437.94
339.79	423.94
340.018	455.94
340.246	446.94
340.474	456.94
340.702	431.94
340.93	407.94
341.158	467.94
341.386	449.94
341.614	434.94
341.842	447.94
342.07	453.94
342.298	438.94
342.526	441.94
342.754	435.94
342.981	427.94
343.209	446.94
343.437	429.94
343.665	436.94
343.893	458.94
344.12	449.94
344.348	467.94
344.576	461.94
344.804	460.94
345.031	460.94
345.259	459.94
345.487	455.94
345.714	457.94
345.942	440.94
346.17	455.94
346.397	428.94
346.625	449.94
346.853	425.94
347.08	422.94
347.308	453.94
347.535	444.94
347.763	437.94
347.99	462.94
348.218	436.94
348.445	444.94
348.673	447.94
348.9	443.94
349.128	435.94
349.355	437.94
349.583	411.94
349.81	445.94
350.037	420.94
350.265	435.94
350.492	442.94
350.72	416.94
350.947	425.94
351.174	443.94
351.402	453.94
351.629	451.94
351.856	422.94
352.083	445.94
352.311	459.94
352.538	440.94
352.765	455.94
352.992	474.94
353.22	440.94
353.447	435.94
353.674	436.94
353.901	409.94
354.128	409.94
354.355	431.94
354.583	423.94
354.81	398.94
355.037	398.94
355.264	404.94
355.491	405.94
355.718	414.94
355.945	405.94
356.172	412.94
356.399	413.94
356.626	397.94
356.853	398.94
357.08	407.94
357.307	406.94
357.534	393.94
357.761	413.94
357.988	407.94
358.215	391.94
358.441	406.94
358.668	404.94
358.895	407.94
359.122	426.94
359.349	426.94
359.576	428.94
359.802	460.94
360.029	479.94
360.256	488.94
360.483	473.94
360.709	458.94
360.936	435.94
361.163	441.94
361.39	447.94
361.616	464.94
361.843	444.94
362.07	441.94
362.296	437.94
362.523	456.94
362.749	438.94
362.976	439.94
363.203	441.94
363.429	426.94
363.656	404.94
363.882	417.94
364.109	431.94
364.335	421.94
364.562	435.94
364.788	413.94
365.015	414.94
365.241	422.94
365.468	402.94
365.694	432.94
365.92	430.94
366.147	425.94
366.373	427.94
366.599	414.94
366.826	401.94
367.052	428.94
367.278	420.94
367.505	428.94
367.731	409.94
367.957	401.94
368.184	420.94
368.41	429.94
368.636	457.94
368.862	419.94
369.089	437.94
369.315	418.94
369.541	423.94
369.767	433.94
369.993	428.94
370.219	428.94
370.445	419.94
370.672	406.94
370.898	406.94
371.124	411.94
371.35	435.94
371.576	418.94
371.802	403.94
372.028	433.94
372.254	417.94
372.48	418.94
372.706	422.94
372.932	409.94
373.158	436.94
373.384	428.94
373.61	431.94
373.835	423.94
374.061	417.94
374.287	419.94
374.513	418.94
374.739	423.94
374.965	439.94
375.191	440.94
375.416	431.94
375.642	445.94
375.868	429.94
376.094	426.94
376.319	400.94
376.545	415.94
376.771	395.94
376.997	387.94
377.222	426.94
377.448	412.94
377.674	400.94
377.899	417.94
378.125	414.94
378.35	385.94
378.576	413.94
378.802	427.94
379.027	430.94
379.253	419.94
379.478	414.94
379.704	413.94
379.929	433.94
380.155	412.94
380.38	399.94
380.606	435.94
380.831	428.94
381.057	429.94
381.282	423.94
381.507	423.94
381.733	445.94
381.958	405.94
382.184	418.94
382.409	445.94
382.634	438.94
382.86	447.94
383.085	432.94
383.31	431.94
383.535	419.94
383.761	420.94
383.986	448.94
384.211	428.94
384.436	449.94
384.662	432.94
384.887	439.94
385.112	441.94
385.337	454.94
385.562	457.94
385.787	454.94
386.013	457.94
386.238	455.94
386.463	467.94
386.688	469.94
386.913	463.94
387.138	448.94
387.363	437.94
387.588	430.94
387.813	451.94
388.038	452.94
388.263	467.94
388.488	449.94
388.713	469.94
388.938	458.94
389.163	474.94
389.387	469.94
389.612	446.94
389.837	466.94
390.062	459.94
390.287	465.94
390.512	450.94
390.736	451.94
390.961	461.94
391.186	463.94
391.411	476.94
391.636	466.94
391.86	472.94
392.085	481.94
392.31	463.94
392.534	473.94
392.759	487.94
392.984	468.94
393.208	473.94
393.433	462.94
393.658	470.94
393.882	455.94
394.107	454.94
394.331	459.94
394.556	457.94
394.78	465.94
395.005	482.94
395.229	467.94
395.454	497.94
395.678	474.94
395.903	494.94
396.127	507.94
396.352	520.94
396.576	489.94
396.801	490.94
397.025	470.94
397.249	480.94
397.474	510.94
397.698	484.94
397.922	513.94
398.147	515.94
398.371	544.94
398.595	516.94
398.82	528.94
399.044	520.94
399.268	528.94
399.492	589.94
399.717	633.94
399.941	644.94
400.165	668.94
400.389	643.94
400.613	627.94
400.837	551.94
401.062	558.94
401.286	570.94
401.51	564.94
401.734	534.94
401.958	547.94
402.182	547.94
402.406	567.94
402.63	575.94
402.854	537.94
403.078	538.94
403.302	550.94
403.526	522.94
403.75	562.94
403.974	557.94
404.198	561.94
404.422	566.94
404.645	568.94
404.869	559.94
405.093	584.94
405.317	631.94
405.541	631.94
405.765	590.94
405.988	571.94
406.212	585.94
406.436	601.94
406.66	606.94
406.883	602.94
407.107	622.94
407.331	667.94
407.555	733.94
407.778	705.94
408.002	665.94
408.226	620.94
408.449	597.94
408.673	589.94
408.896	632.94
409.12	695.94
409.344	639.94
409.567	592.94
409.791	587.94
410.014	561.94
410.238	573.94
410.461	521.94
410.685	558.94
410.908	563.94
411.132	609.94
411.355	636.94
411.578	605.94
411.802	573.94
412.025	552.94
412.249	549.94
412.472	527.94
412.695	565.94
412.919	566.94
413.142	537.94
413.365	521.94
413.589	515.94
413.812	502.94
414.035	527.94
414.258	520.94
414.482	497.94
414.705	514.94
414.928	509.94
415.151	515.94
415.374	517.94
415.597	524.94
415.821	505.94
416.044	489.94
416.267	515.94
416.49	512.94
416.713	497.94
416.936	519.94
417.159	503.94
417.382	522.94
417.605	549.94
417.828	531.94
418.051	542.94
418.274	522.94
418.497	497.94
418.72	489.94
418.943	518.94
419.166	540.94
419.389	571.94
419.611	547.94
419.834	531.94
420.057	551.94
420.28	522.94
420.503	527.94
420.726	528.94
420.948	548.94
421.171	603.94
421.394	621.94
421.617	554.94
421.839	564.94
422.062	539.94
422.285	551.94
422.507	608.94
422.73	703.94
422.953	679.94
423.175	582.94
423.398	575.94
423.621	539.94
423.843	593.94
424.066	598.94
424.288	591.94
424.511	601.94
424.733	660.94
424.956	747.94
425.178	707.94
425.401	699.94
425.623	732.94
425.846	622.94
426.068	614.94
426.291	579.94
426.513	577.94
426.735	597.94
426.958	647.94
427.18	705.94
427.402	856.94
427.625	941.94
427.847	831.94
428.069	672.94
428.292	622.94
428.514	594.94
428.736	562.94
428.958	531.94
429.181	517.94
429.403	541.94
429.625	541.94
429.847	588.94
430.069	635.94
430.292	670.94
430.514	589.94
430.736	539.94
430.958	541.94
431.18	519.94
431.402	524.94
431.624	506.94
431.846	507.94
432.068	500.94
432.29	498.94
432.512	507.94
432.734	495.94
432.956	509.94
433.178	531.94
433.4	539.94
433.622	522.94
433.844	540.94
434.066	506.94
434.287	498.94
434.509	520.94
434.731	515.94
434.953	517.94
435.175	529.94
435.397	581.94
435.618	561.94
435.84	618.94
436.062	721.94
436.284	812.94
436.505	657.94
436.727	603.94
436.949	578.94
437.17	547.94
437.392	530.94
437.614	542.94
437.835	578.94
438.057	667.94
438.278	776.94
438.5	799.94
438.721	858.94
438.943	831.94
439.165	671.94
439.386	597.94
439.608	606.94
439.829	593.94
440.05	602.94
440.272	656.94
440.493	631.94
440.715	570.94
440.936	556.94
441.158	541.94
441.379	550.94
441.6	553.94
441.822	587.94
442.043	616.94
442.264	700.94
442.486	772.94
442.707	631.94
442.928	606.94
443.149	611.94
443.371	627.94
443.592	676.94
443.813	773.94
444.034	846.94
444.255	694.94
444.476	625.94
444.698	612.94
444.919	594.94
445.14	676.94
445.361	617.94
445.582	626.94
445.803	703.94
446.024	808.94
446.245	809.94
446.466	737.94
446.687	629.94
446.908	599.94
447.129	546.94
447.35	546.94
447.571	528.94
447.792	526.94
448.013	534.94
448.234	558.94
448.455	630.94
448.675	728.94
448.896	836.94
449.117	729.94
449.338	659.94
449.559	798.94
449.779	917.94
450	707.94
450.221	590.94
450.442	554.94
450.662	506.94
450.883	540.94
451.104	569.94
451.324	538.94
451.545	515.94
451.766	507.94
451.986	501.94
452.207	473.94
452.428	451.94
452.648	485.94
452.869	478.94
453.089	495.94
453.31	499.94
453.53	501.94
453.751	476.94
453.971	498.94
454.192	511.94
454.412	495.94
454.633	507.94
454.853	490.94
455.073	486.94
455.294	520.94
455.514	611.94
455.734	555.94
455.955	477.94
456.175	480.94
456.395	462.94
456.616	446.94
456.836	460.94
457.056	439.94
457.276	427.94
457.497	453.94
457.717	466.94
457.937	457.94
458.157	477.94
458.377	480.94
458.598	495.94
458.818	549.94
459.038	633.94
459.258	661.94
459.478	561.94
459.698	533.94
459.918	542.94
460.138	506.94
460.358	521.94
460.578	523.94
460.798	523.94
461.018	554.94
461.238	526.94
461.458	515.94
461.678	513.94
461.898	535.94
462.118	523.94
462.338	528.94
462.558	542.94
462.777	556.94
462.997	552.94
463.217	574.94
463.437	565.94
463.657	552.94
463.876	551.94
464.096	569.94
464.316	552.94
464.536	590.94
464.755	550.94
464.975	572.94
465.195	587.94
465.414	670.94
465.634	605.94
465.854	552.94
466.073	537.94
466.293	493.94
466.512	506.94
466.732	485.94
466.951	521.94
467.171	501.94
467.391	515.94
467.61	531.94
467.829	527.94
468.049	523.94
468.268	488.94
468.488	515.94
468.707	493.94
468.927	474.94
469.146	468.94
469.365	487.94
469.585	497.94
469.804	505.94
470.023	509.94
470.243	506.94
470.462	515.94
470.681	539.94
470.901	532.94
471.12	495.94
471.339	524.94
471.558	530.94
471.777	498.94
471.997	505.94
472.216	490.94
472.435	501.94
472.654	497.94
472.873	474.94
473.092	508.94
473.311	505.94
473.53	503.94
473.749	518.94
473.968	531.94
474.187	653.94
474.406	677.94
474.625	580.94
474.844	527.94
475.063	518.94
475.282	514.94
475.501	501.94
475.72	511.94
475.939	531.94
476.158	526.94
476.377	521.94
476.596	521.94
476.814	522.94
477.033	545.94
477.252	553.94
477.471	539.94
477.69	562.94
477.908	554.94
478.127	541.94
478.346	537.94
478.564	558.94
478.783	565.94
479.002	572.94
479.22	613.94
479.439	595.94
479.658	629.94
479.876	613.94
480.095	604.94
480.313	645.94
480.532	621.94
480.751	605.94
480.969	611.94
481.188	625.94
481.406	638.94
481.624	627.94
481.843	587.94
482.061	597.94
482.28	607.94
482.498	598.94
482.717	589.94
482.935	601.94
483.153	601.94
483.372	609.94
483.59	600.94
483.808	586.94
484.027	591.94
484.245	586.94
484.463	583.94
484.681	592.94
484.9	586.94
485.118	626.94
485.336	603.94
485.554	609.94
485.772	601.94
485.99	611.94
486.209	633.94
486.427	611.94
486.645	632.94
486.863	653.94
487.081	637.94
487.299	626.94
487.517	641.94
487.735	638.94
487.953	645.94
488.171	633.94
488.389	637.94
488.607	616.94
488.825	637.94
489.043	649.94
489.261	626.94
489.479	633.94
489.696	643.94
489.914	653.94
490.132	638.94
490.35	635.94
490.568	667.94
490.786	674.94
491.003	689.94
491.221	679.94
491.439	686.94
491.657	710.94
491.874	707.94
492.092	718.94
492.31	692.94
492.527	741.94
492.745	718.94
492.963	717.94
493.18	730.94
493.398	734.94
493.615	732.94
493.833	724.94
494.05	727.94
494.268	737.94
494.485	740.94
494.703	730.94
494.92	742.94
495.138	750.94
495.355	745.94
495.573	747.94
495.79	720.94
496.008	771.94
496.225	787.94
496.442	758.94
496.66	776.94
496.877	743.94
497.094	771.94
497.312	785.94
497.529	812.94
497.746	773.94
497.963	828.94
498.181	799.94
498.398	851.94
498.615	839.94
498.832	879.94
499.049	906.94
499.267	873.94
499.484	917.94
499.701	921.94
499.918	971.94
500.135	1025.94
500.352	1052.94
500.569	1053.94
500.786	1068.94
501.003	1061.94
501.22	1008.94
501.437	965.94
501.654	980.94
501.871	981.94
