Data from 1988.PennyLincolnUp.Lamp.En5.5.200Scan.071819.P2_HRD10591_17-21-24-972.txt Node
Date: Thu Jul 18 17:21:24 EDT 2019
User: cochatt
Spectrometer: HR+D1059
Trigger mode: 1
Integration Time (sec): 1.000000E-1
Scans to average: 1
Electric dark correction enabled: true
Nonlinearity correction enabled: false
Boxcar width: 0
XAxis mode: Wavelengths
Number of Pixels in Spectrum: 2048
>>>>>Begin Spectral Data<<<<<
223.165	-20.12
223.4	-20.12
223.635	-20.12
223.869	-21.12
224.104	-17.12
224.338	-15.12
224.573	-15.12
224.808	-23.12
225.042	1.88
225.277	4.88
225.511	-7.12
225.746	-7.12
225.98	10.88
226.215	13.88
226.449	8.88
226.683	24.88
226.918	24.88
227.152	35.88
227.387	22.88
227.621	30.88
227.856	44.88
228.09	44.88
228.324	48.88
228.559	53.88
228.793	77.88
229.027	106.88
229.262	100.88
229.496	130.88
229.73	142.88
229.964	156.88
230.199	152.88
230.433	132.88
230.667	120.88
230.901	124.88
231.136	126.88
231.37	105.88
231.604	103.88
231.838	134.88
232.072	119.88
232.306	123.88
232.541	135.88
232.775	122.88
233.009	124.88
233.243	124.88
233.477	122.88
233.711	123.88
233.945	121.88
234.179	129.88
234.413	128.88
234.647	118.88
234.881	108.88
235.115	123.88
235.349	124.88
235.583	129.88
235.817	122.88
236.051	139.88
236.285	132.88
236.519	139.88
236.753	136.88
236.987	150.88
237.221	208.88
237.455	271.88
237.689	206.88
237.922	160.88
238.156	144.88
238.39	150.88
238.624	132.88
238.858	128.88
239.091	132.88
239.325	139.88
239.559	130.88
239.793	138.88
240.027	134.88
240.26	156.88
240.494	181.88
240.728	167.88
240.961	163.88
241.195	153.88
241.429	173.88
241.662	138.88
241.896	141.88
242.13	153.88
242.363	146.88
242.597	148.88
242.83	139.88
243.064	145.88
243.298	144.88
243.531	151.88
243.765	154.88
243.998	171.88
244.232	166.88
244.465	155.88
244.699	160.88
244.932	165.88
245.166	169.88
245.399	165.88
245.633	151.88
245.866	168.88
246.099	154.88
246.333	148.88
246.566	149.88
246.8	171.88
247.033	169.88
247.266	157.88
247.5	170.88
247.733	182.88
247.966	186.88
248.2	184.88
248.433	189.88
248.666	185.88
248.899	189.88
249.133	216.88
249.366	224.88
249.599	206.88
249.832	202.88
250.066	187.88
250.299	180.88
250.532	200.88
250.765	228.88
250.998	236.88
251.231	233.88
251.465	223.88
251.698	230.88
251.931	233.88
252.164	210.88
252.397	211.88
252.63	210.88
252.863	227.88
253.096	228.88
253.329	246.88
253.562	262.88
253.795	235.88
254.028	240.88
254.261	235.88
254.494	245.88
254.727	266.88
254.96	322.88
255.193	297.88
255.426	284.88
255.659	268.88
255.892	247.88
256.124	248.88
256.357	244.88
256.59	242.88
256.823	251.88
257.056	220.88
257.289	229.88
257.521	233.88
257.754	225.88
257.987	217.88
258.22	226.88
258.452	248.88
258.685	231.88
258.918	223.88
259.151	238.88
259.383	263.88
259.616	246.88
259.849	251.88
260.081	264.88
260.314	270.88
260.547	282.88
260.779	256.88
261.012	250.88
261.244	255.88
261.477	259.88
261.71	246.88
261.942	253.88
262.175	250.88
262.407	267.88
262.64	241.88
262.872	240.88
263.105	227.88
263.337	238.88
263.57	219.88
263.802	236.88
264.035	244.88
264.267	246.88
264.499	222.88
264.732	229.88
264.964	229.88
265.197	228.88
265.429	233.88
265.661	211.88
265.894	225.88
266.126	214.88
266.358	222.88
266.591	228.88
266.823	255.88
267.055	256.88
267.287	241.88
267.52	253.88
267.752	230.88
267.984	255.88
268.216	261.88
268.448	258.88
268.681	255.88
268.913	280.88
269.145	293.88
269.377	291.88
269.609	292.88
269.841	290.88
270.073	301.88
270.306	310.88
270.538	351.88
270.77	360.88
271.002	326.88
271.234	325.88
271.466	329.88
271.698	331.88
271.93	343.88
272.162	364.88
272.394	341.88
272.626	332.88
272.858	320.88
273.09	314.88
273.322	315.88
273.553	280.88
273.785	283.88
274.017	275.88
274.249	288.88
274.481	294.88
274.713	303.88
274.945	306.88
275.176	288.88
275.408	292.88
275.64	290.88
275.872	291.88
276.104	289.88
276.335	297.88
276.567	300.88
276.799	313.88
277.031	332.88
277.262	337.88
277.494	358.88
277.726	318.88
277.957	300.88
278.189	312.88
278.421	301.88
278.652	312.88
278.884	304.88
279.115	284.88
279.347	296.88
279.579	305.88
279.81	304.88
280.042	301.88
280.273	294.88
280.505	280.88
280.736	286.88
280.968	290.88
281.199	304.88
281.431	293.88
281.662	293.88
281.894	305.88
282.125	306.88
282.356	322.88
282.588	342.88
282.819	338.88
283.051	321.88
283.282	318.88
283.513	316.88
283.745	323.88
283.976	313.88
284.207	295.88
284.439	324.88
284.67	313.88
284.901	301.88
285.132	315.88
285.364	305.88
285.595	316.88
285.826	309.88
286.057	300.88
286.288	304.88
286.52	308.88
286.751	306.88
286.982	315.88
287.213	322.88
287.444	319.88
287.675	323.88
287.906	338.88
288.138	340.88
288.369	339.88
288.6	345.88
288.831	328.88
289.062	337.88
289.293	326.88
289.524	293.88
289.755	313.88
289.986	332.88
290.217	332.88
290.448	321.88
290.679	305.88
290.91	329.88
291.141	320.88
291.371	315.88
291.602	334.88
291.833	312.88
292.064	325.88
292.295	323.88
292.526	328.88
292.757	322.88
292.987	321.88
293.218	321.88
293.449	330.88
293.68	325.88
293.91	326.88
294.141	321.88
294.372	327.88
294.603	309.88
294.833	316.88
295.064	334.88
295.295	323.88
295.525	336.88
295.756	352.88
295.987	336.88
296.217	368.88
296.448	400.88
296.679	328.88
296.909	321.88
297.14	336.88
297.37	333.88
297.601	324.88
297.831	341.88
298.062	336.88
298.292	365.88
298.523	341.88
298.753	345.88
298.984	327.88
299.214	361.88
299.445	339.88
299.675	365.88
299.905	359.88
300.136	368.88
300.366	369.88
300.597	363.88
300.827	364.88
301.057	350.88
301.288	350.88
301.518	368.88
301.748	344.88
301.979	368.88
302.209	374.88
302.439	365.88
302.669	382.88
302.9	382.88
303.13	362.88
303.36	370.88
303.59	371.88
303.82	396.88
304.051	377.88
304.281	389.88
304.511	374.88
304.741	387.88
304.971	378.88
305.201	361.88
305.431	389.88
305.661	371.88
305.891	370.88
306.121	371.88
306.352	366.88
306.582	380.88
306.812	364.88
307.042	373.88
307.272	379.88
307.502	377.88
307.731	385.88
307.961	370.88
308.191	379.88
308.421	380.88
308.651	392.88
308.881	368.88
309.111	397.88
309.341	397.88
309.571	421.88
309.8	377.88
310.03	423.88
310.26	430.88
310.49	434.88
310.72	419.88
310.949	438.88
311.179	460.88
311.409	448.88
311.639	443.88
311.868	435.88
312.098	441.88
312.328	439.88
312.557	465.88
312.787	468.88
313.017	461.88
313.246	438.88
313.476	464.88
313.706	414.88
313.935	435.88
314.165	435.88
314.394	456.88
314.624	454.88
314.853	437.88
315.083	434.88
315.312	438.88
315.542	448.88
315.771	431.88
316.001	430.88
316.23	431.88
316.46	435.88
316.689	449.88
316.919	432.88
317.148	453.88
317.377	434.88
317.607	428.88
317.836	440.88
318.065	429.88
318.295	416.88
318.524	416.88
318.753	404.88
318.983	424.88
319.212	437.88
319.441	438.88
319.67	451.88
319.9	430.88
320.129	429.88
320.358	444.88
320.587	464.88
320.816	455.88
321.046	475.88
321.275	483.88
321.504	474.88
321.733	468.88
321.962	474.88
322.191	489.88
322.42	492.88
322.649	520.88
322.878	508.88
323.108	552.88
323.337	549.88
323.566	573.88
323.795	606.88
324.024	682.88
324.253	831.88
324.482	1175.88
324.71	1845.88
324.939	2772.88
325.168	2340.88
325.397	1164.88
325.626	809.88
325.855	668.88
326.084	610.88
326.313	585.88
326.542	597.88
326.77	637.88
326.999	737.88
327.228	1048.88
327.457	1635.88
327.686	2094.88
327.914	1314.88
328.143	845.88
328.372	728.88
328.6	687.88
328.829	648.88
329.058	661.88
329.287	682.88
329.515	619.88
329.744	573.88
329.972	572.88
330.201	580.88
330.43	587.88
330.658	657.88
330.887	692.88
331.115	706.88
331.344	618.88
331.572	579.88
331.801	574.88
332.03	584.88
332.258	544.88
332.486	523.88
332.715	498.88
332.943	514.88
333.172	538.88
333.4	516.88
333.629	543.88
333.857	564.88
334.085	545.88
334.314	536.88
334.542	558.88
334.771	584.88
334.999	554.88
335.227	532.88
335.455	574.88
335.684	517.88
335.912	501.88
336.14	504.88
336.369	522.88
336.597	526.88
336.825	538.88
337.053	518.88
337.281	525.88
337.51	508.88
337.738	513.88
337.966	490.88
338.194	514.88
338.422	509.88
338.65	494.88
338.878	504.88
339.106	524.88
339.334	501.88
339.562	508.88
339.79	511.88
340.018	509.88
340.246	512.88
340.474	492.88
340.702	499.88
340.93	499.88
341.158	504.88
341.386	504.88
341.614	513.88
341.842	531.88
342.07	493.88
342.298	491.88
342.526	461.88
342.754	486.88
342.981	476.88
343.209	474.88
343.437	485.88
343.665	492.88
343.893	500.88
344.12	490.88
344.348	518.88
344.576	498.88
344.804	511.88
345.031	543.88
345.259	547.88
345.487	545.88
345.714	499.88
345.942	491.88
346.17	489.88
346.397	492.88
346.625	488.88
346.853	484.88
347.08	486.88
347.308	499.88
347.535	504.88
347.763	501.88
347.99	508.88
348.218	510.88
348.445	522.88
348.673	492.88
348.9	488.88
349.128	485.88
349.355	491.88
349.583	487.88
349.81	477.88
350.037	486.88
350.265	483.88
350.492	466.88
350.72	484.88
350.947	477.88
351.174	482.88
351.402	488.88
351.629	492.88
351.856	499.88
352.083	488.88
352.311	499.88
352.538	504.88
352.765	501.88
352.992	486.88
353.22	496.88
353.447	472.88
353.674	493.88
353.901	474.88
354.128	458.88
354.355	456.88
354.583	467.88
354.81	447.88
355.037	453.88
355.264	456.88
355.491	450.88
355.718	440.88
355.945	441.88
356.172	446.88
356.399	463.88
356.626	475.88
356.853	464.88
357.08	471.88
357.307	460.88
357.534	463.88
357.761	433.88
357.988	441.88
358.215	464.88
358.441	468.88
358.668	442.88
358.895	463.88
359.122	473.88
359.349	480.88
359.576	480.88
359.802	524.88
360.029	540.88
360.256	573.88
360.483	545.88
360.709	510.88
360.936	488.88
361.163	481.88
361.39	500.88
361.616	480.88
361.843	482.88
362.07	478.88
362.296	478.88
362.523	486.88
362.749	495.88
362.976	490.88
363.203	473.88
363.429	468.88
363.656	478.88
363.882	458.88
364.109	466.88
364.335	474.88
364.562	465.88
364.788	477.88
365.015	490.88
365.241	468.88
365.468	474.88
365.694	465.88
365.92	468.88
366.147	461.88
366.373	481.88
366.599	470.88
366.826	474.88
367.052	452.88
367.278	468.88
367.505	480.88
367.731	462.88
367.957	474.88
368.184	489.88
368.41	467.88
368.636	496.88
368.862	504.88
369.089	478.88
369.315	468.88
369.541	458.88
369.767	460.88
369.993	464.88
370.219	481.88
370.445	468.88
370.672	459.88
370.898	491.88
371.124	467.88
371.35	471.88
371.576	471.88
371.802	467.88
372.028	465.88
372.254	483.88
372.48	458.88
372.706	480.88
372.932	460.88
373.158	482.88
373.384	471.88
373.61	466.88
373.835	461.88
374.061	466.88
374.287	466.88
374.513	478.88
374.739	481.88
374.965	457.88
375.191	498.88
375.416	488.88
375.642	469.88
375.868	480.88
376.094	477.88
376.319	482.88
376.545	484.88
376.771	473.88
376.997	485.88
377.222	485.88
377.448	478.88
377.674	484.88
377.899	485.88
378.125	477.88
378.35	451.88
378.576	461.88
378.802	474.88
379.027	472.88
379.253	474.88
379.478	457.88
379.704	500.88
379.929	482.88
380.155	484.88
380.38	469.88
380.606	486.88
380.831	481.88
381.057	463.88
381.282	489.88
381.507	474.88
381.733	484.88
381.958	466.88
382.184	477.88
382.409	496.88
382.634	489.88
382.86	496.88
383.085	485.88
383.31	506.88
383.535	496.88
383.761	483.88
383.986	477.88
384.211	487.88
384.436	496.88
384.662	522.88
384.887	508.88
385.112	491.88
385.337	516.88
385.562	525.88
385.787	543.88
386.013	544.88
386.238	531.88
386.463	534.88
386.688	523.88
386.913	513.88
387.138	516.88
387.363	524.88
387.588	484.88
387.813	515.88
388.038	519.88
388.263	527.88
388.488	515.88
388.713	536.88
388.938	532.88
389.163	535.88
389.387	537.88
389.612	533.88
389.837	515.88
390.062	510.88
390.287	543.88
390.512	524.88
390.736	538.88
390.961	549.88
391.186	535.88
391.411	525.88
391.636	545.88
391.86	560.88
392.085	548.88
392.31	552.88
392.534	533.88
392.759	531.88
392.984	534.88
393.208	542.88
393.433	533.88
393.658	545.88
393.882	526.88
394.107	553.88
394.331	527.88
394.556	532.88
394.78	537.88
395.005	549.88
395.229	533.88
395.454	560.88
395.678	545.88
395.903	560.88
396.127	580.88
396.352	599.88
396.576	581.88
396.801	553.88
397.025	547.88
397.249	563.88
397.474	578.88
397.698	601.88
397.922	590.88
398.147	605.88
398.371	624.88
398.595	596.88
398.82	588.88
399.044	618.88
399.268	629.88
399.492	675.88
399.717	722.88
399.941	749.88
400.165	735.88
400.389	779.88
400.613	715.88
400.837	650.88
401.062	632.88
401.286	620.88
401.51	634.88
401.734	598.88
401.958	620.88
402.182	625.88
402.406	632.88
402.63	630.88
402.854	636.88
403.078	628.88
403.302	609.88
403.526	635.88
403.75	655.88
403.974	651.88
404.198	642.88
404.422	620.88
404.645	658.88
404.869	621.88
405.093	686.88
405.317	715.88
405.541	752.88
405.765	684.88
405.988	658.88
406.212	664.88
406.436	703.88
406.66	714.88
406.883	676.88
407.107	716.88
407.331	756.88
407.555	870.88
407.778	846.88
408.002	762.88
408.226	708.88
408.449	700.88
408.673	706.88
408.896	768.88
409.12	790.88
409.344	761.88
409.567	656.88
409.791	669.88
410.014	642.88
410.238	644.88
410.461	639.88
410.685	646.88
410.908	676.88
411.132	706.88
411.355	766.88
411.578	720.88
411.802	640.88
412.025	642.88
412.249	618.88
412.472	644.88
412.695	660.88
412.919	686.88
413.142	664.88
413.365	614.88
413.589	622.88
413.812	597.88
414.035	607.88
414.258	608.88
414.482	573.88
414.705	597.88
414.928	582.88
415.151	615.88
415.374	603.88
415.597	602.88
415.821	588.88
416.044	606.88
416.267	630.88
416.49	605.88
416.713	616.88
416.936	602.88
417.159	584.88
417.382	608.88
417.605	600.88
417.828	614.88
418.051	641.88
418.274	616.88
418.497	596.88
418.72	620.88
418.943	611.88
419.166	616.88
419.389	676.88
419.611	644.88
419.834	644.88
420.057	642.88
420.28	637.88
420.503	601.88
420.726	617.88
420.948	645.88
421.171	671.88
421.394	730.88
421.617	656.88
421.839	613.88
422.062	637.88
422.285	652.88
422.507	712.88
422.73	822.88
422.953	760.88
423.175	696.88
423.398	652.88
423.621	652.88
423.843	661.88
424.066	682.88
424.288	678.88
424.511	721.88
424.733	782.88
424.956	865.88
425.178	821.88
425.401	818.88
425.623	860.88
425.846	770.88
426.068	684.88
426.291	691.88
426.513	671.88
426.735	693.88
426.958	752.88
427.18	858.88
427.402	999.88
427.625	1111.88
427.847	977.88
428.069	827.88
428.292	737.88
428.514	684.88
428.736	661.88
428.958	653.88
429.181	625.88
429.403	625.88
429.625	669.88
429.847	681.88
430.069	759.88
430.292	760.88
430.514	656.88
430.736	638.88
430.958	617.88
431.18	616.88
431.402	578.88
431.624	571.88
431.846	595.88
432.068	585.88
432.29	579.88
432.512	587.88
432.734	604.88
432.956	599.88
433.178	631.88
433.4	627.88
433.622	603.88
433.844	606.88
434.066	614.88
434.287	621.88
434.509	592.88
434.731	611.88
434.953	638.88
435.175	644.88
435.397	654.88
435.618	686.88
435.84	728.88
436.062	869.88
436.284	940.88
436.505	789.88
436.727	716.88
436.949	634.88
437.17	640.88
437.392	630.88
437.614	642.88
437.835	701.88
438.057	818.88
438.278	947.88
438.5	912.88
438.721	1014.88
438.943	956.88
439.165	762.88
439.386	709.88
439.608	704.88
439.829	699.88
440.05	718.88
440.272	794.88
440.493	730.88
440.715	665.88
440.936	642.88
441.158	660.88
441.379	645.88
441.6	641.88
441.822	637.88
442.043	702.88
442.264	868.88
442.486	894.88
442.707	714.88
442.928	713.88
443.149	695.88
443.371	753.88
443.592	788.88
443.813	914.88
444.034	992.88
444.255	800.88
444.476	727.88
444.698	694.88
444.919	682.88
445.14	797.88
445.361	778.88
445.582	725.88
445.803	813.88
446.024	932.88
446.245	987.88
446.466	845.88
446.687	725.88
446.908	701.88
447.129	644.88
447.35	634.88
447.571	620.88
447.792	613.88
448.013	618.88
448.234	648.88
448.455	700.88
448.675	857.88
448.896	1016.88
449.117	854.88
449.338	800.88
449.559	930.88
449.779	1080.88
450	843.88
450.221	716.88
450.442	660.88
450.662	616.88
450.883	629.88
451.104	641.88
451.324	632.88
451.545	616.88
451.766	557.88
451.986	561.88
452.207	553.88
452.428	551.88
452.648	570.88
452.869	569.88
453.089	564.88
453.31	584.88
453.53	574.88
453.751	565.88
453.971	566.88
454.192	626.88
454.412	571.88
454.633	564.88
454.853	544.88
455.073	560.88
455.294	601.88
455.514	679.88
455.734	652.88
455.955	593.88
456.175	552.88
456.395	530.88
456.616	524.88
456.836	552.88
457.056	520.88
457.276	538.88
457.497	552.88
457.717	525.88
457.937	539.88
458.157	561.88
458.377	562.88
458.598	589.88
458.818	637.88
459.038	747.88
459.258	767.88
459.478	648.88
459.698	601.88
459.918	609.88
460.138	619.88
460.358	616.88
460.578	612.88
460.798	630.88
461.018	626.88
461.238	605.88
461.458	608.88
461.678	600.88
461.898	615.88
462.118	619.88
462.338	613.88
462.558	636.88
462.777	640.88
462.997	665.88
463.217	668.88
463.437	668.88
463.657	661.88
463.876	670.88
464.096	681.88
464.316	648.88
464.536	670.88
464.755	668.88
464.975	665.88
465.195	711.88
465.414	751.88
465.634	694.88
465.854	627.88
466.073	640.88
466.293	631.88
466.512	585.88
466.732	576.88
466.951	576.88
467.171	590.88
467.391	574.88
467.61	587.88
467.829	621.88
468.049	615.88
468.268	584.88
468.488	548.88
468.707	575.88
468.927	571.88
469.146	546.88
469.365	557.88
469.585	549.88
469.804	566.88
470.023	590.88
470.243	580.88
470.462	595.88
470.681	602.88
470.901	633.88
471.12	596.88
471.339	598.88
471.558	593.88
471.777	578.88
471.997	564.88
472.216	582.88
472.435	609.88
472.654	606.88
472.873	581.88
473.092	587.88
473.311	587.88
473.53	590.88
473.749	610.88
473.968	649.88
474.187	757.88
474.406	811.88
474.625	640.88
474.844	608.88
475.063	594.88
475.282	578.88
475.501	583.88
475.72	602.88
475.939	624.88
476.158	624.88
476.377	616.88
476.596	556.88
476.814	612.88
477.033	606.88
477.252	613.88
477.471	621.88
477.69	614.88
477.908	636.88
478.127	654.88
478.346	618.88
478.564	672.88
478.783	669.88
479.002	668.88
479.22	667.88
479.439	677.88
479.658	707.88
479.876	699.88
480.095	708.88
480.313	756.88
480.532	721.88
480.751	736.88
480.969	729.88
481.188	756.88
481.406	757.88
481.624	738.88
481.843	709.88
482.061	691.88
482.28	706.88
482.498	692.88
482.717	645.88
482.935	686.88
483.153	680.88
483.372	697.88
483.59	703.88
483.808	701.88
484.027	699.88
484.245	716.88
484.463	724.88
484.681	694.88
484.9	705.88
485.118	706.88
485.336	704.88
485.554	722.88
485.772	714.88
485.99	722.88
486.209	718.88
486.427	729.88
486.645	732.88
486.863	756.88
487.081	726.88
487.299	739.88
487.517	759.88
487.735	727.88
487.953	742.88
488.171	740.88
488.389	743.88
488.607	743.88
488.825	748.88
489.043	762.88
489.261	751.88
489.479	751.88
489.696	749.88
489.914	784.88
490.132	758.88
490.35	780.88
490.568	816.88
490.786	814.88
491.003	776.88
491.221	819.88
491.439	825.88
491.657	851.88
491.874	841.88
492.092	832.88
492.31	875.88
492.527	841.88
492.745	871.88
492.963	858.88
493.18	854.88
493.398	859.88
493.615	884.88
493.833	866.88
494.05	886.88
494.268	904.88
494.485	864.88
494.703	862.88
494.92	884.88
495.138	861.88
495.355	864.88
495.573	900.88
495.79	909.88
496.008	893.88
496.225	866.88
496.442	888.88
496.66	890.88
496.877	914.88
497.094	896.88
497.312	890.88
497.529	913.88
497.746	952.88
497.963	952.88
498.181	981.88
498.398	958.88
498.615	1002.88
498.832	1039.88
499.049	1045.88
499.267	1060.88
499.484	1086.88
499.701	1114.88
499.918	1172.88
500.135	1240.88
500.352	1264.88
500.569	1279.88
500.786	1302.88
501.003	1286.88
501.22	1222.88
501.437	1201.88
501.654	1153.88
