Data from 1989.PennyLincolnUp.Lamp.En5.5.200Scan.071819.P2_HRD10591_17-23-55-973.txt Node
Date: Thu Jul 18 17:23:55 EDT 2019
User: cochatt
Spectrometer: HR+D1059
Trigger mode: 1
Integration Time (sec): 1.000000E-1
Scans to average: 1
Electric dark correction enabled: true
Nonlinearity correction enabled: false
Boxcar width: 0
XAxis mode: Wavelengths
Number of Pixels in Spectrum: 2048
>>>>>Begin Spectral Data<<<<<
223.165	-27.5
223.4	-27.5
223.635	-27.5
223.869	-20.5
224.104	-4.5
224.338	-12.5
224.573	-9.5
224.808	-7.5
225.042	-11.5
225.277	-4.5
225.511	-1.5
225.746	4.5
225.98	-4.5
226.215	13.5
226.449	17.5
226.683	26.5
226.918	23.5
227.152	18.5
227.387	26.5
227.621	37.5
227.856	42.5
228.09	54.5
228.324	42.5
228.559	53.5
228.793	84.5
229.027	77.5
229.262	112.5
229.496	121.5
229.73	130.5
229.964	140.5
230.199	118.5
230.433	104.5
230.667	123.5
230.901	122.5
231.136	128.5
231.37	119.5
231.604	121.5
231.838	120.5
232.072	113.5
232.306	129.5
232.541	101.5
232.775	115.5
233.009	121.5
233.243	119.5
233.477	118.5
233.711	120.5
233.945	118.5
234.179	123.5
234.413	117.5
234.647	113.5
234.881	121.5
235.115	128.5
235.349	122.5
235.583	112.5
235.817	129.5
236.051	133.5
236.285	120.5
236.519	129.5
236.753	147.5
236.987	162.5
237.221	181.5
237.455	243.5
237.689	201.5
237.922	152.5
238.156	124.5
238.39	128.5
238.624	121.5
238.858	140.5
239.091	125.5
239.325	123.5
239.559	125.5
239.793	124.5
240.027	143.5
240.26	156.5
240.494	162.5
240.728	136.5
240.961	143.5
241.195	141.5
241.429	139.5
241.662	135.5
241.896	153.5
242.13	138.5
242.363	134.5
242.597	132.5
242.83	146.5
243.064	143.5
243.298	132.5
243.531	145.5
243.765	134.5
243.998	126.5
244.232	154.5
244.465	158.5
244.699	150.5
244.932	147.5
245.166	153.5
245.399	139.5
245.633	162.5
245.866	154.5
246.099	149.5
246.333	158.5
246.566	165.5
246.8	168.5
247.033	160.5
247.266	162.5
247.5	171.5
247.733	183.5
247.966	180.5
248.2	189.5
248.433	191.5
248.666	188.5
248.899	190.5
249.133	213.5
249.366	207.5
249.599	207.5
249.832	216.5
250.066	196.5
250.299	194.5
250.532	209.5
250.765	213.5
250.998	225.5
251.231	246.5
251.465	236.5
251.698	218.5
251.931	212.5
252.164	211.5
252.397	211.5
252.63	202.5
252.863	217.5
253.096	223.5
253.329	231.5
253.562	235.5
253.795	234.5
254.028	243.5
254.261	241.5
254.494	234.5
254.727	248.5
254.96	312.5
255.193	293.5
255.426	264.5
255.659	251.5
255.892	231.5
256.124	230.5
256.357	245.5
256.59	231.5
256.823	217.5
257.056	221.5
257.289	208.5
257.521	226.5
257.754	245.5
257.987	225.5
258.22	225.5
258.452	243.5
258.685	211.5
258.918	244.5
259.151	216.5
259.383	227.5
259.616	215.5
259.849	236.5
260.081	244.5
260.314	261.5
260.547	300.5
260.779	246.5
261.012	253.5
261.244	228.5
261.477	249.5
261.71	238.5
261.942	258.5
262.175	257.5
262.407	231.5
262.64	245.5
262.872	237.5
263.105	231.5
263.337	216.5
263.57	212.5
263.802	239.5
264.035	220.5
264.267	246.5
264.499	225.5
264.732	226.5
264.964	213.5
265.197	240.5
265.429	236.5
265.661	226.5
265.894	236.5
266.126	225.5
266.358	229.5
266.591	215.5
266.823	246.5
267.055	241.5
267.287	257.5
267.52	227.5
267.752	233.5
267.984	241.5
268.216	256.5
268.448	237.5
268.681	248.5
268.913	259.5
269.145	281.5
269.377	299.5
269.609	298.5
269.841	288.5
270.073	276.5
270.306	325.5
270.538	335.5
270.77	335.5
271.002	329.5
271.234	309.5
271.466	316.5
271.698	322.5
271.93	330.5
272.162	348.5
272.394	336.5
272.626	320.5
272.858	306.5
273.09	293.5
273.322	296.5
273.553	279.5
273.785	292.5
274.017	271.5
274.249	270.5
274.481	295.5
274.713	292.5
274.945	295.5
275.176	284.5
275.408	277.5
275.64	288.5
275.872	265.5
276.104	280.5
276.335	284.5
276.567	273.5
276.799	282.5
277.031	334.5
277.262	347.5
277.494	332.5
277.726	336.5
277.957	307.5
278.189	301.5
278.421	305.5
278.652	280.5
278.884	295.5
279.115	275.5
279.347	298.5
279.579	270.5
279.81	292.5
280.042	289.5
280.273	293.5
280.505	265.5
280.736	290.5
280.968	295.5
281.199	279.5
281.431	265.5
281.662	288.5
281.894	290.5
282.125	280.5
282.356	309.5
282.588	324.5
282.819	299.5
283.051	308.5
283.282	288.5
283.513	280.5
283.745	284.5
283.976	289.5
284.207	314.5
284.439	304.5
284.67	298.5
284.901	271.5
285.132	290.5
285.364	284.5
285.595	290.5
285.826	288.5
286.057	293.5
286.288	277.5
286.52	301.5
286.751	291.5
286.982	293.5
287.213	282.5
287.444	304.5
287.675	310.5
287.906	328.5
288.138	305.5
288.369	322.5
288.6	330.5
288.831	322.5
289.062	306.5
289.293	320.5
289.524	311.5
289.755	298.5
289.986	301.5
290.217	311.5
290.448	304.5
290.679	297.5
290.91	289.5
291.141	300.5
291.371	310.5
291.602	294.5
291.833	294.5
292.064	300.5
292.295	283.5
292.526	298.5
292.757	286.5
292.987	315.5
293.218	282.5
293.449	302.5
293.68	314.5
293.91	288.5
294.141	304.5
294.372	308.5
294.603	286.5
294.833	304.5
295.064	301.5
295.295	307.5
295.525	308.5
295.756	320.5
295.987	323.5
296.217	345.5
296.448	358.5
296.679	329.5
296.909	320.5
297.14	294.5
297.37	298.5
297.601	337.5
297.831	322.5
298.062	311.5
298.292	321.5
298.523	319.5
298.753	339.5
298.984	319.5
299.214	317.5
299.445	318.5
299.675	314.5
299.905	321.5
300.136	333.5
300.366	328.5
300.597	318.5
300.827	342.5
301.057	340.5
301.288	331.5
301.518	355.5
301.748	346.5
301.979	350.5
302.209	349.5
302.439	342.5
302.669	337.5
302.9	346.5
303.13	327.5
303.36	359.5
303.59	355.5
303.82	342.5
304.051	355.5
304.281	359.5
304.511	336.5
304.741	329.5
304.971	346.5
305.201	324.5
305.431	343.5
305.661	335.5
305.891	359.5
306.121	326.5
306.352	362.5
306.582	365.5
306.812	353.5
307.042	344.5
307.272	349.5
307.502	335.5
307.731	353.5
307.961	338.5
308.191	356.5
308.421	350.5
308.651	349.5
308.881	354.5
309.111	347.5
309.341	364.5
309.571	377.5
309.8	372.5
310.03	385.5
310.26	383.5
310.49	397.5
310.72	395.5
310.949	421.5
311.179	423.5
311.409	388.5
311.639	379.5
311.868	392.5
312.098	396.5
312.328	384.5
312.557	428.5
312.787	448.5
313.017	433.5
313.246	419.5
313.476	400.5
313.706	394.5
313.935	392.5
314.165	417.5
314.394	421.5
314.624	433.5
314.853	408.5
315.083	393.5
315.312	393.5
315.542	381.5
315.771	373.5
316.001	377.5
316.23	383.5
316.46	414.5
316.689	399.5
316.919	412.5
317.148	395.5
317.377	421.5
317.607	401.5
317.836	398.5
318.065	408.5
318.295	387.5
318.524	402.5
318.753	392.5
318.983	388.5
319.212	389.5
319.441	425.5
319.67	416.5
319.9	410.5
320.129	406.5
320.358	411.5
320.587	393.5
320.816	411.5
321.046	398.5
321.275	419.5
321.504	414.5
321.733	409.5
321.962	414.5
322.191	454.5
322.42	453.5
322.649	456.5
322.878	466.5
323.108	483.5
323.337	522.5
323.566	546.5
323.795	588.5
324.024	645.5
324.253	770.5
324.482	1078.5
324.71	1614.5
324.939	2313.5
325.168	2075.5
325.397	1091.5
325.626	731.5
325.855	567.5
326.084	561.5
326.313	533.5
326.542	550.5
326.77	604.5
326.999	692.5
327.228	959.5
327.457	1440.5
327.686	1757.5
327.914	1174.5
328.143	774.5
328.372	649.5
328.6	626.5
328.829	589.5
329.058	626.5
329.287	636.5
329.515	570.5
329.744	524.5
329.972	527.5
330.201	525.5
330.43	532.5
330.658	577.5
330.887	626.5
331.115	608.5
331.344	563.5
331.572	512.5
331.801	513.5
332.03	496.5
332.258	471.5
332.486	481.5
332.715	458.5
332.943	461.5
333.172	453.5
333.4	472.5
333.629	469.5
333.857	490.5
334.085	476.5
334.314	485.5
334.542	492.5
334.771	477.5
334.999	443.5
335.227	470.5
335.455	454.5
335.684	465.5
335.912	457.5
336.14	436.5
336.369	447.5
336.597	461.5
336.825	452.5
337.053	457.5
337.281	452.5
337.51	458.5
337.738	446.5
337.966	446.5
338.194	454.5
338.422	442.5
338.65	437.5
338.878	436.5
339.106	454.5
339.334	420.5
339.562	452.5
339.79	422.5
340.018	433.5
340.246	468.5
340.474	453.5
340.702	453.5
340.93	425.5
341.158	441.5
341.386	437.5
341.614	446.5
341.842	432.5
342.07	437.5
342.298	448.5
342.526	411.5
342.754	441.5
342.981	404.5
343.209	426.5
343.437	438.5
343.665	417.5
343.893	447.5
344.12	448.5
344.348	449.5
344.576	407.5
344.804	454.5
345.031	463.5
345.259	462.5
345.487	454.5
345.714	444.5
345.942	432.5
346.17	426.5
346.397	426.5
346.625	421.5
346.853	426.5
347.08	409.5
347.308	433.5
347.535	442.5
347.763	446.5
347.99	440.5
348.218	433.5
348.445	445.5
348.673	443.5
348.9	423.5
349.128	414.5
349.355	409.5
349.583	425.5
349.81	418.5
350.037	414.5
350.265	437.5
350.492	402.5
350.72	394.5
350.947	413.5
351.174	424.5
351.402	440.5
351.629	434.5
351.856	422.5
352.083	444.5
352.311	429.5
352.538	439.5
352.765	436.5
352.992	438.5
353.22	421.5
353.447	431.5
353.674	403.5
353.901	398.5
354.128	398.5
354.355	395.5
354.583	409.5
354.81	395.5
355.037	392.5
355.264	372.5
355.491	403.5
355.718	359.5
355.945	389.5
356.172	387.5
356.399	393.5
356.626	396.5
356.853	390.5
357.08	386.5
357.307	399.5
357.534	399.5
357.761	390.5
357.988	379.5
358.215	381.5
358.441	399.5
358.668	405.5
358.895	385.5
359.122	393.5
359.349	396.5
359.576	402.5
359.802	442.5
360.029	463.5
360.256	475.5
360.483	461.5
360.709	424.5
360.936	426.5
361.163	425.5
361.39	412.5
361.616	426.5
361.843	420.5
362.07	411.5
362.296	434.5
362.523	400.5
362.749	412.5
362.976	428.5
363.203	403.5
363.429	422.5
363.656	377.5
363.882	394.5
364.109	394.5
364.335	406.5
364.562	387.5
364.788	391.5
365.015	392.5
365.241	397.5
365.468	410.5
365.694	402.5
365.92	409.5
366.147	386.5
366.373	373.5
366.599	382.5
366.826	382.5
367.052	392.5
367.278	399.5
367.505	418.5
367.731	390.5
367.957	403.5
368.184	402.5
368.41	396.5
368.636	410.5
368.862	418.5
369.089	402.5
369.315	382.5
369.541	395.5
369.767	388.5
369.993	388.5
370.219	395.5
370.445	394.5
370.672	392.5
370.898	394.5
371.124	390.5
371.35	384.5
371.576	380.5
371.802	387.5
372.028	382.5
372.254	395.5
372.48	388.5
372.706	405.5
372.932	393.5
373.158	401.5
373.384	408.5
373.61	395.5
373.835	404.5
374.061	392.5
374.287	374.5
374.513	391.5
374.739	403.5
374.965	416.5
375.191	388.5
375.416	387.5
375.642	389.5
375.868	408.5
376.094	381.5
376.319	395.5
376.545	394.5
376.771	386.5
376.997	382.5
377.222	380.5
377.448	381.5
377.674	384.5
377.899	382.5
378.125	393.5
378.35	363.5
378.576	394.5
378.802	378.5
379.027	381.5
379.253	397.5
379.478	370.5
379.704	386.5
379.929	390.5
380.155	397.5
380.38	394.5
380.606	404.5
380.831	382.5
381.057	395.5
381.282	406.5
381.507	381.5
381.733	387.5
381.958	386.5
382.184	402.5
382.409	383.5
382.634	376.5
382.86	393.5
383.085	386.5
383.31	394.5
383.535	409.5
383.761	380.5
383.986	390.5
384.211	399.5
384.436	390.5
384.662	408.5
384.887	411.5
385.112	408.5
385.337	408.5
385.562	413.5
385.787	421.5
386.013	425.5
386.238	418.5
386.463	442.5
386.688	411.5
386.913	406.5
387.138	410.5
387.363	425.5
387.588	419.5
387.813	412.5
388.038	415.5
388.263	413.5
388.488	409.5
388.713	414.5
388.938	403.5
389.163	434.5
389.387	410.5
389.612	401.5
389.837	430.5
390.062	392.5
390.287	411.5
390.512	418.5
390.736	419.5
390.961	386.5
391.186	408.5
391.411	406.5
391.636	391.5
391.86	418.5
392.085	413.5
392.31	409.5
392.534	433.5
392.759	445.5
392.984	424.5
393.208	419.5
393.433	405.5
393.658	416.5
393.882	384.5
394.107	390.5
394.331	400.5
394.556	410.5
394.78	406.5
395.005	425.5
395.229	392.5
395.454	439.5
395.678	411.5
395.903	417.5
396.127	412.5
396.352	450.5
396.576	449.5
396.801	426.5
397.025	426.5
397.249	435.5
397.474	431.5
397.698	441.5
397.922	429.5
398.147	478.5
398.371	473.5
398.595	453.5
398.82	450.5
399.044	469.5
399.268	469.5
399.492	476.5
399.717	533.5
399.941	523.5
400.165	554.5
400.389	605.5
400.613	512.5
400.837	490.5
401.062	477.5
401.286	459.5
401.51	465.5
401.734	452.5
401.958	466.5
402.182	464.5
402.406	472.5
402.63	482.5
402.854	472.5
403.078	460.5
403.302	464.5
403.526	489.5
403.75	465.5
403.974	456.5
404.198	459.5
404.422	481.5
404.645	475.5
404.869	488.5
405.093	505.5
405.317	523.5
405.541	535.5
405.765	525.5
405.988	492.5
406.212	507.5
406.436	546.5
406.66	550.5
406.883	533.5
407.107	543.5
407.331	584.5
407.555	648.5
407.778	650.5
408.002	590.5
408.226	526.5
408.449	518.5
408.673	513.5
408.896	561.5
409.12	593.5
409.344	549.5
409.567	526.5
409.791	515.5
410.014	488.5
410.238	488.5
410.461	471.5
410.685	484.5
410.908	507.5
411.132	542.5
411.355	566.5
411.578	533.5
411.802	481.5
412.025	498.5
412.249	472.5
412.472	472.5
412.695	476.5
412.919	463.5
413.142	452.5
413.365	453.5
413.589	469.5
413.812	446.5
414.035	442.5
414.258	459.5
414.482	443.5
414.705	446.5
414.928	445.5
415.151	440.5
415.374	428.5
415.597	427.5
415.821	446.5
416.044	441.5
416.267	444.5
416.49	429.5
416.713	450.5
416.936	435.5
417.159	432.5
417.382	456.5
417.605	467.5
417.828	454.5
418.051	467.5
418.274	452.5
418.497	460.5
418.72	451.5
418.943	433.5
419.166	471.5
419.389	484.5
419.611	475.5
419.834	451.5
420.057	471.5
420.28	474.5
420.503	472.5
420.726	469.5
420.948	468.5
421.171	524.5
421.394	564.5
421.617	493.5
421.839	462.5
422.062	476.5
422.285	471.5
422.507	532.5
422.73	638.5
422.953	579.5
423.175	530.5
423.398	518.5
423.621	522.5
423.843	511.5
424.066	523.5
424.288	505.5
424.511	548.5
424.733	609.5
424.956	672.5
425.178	627.5
425.401	630.5
425.623	649.5
425.846	570.5
426.068	515.5
426.291	529.5
426.513	534.5
426.735	534.5
426.958	579.5
427.18	634.5
427.402	780.5
427.625	880.5
427.847	754.5
428.069	623.5
428.292	566.5
428.514	523.5
428.736	517.5
428.958	471.5
429.181	492.5
429.403	489.5
429.625	498.5
429.847	512.5
430.069	587.5
430.292	603.5
430.514	500.5
430.736	466.5
430.958	451.5
431.18	451.5
431.402	458.5
431.624	448.5
431.846	456.5
432.068	461.5
432.29	434.5
432.512	438.5
432.734	456.5
432.956	464.5
433.178	472.5
433.4	469.5
433.622	454.5
433.844	469.5
434.066	449.5
434.287	440.5
434.509	471.5
434.731	461.5
434.953	480.5
435.175	487.5
435.397	502.5
435.618	502.5
435.84	575.5
436.062	657.5
436.284	723.5
436.505	596.5
436.727	550.5
436.949	509.5
437.17	474.5
437.392	468.5
437.614	480.5
437.835	531.5
438.057	636.5
438.278	698.5
438.5	725.5
438.721	789.5
438.943	783.5
439.165	603.5
439.386	562.5
439.608	542.5
439.829	540.5
440.05	548.5
440.272	613.5
440.493	587.5
440.715	513.5
440.936	500.5
441.158	472.5
441.379	484.5
441.6	516.5
441.822	531.5
442.043	563.5
442.264	640.5
442.486	685.5
442.707	587.5
442.928	550.5
443.149	551.5
443.371	576.5
443.592	591.5
443.813	690.5
444.034	745.5
444.255	625.5
444.476	542.5
444.698	543.5
444.919	533.5
445.14	616.5
445.361	562.5
445.582	558.5
445.803	626.5
446.024	713.5
446.245	739.5
446.466	656.5
446.687	568.5
446.908	534.5
447.129	504.5
447.35	474.5
447.571	488.5
447.792	454.5
448.013	483.5
448.234	516.5
448.455	563.5
448.675	660.5
448.896	798.5
449.117	682.5
449.338	635.5
449.559	729.5
449.779	827.5
450	669.5
450.221	532.5
450.442	488.5
450.662	473.5
450.883	475.5
451.104	507.5
451.324	476.5
451.545	458.5
451.766	454.5
451.986	417.5
452.207	426.5
452.428	428.5
452.648	439.5
452.869	440.5
453.089	442.5
453.31	454.5
453.53	450.5
453.751	444.5
453.971	452.5
454.192	462.5
454.412	426.5
454.633	430.5
454.853	418.5
455.073	433.5
455.294	450.5
455.514	536.5
455.734	509.5
455.955	439.5
456.175	395.5
456.395	414.5
456.616	390.5
456.836	402.5
457.056	393.5
457.276	384.5
457.497	396.5
457.717	401.5
457.937	418.5
458.157	403.5
458.377	405.5
458.598	433.5
458.818	486.5
459.038	570.5
459.258	604.5
459.478	487.5
459.698	472.5
459.918	416.5
460.138	421.5
460.358	425.5
460.578	429.5
460.798	428.5
461.018	440.5
461.238	452.5
461.458	424.5
461.678	426.5
461.898	448.5
462.118	432.5
462.338	441.5
462.558	449.5
462.777	459.5
462.997	465.5
463.217	499.5
463.437	462.5
463.657	458.5
463.876	461.5
464.096	462.5
464.316	470.5
464.536	472.5
464.755	496.5
464.975	486.5
465.195	543.5
465.414	585.5
465.634	535.5
465.854	473.5
466.073	439.5
466.293	452.5
466.512	432.5
466.732	438.5
466.951	429.5
467.171	438.5
467.391	447.5
467.61	438.5
467.829	421.5
468.049	419.5
468.268	426.5
468.488	423.5
468.707	398.5
468.927	413.5
469.146	436.5
469.365	422.5
469.585	413.5
469.804	430.5
470.023	438.5
470.243	432.5
470.462	429.5
470.681	472.5
470.901	464.5
471.12	444.5
471.339	434.5
471.558	447.5
471.777	446.5
471.997	404.5
472.216	440.5
472.435	437.5
472.654	430.5
472.873	427.5
473.092	425.5
473.311	436.5
473.53	425.5
473.749	444.5
473.968	493.5
474.187	594.5
474.406	630.5
474.625	490.5
474.844	472.5
475.063	444.5
475.282	442.5
475.501	435.5
475.72	430.5
475.939	454.5
476.158	448.5
476.377	437.5
476.596	462.5
476.814	448.5
477.033	467.5
477.252	469.5
477.471	463.5
477.69	461.5
477.908	465.5
478.127	481.5
478.346	467.5
478.564	459.5
478.783	465.5
479.002	468.5
479.22	491.5
479.439	488.5
479.658	525.5
479.876	540.5
480.095	534.5
480.313	555.5
480.532	543.5
480.751	523.5
480.969	529.5
481.188	538.5
481.406	538.5
481.624	543.5
481.843	513.5
482.061	501.5
482.28	496.5
482.498	493.5
482.717	520.5
482.935	487.5
483.153	493.5
483.372	506.5
483.59	508.5
483.808	526.5
484.027	517.5
484.245	517.5
484.463	513.5
484.681	520.5
484.9	536.5
485.118	525.5
485.336	532.5
485.554	524.5
485.772	520.5
485.99	536.5
486.209	535.5
486.427	536.5
486.645	548.5
486.863	572.5
487.081	555.5
487.299	556.5
487.517	561.5
487.735	566.5
487.953	548.5
488.171	556.5
488.389	552.5
488.607	541.5
488.825	543.5
489.043	537.5
489.261	560.5
489.479	561.5
489.696	566.5
489.914	577.5
490.132	574.5
490.35	536.5
490.568	594.5
490.786	586.5
491.003	581.5
491.221	597.5
491.439	609.5
491.657	609.5
491.874	610.5
492.092	615.5
492.31	629.5
492.527	616.5
492.745	650.5
492.963	621.5
493.18	658.5
493.398	625.5
493.615	637.5
493.833	652.5
494.05	647.5
494.268	649.5
494.485	646.5
494.703	647.5
494.92	640.5
495.138	653.5
495.355	654.5
495.573	668.5
495.79	645.5
496.008	670.5
496.225	644.5
496.442	647.5
496.66	650.5
496.877	638.5
497.094	663.5
497.312	651.5
497.529	663.5
497.746	682.5
497.963	672.5
498.181	689.5
498.398	728.5
498.615	710.5
498.832	722.5
499.049	722.5
499.267	722.5
499.484	737.5
499.701	785.5
499.918	792.5
500.135	810.5
500.352	864.5
500.569	839.5
500.786	842.5
501.003	853.5
501.22	832.5
501.437	826.5
501.654	807.5
501.871	815.5
502.088	787.5
502.305	751.5
502.522	732.5
502.739	734.5
502.956	704.5
503.172	677.5
503.389	696.5
503.606	672.5
503.823	692.5
504.04	668.5
504.256	658.5
504.473	654.5
504.69	655.5
504.907	647.5
505.123	658.5
505.34	626.5
505.557	627.5
505.773	630.5
505.99	621.5
506.207	595.5
506.423	621.5
506.64	610.5
506.856	636.5
507.073	605.5
507.289	624.5
507.506	648.5
507.722	626.5
507.939	634.5
508.155	625.5
508.372	609.5
508.588	597.5
508.805	612.5
509.021	606.5
509.238	600.5
509.454	604.5
509.67	606.5
509.887	606.5
510.103	625.5
510.319	600.5
510.536	716.5
510.752	1219.5
510.968	994.5
511.184	640.5
511.401	629.5
511.617	572.5
511.833	556.5
512.049	567.5
512.265	577.5
512.481	571.5
512.698	578.5
512.914	549.5
513.13	556.5
513.346	565.5
513.562	549.5
513.778	574.5
513.994	570.5
514.21	582.5
514.426	612.5
514.642	677.5
514.858	679.5
515.074	733.5
515.29	892.5
515.506	1318.5
515.721	1058.5
515.937	727.5
516.153	632.5
516.369	602.5
516.585	608.5
516.801	593.5
517.016	584.5
517.232	602.5
517.448	555.5
517.664	582.5
517.879	589.5
518.095	579.5
518.311	578.5
518.527	562.5
518.742	579.5
518.958	596.5
519.173	563.5
519.389	578.5
519.605	590.5
519.82	566.5
