Data from 1989.PennyLincolnUp.Lamp.En5.5.200Scan.071819.P2_HRD10591_17-23-42-973.txt Node
Date: Thu Jul 18 17:23:42 EDT 2019
User: cochatt
Spectrometer: HR+D1059
Trigger mode: 1
Integration Time (sec): 1.000000E-1
Scans to average: 1
Electric dark correction enabled: true
Nonlinearity correction enabled: false
Boxcar width: 0
XAxis mode: Wavelengths
Number of Pixels in Spectrum: 2048
>>>>>Begin Spectral Data<<<<<
223.165	-5.25
223.4	-5.25
223.635	-5.25
223.869	-25.25
224.104	-14.25
224.338	-18.25
224.573	-8.25
224.808	-0.25
225.042	-11.25
225.277	-4.25
225.511	-13.25
225.746	-5.25
225.98	-3.25
226.215	27.75
226.449	15.75
226.683	6.75
226.918	30.75
227.152	27.75
227.387	43.75
227.621	38.75
227.856	51.75
228.09	31.75
228.324	65.75
228.559	63.75
228.793	59.75
229.027	108.75
229.262	105.75
229.496	115.75
229.73	121.75
229.964	163.75
230.199	121.75
230.433	116.75
230.667	111.75
230.901	105.75
231.136	119.75
231.37	123.75
231.604	104.75
231.838	122.75
232.072	101.75
232.306	109.75
232.541	118.75
232.775	119.75
233.009	114.75
233.243	111.75
233.477	121.75
233.711	130.75
233.945	114.75
234.179	123.75
234.413	114.75
234.647	135.75
234.881	104.75
235.115	115.75
235.349	103.75
235.583	115.75
235.817	138.75
236.051	121.75
236.285	123.75
236.519	108.75
236.753	121.75
236.987	143.75
237.221	171.75
237.455	225.75
237.689	183.75
237.922	155.75
238.156	136.75
238.39	143.75
238.624	130.75
238.858	127.75
239.091	135.75
239.325	133.75
239.559	133.75
239.793	128.75
240.027	129.75
240.26	162.75
240.494	165.75
240.728	141.75
240.961	153.75
241.195	149.75
241.429	160.75
241.662	148.75
241.896	147.75
242.13	151.75
242.363	142.75
242.597	151.75
242.83	156.75
243.064	141.75
243.298	153.75
243.531	134.75
243.765	163.75
243.998	137.75
244.232	145.75
244.465	154.75
244.699	148.75
244.932	137.75
245.166	136.75
245.399	157.75
245.633	149.75
245.866	156.75
246.099	153.75
246.333	161.75
246.566	138.75
246.8	153.75
247.033	151.75
247.266	168.75
247.5	167.75
247.733	163.75
247.966	182.75
248.2	167.75
248.433	162.75
248.666	164.75
248.899	203.75
249.133	191.75
249.366	211.75
249.599	207.75
249.832	199.75
250.066	190.75
250.299	192.75
250.532	195.75
250.765	207.75
250.998	224.75
251.231	224.75
251.465	223.75
251.698	211.75
251.931	183.75
252.164	194.75
252.397	215.75
252.63	202.75
252.863	215.75
253.096	215.75
253.329	229.75
253.562	224.75
253.795	236.75
254.028	224.75
254.261	217.75
254.494	244.75
254.727	253.75
254.96	289.75
255.193	294.75
255.426	256.75
255.659	245.75
255.892	229.75
256.124	239.75
256.357	218.75
256.59	229.75
256.823	223.75
257.056	211.75
257.289	221.75
257.521	187.75
257.754	223.75
257.987	208.75
258.22	210.75
258.452	214.75
258.685	210.75
258.918	227.75
259.151	225.75
259.383	218.75
259.616	244.75
259.849	239.75
260.081	249.75
260.314	272.75
260.547	281.75
260.779	265.75
261.012	248.75
261.244	232.75
261.477	262.75
261.71	245.75
261.942	251.75
262.175	240.75
262.407	245.75
262.64	231.75
262.872	226.75
263.105	241.75
263.337	236.75
263.57	215.75
263.802	218.75
264.035	231.75
264.267	226.75
264.499	212.75
264.732	242.75
264.964	245.75
265.197	233.75
265.429	231.75
265.661	213.75
265.894	229.75
266.126	241.75
266.358	210.75
266.591	232.75
266.823	223.75
267.055	231.75
267.287	250.75
267.52	239.75
267.752	228.75
267.984	243.75
268.216	239.75
268.448	254.75
268.681	243.75
268.913	257.75
269.145	263.75
269.377	289.75
269.609	275.75
269.841	275.75
270.073	283.75
270.306	302.75
270.538	323.75
270.77	335.75
271.002	341.75
271.234	328.75
271.466	303.75
271.698	305.75
271.93	328.75
272.162	348.75
272.394	321.75
272.626	311.75
272.858	305.75
273.09	301.75
273.322	312.75
273.553	273.75
273.785	281.75
274.017	275.75
274.249	282.75
274.481	290.75
274.713	273.75
274.945	286.75
275.176	286.75
275.408	292.75
275.64	282.75
275.872	277.75
276.104	281.75
276.335	282.75
276.567	304.75
276.799	309.75
277.031	313.75
277.262	314.75
277.494	320.75
277.726	299.75
277.957	311.75
278.189	291.75
278.421	281.75
278.652	282.75
278.884	258.75
279.115	266.75
279.347	282.75
279.579	274.75
279.81	288.75
280.042	278.75
280.273	277.75
280.505	279.75
280.736	270.75
280.968	290.75
281.199	288.75
281.431	289.75
281.662	292.75
281.894	281.75
282.125	311.75
282.356	302.75
282.588	321.75
282.819	336.75
283.051	296.75
283.282	286.75
283.513	296.75
283.745	285.75
283.976	298.75
284.207	311.75
284.439	303.75
284.67	291.75
284.901	300.75
285.132	290.75
285.364	293.75
285.595	289.75
285.826	291.75
286.057	284.75
286.288	295.75
286.52	305.75
286.751	285.75
286.982	291.75
287.213	296.75
287.444	303.75
287.675	309.75
287.906	317.75
288.138	296.75
288.369	295.75
288.6	308.75
288.831	313.75
289.062	315.75
289.293	300.75
289.524	291.75
289.755	275.75
289.986	285.75
290.217	303.75
290.448	297.75
290.679	312.75
290.91	293.75
291.141	289.75
291.371	281.75
291.602	298.75
291.833	298.75
292.064	311.75
292.295	291.75
292.526	299.75
292.757	306.75
292.987	284.75
293.218	280.75
293.449	280.75
293.68	301.75
293.91	320.75
294.141	293.75
294.372	292.75
294.603	328.75
294.833	311.75
295.064	304.75
295.295	306.75
295.525	315.75
295.756	303.75
295.987	316.75
296.217	332.75
296.448	337.75
296.679	316.75
296.909	294.75
297.14	303.75
297.37	330.75
297.601	314.75
297.831	316.75
298.062	294.75
298.292	319.75
298.523	331.75
298.753	321.75
298.984	319.75
299.214	326.75
299.445	319.75
299.675	318.75
299.905	332.75
300.136	335.75
300.366	348.75
300.597	334.75
300.827	331.75
301.057	328.75
301.288	317.75
301.518	346.75
301.748	332.75
301.979	329.75
302.209	325.75
302.439	351.75
302.669	348.75
302.9	325.75
303.13	311.75
303.36	340.75
303.59	337.75
303.82	348.75
304.051	336.75
304.281	351.75
304.511	335.75
304.741	348.75
304.971	342.75
305.201	342.75
305.431	340.75
305.661	352.75
305.891	330.75
306.121	324.75
306.352	349.75
306.582	334.75
306.812	345.75
307.042	346.75
307.272	327.75
307.502	330.75
307.731	338.75
307.961	346.75
308.191	332.75
308.421	345.75
308.651	353.75
308.881	337.75
309.111	340.75
309.341	349.75
309.571	360.75
309.8	353.75
310.03	370.75
310.26	395.75
310.49	400.75
310.72	401.75
310.949	395.75
311.179	422.75
311.409	378.75
311.639	384.75
311.868	414.75
312.098	406.75
312.328	408.75
312.557	410.75
312.787	454.75
313.017	427.75
313.246	405.75
313.476	401.75
313.706	387.75
313.935	389.75
314.165	413.75
314.394	434.75
314.624	407.75
314.853	425.75
315.083	384.75
315.312	380.75
315.542	387.75
315.771	400.75
316.001	391.75
316.23	383.75
316.46	386.75
316.689	378.75
316.919	408.75
317.148	415.75
317.377	420.75
317.607	400.75
317.836	397.75
318.065	395.75
318.295	387.75
318.524	384.75
318.753	376.75
318.983	385.75
319.212	395.75
319.441	419.75
319.67	410.75
319.9	403.75
320.129	389.75
320.358	416.75
320.587	402.75
320.816	400.75
321.046	404.75
321.275	405.75
321.504	410.75
321.733	421.75
321.962	437.75
322.191	452.75
322.42	448.75
322.649	484.75
322.878	476.75
323.108	473.75
323.337	498.75
323.566	527.75
323.795	562.75
324.024	599.75
324.253	725.75
324.482	976.75
324.71	1565.75
324.939	2215.75
325.168	1959.75
325.397	1035.75
325.626	690.75
325.855	575.75
326.084	542.75
326.313	519.75
326.542	523.75
326.77	569.75
326.999	661.75
327.228	879.75
327.457	1407.75
327.686	1711.75
327.914	1115.75
328.143	718.75
328.372	645.75
328.6	585.75
328.829	588.75
329.058	588.75
329.287	592.75
329.515	573.75
329.744	508.75
329.972	508.75
330.201	510.75
330.43	512.75
330.658	569.75
330.887	613.75
331.115	590.75
331.344	519.75
331.572	489.75
331.801	484.75
332.03	495.75
332.258	477.75
332.486	475.75
332.715	459.75
332.943	445.75
333.172	437.75
333.4	465.75
333.629	475.75
333.857	455.75
334.085	464.75
334.314	457.75
334.542	458.75
334.771	454.75
334.999	447.75
335.227	483.75
335.455	456.75
335.684	441.75
335.912	442.75
336.14	453.75
336.369	432.75
336.597	476.75
336.825	466.75
337.053	449.75
337.281	433.75
337.51	453.75
337.738	431.75
337.966	456.75
338.194	447.75
338.422	439.75
338.65	441.75
338.878	448.75
339.106	438.75
339.334	428.75
339.562	423.75
339.79	421.75
340.018	413.75
340.246	435.75
340.474	442.75
340.702	440.75
340.93	432.75
341.158	426.75
341.386	435.75
341.614	433.75
341.842	417.75
342.07	456.75
342.298	444.75
342.526	433.75
342.754	444.75
342.981	428.75
343.209	426.75
343.437	421.75
343.665	425.75
343.893	437.75
344.12	443.75
344.348	431.75
344.576	439.75
344.804	456.75
345.031	445.75
345.259	474.75
345.487	449.75
345.714	441.75
345.942	427.75
346.17	434.75
346.397	419.75
346.625	409.75
346.853	407.75
347.08	407.75
347.308	427.75
347.535	439.75
347.763	439.75
347.99	437.75
348.218	440.75
348.445	443.75
348.673	433.75
348.9	434.75
349.128	384.75
349.355	411.75
349.583	423.75
349.81	397.75
350.037	411.75
350.265	415.75
350.492	405.75
350.72	376.75
350.947	424.75
351.174	428.75
351.402	443.75
351.629	419.75
351.856	420.75
352.083	423.75
352.311	455.75
352.538	432.75
352.765	441.75
352.992	433.75
353.22	409.75
353.447	400.75
353.674	407.75
353.901	391.75
354.128	410.75
354.355	391.75
354.583	389.75
354.81	412.75
355.037	401.75
355.264	380.75
355.491	383.75
355.718	382.75
355.945	385.75
356.172	391.75
356.399	377.75
356.626	378.75
356.853	395.75
357.08	367.75
357.307	375.75
357.534	392.75
357.761	390.75
357.988	385.75
358.215	399.75
358.441	380.75
358.668	382.75
358.895	401.75
359.122	379.75
359.349	428.75
359.576	409.75
359.802	427.75
360.029	457.75
360.256	464.75
360.483	461.75
360.709	417.75
360.936	426.75
361.163	397.75
361.39	425.75
361.616	407.75
361.843	409.75
362.07	395.75
362.296	427.75
362.523	423.75
362.749	395.75
362.976	422.75
363.203	418.75
363.429	398.75
363.656	386.75
363.882	399.75
364.109	396.75
364.335	415.75
364.562	376.75
364.788	399.75
365.015	422.75
365.241	413.75
365.468	401.75
365.694	397.75
365.92	408.75
366.147	403.75
366.373	386.75
366.599	393.75
366.826	392.75
367.052	359.75
367.278	385.75
367.505	359.75
367.731	403.75
367.957	389.75
368.184	389.75
368.41	411.75
368.636	413.75
368.862	400.75
369.089	418.75
369.315	406.75
369.541	383.75
369.767	401.75
369.993	408.75
370.219	401.75
370.445	391.75
370.672	391.75
370.898	388.75
371.124	392.75
371.35	395.75
371.576	383.75
371.802	390.75
372.028	379.75
372.254	393.75
372.48	378.75
372.706	402.75
372.932	371.75
373.158	379.75
373.384	405.75
373.61	392.75
373.835	391.75
374.061	396.75
374.287	391.75
374.513	405.75
374.739	392.75
374.965	387.75
375.191	363.75
375.416	395.75
375.642	391.75
375.868	407.75
376.094	376.75
376.319	388.75
376.545	400.75
376.771	390.75
376.997	383.75
377.222	397.75
377.448	377.75
377.674	384.75
377.899	366.75
378.125	375.75
378.35	383.75
378.576	384.75
378.802	384.75
379.027	385.75
379.253	385.75
379.478	374.75
379.704	371.75
379.929	384.75
380.155	390.75
380.38	386.75
380.606	380.75
380.831	360.75
381.057	377.75
381.282	381.75
381.507	392.75
381.733	388.75
381.958	387.75
382.184	386.75
382.409	378.75
382.634	378.75
382.86	416.75
383.085	419.75
383.31	374.75
383.535	397.75
383.761	372.75
383.986	403.75
384.211	409.75
384.436	405.75
384.662	399.75
384.887	404.75
385.112	415.75
385.337	401.75
385.562	383.75
385.787	407.75
386.013	410.75
386.238	410.75
386.463	423.75
386.688	422.75
386.913	407.75
387.138	399.75
387.363	405.75
387.588	407.75
387.813	399.75
388.038	408.75
388.263	413.75
388.488	412.75
388.713	412.75
388.938	413.75
389.163	419.75
389.387	403.75
389.612	411.75
389.837	418.75
390.062	396.75
390.287	417.75
390.512	421.75
390.736	412.75
390.961	389.75
391.186	406.75
391.411	413.75
391.636	409.75
391.86	439.75
392.085	413.75
392.31	413.75
392.534	420.75
392.759	413.75
392.984	424.75
393.208	423.75
393.433	425.75
393.658	410.75
393.882	400.75
394.107	412.75
394.331	395.75
394.556	412.75
394.78	419.75
395.005	407.75
395.229	424.75
395.454	407.75
395.678	429.75
395.903	436.75
396.127	440.75
396.352	456.75
396.576	424.75
396.801	419.75
397.025	433.75
397.249	433.75
397.474	438.75
397.698	427.75
397.922	461.75
398.147	473.75
398.371	479.75
398.595	455.75
398.82	467.75
399.044	485.75
399.268	475.75
399.492	522.75
399.717	497.75
399.941	548.75
400.165	577.75
400.389	578.75
400.613	525.75
400.837	493.75
401.062	466.75
401.286	467.75
401.51	473.75
401.734	471.75
401.958	487.75
402.182	485.75
402.406	486.75
402.63	462.75
402.854	464.75
403.078	460.75
403.302	473.75
403.526	474.75
403.75	475.75
403.974	476.75
404.198	468.75
404.422	474.75
404.645	478.75
404.869	467.75
405.093	485.75
405.317	492.75
405.541	529.75
405.765	489.75
405.988	483.75
406.212	491.75
406.436	524.75
406.66	550.75
406.883	516.75
407.107	543.75
407.331	589.75
407.555	655.75
407.778	635.75
408.002	595.75
408.226	536.75
408.449	553.75
408.673	523.75
408.896	567.75
409.12	597.75
409.344	563.75
409.567	499.75
409.791	495.75
410.014	480.75
410.238	483.75
410.461	478.75
410.685	476.75
410.908	514.75
411.132	515.75
411.355	569.75
411.578	537.75
411.802	503.75
412.025	471.75
412.249	457.75
412.472	467.75
412.695	488.75
412.919	463.75
413.142	486.75
413.365	464.75
413.589	454.75
413.812	444.75
414.035	438.75
414.258	437.75
414.482	433.75
414.705	446.75
414.928	444.75
415.151	443.75
415.374	438.75
415.597	463.75
415.821	435.75
416.044	449.75
416.267	451.75
416.49	444.75
416.713	458.75
416.936	449.75
417.159	420.75
417.382	466.75
417.605	455.75
417.828	447.75
418.051	480.75
418.274	459.75
418.497	450.75
418.72	440.75
418.943	429.75
419.166	434.75
419.389	489.75
419.611	464.75
419.834	473.75
420.057	457.75
420.28	468.75
420.503	467.75
420.726	466.75
420.948	474.75
421.171	524.75
421.394	546.75
421.617	501.75
421.839	472.75
422.062	471.75
422.285	489.75
422.507	552.75
422.73	623.75
422.953	599.75
423.175	508.75
423.398	499.75
423.621	461.75
423.843	511.75
424.066	509.75
424.288	522.75
424.511	523.75
424.733	604.75
424.956	641.75
425.178	660.75
425.401	614.75
425.623	671.75
425.846	559.75
426.068	513.75
426.291	507.75
426.513	503.75
426.735	514.75
426.958	584.75
427.18	647.75
427.402	765.75
427.625	856.75
427.847	742.75
428.069	619.75
428.292	568.75
428.514	518.75
428.736	481.75
428.958	491.75
429.181	464.75
429.403	459.75
429.625	499.75
429.847	520.75
430.069	591.75
430.292	596.75
430.514	499.75
430.736	472.75
430.958	456.75
431.18	462.75
431.402	457.75
431.624	425.75
431.846	428.75
432.068	428.75
432.29	440.75
432.512	445.75
432.734	469.75
432.956	454.75
433.178	467.75
433.4	476.75
433.622	454.75
433.844	448.75
434.066	442.75
434.287	424.75
434.509	445.75
434.731	473.75
434.953	453.75
435.175	460.75
435.397	501.75
435.618	527.75
435.84	543.75
436.062	647.75
436.284	717.75
436.505	606.75
436.727	517.75
436.949	487.75
437.17	480.75
437.392	483.75
437.614	498.75
437.835	541.75
438.057	620.75
438.278	721.75
438.5	721.75
438.721	777.75
438.943	739.75
439.165	605.75
439.386	556.75
439.608	536.75
439.829	507.75
440.05	554.75
440.272	613.75
440.493	563.75
440.715	488.75
440.936	476.75
441.158	476.75
441.379	498.75
441.6	481.75
441.822	509.75
442.043	573.75
442.264	626.75
442.486	657.75
442.707	575.75
442.928	531.75
443.149	516.75
443.371	564.75
443.592	589.75
443.813	708.75
444.034	732.75
444.255	604.75
444.476	531.75
444.698	509.75
444.919	496.75
445.14	631.75
445.361	585.75
445.582	572.75
445.803	645.75
446.024	724.75
446.245	725.75
446.466	654.75
446.687	581.75
446.908	539.75
447.129	501.75
447.35	497.75
447.571	487.75
447.792	459.75
448.013	468.75
448.234	521.75
448.455	549.75
448.675	645.75
448.896	769.75
449.117	648.75
449.338	611.75
449.559	699.75
449.779	834.75
450	667.75
450.221	541.75
450.442	480.75
450.662	495.75
450.883	476.75
451.104	507.75
451.324	496.75
451.545	465.75
451.766	436.75
451.986	417.75
452.207	431.75
452.428	417.75
452.648	432.75
452.869	417.75
453.089	426.75
453.31	445.75
453.53	431.75
453.751	405.75
453.971	428.75
454.192	436.75
454.412	435.75
454.633	411.75
454.853	406.75
455.073	422.75
455.294	442.75
455.514	513.75
455.734	511.75
455.955	420.75
456.175	423.75
456.395	390.75
456.616	400.75
456.836	396.75
457.056	393.75
457.276	388.75
457.497	384.75
457.717	385.75
457.937	393.75
458.157	401.75
458.377	423.75
458.598	407.75
458.818	519.75
459.038	545.75
459.258	595.75
459.478	488.75
459.698	452.75
459.918	414.75
460.138	435.75
460.358	416.75
460.578	447.75
460.798	439.75
461.018	457.75
461.238	454.75
461.458	465.75
461.678	437.75
461.898	426.75
462.118	457.75
462.338	450.75
462.558	455.75
462.777	467.75
462.997	455.75
463.217	467.75
463.437	473.75
463.657	464.75
463.876	481.75
464.096	452.75
464.316	490.75
464.536	464.75
464.755	482.75
464.975	469.75
465.195	529.75
465.414	575.75
465.634	525.75
465.854	477.75
466.073	433.75
466.293	434.75
466.512	437.75
466.732	425.75
466.951	443.75
467.171	421.75
467.391	437.75
467.61	408.75
467.829	457.75
468.049	423.75
468.268	428.75
468.488	415.75
468.707	413.75
468.927	419.75
469.146	409.75
469.365	421.75
469.585	429.75
469.804	426.75
470.023	427.75
470.243	427.75
470.462	438.75
470.681	461.75
470.901	460.75
471.12	431.75
471.339	444.75
471.558	431.75
471.777	445.75
471.997	417.75
472.216	425.75
472.435	426.75
472.654	428.75
472.873	428.75
473.092	427.75
473.311	435.75
473.53	431.75
473.749	437.75
473.968	492.75
474.187	589.75
474.406	611.75
474.625	479.75
474.844	456.75
475.063	425.75
475.282	433.75
475.501	424.75
475.72	444.75
475.939	437.75
476.158	440.75
476.377	433.75
476.596	451.75
476.814	446.75
477.033	444.75
477.252	447.75
477.471	436.75
477.69	470.75
477.908	491.75
478.127	483.75
478.346	462.75
478.564	465.75
478.783	452.75
479.002	476.75
479.22	492.75
479.439	489.75
479.658	509.75
479.876	506.75
480.095	512.75
480.313	538.75
480.532	545.75
480.751	506.75
480.969	513.75
481.188	543.75
481.406	539.75
481.624	525.75
481.843	515.75
482.061	486.75
482.28	511.75
482.498	499.75
482.717	488.75
482.935	511.75
483.153	513.75
483.372	495.75
483.59	509.75
483.808	500.75
484.027	509.75
484.245	513.75
484.463	484.75
484.681	516.75
484.9	522.75
485.118	518.75
485.336	531.75
485.554	519.75
485.772	523.75
485.99	528.75
486.209	525.75
486.427	543.75
486.645	559.75
486.863	546.75
487.081	548.75
487.299	521.75
487.517	554.75
487.735	515.75
487.953	522.75
488.171	553.75
488.389	554.75
488.607	516.75
488.825	539.75
489.043	556.75
489.261	550.75
489.479	577.75
489.696	574.75
489.914	551.75
490.132	562.75
490.35	561.75
490.568	561.75
490.786	572.75
491.003	596.75
491.221	611.75
491.439	594.75
491.657	609.75
491.874	615.75
492.092	619.75
492.31	596.75
492.527	622.75
492.745	609.75
492.963	641.75
493.18	634.75
493.398	621.75
493.615	628.75
493.833	647.75
494.05	630.75
494.268	623.75
494.485	625.75
494.703	642.75
494.92	625.75
495.138	649.75
495.355	653.75
495.573	621.75
495.79	645.75
496.008	643.75
496.225	651.75
496.442	664.75
496.66	641.75
496.877	641.75
497.094	661.75
497.312	660.75
497.529	658.75
497.746	642.75
497.963	693.75
498.181	692.75
498.398	707.75
498.615	711.75
498.832	716.75
499.049	743.75
499.267	739.75
499.484	755.75
499.701	778.75
499.918	785.75
500.135	850.75
500.352	838.75
500.569	885.75
500.786	851.75
501.003	821.75
501.22	832.75
501.437	828.75
501.654	805.75
501.871	804.75
