Data from 1989.PennyLincolnUp.Lamp.En5.5.200Scan.071819.P2_HRD10591_17-25-04-973.txt Node
Date: Thu Jul 18 17:25:04 EDT 2019
User: cochatt
Spectrometer: HR+D1059
Trigger mode: 1
Integration Time (sec): 1.000000E-1
Scans to average: 1
Electric dark correction enabled: true
Nonlinearity correction enabled: false
Boxcar width: 0
XAxis mode: Wavelengths
Number of Pixels in Spectrum: 2048
>>>>>Begin Spectral Data<<<<<
223.165	-13.69
223.4	-13.69
223.635	-13.69
223.869	-12.69
224.104	-20.69
224.338	-22.69
224.573	-16.69
224.808	-17.69
225.042	-0.69
225.277	-16.69
225.511	-5.69
225.746	13.31
225.98	2.31
226.215	28.31
226.449	23.31
226.683	12.31
226.918	14.31
227.152	33.31
227.387	37.31
227.621	37.31
227.856	41.31
228.09	54.31
228.324	44.31
228.559	52.31
228.793	74.31
229.027	84.31
229.262	105.31
229.496	107.31
229.73	123.31
229.964	176.31
230.199	126.31
230.433	129.31
230.667	123.31
230.901	110.31
231.136	108.31
231.37	104.31
231.604	95.31
231.838	114.31
232.072	108.31
232.306	114.31
232.541	118.31
232.775	110.31
233.009	121.31
233.243	111.31
233.477	106.31
233.711	118.31
233.945	116.31
234.179	115.31
234.413	123.31
234.647	113.31
234.881	110.31
235.115	131.31
235.349	136.31
235.583	118.31
235.817	128.31
236.051	139.31
236.285	123.31
236.519	120.31
236.753	121.31
236.987	138.31
237.221	171.31
237.455	246.31
237.689	192.31
237.922	143.31
238.156	144.31
238.39	152.31
238.624	119.31
238.858	136.31
239.091	128.31
239.325	115.31
239.559	141.31
239.793	132.31
240.027	128.31
240.26	156.31
240.494	170.31
240.728	153.31
240.961	155.31
241.195	150.31
241.429	146.31
241.662	138.31
241.896	141.31
242.13	129.31
242.363	141.31
242.597	145.31
242.83	132.31
243.064	142.31
243.298	146.31
243.531	142.31
243.765	152.31
243.998	143.31
244.232	147.31
244.465	159.31
244.699	168.31
244.932	147.31
245.166	159.31
245.399	140.31
245.633	144.31
245.866	144.31
246.099	156.31
246.333	164.31
246.566	148.31
246.8	141.31
247.033	164.31
247.266	177.31
247.5	178.31
247.733	167.31
247.966	188.31
248.2	185.31
248.433	187.31
248.666	183.31
248.899	194.31
249.133	228.31
249.366	228.31
249.599	213.31
249.832	195.31
250.066	192.31
250.299	194.31
250.532	198.31
250.765	226.31
250.998	238.31
251.231	228.31
251.465	217.31
251.698	215.31
251.931	208.31
252.164	206.31
252.397	215.31
252.63	210.31
252.863	216.31
253.096	220.31
253.329	258.31
253.562	256.31
253.795	243.31
254.028	240.31
254.261	252.31
254.494	242.31
254.727	281.31
254.96	310.31
255.193	305.31
255.426	276.31
255.659	242.31
255.892	263.31
256.124	253.31
256.357	257.31
256.59	228.31
256.823	237.31
257.056	238.31
257.289	241.31
257.521	241.31
257.754	231.31
257.987	250.31
258.22	236.31
258.452	225.31
258.685	218.31
258.918	225.31
259.151	232.31
259.383	238.31
259.616	240.31
259.849	240.31
260.081	244.31
260.314	288.31
260.547	301.31
260.779	282.31
261.012	265.31
261.244	265.31
261.477	240.31
261.71	257.31
261.942	255.31
262.175	275.31
262.407	242.31
262.64	231.31
262.872	232.31
263.105	239.31
263.337	242.31
263.57	230.31
263.802	226.31
264.035	228.31
264.267	217.31
264.499	232.31
264.732	228.31
264.964	241.31
265.197	228.31
265.429	216.31
265.661	250.31
265.894	243.31
266.126	244.31
266.358	227.31
266.591	232.31
266.823	257.31
267.055	242.31
267.287	233.31
267.52	249.31
267.752	248.31
267.984	256.31
268.216	244.31
268.448	239.31
268.681	249.31
268.913	279.31
269.145	295.31
269.377	309.31
269.609	304.31
269.841	301.31
270.073	300.31
270.306	320.31
270.538	344.31
270.77	359.31
271.002	350.31
271.234	335.31
271.466	327.31
271.698	331.31
271.93	361.31
272.162	339.31
272.394	352.31
272.626	322.31
272.858	323.31
273.09	304.31
273.322	294.31
273.553	297.31
273.785	299.31
274.017	292.31
274.249	305.31
274.481	268.31
274.713	278.31
274.945	290.31
275.176	292.31
275.408	298.31
275.64	304.31
275.872	277.31
276.104	279.31
276.335	282.31
276.567	288.31
276.799	298.31
277.031	322.31
277.262	346.31
277.494	345.31
277.726	351.31
277.957	308.31
278.189	314.31
278.421	291.31
278.652	294.31
278.884	307.31
279.115	292.31
279.347	288.31
279.579	294.31
279.81	280.31
280.042	303.31
280.273	290.31
280.505	305.31
280.736	305.31
280.968	298.31
281.199	293.31
281.431	301.31
281.662	285.31
281.894	292.31
282.125	276.31
282.356	312.31
282.588	359.31
282.819	342.31
283.051	303.31
283.282	297.31
283.513	306.31
283.745	295.31
283.976	308.31
284.207	293.31
284.439	330.31
284.67	312.31
284.901	297.31
285.132	286.31
285.364	299.31
285.595	296.31
285.826	296.31
286.057	303.31
286.288	294.31
286.52	304.31
286.751	284.31
286.982	307.31
287.213	294.31
287.444	301.31
287.675	299.31
287.906	323.31
288.138	304.31
288.369	328.31
288.6	330.31
288.831	307.31
289.062	339.31
289.293	318.31
289.524	310.31
289.755	328.31
289.986	316.31
290.217	306.31
290.448	313.31
290.679	288.31
290.91	298.31
291.141	307.31
291.371	303.31
291.602	307.31
291.833	306.31
292.064	306.31
292.295	304.31
292.526	292.31
292.757	288.31
292.987	314.31
293.218	308.31
293.449	296.31
293.68	304.31
293.91	306.31
294.141	313.31
294.372	318.31
294.603	291.31
294.833	301.31
295.064	311.31
295.295	316.31
295.525	326.31
295.756	330.31
295.987	334.31
296.217	369.31
296.448	349.31
296.679	337.31
296.909	322.31
297.14	323.31
297.37	320.31
297.601	336.31
297.831	320.31
298.062	303.31
298.292	324.31
298.523	333.31
298.753	331.31
298.984	325.31
299.214	331.31
299.445	324.31
299.675	339.31
299.905	329.31
300.136	332.31
300.366	322.31
300.597	330.31
300.827	343.31
301.057	371.31
301.288	348.31
301.518	358.31
301.748	343.31
301.979	337.31
302.209	353.31
302.439	370.31
302.669	354.31
302.9	348.31
303.13	339.31
303.36	363.31
303.59	368.31
303.82	361.31
304.051	368.31
304.281	347.31
304.511	348.31
304.741	366.31
304.971	347.31
305.201	354.31
305.431	360.31
305.661	366.31
305.891	340.31
306.121	352.31
306.352	355.31
306.582	377.31
306.812	368.31
307.042	329.31
307.272	348.31
307.502	356.31
307.731	360.31
307.961	343.31
308.191	351.31
308.421	356.31
308.651	348.31
308.881	355.31
309.111	370.31
309.341	368.31
309.571	372.31
309.8	387.31
310.03	405.31
310.26	404.31
310.49	408.31
310.72	403.31
310.949	420.31
311.179	425.31
311.409	439.31
311.639	416.31
311.868	400.31
312.098	424.31
312.328	415.31
312.557	420.31
312.787	454.31
313.017	446.31
313.246	424.31
313.476	393.31
313.706	419.31
313.935	399.31
314.165	446.31
314.394	423.31
314.624	437.31
314.853	452.31
315.083	388.31
315.312	411.31
315.542	399.31
315.771	410.31
316.001	410.31
316.23	391.31
316.46	398.31
316.689	403.31
316.919	414.31
317.148	414.31
317.377	421.31
317.607	405.31
317.836	417.31
318.065	390.31
318.295	412.31
318.524	380.31
318.753	403.31
318.983	395.31
319.212	407.31
319.441	440.31
319.67	438.31
319.9	411.31
320.129	386.31
320.358	413.31
320.587	407.31
320.816	420.31
321.046	440.31
321.275	441.31
321.504	438.31
321.733	439.31
321.962	442.31
322.191	459.31
322.42	486.31
322.649	499.31
322.878	522.31
323.108	501.31
323.337	539.31
323.566	577.31
323.795	598.31
324.024	662.31
324.253	791.31
324.482	1152.31
324.71	1806.31
324.939	2581.31
325.168	2210.31
325.397	1114.31
325.626	779.31
325.855	643.31
326.084	591.31
326.313	570.31
326.542	568.31
326.77	632.31
326.999	750.31
327.228	1022.31
327.457	1555.31
327.686	1936.31
327.914	1278.31
328.143	840.31
328.372	757.31
328.6	690.31
328.829	667.31
329.058	642.31
329.287	668.31
329.515	607.31
329.744	578.31
329.972	560.31
330.201	561.31
330.43	586.31
330.658	635.31
330.887	659.31
331.115	646.31
331.344	585.31
331.572	538.31
331.801	535.31
332.03	542.31
332.258	509.31
332.486	470.31
332.715	497.31
332.943	486.31
333.172	483.31
333.4	467.31
333.629	486.31
333.857	504.31
334.085	509.31
334.314	506.31
334.542	536.31
334.771	561.31
334.999	514.31
335.227	505.31
335.455	483.31
335.684	465.31
335.912	474.31
336.14	470.31
336.369	442.31
336.597	462.31
336.825	474.31
337.053	482.31
337.281	465.31
337.51	472.31
337.738	449.31
337.966	468.31
338.194	473.31
338.422	466.31
338.65	472.31
338.878	460.31
339.106	457.31
339.334	466.31
339.562	455.31
339.79	452.31
340.018	453.31
340.246	453.31
340.474	467.31
340.702	482.31
340.93	453.31
341.158	457.31
341.386	468.31
341.614	451.31
341.842	452.31
342.07	441.31
342.298	432.31
342.526	439.31
342.754	442.31
342.981	444.31
343.209	411.31
343.437	436.31
343.665	437.31
343.893	432.31
344.12	439.31
344.348	448.31
344.576	460.31
344.804	472.31
345.031	468.31
345.259	500.31
345.487	476.31
345.714	455.31
345.942	447.31
346.17	436.31
346.397	427.31
346.625	422.31
346.853	429.31
347.08	423.31
347.308	449.31
347.535	441.31
347.763	461.31
347.99	454.31
348.218	454.31
348.445	449.31
348.673	444.31
348.9	433.31
349.128	426.31
349.355	432.31
349.583	417.31
349.81	410.31
350.037	424.31
350.265	416.31
350.492	408.31
350.72	438.31
350.947	420.31
351.174	445.31
351.402	462.31
351.629	433.31
351.856	440.31
352.083	454.31
352.311	473.31
352.538	434.31
352.765	449.31
352.992	466.31
353.22	435.31
353.447	421.31
353.674	436.31
353.901	434.31
354.128	403.31
354.355	400.31
354.583	404.31
354.81	414.31
355.037	399.31
355.264	394.31
355.491	392.31
355.718	407.31
355.945	387.31
356.172	397.31
356.399	382.31
356.626	402.31
356.853	383.31
357.08	374.31
357.307	408.31
357.534	377.31
357.761	386.31
357.988	390.31
358.215	405.31
358.441	390.31
358.668	394.31
358.895	400.31
359.122	425.31
359.349	406.31
359.576	421.31
359.802	452.31
360.029	502.31
360.256	518.31
360.483	483.31
360.709	446.31
360.936	438.31
361.163	436.31
361.39	440.31
361.616	408.31
361.843	424.31
362.07	436.31
362.296	426.31
362.523	422.31
362.749	424.31
362.976	430.31
363.203	414.31
363.429	407.31
363.656	419.31
363.882	414.31
364.109	422.31
364.335	397.31
364.562	412.31
364.788	403.31
365.015	410.31
365.241	422.31
365.468	406.31
365.694	424.31
365.92	400.31
366.147	409.31
366.373	405.31
366.599	401.31
366.826	386.31
367.052	394.31
367.278	418.31
367.505	414.31
367.731	427.31
367.957	396.31
368.184	398.31
368.41	437.31
368.636	411.31
368.862	417.31
369.089	410.31
369.315	413.31
369.541	393.31
369.767	406.31
369.993	404.31
370.219	398.31
370.445	414.31
370.672	411.31
370.898	418.31
371.124	398.31
371.35	399.31
371.576	384.31
371.802	384.31
372.028	380.31
372.254	397.31
372.48	392.31
372.706	392.31
372.932	400.31
373.158	406.31
373.384	397.31
373.61	385.31
373.835	374.31
374.061	407.31
374.287	410.31
374.513	415.31
374.739	396.31
374.965	396.31
375.191	385.31
375.416	394.31
375.642	415.31
375.868	420.31
376.094	407.31
376.319	395.31
376.545	402.31
376.771	395.31
376.997	370.31
377.222	389.31
377.448	395.31
377.674	386.31
377.899	379.31
378.125	390.31
378.35	390.31
378.576	372.31
378.802	374.31
379.027	393.31
379.253	392.31
379.478	402.31
379.704	397.31
379.929	393.31
380.155	417.31
380.38	379.31
380.606	390.31
380.831	392.31
381.057	392.31
381.282	411.31
381.507	394.31
381.733	394.31
381.958	407.31
382.184	399.31
382.409	411.31
382.634	398.31
382.86	398.31
383.085	413.31
383.31	397.31
383.535	405.31
383.761	372.31
383.986	412.31
384.211	410.31
384.436	409.31
384.662	408.31
384.887	394.31
385.112	408.31
385.337	420.31
385.562	394.31
385.787	408.31
386.013	420.31
386.238	418.31
386.463	431.31
386.688	414.31
386.913	421.31
387.138	435.31
387.363	412.31
387.588	418.31
387.813	403.31
388.038	400.31
388.263	394.31
388.488	417.31
388.713	402.31
388.938	411.31
389.163	420.31
389.387	401.31
389.612	416.31
389.837	426.31
390.062	394.31
390.287	421.31
390.512	386.31
390.736	419.31
390.961	411.31
391.186	418.31
391.411	410.31
391.636	414.31
391.86	425.31
392.085	429.31
392.31	381.31
392.534	412.31
392.759	426.31
392.984	422.31
393.208	419.31
393.433	421.31
393.658	447.31
393.882	422.31
394.107	388.31
394.331	413.31
394.556	416.31
394.78	400.31
395.005	414.31
395.229	420.31
395.454	417.31
395.678	424.31
395.903	443.31
396.127	458.31
396.352	457.31
396.576	423.31
396.801	405.31
397.025	423.31
397.249	435.31
397.474	414.31
397.698	422.31
397.922	453.31
398.147	465.31
398.371	466.31
398.595	471.31
398.82	471.31
399.044	462.31
399.268	483.31
399.492	481.31
399.717	523.31
399.941	529.31
400.165	574.31
400.389	588.31
400.613	546.31
400.837	500.31
401.062	481.31
401.286	463.31
401.51	455.31
401.734	460.31
401.958	466.31
402.182	462.31
402.406	486.31
402.63	480.31
402.854	470.31
403.078	466.31
403.302	490.31
403.526	487.31
403.75	489.31
403.974	487.31
404.198	464.31
404.422	490.31
404.645	492.31
404.869	486.31
405.093	513.31
405.317	547.31
405.541	577.31
405.765	565.31
405.988	517.31
406.212	512.31
406.436	540.31
406.66	570.31
406.883	540.31
407.107	534.31
407.331	612.31
407.555	635.31
407.778	630.31
408.002	589.31
408.226	529.31
408.449	535.31
408.673	531.31
408.896	553.31
409.12	611.31
409.344	571.31
409.567	499.31
409.791	507.31
410.014	479.31
410.238	478.31
410.461	471.31
410.685	489.31
410.908	504.31
411.132	532.31
411.355	574.31
411.578	558.31
411.802	506.31
412.025	504.31
412.249	490.31
412.472	507.31
412.695	553.31
412.919	544.31
413.142	492.31
413.365	484.31
413.589	472.31
413.812	454.31
414.035	465.31
414.258	448.31
414.482	451.31
414.705	446.31
414.928	462.31
415.151	434.31
415.374	465.31
415.597	460.31
415.821	452.31
416.044	442.31
416.267	438.31
416.49	455.31
416.713	458.31
416.936	466.31
417.159	455.31
417.382	462.31
417.605	438.31
417.828	474.31
418.051	485.31
418.274	493.31
418.497	453.31
418.72	451.31
418.943	452.31
419.166	467.31
419.389	498.31
419.611	476.31
419.834	497.31
420.057	490.31
420.28	475.31
420.503	460.31
420.726	475.31
420.948	498.31
421.171	548.31
421.394	574.31
421.617	508.31
421.839	467.31
422.062	483.31
422.285	498.31
422.507	530.31
422.73	641.31
422.953	626.31
423.175	530.31
423.398	502.31
423.621	488.31
423.843	536.31
424.066	521.31
424.288	535.31
424.511	556.31
424.733	596.31
424.956	652.31
425.178	663.31
425.401	647.31
425.623	681.31
425.846	591.31
426.068	514.31
426.291	531.31
426.513	522.31
426.735	548.31
426.958	576.31
427.18	664.31
427.402	796.31
427.625	847.31
427.847	770.31
428.069	693.31
428.292	601.31
428.514	553.31
428.736	495.31
428.958	513.31
429.181	498.31
429.403	456.31
429.625	506.31
429.847	551.31
430.069	579.31
430.292	629.31
430.514	510.31
430.736	478.31
430.958	474.31
431.18	475.31
431.402	472.31
431.624	443.31
431.846	439.31
432.068	441.31
432.29	437.31
432.512	459.31
432.734	446.31
432.956	450.31
433.178	465.31
433.4	477.31
433.622	440.31
433.844	448.31
434.066	468.31
434.287	484.31
434.509	433.31
434.731	479.31
434.953	468.31
435.175	492.31
435.397	494.31
435.618	508.31
435.84	554.31
436.062	656.31
436.284	756.31
436.505	623.31
436.727	552.31
436.949	502.31
437.17	511.31
437.392	509.31
437.614	522.31
437.835	528.31
438.057	647.31
438.278	771.31
438.5	734.31
438.721	808.31
438.943	747.31
439.165	627.31
439.386	572.31
439.608	544.31
439.829	553.31
440.05	560.31
440.272	620.31
440.493	571.31
440.715	526.31
440.936	524.31
441.158	492.31
441.379	492.31
441.6	484.31
441.822	535.31
442.043	579.31
442.264	671.31
442.486	705.31
442.707	588.31
442.928	531.31
443.149	551.31
443.371	578.31
443.592	622.31
443.813	699.31
444.034	784.31
444.255	632.31
444.476	544.31
444.698	543.31
444.919	522.31
445.14	610.31
445.361	599.31
445.582	573.31
445.803	640.31
446.024	727.31
446.245	744.31
446.466	693.31
446.687	572.31
446.908	528.31
447.129	502.31
447.35	485.31
447.571	506.31
447.792	465.31
448.013	486.31
448.234	500.31
448.455	574.31
448.675	672.31
448.896	776.31
449.117	665.31
449.338	646.31
449.559	756.31
449.779	847.31
450	670.31
450.221	531.31
450.442	495.31
450.662	465.31
450.883	499.31
451.104	522.31
451.324	487.31
451.545	450.31
451.766	448.31
451.986	426.31
452.207	421.31
452.428	435.31
452.648	457.31
452.869	430.31
453.089	440.31
453.31	453.31
453.53	456.31
453.751	450.31
453.971	423.31
454.192	460.31
454.412	451.31
454.633	436.31
454.853	413.31
455.073	425.31
455.294	458.31
455.514	543.31
455.734	515.31
455.955	420.31
456.175	423.31
456.395	426.31
456.616	393.31
456.836	409.31
457.056	399.31
457.276	375.31
457.497	415.31
457.717	407.31
457.937	405.31
458.157	394.31
458.377	435.31
458.598	451.31
458.818	522.31
459.038	579.31
459.258	602.31
459.478	518.31
459.698	484.31
459.918	447.31
460.138	445.31
460.358	447.31
460.578	430.31
460.798	446.31
461.018	437.31
461.238	448.31
461.458	435.31
461.678	436.31
461.898	451.31
462.118	446.31
462.338	470.31
462.558	457.31
462.777	470.31
462.997	462.31
463.217	484.31
463.437	494.31
463.657	485.31
463.876	465.31
464.096	471.31
464.316	467.31
464.536	482.31
464.755	484.31
464.975	483.31
465.195	535.31
465.414	640.31
465.634	522.31
465.854	501.31
466.073	457.31
466.293	453.31
466.512	439.31
466.732	439.31
466.951	418.31
467.171	440.31
467.391	429.31
467.61	454.31
467.829	449.31
468.049	446.31
468.268	444.31
468.488	424.31
468.707	405.31
468.927	438.31
469.146	410.31
469.365	425.31
469.585	437.31
469.804	437.31
470.023	447.31
470.243	444.31
470.462	464.31
470.681	491.31
470.901	488.31
471.12	470.31
471.339	460.31
471.558	442.31
471.777	440.31
471.997	434.31
472.216	416.31
472.435	461.31
472.654	480.31
472.873	443.31
473.092	446.31
473.311	444.31
473.53	441.31
473.749	463.31
473.968	517.31
474.187	594.31
474.406	632.31
474.625	520.31
474.844	463.31
475.063	450.31
475.282	446.31
475.501	452.31
475.72	464.31
475.939	450.31
476.158	443.31
476.377	452.31
476.596	450.31
476.814	468.31
477.033	448.31
477.252	477.31
477.471	474.31
477.69	482.31
477.908	479.31
478.127	462.31
478.346	469.31
478.564	482.31
478.783	480.31
479.002	483.31
479.22	517.31
479.439	530.31
479.658	539.31
479.876	546.31
480.095	545.31
480.313	562.31
480.532	574.31
480.751	558.31
480.969	543.31
481.188	610.31
481.406	627.31
481.624	558.31
481.843	518.31
482.061	534.31
482.28	523.31
482.498	523.31
482.717	525.31
482.935	526.31
483.153	515.31
483.372	537.31
483.59	504.31
483.808	519.31
484.027	510.31
484.245	528.31
484.463	519.31
484.681	523.31
484.9	531.31
485.118	520.31
485.336	539.31
485.554	535.31
485.772	535.31
485.99	544.31
486.209	529.31
486.427	550.31
486.645	544.31
486.863	567.31
487.081	575.31
487.299	576.31
487.517	554.31
487.735	564.31
487.953	581.31
488.171	570.31
488.389	580.31
488.607	570.31
488.825	563.31
489.043	572.31
489.261	548.31
489.479	570.31
489.696	587.31
489.914	586.31
490.132	593.31
490.35	589.31
490.568	576.31
490.786	593.31
491.003	586.31
491.221	629.31
491.439	616.31
491.657	638.31
491.874	642.31
492.092	642.31
492.31	659.31
492.527	652.31
492.745	660.31
492.963	665.31
493.18	663.31
493.398	682.31
493.615	674.31
493.833	666.31
494.05	665.31
494.268	654.31
494.485	661.31
494.703	652.31
494.92	682.31
495.138	691.31
495.355	663.31
495.573	673.31
495.79	679.31
496.008	667.31
496.225	676.31
496.442	672.31
496.66	678.31
496.877	654.31
497.094	658.31
497.312	685.31
497.529	662.31
497.746	690.31
497.963	692.31
498.181	695.31
498.398	722.31
498.615	724.31
498.832	744.31
499.049	754.31
499.267	720.31
499.484	756.31
499.701	787.31
499.918	822.31
500.135	830.31
500.352	863.31
500.569	882.31
500.786	862.31
501.003	878.31
501.22	869.31
501.437	832.31
501.654	789.31
501.871	832.31
