Data from 1989.PennyLincolnUp.Lamp.En5.5.200Scan.071819.P2_HRD10591_17-26-20-974.txt Node
Date: Thu Jul 18 17:26:20 EDT 2019
User: cochatt
Spectrometer: HR+D1059
Trigger mode: 1
Integration Time (sec): 1.000000E-1
Scans to average: 1
Electric dark correction enabled: true
Nonlinearity correction enabled: false
Boxcar width: 0
XAxis mode: Wavelengths
Number of Pixels in Spectrum: 2048
>>>>>Begin Spectral Data<<<<<
223.165	-16.5
223.4	-16.5
223.635	-16.5
223.869	-26.5
224.104	-12.5
224.338	-20.5
224.573	-8.5
224.808	-9.5
225.042	0.5
225.277	-1.5
225.511	-2.5
225.746	9.5
225.98	6.5
226.215	8.5
226.449	16.5
226.683	18.5
226.918	16.5
227.152	21.5
227.387	26.5
227.621	27.5
227.856	53.5
228.09	65.5
228.324	51.5
228.559	72.5
228.793	74.5
229.027	101.5
229.262	108.5
229.496	126.5
229.73	139.5
229.964	172.5
230.199	147.5
230.433	112.5
230.667	119.5
230.901	127.5
231.136	117.5
231.37	125.5
231.604	115.5
231.838	105.5
232.072	136.5
232.306	116.5
232.541	133.5
232.775	119.5
233.009	124.5
233.243	117.5
233.477	116.5
233.711	127.5
233.945	114.5
234.179	131.5
234.413	126.5
234.647	134.5
234.881	134.5
235.115	132.5
235.349	125.5
235.583	142.5
235.817	123.5
236.051	137.5
236.285	117.5
236.519	142.5
236.753	142.5
236.987	169.5
237.221	189.5
237.455	249.5
237.689	219.5
237.922	161.5
238.156	143.5
238.39	138.5
238.624	117.5
238.858	135.5
239.091	133.5
239.325	132.5
239.559	139.5
239.793	132.5
240.027	132.5
240.26	159.5
240.494	152.5
240.728	141.5
240.961	167.5
241.195	168.5
241.429	159.5
241.662	134.5
241.896	155.5
242.13	127.5
242.363	132.5
242.597	146.5
242.83	146.5
243.064	143.5
243.298	158.5
243.531	153.5
243.765	157.5
243.998	156.5
244.232	161.5
244.465	162.5
244.699	168.5
244.932	168.5
245.166	162.5
245.399	156.5
245.633	166.5
245.866	166.5
246.099	159.5
246.333	182.5
246.566	167.5
246.8	160.5
247.033	171.5
247.266	188.5
247.5	187.5
247.733	187.5
247.966	184.5
248.2	203.5
248.433	183.5
248.666	202.5
248.899	215.5
249.133	227.5
249.366	242.5
249.599	229.5
249.832	217.5
250.066	212.5
250.299	213.5
250.532	239.5
250.765	262.5
250.998	278.5
251.231	270.5
251.465	263.5
251.698	228.5
251.931	236.5
252.164	228.5
252.397	221.5
252.63	231.5
252.863	246.5
253.096	249.5
253.329	268.5
253.562	270.5
253.795	248.5
254.028	250.5
254.261	270.5
254.494	264.5
254.727	301.5
254.96	334.5
255.193	321.5
255.426	286.5
255.659	286.5
255.892	264.5
256.124	291.5
256.357	320.5
256.59	284.5
256.823	275.5
257.056	271.5
257.289	262.5
257.521	267.5
257.754	247.5
257.987	238.5
258.22	242.5
258.452	269.5
258.685	260.5
258.918	260.5
259.151	254.5
259.383	269.5
259.616	262.5
259.849	260.5
260.081	282.5
260.314	284.5
260.547	298.5
260.779	300.5
261.012	292.5
261.244	259.5
261.477	259.5
261.71	264.5
261.942	271.5
262.175	272.5
262.407	262.5
262.64	260.5
262.872	244.5
263.105	261.5
263.337	245.5
263.57	240.5
263.802	258.5
264.035	237.5
264.267	222.5
264.499	233.5
264.732	248.5
264.964	246.5
265.197	254.5
265.429	233.5
265.661	270.5
265.894	250.5
266.126	239.5
266.358	228.5
266.591	248.5
266.823	247.5
267.055	267.5
267.287	262.5
267.52	254.5
267.752	275.5
267.984	260.5
268.216	261.5
268.448	262.5
268.681	257.5
268.913	285.5
269.145	298.5
269.377	303.5
269.609	319.5
269.841	336.5
270.073	312.5
270.306	330.5
270.538	373.5
270.77	370.5
271.002	346.5
271.234	337.5
271.466	360.5
271.698	367.5
271.93	365.5
272.162	382.5
272.394	370.5
272.626	355.5
272.858	336.5
273.09	341.5
273.322	316.5
273.553	303.5
273.785	301.5
274.017	312.5
274.249	308.5
274.481	323.5
274.713	295.5
274.945	328.5
275.176	320.5
275.408	309.5
275.64	324.5
275.872	303.5
276.104	313.5
276.335	307.5
276.567	321.5
276.799	333.5
277.031	348.5
277.262	372.5
277.494	370.5
277.726	346.5
277.957	342.5
278.189	331.5
278.421	294.5
278.652	301.5
278.884	290.5
279.115	312.5
279.347	308.5
279.579	319.5
279.81	326.5
280.042	309.5
280.273	301.5
280.505	310.5
280.736	304.5
280.968	306.5
281.199	316.5
281.431	294.5
281.662	301.5
281.894	308.5
282.125	305.5
282.356	321.5
282.588	354.5
282.819	355.5
283.051	315.5
283.282	319.5
283.513	309.5
283.745	304.5
283.976	331.5
284.207	347.5
284.439	333.5
284.67	323.5
284.901	307.5
285.132	315.5
285.364	317.5
285.595	314.5
285.826	321.5
286.057	307.5
286.288	321.5
286.52	314.5
286.751	307.5
286.982	312.5
287.213	326.5
287.444	311.5
287.675	322.5
287.906	328.5
288.138	344.5
288.369	344.5
288.6	350.5
288.831	338.5
289.062	335.5
289.293	330.5
289.524	331.5
289.755	333.5
289.986	328.5
290.217	315.5
290.448	326.5
290.679	330.5
290.91	327.5
291.141	325.5
291.371	304.5
291.602	335.5
291.833	320.5
292.064	317.5
292.295	330.5
292.526	327.5
292.757	337.5
292.987	325.5
293.218	332.5
293.449	316.5
293.68	326.5
293.91	328.5
294.141	331.5
294.372	341.5
294.603	321.5
294.833	316.5
295.064	323.5
295.295	315.5
295.525	320.5
295.756	335.5
295.987	322.5
296.217	366.5
296.448	385.5
296.679	334.5
296.909	338.5
297.14	338.5
297.37	348.5
297.601	333.5
297.831	328.5
298.062	335.5
298.292	341.5
298.523	351.5
298.753	342.5
298.984	332.5
299.214	375.5
299.445	346.5
299.675	347.5
299.905	341.5
300.136	354.5
300.366	365.5
300.597	359.5
300.827	349.5
301.057	372.5
301.288	374.5
301.518	376.5
301.748	371.5
301.979	378.5
302.209	365.5
302.439	374.5
302.669	364.5
302.9	378.5
303.13	361.5
303.36	361.5
303.59	373.5
303.82	356.5
304.051	371.5
304.281	364.5
304.511	359.5
304.741	347.5
304.971	363.5
305.201	351.5
305.431	356.5
305.661	373.5
305.891	357.5
306.121	355.5
306.352	380.5
306.582	378.5
306.812	354.5
307.042	376.5
307.272	394.5
307.502	384.5
307.731	389.5
307.961	381.5
308.191	380.5
308.421	374.5
308.651	376.5
308.881	402.5
309.111	378.5
309.341	374.5
309.571	418.5
309.8	401.5
310.03	415.5
310.26	428.5
310.49	404.5
310.72	427.5
310.949	452.5
311.179	459.5
311.409	432.5
311.639	423.5
311.868	418.5
312.098	437.5
312.328	453.5
312.557	477.5
312.787	488.5
313.017	452.5
313.246	441.5
313.476	406.5
313.706	425.5
313.935	455.5
314.165	443.5
314.394	459.5
314.624	459.5
314.853	430.5
315.083	432.5
315.312	431.5
315.542	444.5
315.771	434.5
316.001	405.5
316.23	400.5
316.46	407.5
316.689	442.5
316.919	434.5
317.148	434.5
317.377	453.5
317.607	429.5
317.836	404.5
318.065	427.5
318.295	428.5
318.524	430.5
318.753	414.5
318.983	428.5
319.212	432.5
319.441	469.5
319.67	436.5
319.9	433.5
320.129	461.5
320.358	422.5
320.587	413.5
320.816	458.5
321.046	470.5
321.275	434.5
321.504	450.5
321.733	468.5
321.962	494.5
322.191	498.5
322.42	513.5
322.649	505.5
322.878	522.5
323.108	530.5
323.337	583.5
323.566	609.5
323.795	645.5
324.024	704.5
324.253	837.5
324.482	1234.5
324.71	1890.5
324.939	2706.5
325.168	2380.5
325.397	1202.5
325.626	792.5
325.855	668.5
326.084	613.5
326.313	592.5
326.542	598.5
326.77	631.5
326.999	767.5
327.228	1090.5
327.457	1659.5
327.686	1999.5
327.914	1343.5
328.143	899.5
328.372	801.5
328.6	733.5
328.829	693.5
329.058	686.5
329.287	704.5
329.515	669.5
329.744	639.5
329.972	616.5
330.201	691.5
330.43	721.5
330.658	768.5
330.887	745.5
331.115	708.5
331.344	630.5
331.572	572.5
331.801	572.5
332.03	566.5
332.258	571.5
332.486	539.5
332.715	506.5
332.943	528.5
333.172	542.5
333.4	533.5
333.629	571.5
333.857	586.5
334.085	597.5
334.314	662.5
334.542	713.5
334.771	734.5
334.999	639.5
335.227	582.5
335.455	553.5
335.684	534.5
335.912	516.5
336.14	498.5
336.369	498.5
336.597	519.5
336.825	523.5
337.053	509.5
337.281	484.5
337.51	500.5
337.738	510.5
337.966	464.5
338.194	485.5
338.422	484.5
338.65	493.5
338.878	471.5
339.106	463.5
339.334	458.5
339.562	462.5
339.79	474.5
340.018	466.5
340.246	486.5
340.474	474.5
340.702	478.5
340.93	469.5
341.158	468.5
341.386	471.5
341.614	477.5
341.842	502.5
342.07	470.5
342.298	481.5
342.526	454.5
342.754	446.5
342.981	454.5
343.209	454.5
343.437	475.5
343.665	450.5
343.893	468.5
344.12	497.5
344.348	486.5
344.576	482.5
344.804	483.5
345.031	483.5
345.259	521.5
345.487	484.5
345.714	459.5
345.942	497.5
346.17	470.5
346.397	444.5
346.625	466.5
346.853	436.5
347.08	453.5
347.308	468.5
347.535	483.5
347.763	471.5
347.99	459.5
348.218	459.5
348.445	485.5
348.673	470.5
348.9	442.5
349.128	451.5
349.355	445.5
349.583	448.5
349.81	436.5
350.037	432.5
350.265	440.5
350.492	424.5
350.72	450.5
350.947	438.5
351.174	455.5
351.402	476.5
351.629	468.5
351.856	456.5
352.083	473.5
352.311	482.5
352.538	461.5
352.765	451.5
352.992	454.5
353.22	462.5
353.447	455.5
353.674	450.5
353.901	440.5
354.128	446.5
354.355	426.5
354.583	408.5
354.81	419.5
355.037	411.5
355.264	401.5
355.491	413.5
355.718	399.5
355.945	422.5
356.172	403.5
356.399	399.5
356.626	429.5
356.853	411.5
357.08	408.5
357.307	409.5
357.534	411.5
357.761	406.5
357.988	415.5
358.215	396.5
358.441	427.5
358.668	437.5
358.895	422.5
359.122	421.5
359.349	450.5
359.576	461.5
359.802	468.5
360.029	521.5
360.256	519.5
360.483	476.5
360.709	474.5
360.936	459.5
361.163	461.5
361.39	458.5
361.616	448.5
361.843	451.5
362.07	452.5
362.296	432.5
362.523	442.5
362.749	455.5
362.976	430.5
363.203	413.5
363.429	414.5
363.656	440.5
363.882	425.5
364.109	454.5
364.335	431.5
364.562	449.5
364.788	428.5
365.015	399.5
365.241	420.5
365.468	422.5
365.694	428.5
365.92	438.5
366.147	421.5
366.373	449.5
366.599	422.5
366.826	435.5
367.052	411.5
367.278	430.5
367.505	421.5
367.731	434.5
367.957	415.5
368.184	432.5
368.41	442.5
368.636	435.5
368.862	440.5
369.089	431.5
369.315	422.5
369.541	415.5
369.767	408.5
369.993	415.5
370.219	422.5
370.445	422.5
370.672	397.5
370.898	415.5
371.124	415.5
371.35	420.5
371.576	410.5
371.802	416.5
372.028	407.5
372.254	397.5
372.48	394.5
372.706	427.5
372.932	409.5
373.158	406.5
373.384	435.5
373.61	409.5
373.835	405.5
374.061	408.5
374.287	430.5
374.513	403.5
374.739	422.5
374.965	407.5
375.191	415.5
375.416	409.5
375.642	422.5
375.868	395.5
376.094	397.5
376.319	407.5
376.545	405.5
376.771	406.5
376.997	401.5
377.222	379.5
377.448	408.5
377.674	417.5
377.899	410.5
378.125	395.5
378.35	407.5
378.576	394.5
378.802	408.5
379.027	404.5
379.253	401.5
379.478	390.5
379.704	397.5
379.929	390.5
380.155	407.5
380.38	402.5
380.606	402.5
380.831	396.5
381.057	402.5
381.282	396.5
381.507	405.5
381.733	423.5
381.958	395.5
382.184	415.5
382.409	419.5
382.634	415.5
382.86	397.5
383.085	406.5
383.31	422.5
383.535	412.5
383.761	406.5
383.986	412.5
384.211	407.5
384.436	413.5
384.662	443.5
384.887	422.5
385.112	414.5
385.337	407.5
385.562	424.5
385.787	432.5
386.013	446.5
386.238	450.5
386.463	425.5
386.688	437.5
386.913	425.5
387.138	424.5
387.363	442.5
387.588	418.5
387.813	444.5
388.038	407.5
388.263	418.5
388.488	418.5
388.713	431.5
388.938	435.5
389.163	422.5
389.387	451.5
389.612	440.5
389.837	434.5
390.062	423.5
390.287	432.5
390.512	436.5
390.736	416.5
390.961	415.5
391.186	419.5
391.411	419.5
391.636	425.5
391.86	437.5
392.085	413.5
392.31	448.5
392.534	436.5
392.759	427.5
392.984	438.5
393.208	421.5
393.433	443.5
393.658	438.5
393.882	447.5
394.107	421.5
394.331	415.5
394.556	423.5
394.78	407.5
395.005	436.5
395.229	437.5
395.454	447.5
395.678	424.5
395.903	420.5
396.127	474.5
396.352	477.5
396.576	465.5
396.801	429.5
397.025	458.5
397.249	438.5
397.474	462.5
397.698	459.5
397.922	450.5
398.147	491.5
398.371	478.5
398.595	482.5
398.82	482.5
399.044	471.5
399.268	486.5
399.492	516.5
399.717	531.5
399.941	562.5
400.165	585.5
400.389	588.5
400.613	544.5
400.837	514.5
401.062	494.5
401.286	484.5
401.51	491.5
401.734	475.5
401.958	489.5
402.182	492.5
402.406	503.5
402.63	508.5
402.854	500.5
403.078	485.5
403.302	512.5
403.526	524.5
403.75	517.5
403.974	499.5
404.198	510.5
404.422	536.5
404.645	516.5
404.869	532.5
405.093	559.5
405.317	610.5
405.541	656.5
405.765	595.5
405.988	574.5
406.212	566.5
406.436	568.5
406.66	589.5
406.883	588.5
407.107	571.5
407.331	604.5
407.555	692.5
407.778	689.5
408.002	637.5
408.226	579.5
408.449	578.5
408.673	541.5
408.896	597.5
409.12	632.5
409.344	620.5
409.567	532.5
409.791	532.5
410.014	509.5
410.238	536.5
410.461	507.5
410.685	515.5
410.908	531.5
411.132	578.5
411.355	598.5
411.578	564.5
411.802	524.5
412.025	507.5
412.249	539.5
412.472	557.5
412.695	608.5
412.919	604.5
413.142	555.5
413.365	525.5
413.589	523.5
413.812	494.5
414.035	470.5
414.258	509.5
414.482	470.5
414.705	478.5
414.928	479.5
415.151	487.5
415.374	476.5
415.597	474.5
415.821	454.5
416.044	484.5
416.267	501.5
416.49	481.5
416.713	473.5
416.936	483.5
417.159	466.5
417.382	498.5
417.605	460.5
417.828	496.5
418.051	501.5
418.274	521.5
418.497	479.5
418.72	463.5
418.943	474.5
419.166	500.5
419.389	522.5
419.611	509.5
419.834	508.5
420.057	503.5
420.28	514.5
420.503	516.5
420.726	529.5
420.948	527.5
421.171	562.5
421.394	581.5
421.617	533.5
421.839	519.5
422.062	500.5
422.285	514.5
422.507	585.5
422.73	675.5
422.953	626.5
423.175	557.5
423.398	532.5
423.621	524.5
423.843	555.5
424.066	540.5
424.288	533.5
424.511	564.5
424.733	634.5
424.956	704.5
425.178	672.5
425.401	663.5
425.623	700.5
425.846	590.5
426.068	551.5
426.291	532.5
426.513	557.5
426.735	543.5
426.958	609.5
427.18	695.5
427.402	821.5
427.625	909.5
427.847	820.5
428.069	731.5
428.292	619.5
428.514	576.5
428.736	532.5
428.958	544.5
429.181	514.5
429.403	502.5
429.625	525.5
429.847	549.5
430.069	631.5
430.292	632.5
430.514	548.5
430.736	497.5
430.958	498.5
431.18	476.5
431.402	480.5
431.624	479.5
431.846	480.5
432.068	462.5
432.29	476.5
432.512	457.5
432.734	498.5
432.956	472.5
433.178	487.5
433.4	489.5
433.622	480.5
433.844	444.5
434.066	448.5
434.287	479.5
434.509	467.5
434.731	473.5
434.953	490.5
435.175	506.5
435.397	521.5
435.618	540.5
435.84	605.5
436.062	699.5
436.284	759.5
436.505	634.5
436.727	555.5
436.949	523.5
437.17	517.5
437.392	502.5
437.614	528.5
437.835	555.5
438.057	653.5
438.278	754.5
438.5	778.5
438.721	853.5
438.943	778.5
439.165	621.5
439.386	578.5
439.608	564.5
439.829	575.5
440.05	599.5
440.272	640.5
440.493	615.5
440.715	576.5
440.936	517.5
441.158	517.5
441.379	519.5
441.6	510.5
441.822	542.5
442.043	582.5
442.264	664.5
442.486	706.5
442.707	625.5
442.928	578.5
443.149	569.5
443.371	587.5
443.592	618.5
443.813	712.5
444.034	796.5
444.255	666.5
444.476	589.5
444.698	570.5
444.919	556.5
445.14	655.5
445.361	612.5
445.582	608.5
445.803	670.5
446.024	775.5
446.245	771.5
446.466	716.5
446.687	602.5
446.908	564.5
447.129	525.5
447.35	507.5
447.571	513.5
447.792	524.5
448.013	530.5
448.234	526.5
448.455	575.5
448.675	708.5
448.896	806.5
449.117	710.5
449.338	649.5
449.559	772.5
449.779	889.5
450	707.5
450.221	559.5
450.442	543.5
450.662	498.5
450.883	548.5
451.104	519.5
451.324	500.5
451.545	485.5
451.766	479.5
451.986	454.5
452.207	444.5
452.428	448.5
452.648	441.5
452.869	455.5
453.089	478.5
453.31	467.5
453.53	468.5
453.751	456.5
453.971	468.5
454.192	473.5
454.412	460.5
454.633	444.5
454.853	425.5
455.073	431.5
455.294	484.5
455.514	563.5
455.734	556.5
455.955	447.5
456.175	424.5
456.395	419.5
456.616	432.5
456.836	400.5
457.056	411.5
457.276	417.5
457.497	389.5
457.717	413.5
457.937	436.5
458.157	429.5
458.377	415.5
458.598	449.5
458.818	514.5
459.038	594.5
459.258	642.5
459.478	530.5
459.698	465.5
459.918	474.5
460.138	475.5
460.358	464.5
460.578	450.5
460.798	455.5
461.018	471.5
461.238	455.5
461.458	441.5
461.678	459.5
461.898	463.5
462.118	447.5
462.338	476.5
462.558	460.5
462.777	481.5
462.997	478.5
463.217	478.5
463.437	489.5
463.657	465.5
463.876	472.5
464.096	475.5
464.316	491.5
464.536	501.5
464.755	512.5
464.975	504.5
465.195	566.5
465.414	619.5
465.634	560.5
465.854	509.5
466.073	483.5
466.293	491.5
466.512	458.5
466.732	467.5
466.951	438.5
467.171	463.5
467.391	454.5
467.61	490.5
467.829	475.5
468.049	492.5
468.268	475.5
468.488	465.5
468.707	437.5
468.927	449.5
469.146	427.5
469.365	438.5
469.585	447.5
469.804	443.5
470.023	468.5
470.243	459.5
470.462	475.5
470.681	484.5
470.901	479.5
471.12	469.5
471.339	478.5
471.558	478.5
471.777	471.5
471.997	489.5
472.216	485.5
472.435	559.5
472.654	543.5
472.873	483.5
473.092	476.5
473.311	478.5
473.53	485.5
473.749	473.5
473.968	543.5
474.187	631.5
474.406	659.5
474.625	552.5
474.844	498.5
475.063	462.5
475.282	465.5
475.501	478.5
475.72	460.5
475.939	492.5
476.158	481.5
476.377	476.5
476.596	487.5
476.814	475.5
477.033	481.5
477.252	480.5
477.471	503.5
477.69	498.5
477.908	506.5
478.127	471.5
478.346	514.5
478.564	482.5
478.783	515.5
479.002	512.5
479.22	518.5
479.439	541.5
479.658	548.5
479.876	538.5
480.095	574.5
480.313	588.5
480.532	551.5
480.751	580.5
480.969	623.5
481.188	714.5
481.406	813.5
481.624	666.5
481.843	607.5
482.061	589.5
482.28	568.5
482.498	581.5
482.717	537.5
482.935	554.5
483.153	521.5
483.372	565.5
483.59	562.5
483.808	544.5
484.027	551.5
484.245	541.5
484.463	542.5
484.681	555.5
484.9	565.5
485.118	571.5
485.336	540.5
485.554	534.5
485.772	569.5
485.99	572.5
486.209	580.5
486.427	566.5
486.645	583.5
486.863	603.5
487.081	599.5
487.299	581.5
487.517	591.5
487.735	574.5
487.953	607.5
488.171	583.5
488.389	600.5
488.607	596.5
488.825	581.5
489.043	617.5
489.261	588.5
489.479	592.5
489.696	604.5
489.914	614.5
490.132	611.5
490.35	621.5
490.568	618.5
490.786	637.5
491.003	642.5
491.221	666.5
491.439	655.5
491.657	682.5
491.874	670.5
492.092	706.5
492.31	680.5
492.527	692.5
492.745	721.5
492.963	700.5
493.18	737.5
493.398	704.5
493.615	730.5
493.833	709.5
494.05	732.5
494.268	711.5
494.485	694.5
494.703	707.5
494.92	729.5
495.138	735.5
495.355	692.5
495.573	693.5
495.79	705.5
496.008	747.5
496.225	707.5
496.442	710.5
496.66	718.5
496.877	683.5
497.094	712.5
497.312	716.5
497.529	723.5
497.746	724.5
497.963	730.5
498.181	751.5
498.398	736.5
498.615	740.5
498.832	787.5
499.049	787.5
499.267	762.5
499.484	798.5
499.701	822.5
499.918	846.5
500.135	870.5
500.352	868.5
500.569	891.5
500.786	882.5
501.003	889.5
501.22	870.5
501.437	857.5
501.654	877.5
501.871	846.5
502.088	826.5
502.305	783.5
502.522	776.5
502.739	762.5
502.956	752.5
503.172	738.5
503.389	719.5
503.606	715.5
503.823	688.5
504.04	687.5
504.256	710.5
504.473	674.5
504.69	666.5
504.907	690.5
505.123	666.5
505.34	698.5
505.557	677.5
505.773	678.5
505.99	671.5
506.207	640.5
506.423	679.5
506.64	671.5
506.856	664.5
507.073	671.5
507.289	653.5
507.506	657.5
507.722	654.5
507.939	675.5
508.155	655.5
508.372	653.5
508.588	635.5
508.805	645.5
509.021	665.5
509.238	661.5
509.454	644.5
509.67	664.5
509.887	645.5
510.103	640.5
510.319	672.5
510.536	747.5
510.752	1272.5
510.968	1037.5
511.184	674.5
511.401	646.5
511.617	619.5
511.833	606.5
512.049	624.5
512.265	634.5
512.481	624.5
512.698	608.5
512.914	616.5
513.13	607.5
513.346	602.5
513.562	622.5
513.778	611.5
513.994	622.5
514.21	622.5
514.426	645.5
514.642	708.5
514.858	739.5
515.074	795.5
515.29	932.5
515.506	1380.5
515.721	1143.5
515.937	750.5
516.153	694.5
516.369	648.5
516.585	626.5
516.801	638.5
517.016	616.5
517.232	629.5
517.448	596.5
517.664	601.5
517.879	595.5
518.095	618.5
518.311	607.5
518.527	589.5
518.742	616.5
518.958	588.5
519.173	606.5
519.389	606.5
519.605	619.5
519.82	620.5
