Data from 1989.PennyLincolnUp.Lamp.En5.5.200Scan.071819.P2_HRD10591_17-25-02-973.txt Node
Date: Thu Jul 18 17:25:02 EDT 2019
User: cochatt
Spectrometer: HR+D1059
Trigger mode: 1
Integration Time (sec): 1.000000E-1
Scans to average: 1
Electric dark correction enabled: true
Nonlinearity correction enabled: false
Boxcar width: 0
XAxis mode: Wavelengths
Number of Pixels in Spectrum: 2048
>>>>>Begin Spectral Data<<<<<
223.165	-21.56
223.4	-21.56
223.635	-21.56
223.869	-14.56
224.104	-5.56
224.338	-18.56
224.573	-15.56
224.808	-21.56
225.042	5.44
225.277	-3.56
225.511	3.44
225.746	-13.56
225.98	16.44
226.215	20.44
226.449	2.44
226.683	22.44
226.918	12.44
227.152	31.44
227.387	23.44
227.621	38.44
227.856	45.44
228.09	53.44
228.324	40.44
228.559	64.44
228.793	85.44
229.027	90.44
229.262	107.44
229.496	122.44
229.73	130.44
229.964	164.44
230.199	107.44
230.433	121.44
230.667	100.44
230.901	127.44
231.136	115.44
231.37	120.44
231.604	104.44
231.838	106.44
232.072	128.44
232.306	103.44
232.541	104.44
232.775	111.44
233.009	116.44
233.243	105.44
233.477	99.44
233.711	123.44
233.945	121.44
234.179	129.44
234.413	122.44
234.647	117.44
234.881	122.44
235.115	117.44
235.349	125.44
235.583	130.44
235.817	123.44
236.051	123.44
236.285	125.44
236.519	144.44
236.753	149.44
236.987	152.44
237.221	179.44
237.455	263.44
237.689	175.44
237.922	132.44
238.156	131.44
238.39	145.44
238.624	124.44
238.858	132.44
239.091	129.44
239.325	123.44
239.559	133.44
239.793	133.44
240.027	144.44
240.26	147.44
240.494	159.44
240.728	155.44
240.961	164.44
241.195	155.44
241.429	137.44
241.662	140.44
241.896	142.44
242.13	166.44
242.363	140.44
242.597	137.44
242.83	149.44
243.064	139.44
243.298	159.44
243.531	147.44
243.765	149.44
243.998	147.44
244.232	136.44
244.465	142.44
244.699	147.44
244.932	151.44
245.166	151.44
245.399	144.44
245.633	154.44
245.866	156.44
246.099	157.44
246.333	147.44
246.566	155.44
246.8	157.44
247.033	166.44
247.266	165.44
247.5	164.44
247.733	185.44
247.966	188.44
248.2	177.44
248.433	179.44
248.666	186.44
248.899	188.44
249.133	212.44
249.366	228.44
249.599	220.44
249.832	199.44
250.066	194.44
250.299	213.44
250.532	204.44
250.765	231.44
250.998	237.44
251.231	236.44
251.465	228.44
251.698	229.44
251.931	227.44
252.164	224.44
252.397	209.44
252.63	216.44
252.863	218.44
253.096	218.44
253.329	236.44
253.562	244.44
253.795	243.44
254.028	241.44
254.261	236.44
254.494	267.44
254.727	287.44
254.96	309.44
255.193	308.44
255.426	281.44
255.659	240.44
255.892	253.44
256.124	246.44
256.357	244.44
256.59	245.44
256.823	232.44
257.056	251.44
257.289	237.44
257.521	235.44
257.754	215.44
257.987	227.44
258.22	223.44
258.452	229.44
258.685	202.44
258.918	233.44
259.151	236.44
259.383	235.44
259.616	267.44
259.849	257.44
260.081	258.44
260.314	279.44
260.547	269.44
260.779	279.44
261.012	257.44
261.244	236.44
261.477	228.44
261.71	227.44
261.942	257.44
262.175	275.44
262.407	253.44
262.64	230.44
262.872	236.44
263.105	225.44
263.337	239.44
263.57	241.44
263.802	247.44
264.035	226.44
264.267	234.44
264.499	221.44
264.732	254.44
264.964	236.44
265.197	242.44
265.429	224.44
265.661	235.44
265.894	231.44
266.126	226.44
266.358	246.44
266.591	238.44
266.823	245.44
267.055	251.44
267.287	259.44
267.52	245.44
267.752	251.44
267.984	229.44
268.216	229.44
268.448	260.44
268.681	263.44
268.913	282.44
269.145	282.44
269.377	316.44
269.609	297.44
269.841	294.44
270.073	316.44
270.306	347.44
270.538	353.44
270.77	374.44
271.002	331.44
271.234	319.44
271.466	342.44
271.698	351.44
271.93	345.44
272.162	356.44
272.394	361.44
272.626	335.44
272.858	324.44
273.09	311.44
273.322	309.44
273.553	305.44
273.785	292.44
274.017	292.44
274.249	295.44
274.481	285.44
274.713	301.44
274.945	298.44
275.176	303.44
275.408	296.44
275.64	291.44
275.872	290.44
276.104	270.44
276.335	276.44
276.567	289.44
276.799	322.44
277.031	322.44
277.262	351.44
277.494	355.44
277.726	333.44
277.957	323.44
278.189	320.44
278.421	296.44
278.652	306.44
278.884	296.44
279.115	292.44
279.347	280.44
279.579	307.44
279.81	298.44
280.042	272.44
280.273	299.44
280.505	287.44
280.736	303.44
280.968	281.44
281.199	271.44
281.431	307.44
281.662	268.44
281.894	290.44
282.125	282.44
282.356	312.44
282.588	332.44
282.819	351.44
283.051	307.44
283.282	300.44
283.513	287.44
283.745	310.44
283.976	315.44
284.207	307.44
284.439	282.44
284.67	289.44
284.901	295.44
285.132	306.44
285.364	283.44
285.595	319.44
285.826	289.44
286.057	287.44
286.288	295.44
286.52	308.44
286.751	297.44
286.982	293.44
287.213	306.44
287.444	303.44
287.675	305.44
287.906	316.44
288.138	333.44
288.369	332.44
288.6	320.44
288.831	331.44
289.062	317.44
289.293	336.44
289.524	337.44
289.755	293.44
289.986	296.44
290.217	299.44
290.448	307.44
290.679	321.44
290.91	309.44
291.141	297.44
291.371	300.44
291.602	288.44
291.833	298.44
292.064	297.44
292.295	321.44
292.526	324.44
292.757	325.44
292.987	298.44
293.218	323.44
293.449	314.44
293.68	289.44
293.91	322.44
294.141	305.44
294.372	297.44
294.603	314.44
294.833	300.44
295.064	309.44
295.295	315.44
295.525	322.44
295.756	324.44
295.987	343.44
296.217	360.44
296.448	359.44
296.679	339.44
296.909	323.44
297.14	318.44
297.37	325.44
297.601	322.44
297.831	324.44
298.062	321.44
298.292	316.44
298.523	323.44
298.753	337.44
298.984	328.44
299.214	323.44
299.445	336.44
299.675	329.44
299.905	347.44
300.136	341.44
300.366	312.44
300.597	312.44
300.827	332.44
301.057	347.44
301.288	337.44
301.518	347.44
301.748	347.44
301.979	350.44
302.209	367.44
302.439	352.44
302.669	341.44
302.9	358.44
303.13	325.44
303.36	344.44
303.59	354.44
303.82	362.44
304.051	369.44
304.281	359.44
304.511	354.44
304.741	350.44
304.971	363.44
305.201	331.44
305.431	344.44
305.661	345.44
305.891	353.44
306.121	339.44
306.352	369.44
306.582	385.44
306.812	359.44
307.042	334.44
307.272	371.44
307.502	366.44
307.731	355.44
307.961	340.44
308.191	349.44
308.421	353.44
308.651	357.44
308.881	359.44
309.111	384.44
309.341	367.44
309.571	367.44
309.8	376.44
310.03	395.44
310.26	415.44
310.49	402.44
310.72	414.44
310.949	418.44
311.179	438.44
311.409	425.44
311.639	399.44
311.868	405.44
312.098	410.44
312.328	442.44
312.557	431.44
312.787	459.44
313.017	426.44
313.246	412.44
313.476	400.44
313.706	409.44
313.935	423.44
314.165	423.44
314.394	429.44
314.624	426.44
314.853	413.44
315.083	409.44
315.312	419.44
315.542	402.44
315.771	397.44
316.001	420.44
316.23	377.44
316.46	425.44
316.689	411.44
316.919	404.44
317.148	426.44
317.377	417.44
317.607	422.44
317.836	401.44
318.065	419.44
318.295	408.44
318.524	408.44
318.753	401.44
318.983	425.44
319.212	375.44
319.441	398.44
319.67	420.44
319.9	393.44
320.129	398.44
320.358	403.44
320.587	419.44
320.816	439.44
321.046	435.44
321.275	447.44
321.504	455.44
321.733	425.44
321.962	456.44
322.191	447.44
322.42	489.44
322.649	488.44
322.878	505.44
323.108	501.44
323.337	542.44
323.566	547.44
323.795	611.44
324.024	637.44
324.253	801.44
324.482	1172.44
324.71	1777.44
324.939	2583.44
325.168	2167.44
325.397	1120.44
325.626	756.44
325.855	631.44
326.084	579.44
326.313	562.44
326.542	544.44
326.77	612.44
326.999	767.44
327.228	1037.44
327.457	1547.44
327.686	1893.44
327.914	1257.44
328.143	821.44
328.372	728.44
328.6	645.44
328.829	640.44
329.058	648.44
329.287	642.44
329.515	607.44
329.744	561.44
329.972	543.44
330.201	572.44
330.43	629.44
330.658	643.44
330.887	682.44
331.115	660.44
331.344	583.44
331.572	541.44
331.801	547.44
332.03	529.44
332.258	513.44
332.486	465.44
332.715	482.44
332.943	472.44
333.172	485.44
333.4	471.44
333.629	469.44
333.857	505.44
334.085	479.44
334.314	521.44
334.542	556.44
334.771	537.44
334.999	492.44
335.227	480.44
335.455	473.44
335.684	468.44
335.912	478.44
336.14	465.44
336.369	456.44
336.597	462.44
336.825	487.44
337.053	455.44
337.281	460.44
337.51	454.44
337.738	485.44
337.966	448.44
338.194	459.44
338.422	467.44
338.65	442.44
338.878	461.44
339.106	443.44
339.334	453.44
339.562	457.44
339.79	439.44
340.018	451.44
340.246	457.44
340.474	446.44
340.702	442.44
340.93	449.44
341.158	451.44
341.386	447.44
341.614	443.44
341.842	454.44
342.07	444.44
342.298	427.44
342.526	437.44
342.754	443.44
342.981	420.44
343.209	428.44
343.437	447.44
343.665	434.44
343.893	451.44
344.12	445.44
344.348	449.44
344.576	459.44
344.804	457.44
345.031	461.44
345.259	484.44
345.487	461.44
345.714	441.44
345.942	427.44
346.17	436.44
346.397	447.44
346.625	431.44
346.853	437.44
347.08	413.44
347.308	421.44
347.535	433.44
347.763	467.44
347.99	466.44
348.218	463.44
348.445	448.44
348.673	443.44
348.9	418.44
349.128	418.44
349.355	423.44
349.583	428.44
349.81	411.44
350.037	422.44
350.265	420.44
350.492	421.44
350.72	416.44
350.947	419.44
351.174	421.44
351.402	427.44
351.629	452.44
351.856	421.44
352.083	432.44
352.311	457.44
352.538	441.44
352.765	436.44
352.992	409.44
353.22	438.44
353.447	434.44
353.674	425.44
353.901	403.44
354.128	412.44
354.355	397.44
354.583	411.44
354.81	413.44
355.037	403.44
355.264	399.44
355.491	386.44
355.718	384.44
355.945	402.44
356.172	403.44
356.399	384.44
356.626	408.44
356.853	371.44
357.08	385.44
357.307	402.44
357.534	386.44
357.761	412.44
357.988	365.44
358.215	407.44
358.441	410.44
358.668	395.44
358.895	398.44
359.122	395.44
359.349	405.44
359.576	419.44
359.802	448.44
360.029	485.44
360.256	490.44
360.483	467.44
360.709	443.44
360.936	428.44
361.163	415.44
361.39	425.44
361.616	441.44
361.843	422.44
362.07	411.44
362.296	435.44
362.523	431.44
362.749	431.44
362.976	440.44
363.203	411.44
363.429	421.44
363.656	406.44
363.882	420.44
364.109	411.44
364.335	396.44
364.562	392.44
364.788	403.44
365.015	403.44
365.241	412.44
365.468	408.44
365.694	403.44
365.92	415.44
366.147	380.44
366.373	389.44
366.599	395.44
366.826	410.44
367.052	405.44
367.278	394.44
367.505	407.44
367.731	401.44
367.957	405.44
368.184	427.44
368.41	426.44
368.636	403.44
368.862	422.44
369.089	407.44
369.315	393.44
369.541	410.44
369.767	417.44
369.993	397.44
370.219	394.44
370.445	379.44
370.672	384.44
370.898	390.44
371.124	399.44
371.35	404.44
371.576	392.44
371.802	394.44
372.028	383.44
372.254	394.44
372.48	391.44
372.706	392.44
372.932	380.44
373.158	392.44
373.384	397.44
373.61	392.44
373.835	402.44
374.061	415.44
374.287	381.44
374.513	396.44
374.739	403.44
374.965	425.44
375.191	385.44
375.416	401.44
375.642	413.44
375.868	397.44
376.094	385.44
376.319	381.44
376.545	381.44
376.771	399.44
376.997	377.44
377.222	391.44
377.448	376.44
377.674	382.44
377.899	401.44
378.125	414.44
378.35	384.44
378.576	394.44
378.802	388.44
379.027	373.44
379.253	378.44
379.478	379.44
379.704	377.44
379.929	388.44
380.155	379.44
380.38	405.44
380.606	397.44
380.831	410.44
381.057	399.44
381.282	377.44
381.507	370.44
381.733	373.44
381.958	376.44
382.184	382.44
382.409	409.44
382.634	383.44
382.86	407.44
383.085	389.44
383.31	409.44
383.535	403.44
383.761	415.44
383.986	400.44
384.211	390.44
384.436	397.44
384.662	410.44
384.887	405.44
385.112	392.44
385.337	419.44
385.562	388.44
385.787	428.44
386.013	425.44
386.238	413.44
386.463	405.44
386.688	408.44
386.913	415.44
387.138	397.44
387.363	384.44
387.588	422.44
387.813	398.44
388.038	403.44
388.263	409.44
388.488	401.44
388.713	409.44
388.938	422.44
389.163	418.44
389.387	406.44
389.612	421.44
389.837	414.44
390.062	403.44
390.287	420.44
390.512	406.44
390.736	415.44
390.961	405.44
391.186	406.44
391.411	420.44
391.636	421.44
391.86	429.44
392.085	433.44
392.31	407.44
392.534	415.44
392.759	425.44
392.984	417.44
393.208	413.44
393.433	412.44
393.658	405.44
393.882	417.44
394.107	418.44
394.331	432.44
394.556	423.44
394.78	409.44
395.005	393.44
395.229	411.44
395.454	414.44
395.678	423.44
395.903	421.44
396.127	462.44
396.352	461.44
396.576	437.44
396.801	419.44
397.025	385.44
397.249	408.44
397.474	451.44
397.698	445.44
397.922	460.44
398.147	473.44
398.371	446.44
398.595	461.44
398.82	445.44
399.044	470.44
399.268	470.44
399.492	479.44
399.717	511.44
399.941	543.44
400.165	572.44
400.389	579.44
400.613	535.44
400.837	508.44
401.062	474.44
401.286	483.44
401.51	479.44
401.734	450.44
401.958	469.44
402.182	445.44
402.406	479.44
402.63	464.44
402.854	480.44
403.078	476.44
403.302	466.44
403.526	467.44
403.75	471.44
403.974	478.44
404.198	475.44
404.422	476.44
404.645	489.44
404.869	482.44
405.093	508.44
405.317	552.44
405.541	590.44
405.765	533.44
405.988	517.44
406.212	505.44
406.436	573.44
406.66	540.44
406.883	522.44
407.107	555.44
407.331	601.44
407.555	628.44
407.778	653.44
408.002	596.44
408.226	545.44
408.449	549.44
408.673	538.44
408.896	583.44
409.12	634.44
409.344	554.44
409.567	499.44
409.791	495.44
410.014	501.44
410.238	490.44
410.461	491.44
410.685	458.44
410.908	489.44
411.132	548.44
411.355	565.44
411.578	547.44
411.802	489.44
412.025	465.44
412.249	496.44
412.472	496.44
412.695	528.44
412.919	506.44
413.142	484.44
413.365	466.44
413.589	455.44
413.812	452.44
414.035	457.44
414.258	455.44
414.482	453.44
414.705	464.44
414.928	466.44
415.151	439.44
415.374	456.44
415.597	440.44
415.821	453.44
416.044	470.44
416.267	446.44
416.49	465.44
416.713	452.44
416.936	448.44
417.159	441.44
417.382	458.44
417.605	460.44
417.828	435.44
418.051	479.44
418.274	468.44
418.497	464.44
418.72	471.44
418.943	439.44
419.166	460.44
419.389	486.44
419.611	485.44
419.834	468.44
420.057	494.44
420.28	489.44
420.503	482.44
420.726	476.44
420.948	503.44
421.171	500.44
421.394	568.44
421.617	498.44
421.839	466.44
422.062	473.44
422.285	499.44
422.507	550.44
422.73	649.44
422.953	595.44
423.175	509.44
423.398	492.44
423.621	488.44
423.843	521.44
424.066	526.44
424.288	534.44
424.511	545.44
424.733	615.44
424.956	668.44
425.178	643.44
425.401	634.44
425.623	698.44
425.846	584.44
426.068	545.44
426.291	530.44
426.513	534.44
426.735	533.44
426.958	562.44
427.18	667.44
427.402	785.44
427.625	900.44
427.847	779.44
428.069	655.44
428.292	567.44
428.514	540.44
428.736	518.44
428.958	514.44
429.181	456.44
429.403	487.44
429.625	490.44
429.847	512.44
430.069	610.44
430.292	605.44
430.514	544.44
430.736	508.44
430.958	481.44
431.18	468.44
431.402	463.44
431.624	466.44
431.846	451.44
432.068	426.44
432.29	462.44
432.512	434.44
432.734	476.44
432.956	468.44
433.178	502.44
433.4	467.44
433.622	443.44
433.844	440.44
434.066	441.44
434.287	455.44
434.509	437.44
434.731	458.44
434.953	465.44
435.175	480.44
435.397	524.44
435.618	533.44
435.84	563.44
436.062	684.44
436.284	705.44
436.505	618.44
436.727	533.44
436.949	519.44
437.17	481.44
437.392	477.44
437.614	509.44
437.835	554.44
438.057	652.44
438.278	746.44
438.5	727.44
438.721	811.44
438.943	743.44
439.165	585.44
439.386	564.44
439.608	535.44
439.829	521.44
440.05	563.44
440.272	627.44
440.493	555.44
440.715	509.44
440.936	500.44
441.158	484.44
441.379	476.44
441.6	499.44
441.822	521.44
442.043	556.44
442.264	643.44
442.486	709.44
442.707	601.44
442.928	543.44
443.149	534.44
443.371	567.44
443.592	606.44
443.813	701.44
444.034	757.44
444.255	621.44
444.476	557.44
444.698	523.44
444.919	545.44
445.14	609.44
445.361	568.44
445.582	569.44
445.803	641.44
446.024	753.44
446.245	757.44
446.466	699.44
446.687	610.44
446.908	562.44
447.129	503.44
447.35	494.44
447.571	505.44
447.792	484.44
448.013	503.44
448.234	488.44
448.455	579.44
448.675	683.44
448.896	787.44
449.117	669.44
449.338	657.44
449.559	743.44
449.779	826.44
450	693.44
450.221	556.44
450.442	509.44
450.662	502.44
450.883	484.44
451.104	488.44
451.324	496.44
451.545	477.44
451.766	426.44
451.986	439.44
452.207	431.44
452.428	427.44
452.648	433.44
452.869	418.44
453.089	428.44
453.31	461.44
453.53	445.44
453.751	444.44
453.971	434.44
454.192	443.44
454.412	435.44
454.633	444.44
454.853	428.44
455.073	415.44
455.294	452.44
455.514	518.44
455.734	520.44
455.955	434.44
456.175	415.44
456.395	389.44
456.616	417.44
456.836	408.44
457.056	395.44
457.276	381.44
457.497	416.44
457.717	421.44
457.937	434.44
458.157	405.44
458.377	413.44
458.598	448.44
458.818	509.44
459.038	590.44
459.258	631.44
459.478	524.44
459.698	451.44
459.918	449.44
460.138	455.44
460.358	446.44
460.578	436.44
460.798	435.44
461.018	455.44
461.238	436.44
461.458	458.44
461.678	441.44
461.898	445.44
462.118	449.44
462.338	452.44
462.558	460.44
462.777	467.44
462.997	466.44
463.217	473.44
463.437	501.44
463.657	489.44
463.876	460.44
464.096	457.44
464.316	449.44
464.536	459.44
464.755	484.44
464.975	467.44
465.195	519.44
465.414	609.44
465.634	535.44
465.854	488.44
466.073	467.44
466.293	448.44
466.512	443.44
466.732	431.44
466.951	431.44
467.171	434.44
467.391	437.44
467.61	441.44
467.829	439.44
468.049	455.44
468.268	439.44
468.488	411.44
468.707	429.44
468.927	413.44
469.146	423.44
469.365	427.44
469.585	389.44
469.804	427.44
470.023	451.44
470.243	448.44
470.462	464.44
470.681	468.44
470.901	426.44
471.12	453.44
471.339	442.44
471.558	452.44
471.777	447.44
471.997	443.44
472.216	456.44
472.435	468.44
472.654	455.44
472.873	440.44
473.092	446.44
473.311	443.44
473.53	460.44
473.749	447.44
473.968	488.44
474.187	599.44
474.406	651.44
474.625	500.44
474.844	474.44
475.063	452.44
475.282	459.44
475.501	461.44
475.72	450.44
475.939	468.44
476.158	462.44
476.377	450.44
476.596	456.44
476.814	461.44
477.033	483.44
477.252	476.44
477.471	477.44
477.69	462.44
477.908	454.44
478.127	503.44
478.346	468.44
478.564	476.44
478.783	487.44
479.002	497.44
479.22	478.44
479.439	515.44
479.658	529.44
479.876	540.44
480.095	525.44
480.313	559.44
480.532	550.44
480.751	539.44
480.969	547.44
481.188	561.44
481.406	618.44
481.624	578.44
481.843	544.44
482.061	531.44
482.28	517.44
482.498	518.44
482.717	537.44
482.935	526.44
483.153	507.44
483.372	497.44
483.59	517.44
483.808	528.44
484.027	513.44
484.245	530.44
484.463	520.44
484.681	517.44
484.9	521.44
485.118	531.44
485.336	523.44
485.554	539.44
485.772	533.44
485.99	524.44
486.209	542.44
486.427	526.44
486.645	579.44
486.863	586.44
487.081	563.44
487.299	545.44
487.517	554.44
487.735	554.44
487.953	550.44
488.171	552.44
488.389	578.44
488.607	540.44
488.825	584.44
489.043	549.44
489.261	567.44
489.479	556.44
489.696	551.44
489.914	582.44
490.132	561.44
490.35	604.44
490.568	587.44
490.786	601.44
491.003	610.44
491.221	629.44
491.439	629.44
491.657	632.44
491.874	653.44
492.092	630.44
492.31	641.44
492.527	646.44
492.745	668.44
492.963	649.44
493.18	673.44
493.398	671.44
493.615	662.44
493.833	647.44
494.05	647.44
494.268	642.44
494.485	682.44
494.703	656.44
494.92	657.44
495.138	649.44
495.355	663.44
495.573	683.44
495.79	673.44
496.008	673.44
496.225	677.44
496.442	681.44
496.66	674.44
496.877	681.44
497.094	664.44
497.312	654.44
497.529	684.44
497.746	706.44
497.963	683.44
498.181	726.44
498.398	712.44
498.615	716.44
498.832	742.44
499.049	746.44
499.267	754.44
499.484	794.44
499.701	775.44
499.918	774.44
500.135	836.44
500.352	844.44
500.569	869.44
500.786	888.44
501.003	860.44
501.22	859.44
501.437	829.44
501.654	837.44
501.871	835.44
