Data from 1989.PennyLincolnUp.Lamp.En5.5.200Scan.071819.P2_HRD10591_17-23-27-973.txt Node
Date: Thu Jul 18 17:23:27 EDT 2019
User: cochatt
Spectrometer: HR+D1059
Trigger mode: 1
Integration Time (sec): 1.000000E-1
Scans to average: 1
Electric dark correction enabled: true
Nonlinearity correction enabled: false
Boxcar width: 0
XAxis mode: Wavelengths
Number of Pixels in Spectrum: 2048
>>>>>Begin Spectral Data<<<<<
223.165	-16.69
223.4	-16.69
223.635	-16.69
223.869	-9.69
224.104	-19.69
224.338	-18.69
224.573	-19.69
224.808	-12.69
225.042	-5.69
225.277	7.31
225.511	-1.69
225.746	-2.69
225.98	-8.69
226.215	16.31
226.449	15.31
226.683	22.31
226.918	17.31
227.152	37.31
227.387	17.31
227.621	37.31
227.856	28.31
228.09	54.31
228.324	60.31
228.559	68.31
228.793	66.31
229.027	84.31
229.262	108.31
229.496	115.31
229.73	123.31
229.964	147.31
230.199	118.31
230.433	108.31
230.667	111.31
230.901	105.31
231.136	88.31
231.37	119.31
231.604	122.31
231.838	103.31
232.072	122.31
232.306	99.31
232.541	120.31
232.775	109.31
233.009	109.31
233.243	105.31
233.477	117.31
233.711	116.31
233.945	112.31
234.179	121.31
234.413	118.31
234.647	123.31
234.881	114.31
235.115	105.31
235.349	117.31
235.583	122.31
235.817	121.31
236.051	117.31
236.285	125.31
236.519	119.31
236.753	133.31
236.987	149.31
237.221	182.31
237.455	218.31
237.689	170.31
237.922	134.31
238.156	134.31
238.39	123.31
238.624	123.31
238.858	122.31
239.091	116.31
239.325	134.31
239.559	142.31
239.793	116.31
240.027	131.31
240.26	145.31
240.494	160.31
240.728	157.31
240.961	135.31
241.195	140.31
241.429	146.31
241.662	144.31
241.896	123.31
242.13	123.31
242.363	129.31
242.597	128.31
242.83	127.31
243.064	154.31
243.298	140.31
243.531	132.31
243.765	140.31
243.998	139.31
244.232	140.31
244.465	127.31
244.699	138.31
244.932	146.31
245.166	154.31
245.399	142.31
245.633	142.31
245.866	116.31
246.099	153.31
246.333	135.31
246.566	162.31
246.8	145.31
247.033	169.31
247.266	155.31
247.5	162.31
247.733	183.31
247.966	159.31
248.2	152.31
248.433	180.31
248.666	184.31
248.899	170.31
249.133	188.31
249.366	201.31
249.599	184.31
249.832	189.31
250.066	186.31
250.299	184.31
250.532	188.31
250.765	205.31
250.998	216.31
251.231	230.31
251.465	211.31
251.698	192.31
251.931	200.31
252.164	190.31
252.397	207.31
252.63	199.31
252.863	204.31
253.096	240.31
253.329	231.31
253.562	232.31
253.795	221.31
254.028	220.31
254.261	221.31
254.494	237.31
254.727	240.31
254.96	261.31
255.193	261.31
255.426	252.31
255.659	229.31
255.892	200.31
256.124	224.31
256.357	211.31
256.59	207.31
256.823	216.31
257.056	212.31
257.289	211.31
257.521	207.31
257.754	212.31
257.987	220.31
258.22	231.31
258.452	210.31
258.685	198.31
258.918	222.31
259.151	211.31
259.383	220.31
259.616	216.31
259.849	242.31
260.081	246.31
260.314	253.31
260.547	252.31
260.779	230.31
261.012	242.31
261.244	228.31
261.477	234.31
261.71	219.31
261.942	232.31
262.175	244.31
262.407	236.31
262.64	209.31
262.872	218.31
263.105	198.31
263.337	211.31
263.57	221.31
263.802	204.31
264.035	210.31
264.267	215.31
264.499	214.31
264.732	223.31
264.964	206.31
265.197	204.31
265.429	216.31
265.661	219.31
265.894	197.31
266.126	200.31
266.358	214.31
266.591	234.31
266.823	224.31
267.055	221.31
267.287	213.31
267.52	219.31
267.752	211.31
267.984	222.31
268.216	213.31
268.448	232.31
268.681	224.31
268.913	239.31
269.145	262.31
269.377	262.31
269.609	257.31
269.841	264.31
270.073	279.31
270.306	294.31
270.538	326.31
270.77	306.31
271.002	291.31
271.234	278.31
271.466	285.31
271.698	313.31
271.93	324.31
272.162	318.31
272.394	316.31
272.626	293.31
272.858	310.31
273.09	279.31
273.322	278.31
273.553	267.31
273.785	272.31
274.017	279.31
274.249	286.31
274.481	275.31
274.713	264.31
274.945	265.31
275.176	258.31
275.408	275.31
275.64	260.31
275.872	258.31
276.104	259.31
276.335	249.31
276.567	271.31
276.799	280.31
277.031	297.31
277.262	298.31
277.494	323.31
277.726	293.31
277.957	276.31
278.189	279.31
278.421	272.31
278.652	282.31
278.884	293.31
279.115	271.31
279.347	268.31
279.579	276.31
279.81	283.31
280.042	269.31
280.273	284.31
280.505	265.31
280.736	261.31
280.968	256.31
281.199	261.31
281.431	277.31
281.662	263.31
281.894	271.31
282.125	275.31
282.356	279.31
282.588	303.31
282.819	301.31
283.051	273.31
283.282	262.31
283.513	290.31
283.745	263.31
283.976	282.31
284.207	278.31
284.439	282.31
284.67	289.31
284.901	278.31
285.132	278.31
285.364	282.31
285.595	278.31
285.826	276.31
286.057	279.31
286.288	285.31
286.52	261.31
286.751	274.31
286.982	278.31
287.213	264.31
287.444	265.31
287.675	289.31
287.906	276.31
288.138	292.31
288.369	302.31
288.6	306.31
288.831	296.31
289.062	289.31
289.293	299.31
289.524	277.31
289.755	272.31
289.986	303.31
290.217	276.31
290.448	266.31
290.679	284.31
290.91	292.31
291.141	290.31
291.371	298.31
291.602	290.31
291.833	280.31
292.064	286.31
292.295	277.31
292.526	272.31
292.757	292.31
292.987	284.31
293.218	295.31
293.449	302.31
293.68	288.31
293.91	280.31
294.141	290.31
294.372	289.31
294.603	296.31
294.833	311.31
295.064	281.31
295.295	288.31
295.525	284.31
295.756	262.31
295.987	295.31
296.217	320.31
296.448	335.31
296.679	309.31
296.909	300.31
297.14	287.31
297.37	288.31
297.601	282.31
297.831	302.31
298.062	272.31
298.292	318.31
298.523	296.31
298.753	290.31
298.984	297.31
299.214	290.31
299.445	303.31
299.675	320.31
299.905	302.31
300.136	312.31
300.366	309.31
300.597	312.31
300.827	307.31
301.057	301.31
301.288	322.31
301.518	315.31
301.748	319.31
301.979	314.31
302.209	324.31
302.439	329.31
302.669	335.31
302.9	334.31
303.13	324.31
303.36	321.31
303.59	327.31
303.82	324.31
304.051	333.31
304.281	326.31
304.511	332.31
304.741	317.31
304.971	308.31
305.201	330.31
305.431	314.31
305.661	314.31
305.891	317.31
306.121	308.31
306.352	324.31
306.582	319.31
306.812	313.31
307.042	319.31
307.272	329.31
307.502	304.31
307.731	323.31
307.961	336.31
308.191	335.31
308.421	315.31
308.651	330.31
308.881	351.31
309.111	339.31
309.341	355.31
309.571	329.31
309.8	350.31
310.03	362.31
310.26	366.31
310.49	359.31
310.72	370.31
310.949	350.31
311.179	391.31
311.409	363.31
311.639	367.31
311.868	370.31
312.098	372.31
312.328	386.31
312.557	399.31
312.787	389.31
313.017	390.31
313.246	371.31
313.476	358.31
313.706	373.31
313.935	363.31
314.165	386.31
314.394	399.31
314.624	395.31
314.853	374.31
315.083	370.31
315.312	359.31
315.542	387.31
315.771	370.31
316.001	349.31
316.23	363.31
316.46	360.31
316.689	372.31
316.919	384.31
317.148	390.31
317.377	376.31
317.607	367.31
317.836	394.31
318.065	356.31
318.295	372.31
318.524	364.31
318.753	346.31
318.983	378.31
319.212	380.31
319.441	374.31
319.67	386.31
319.9	378.31
320.129	353.31
320.358	386.31
320.587	358.31
320.816	394.31
321.046	391.31
321.275	384.31
321.504	377.31
321.733	384.31
321.962	411.31
322.191	406.31
322.42	412.31
322.649	417.31
322.878	429.31
323.108	427.31
323.337	461.31
323.566	487.31
323.795	518.31
324.024	536.31
324.253	640.31
324.482	898.31
324.71	1316.31
324.939	1915.31
325.168	1674.31
325.397	895.31
325.626	632.31
325.855	519.31
326.084	486.31
326.313	455.31
326.542	471.31
326.77	510.31
326.999	591.31
327.228	799.31
327.457	1195.31
327.686	1440.31
327.914	976.31
328.143	660.31
328.372	570.31
328.6	534.31
328.829	520.31
329.058	551.31
329.287	539.31
329.515	499.31
329.744	475.31
329.972	459.31
330.201	470.31
330.43	495.31
330.658	528.31
330.887	568.31
331.115	541.31
331.344	472.31
331.572	444.31
331.801	463.31
332.03	463.31
332.258	443.31
332.486	447.31
332.715	415.31
332.943	429.31
333.172	443.31
333.4	426.31
333.629	406.31
333.857	442.31
334.085	442.31
334.314	420.31
334.542	418.31
334.771	432.31
334.999	445.31
335.227	428.31
335.455	421.31
335.684	420.31
335.912	427.31
336.14	428.31
336.369	421.31
336.597	416.31
336.825	426.31
337.053	418.31
337.281	428.31
337.51	413.31
337.738	396.31
337.966	418.31
338.194	417.31
338.422	426.31
338.65	411.31
338.878	415.31
339.106	414.31
339.334	393.31
339.562	394.31
339.79	396.31
340.018	390.31
340.246	405.31
340.474	400.31
340.702	444.31
340.93	407.31
341.158	405.31
341.386	418.31
341.614	426.31
341.842	402.31
342.07	392.31
342.298	403.31
342.526	400.31
342.754	386.31
342.981	382.31
343.209	386.31
343.437	418.31
343.665	396.31
343.893	427.31
344.12	422.31
344.348	424.31
344.576	395.31
344.804	421.31
345.031	424.31
345.259	421.31
345.487	420.31
345.714	422.31
345.942	401.31
346.17	413.31
346.397	387.31
346.625	410.31
346.853	409.31
347.08	397.31
347.308	398.31
347.535	397.31
347.763	405.31
347.99	398.31
348.218	409.31
348.445	414.31
348.673	399.31
348.9	397.31
349.128	378.31
349.355	382.31
349.583	379.31
349.81	382.31
350.037	379.31
350.265	374.31
350.492	374.31
350.72	383.31
350.947	395.31
351.174	394.31
351.402	398.31
351.629	390.31
351.856	396.31
352.083	418.31
352.311	398.31
352.538	403.31
352.765	414.31
352.992	410.31
353.22	409.31
353.447	396.31
353.674	384.31
353.901	363.31
354.128	378.31
354.355	352.31
354.583	362.31
354.81	379.31
355.037	374.31
355.264	370.31
355.491	348.31
355.718	378.31
355.945	364.31
356.172	353.31
356.399	385.31
356.626	390.31
356.853	375.31
357.08	360.31
357.307	363.31
357.534	354.31
357.761	348.31
357.988	361.31
358.215	359.31
358.441	363.31
358.668	357.31
358.895	378.31
359.122	380.31
359.349	365.31
359.576	402.31
359.802	402.31
360.029	423.31
360.256	444.31
360.483	420.31
360.709	374.31
360.936	372.31
361.163	384.31
361.39	393.31
361.616	402.31
361.843	394.31
362.07	393.31
362.296	412.31
362.523	391.31
362.749	390.31
362.976	385.31
363.203	377.31
363.429	352.31
363.656	381.31
363.882	376.31
364.109	371.31
364.335	388.31
364.562	362.31
364.788	364.31
365.015	372.31
365.241	351.31
365.468	373.31
365.694	389.31
365.92	388.31
366.147	389.31
366.373	358.31
366.599	367.31
366.826	375.31
367.052	359.31
367.278	346.31
367.505	382.31
367.731	371.31
367.957	376.31
368.184	377.31
368.41	390.31
368.636	392.31
368.862	389.31
369.089	388.31
369.315	356.31
369.541	362.31
369.767	367.31
369.993	354.31
370.219	377.31
370.445	374.31
370.672	359.31
370.898	355.31
371.124	349.31
371.35	380.31
371.576	365.31
371.802	366.31
372.028	376.31
372.254	362.31
372.48	357.31
372.706	334.31
372.932	354.31
373.158	372.31
373.384	354.31
373.61	372.31
373.835	352.31
374.061	382.31
374.287	376.31
374.513	362.31
374.739	386.31
374.965	352.31
375.191	381.31
375.416	364.31
375.642	356.31
375.868	358.31
376.094	366.31
376.319	367.31
376.545	365.31
376.771	372.31
376.997	355.31
377.222	380.31
377.448	371.31
377.674	367.31
377.899	361.31
378.125	367.31
378.35	359.31
378.576	374.31
378.802	346.31
379.027	365.31
379.253	372.31
379.478	372.31
379.704	368.31
379.929	367.31
380.155	349.31
380.38	366.31
380.606	365.31
380.831	355.31
381.057	356.31
381.282	382.31
381.507	370.31
381.733	363.31
381.958	354.31
382.184	367.31
382.409	366.31
382.634	381.31
382.86	388.31
383.085	378.31
383.31	374.31
383.535	388.31
383.761	379.31
383.986	366.31
384.211	383.31
384.436	376.31
384.662	386.31
384.887	379.31
385.112	391.31
385.337	380.31
385.562	398.31
385.787	389.31
386.013	417.31
386.238	398.31
386.463	403.31
386.688	380.31
386.913	386.31
387.138	390.31
387.363	389.31
387.588	390.31
387.813	412.31
388.038	396.31
388.263	372.31
388.488	385.31
388.713	383.31
388.938	399.31
389.163	386.31
389.387	392.31
389.612	392.31
389.837	396.31
390.062	374.31
390.287	384.31
390.512	391.31
390.736	387.31
390.961	400.31
391.186	400.31
391.411	409.31
391.636	390.31
391.86	390.31
392.085	395.31
392.31	412.31
392.534	396.31
392.759	412.31
392.984	392.31
393.208	386.31
393.433	398.31
393.658	398.31
393.882	391.31
394.107	423.31
394.331	392.31
394.556	399.31
394.78	415.31
395.005	391.31
395.229	408.31
395.454	396.31
395.678	386.31
395.903	398.31
396.127	400.31
396.352	440.31
396.576	396.31
396.801	402.31
397.025	410.31
397.249	380.31
397.474	405.31
397.698	432.31
397.922	419.31
398.147	436.31
398.371	421.31
398.595	411.31
398.82	409.31
399.044	413.31
399.268	434.31
399.492	449.31
399.717	483.31
399.941	500.31
400.165	526.31
400.389	557.31
400.613	487.31
400.837	448.31
401.062	450.31
401.286	470.31
401.51	448.31
401.734	426.31
401.958	448.31
402.182	416.31
402.406	437.31
402.63	465.31
402.854	426.31
403.078	444.31
403.302	437.31
403.526	450.31
403.75	452.31
403.974	434.31
404.198	447.31
404.422	456.31
404.645	458.31
404.869	447.31
405.093	456.31
405.317	481.31
405.541	514.31
405.765	482.31
405.988	469.31
406.212	484.31
406.436	499.31
406.66	518.31
406.883	501.31
407.107	514.31
407.331	527.31
407.555	611.31
407.778	591.31
408.002	535.31
408.226	505.31
408.449	492.31
408.673	486.31
408.896	520.31
409.12	563.31
409.344	516.31
409.567	476.31
409.791	461.31
410.014	449.31
410.238	454.31
410.461	482.31
410.685	446.31
410.908	469.31
411.132	494.31
411.355	527.31
411.578	524.31
411.802	467.31
412.025	438.31
412.249	462.31
412.472	450.31
412.695	460.31
412.919	468.31
413.142	429.31
413.365	404.31
413.589	420.31
413.812	403.31
414.035	423.31
414.258	412.31
414.482	419.31
414.705	403.31
414.928	416.31
415.151	392.31
415.374	423.31
415.597	427.31
415.821	413.31
416.044	418.31
416.267	434.31
416.49	412.31
416.713	414.31
416.936	420.31
417.159	427.31
417.382	407.31
417.605	409.31
417.828	459.31
418.051	432.31
418.274	452.31
418.497	428.31
418.72	417.31
418.943	430.31
419.166	429.31
419.389	448.31
419.611	457.31
419.834	439.31
420.057	452.31
420.28	433.31
420.503	446.31
420.726	432.31
420.948	455.31
421.171	484.31
421.394	501.31
421.617	469.31
421.839	454.31
422.062	449.31
422.285	460.31
422.507	513.31
422.73	585.31
422.953	552.31
423.175	475.31
423.398	462.31
423.621	452.31
423.843	467.31
424.066	484.31
424.288	467.31
424.511	482.31
424.733	534.31
424.956	613.31
425.178	594.31
425.401	590.31
425.623	628.31
425.846	527.31
426.068	488.31
426.291	488.31
426.513	475.31
426.735	486.31
426.958	529.31
427.18	591.31
427.402	706.31
427.625	778.31
427.847	692.31
428.069	590.31
428.292	514.31
428.514	475.31
428.736	466.31
428.958	448.31
429.181	429.31
429.403	448.31
429.625	442.31
429.847	477.31
430.069	528.31
430.292	565.31
430.514	465.31
430.736	431.31
430.958	442.31
431.18	436.31
431.402	436.31
431.624	421.31
431.846	419.31
432.068	409.31
432.29	412.31
432.512	426.31
432.734	442.31
432.956	431.31
433.178	440.31
433.4	436.31
433.622	431.31
433.844	444.31
434.066	427.31
434.287	423.31
434.509	418.31
434.731	443.31
434.953	450.31
435.175	461.31
435.397	455.31
435.618	472.31
435.84	523.31
436.062	591.31
436.284	676.31
436.505	546.31
436.727	470.31
436.949	455.31
437.17	450.31
437.392	432.31
437.614	435.31
437.835	498.31
438.057	570.31
438.278	690.31
438.5	679.31
438.721	749.31
438.943	706.31
439.165	563.31
439.386	498.31
439.608	493.31
439.829	504.31
440.05	516.31
440.272	538.31
440.493	532.31
440.715	488.31
440.936	456.31
441.158	438.31
441.379	468.31
441.6	453.31
441.822	477.31
442.043	486.31
442.264	574.31
442.486	595.31
442.707	540.31
442.928	512.31
443.149	492.31
443.371	502.31
443.592	554.31
443.813	628.31
444.034	687.31
444.255	564.31
444.476	503.31
444.698	489.31
444.919	474.31
445.14	548.31
445.361	518.31
445.582	516.31
445.803	554.31
446.024	663.31
446.245	686.31
446.466	622.31
446.687	508.31
446.908	471.31
447.129	468.31
447.35	473.31
447.571	454.31
447.792	459.31
448.013	462.31
448.234	466.31
448.455	518.31
448.675	620.31
448.896	709.31
449.117	611.31
449.338	558.31
449.559	673.31
449.779	777.31
450	596.31
450.221	489.31
450.442	453.31
450.662	467.31
450.883	423.31
451.104	454.31
451.324	456.31
451.545	420.31
451.766	411.31
451.986	408.31
452.207	386.31
452.428	384.31
452.648	386.31
452.869	404.31
453.089	403.31
453.31	390.31
453.53	396.31
453.751	396.31
453.971	407.31
454.192	427.31
454.412	428.31
454.633	394.31
454.853	404.31
455.073	395.31
455.294	434.31
455.514	488.31
455.734	479.31
455.955	412.31
456.175	376.31
456.395	370.31
456.616	376.31
456.836	383.31
457.056	364.31
457.276	375.31
457.497	378.31
457.717	379.31
457.937	387.31
458.157	376.31
458.377	389.31
458.598	405.31
458.818	471.31
459.038	515.31
459.258	558.31
459.478	448.31
459.698	438.31
459.918	415.31
460.138	412.31
460.358	404.31
460.578	428.31
460.798	382.31
461.018	412.31
461.238	422.31
461.458	417.31
461.678	409.31
461.898	422.31
462.118	418.31
462.338	444.31
462.558	435.31
462.777	428.31
462.997	453.31
463.217	452.31
463.437	457.31
463.657	436.31
463.876	445.31
464.096	437.31
464.316	437.31
464.536	442.31
464.755	455.31
464.975	442.31
465.195	489.31
465.414	545.31
465.634	457.31
465.854	432.31
466.073	429.31
466.293	412.31
466.512	411.31
466.732	394.31
466.951	402.31
467.171	410.31
467.391	401.31
467.61	415.31
467.829	431.31
468.049	405.31
468.268	393.31
468.488	390.31
468.707	386.31
468.927	390.31
469.146	376.31
469.365	405.31
469.585	375.31
469.804	409.31
470.023	427.31
470.243	399.31
470.462	395.31
470.681	419.31
470.901	417.31
471.12	416.31
471.339	414.31
471.558	412.31
471.777	414.31
471.997	394.31
472.216	398.31
472.435	401.31
472.654	382.31
472.873	386.31
473.092	396.31
473.311	404.31
473.53	406.31
473.749	427.31
473.968	450.31
474.187	542.31
474.406	592.31
474.625	462.31
474.844	416.31
475.063	438.31
475.282	392.31
475.501	406.31
475.72	416.31
475.939	422.31
476.158	416.31
476.377	424.31
476.596	432.31
476.814	417.31
477.033	426.31
477.252	424.31
477.471	419.31
477.69	431.31
477.908	443.31
478.127	439.31
478.346	430.31
478.564	440.31
478.783	449.31
479.002	465.31
479.22	451.31
479.439	463.31
479.658	481.31
479.876	484.31
480.095	511.31
480.313	529.31
480.532	502.31
480.751	513.31
480.969	468.31
481.188	486.31
481.406	510.31
481.624	495.31
481.843	473.31
482.061	462.31
482.28	479.31
482.498	464.31
482.717	450.31
482.935	486.31
483.153	471.31
483.372	455.31
483.59	479.31
483.808	467.31
484.027	475.31
484.245	475.31
484.463	470.31
484.681	491.31
484.9	468.31
485.118	493.31
485.336	490.31
485.554	469.31
485.772	497.31
485.99	504.31
486.209	502.31
486.427	495.31
486.645	499.31
486.863	520.31
487.081	520.31
487.299	499.31
487.517	526.31
487.735	504.31
487.953	516.31
488.171	520.31
488.389	519.31
488.607	508.31
488.825	523.31
489.043	509.31
489.261	529.31
489.479	528.31
489.696	538.31
489.914	529.31
490.132	518.31
490.35	528.31
490.568	530.31
490.786	536.31
491.003	528.31
491.221	564.31
491.439	566.31
491.657	558.31
491.874	579.31
492.092	573.31
492.31	602.31
492.527	584.31
492.745	578.31
492.963	589.31
493.18	592.31
493.398	595.31
493.615	614.31
493.833	574.31
494.05	593.31
494.268	581.31
494.485	606.31
494.703	580.31
494.92	577.31
495.138	581.31
495.355	603.31
495.573	597.31
495.79	607.31
496.008	615.31
496.225	611.31
496.442	590.31
496.66	603.31
496.877	619.31
497.094	618.31
497.312	605.31
497.529	626.31
497.746	628.31
497.963	637.31
498.181	634.31
498.398	632.31
498.615	672.31
498.832	660.31
499.049	687.31
499.267	711.31
499.484	705.31
499.701	702.31
499.918	735.31
500.135	772.31
500.352	780.31
500.569	791.31
500.786	832.31
501.003	785.31
501.22	794.31
501.437	749.31
501.654	732.31
501.871	740.31
