Data from 1989.PennyLincolnUp.Lamp.En5.5.200Scan.071819.P2_HRD10591_17-25-33-973.txt Node
Date: Thu Jul 18 17:25:33 EDT 2019
User: cochatt
Spectrometer: HR+D1059
Trigger mode: 1
Integration Time (sec): 1.000000E-1
Scans to average: 1
Electric dark correction enabled: true
Nonlinearity correction enabled: false
Boxcar width: 0
XAxis mode: Wavelengths
Number of Pixels in Spectrum: 2048
>>>>>Begin Spectral Data<<<<<
223.165	-15.06
223.4	-15.06
223.635	-15.06
223.869	-18.06
224.104	-13.06
224.338	-20.06
224.573	-8.06
224.808	-16.06
225.042	-1.06
225.277	-10.06
225.511	-15.06
225.746	-0.06
225.98	11.94
226.215	9.94
226.449	15.94
226.683	22.94
226.918	35.94
227.152	19.94
227.387	21.94
227.621	44.94
227.856	37.94
228.09	40.94
228.324	42.94
228.559	58.94
228.793	76.94
229.027	89.94
229.262	119.94
229.496	129.94
229.73	146.94
229.964	145.94
230.199	131.94
230.433	106.94
230.667	109.94
230.901	124.94
231.136	114.94
231.37	106.94
231.604	107.94
231.838	105.94
232.072	120.94
232.306	110.94
232.541	128.94
232.775	127.94
233.009	129.94
233.243	127.94
233.477	111.94
233.711	126.94
233.945	114.94
234.179	129.94
234.413	119.94
234.647	127.94
234.881	103.94
235.115	112.94
235.349	119.94
235.583	117.94
235.817	132.94
236.051	132.94
236.285	138.94
236.519	118.94
236.753	128.94
236.987	159.94
237.221	198.94
237.455	255.94
237.689	199.94
237.922	163.94
238.156	146.94
238.39	136.94
238.624	139.94
238.858	135.94
239.091	123.94
239.325	127.94
239.559	126.94
239.793	136.94
240.027	132.94
240.26	149.94
240.494	167.94
240.728	148.94
240.961	164.94
241.195	148.94
241.429	153.94
241.662	136.94
241.896	136.94
242.13	132.94
242.363	151.94
242.597	131.94
242.83	141.94
243.064	147.94
243.298	137.94
243.531	137.94
243.765	146.94
243.998	140.94
244.232	156.94
244.465	147.94
244.699	155.94
244.932	164.94
245.166	153.94
245.399	161.94
245.633	159.94
245.866	151.94
246.099	151.94
246.333	159.94
246.566	175.94
246.8	164.94
247.033	155.94
247.266	156.94
247.5	185.94
247.733	196.94
247.966	212.94
248.2	194.94
248.433	188.94
248.666	188.94
248.899	189.94
249.133	212.94
249.366	244.94
249.599	222.94
249.832	185.94
250.066	209.94
250.299	213.94
250.532	223.94
250.765	236.94
250.998	243.94
251.231	255.94
251.465	239.94
251.698	236.94
251.931	231.94
252.164	216.94
252.397	211.94
252.63	207.94
252.863	227.94
253.096	242.94
253.329	264.94
253.562	251.94
253.795	246.94
254.028	245.94
254.261	253.94
254.494	268.94
254.727	267.94
254.96	304.94
255.193	303.94
255.426	282.94
255.659	263.94
255.892	257.94
256.124	282.94
256.357	289.94
256.59	263.94
256.823	265.94
257.056	238.94
257.289	220.94
257.521	230.94
257.754	239.94
257.987	259.94
258.22	232.94
258.452	234.94
258.685	242.94
258.918	239.94
259.151	235.94
259.383	241.94
259.616	243.94
259.849	258.94
260.081	239.94
260.314	281.94
260.547	296.94
260.779	301.94
261.012	279.94
261.244	251.94
261.477	266.94
261.71	249.94
261.942	258.94
262.175	234.94
262.407	250.94
262.64	235.94
262.872	257.94
263.105	229.94
263.337	234.94
263.57	231.94
263.802	219.94
264.035	225.94
264.267	232.94
264.499	234.94
264.732	236.94
264.964	244.94
265.197	219.94
265.429	226.94
265.661	232.94
265.894	235.94
266.126	218.94
266.358	243.94
266.591	251.94
266.823	227.94
267.055	251.94
267.287	261.94
267.52	248.94
267.752	245.94
267.984	244.94
268.216	261.94
268.448	243.94
268.681	248.94
268.913	258.94
269.145	297.94
269.377	321.94
269.609	304.94
269.841	288.94
270.073	304.94
270.306	323.94
270.538	348.94
270.77	339.94
271.002	332.94
271.234	340.94
271.466	340.94
271.698	343.94
271.93	355.94
272.162	356.94
272.394	349.94
272.626	357.94
272.858	332.94
273.09	318.94
273.322	308.94
273.553	302.94
273.785	298.94
274.017	281.94
274.249	286.94
274.481	288.94
274.713	291.94
274.945	303.94
275.176	303.94
275.408	283.94
275.64	289.94
275.872	276.94
276.104	284.94
276.335	283.94
276.567	331.94
276.799	322.94
277.031	325.94
277.262	358.94
277.494	335.94
277.726	348.94
277.957	330.94
278.189	304.94
278.421	301.94
278.652	298.94
278.884	277.94
279.115	284.94
279.347	287.94
279.579	296.94
279.81	279.94
280.042	314.94
280.273	311.94
280.505	308.94
280.736	295.94
280.968	289.94
281.199	308.94
281.431	272.94
281.662	294.94
281.894	300.94
282.125	299.94
282.356	328.94
282.588	320.94
282.819	324.94
283.051	310.94
283.282	296.94
283.513	291.94
283.745	294.94
283.976	296.94
284.207	301.94
284.439	290.94
284.67	308.94
284.901	311.94
285.132	305.94
285.364	298.94
285.595	305.94
285.826	291.94
286.057	311.94
286.288	309.94
286.52	290.94
286.751	295.94
286.982	305.94
287.213	307.94
287.444	311.94
287.675	304.94
287.906	321.94
288.138	316.94
288.369	319.94
288.6	323.94
288.831	325.94
289.062	328.94
289.293	329.94
289.524	324.94
289.755	297.94
289.986	297.94
290.217	329.94
290.448	316.94
290.679	324.94
290.91	322.94
291.141	324.94
291.371	290.94
291.602	305.94
291.833	301.94
292.064	321.94
292.295	310.94
292.526	299.94
292.757	308.94
292.987	324.94
293.218	308.94
293.449	313.94
293.68	310.94
293.91	315.94
294.141	279.94
294.372	300.94
294.603	305.94
294.833	322.94
295.064	330.94
295.295	308.94
295.525	303.94
295.756	322.94
295.987	335.94
296.217	341.94
296.448	379.94
296.679	344.94
296.909	305.94
297.14	316.94
297.37	319.94
297.601	303.94
297.831	326.94
298.062	325.94
298.292	319.94
298.523	344.94
298.753	326.94
298.984	325.94
299.214	330.94
299.445	322.94
299.675	318.94
299.905	337.94
300.136	332.94
300.366	321.94
300.597	320.94
300.827	338.94
301.057	339.94
301.288	339.94
301.518	347.94
301.748	339.94
301.979	355.94
302.209	351.94
302.439	367.94
302.669	349.94
302.9	342.94
303.13	346.94
303.36	358.94
303.59	353.94
303.82	376.94
304.051	359.94
304.281	360.94
304.511	352.94
304.741	358.94
304.971	359.94
305.201	344.94
305.431	358.94
305.661	361.94
305.891	339.94
306.121	349.94
306.352	346.94
306.582	364.94
306.812	367.94
307.042	361.94
307.272	347.94
307.502	358.94
307.731	362.94
307.961	355.94
308.191	340.94
308.421	360.94
308.651	359.94
308.881	362.94
309.111	361.94
309.341	356.94
309.571	398.94
309.8	398.94
310.03	388.94
310.26	419.94
310.49	402.94
310.72	401.94
310.949	424.94
311.179	456.94
311.409	433.94
311.639	413.94
311.868	414.94
312.098	428.94
312.328	415.94
312.557	409.94
312.787	458.94
313.017	447.94
313.246	429.94
313.476	423.94
313.706	397.94
313.935	405.94
314.165	424.94
314.394	457.94
314.624	441.94
314.853	438.94
315.083	423.94
315.312	421.94
315.542	402.94
315.771	398.94
316.001	396.94
316.23	402.94
316.46	398.94
316.689	404.94
316.919	400.94
317.148	408.94
317.377	405.94
317.607	415.94
317.836	415.94
318.065	418.94
318.295	425.94
318.524	412.94
318.753	405.94
318.983	400.94
319.212	400.94
319.441	434.94
319.67	426.94
319.9	406.94
320.129	402.94
320.358	407.94
320.587	436.94
320.816	426.94
321.046	450.94
321.275	411.94
321.504	420.94
321.733	433.94
321.962	449.94
322.191	466.94
322.42	464.94
322.649	491.94
322.878	515.94
323.108	514.94
323.337	540.94
323.566	579.94
323.795	623.94
324.024	659.94
324.253	806.94
324.482	1170.94
324.71	1799.94
324.939	2638.94
325.168	2215.94
325.397	1149.94
325.626	756.94
325.855	647.94
326.084	585.94
326.313	571.94
326.542	590.94
326.77	642.94
326.999	769.94
327.228	1040.94
327.457	1619.94
327.686	1947.94
327.914	1279.94
328.143	840.94
328.372	722.94
328.6	691.94
328.829	628.94
329.058	644.94
329.287	668.94
329.515	643.94
329.744	581.94
329.972	569.94
330.201	607.94
330.43	653.94
330.658	675.94
330.887	703.94
331.115	671.94
331.344	600.94
331.572	545.94
331.801	564.94
332.03	523.94
332.258	516.94
332.486	483.94
332.715	481.94
332.943	502.94
333.172	497.94
333.4	518.94
333.629	503.94
333.857	535.94
334.085	556.94
334.314	561.94
334.542	591.94
334.771	593.94
334.999	553.94
335.227	495.94
335.455	476.94
335.684	495.94
335.912	498.94
336.14	462.94
336.369	469.94
336.597	469.94
336.825	487.94
337.053	473.94
337.281	466.94
337.51	456.94
337.738	460.94
337.966	476.94
338.194	468.94
338.422	483.94
338.65	448.94
338.878	451.94
339.106	449.94
339.334	465.94
339.562	445.94
339.79	459.94
340.018	474.94
340.246	458.94
340.474	442.94
340.702	462.94
340.93	456.94
341.158	471.94
341.386	458.94
341.614	440.94
341.842	435.94
342.07	451.94
342.298	455.94
342.526	449.94
342.754	437.94
342.981	435.94
343.209	426.94
343.437	444.94
343.665	436.94
343.893	441.94
344.12	435.94
344.348	448.94
344.576	447.94
344.804	452.94
345.031	453.94
345.259	491.94
345.487	457.94
345.714	443.94
345.942	447.94
346.17	453.94
346.397	444.94
346.625	439.94
346.853	432.94
347.08	425.94
347.308	425.94
347.535	450.94
347.763	455.94
347.99	443.94
348.218	466.94
348.445	462.94
348.673	469.94
348.9	440.94
349.128	422.94
349.355	432.94
349.583	417.94
349.81	437.94
350.037	437.94
350.265	429.94
350.492	401.94
350.72	419.94
350.947	434.94
351.174	440.94
351.402	452.94
351.629	448.94
351.856	451.94
352.083	453.94
352.311	451.94
352.538	449.94
352.765	479.94
352.992	462.94
353.22	434.94
353.447	450.94
353.674	403.94
353.901	423.94
354.128	417.94
354.355	401.94
354.583	398.94
354.81	424.94
355.037	391.94
355.264	404.94
355.491	408.94
355.718	401.94
355.945	391.94
356.172	388.94
356.399	413.94
356.626	397.94
356.853	387.94
357.08	387.94
357.307	390.94
357.534	386.94
357.761	398.94
357.988	411.94
358.215	374.94
358.441	404.94
358.668	410.94
358.895	414.94
359.122	424.94
359.349	442.94
359.576	426.94
359.802	478.94
360.029	464.94
360.256	487.94
360.483	481.94
360.709	433.94
360.936	420.94
361.163	421.94
361.39	418.94
361.616	439.94
361.843	449.94
362.07	431.94
362.296	438.94
362.523	457.94
362.749	443.94
362.976	396.94
363.203	403.94
363.429	413.94
363.656	419.94
363.882	423.94
364.109	394.94
364.335	425.94
364.562	399.94
364.788	395.94
365.015	407.94
365.241	411.94
365.468	396.94
365.694	415.94
365.92	383.94
366.147	387.94
366.373	398.94
366.599	390.94
366.826	383.94
367.052	395.94
367.278	416.94
367.505	391.94
367.731	409.94
367.957	379.94
368.184	397.94
368.41	394.94
368.636	410.94
368.862	423.94
369.089	393.94
369.315	392.94
369.541	397.94
369.767	406.94
369.993	407.94
370.219	403.94
370.445	390.94
370.672	378.94
370.898	388.94
371.124	405.94
371.35	411.94
371.576	386.94
371.802	396.94
372.028	384.94
372.254	376.94
372.48	383.94
372.706	415.94
372.932	379.94
373.158	381.94
373.384	392.94
373.61	397.94
373.835	389.94
374.061	397.94
374.287	387.94
374.513	398.94
374.739	410.94
374.965	398.94
375.191	415.94
375.416	379.94
375.642	391.94
375.868	387.94
376.094	413.94
376.319	391.94
376.545	411.94
376.771	390.94
376.997	392.94
377.222	397.94
377.448	403.94
377.674	357.94
377.899	375.94
378.125	376.94
378.35	393.94
378.576	386.94
378.802	375.94
379.027	385.94
379.253	377.94
379.478	389.94
379.704	384.94
379.929	382.94
380.155	392.94
380.38	411.94
380.606	405.94
380.831	380.94
381.057	404.94
381.282	383.94
381.507	401.94
381.733	380.94
381.958	389.94
382.184	387.94
382.409	375.94
382.634	403.94
382.86	386.94
383.085	389.94
383.31	381.94
383.535	394.94
383.761	379.94
383.986	384.94
384.211	407.94
384.436	408.94
384.662	407.94
384.887	401.94
385.112	388.94
385.337	393.94
385.562	404.94
385.787	372.94
386.013	394.94
386.238	404.94
386.463	409.94
386.688	417.94
386.913	397.94
387.138	398.94
387.363	426.94
387.588	406.94
387.813	417.94
388.038	421.94
388.263	400.94
388.488	392.94
388.713	428.94
388.938	417.94
389.163	425.94
389.387	402.94
389.612	423.94
389.837	399.94
390.062	417.94
390.287	403.94
390.512	419.94
390.736	401.94
390.961	393.94
391.186	402.94
391.411	425.94
391.636	409.94
391.86	437.94
392.085	412.94
392.31	401.94
392.534	415.94
392.759	415.94
392.984	396.94
393.208	410.94
393.433	405.94
393.658	413.94
393.882	381.94
394.107	411.94
394.331	424.94
394.556	409.94
394.78	405.94
395.005	399.94
395.229	405.94
395.454	428.94
395.678	431.94
395.903	433.94
396.127	461.94
396.352	445.94
396.576	433.94
396.801	427.94
397.025	420.94
397.249	409.94
397.474	428.94
397.698	425.94
397.922	426.94
398.147	467.94
398.371	470.94
398.595	454.94
398.82	437.94
399.044	467.94
399.268	487.94
399.492	488.94
399.717	516.94
399.941	551.94
400.165	551.94
400.389	578.94
400.613	547.94
400.837	487.94
401.062	481.94
401.286	461.94
401.51	457.94
401.734	466.94
401.958	468.94
402.182	481.94
402.406	480.94
402.63	475.94
402.854	490.94
403.078	468.94
403.302	469.94
403.526	487.94
403.75	485.94
403.974	491.94
404.198	473.94
404.422	488.94
404.645	515.94
404.869	504.94
405.093	528.94
405.317	563.94
405.541	613.94
405.765	552.94
405.988	507.94
406.212	505.94
406.436	543.94
406.66	569.94
406.883	522.94
407.107	551.94
407.331	576.94
407.555	641.94
407.778	647.94
408.002	570.94
408.226	545.94
408.449	545.94
408.673	519.94
408.896	571.94
409.12	600.94
409.344	595.94
409.567	505.94
409.791	484.94
410.014	487.94
410.238	482.94
410.461	484.94
410.685	473.94
410.908	493.94
411.132	537.94
411.355	565.94
411.578	541.94
411.802	502.94
412.025	475.94
412.249	480.94
412.472	520.94
412.695	566.94
412.919	533.94
413.142	498.94
413.365	490.94
413.589	483.94
413.812	459.94
414.035	443.94
414.258	442.94
414.482	444.94
414.705	449.94
414.928	458.94
415.151	452.94
415.374	437.94
415.597	447.94
415.821	439.94
416.044	460.94
416.267	453.94
416.49	453.94
416.713	443.94
416.936	444.94
417.159	449.94
417.382	445.94
417.605	448.94
417.828	474.94
418.051	482.94
418.274	482.94
418.497	451.94
418.72	453.94
418.943	470.94
419.166	473.94
419.389	497.94
419.611	487.94
419.834	481.94
420.057	482.94
420.28	483.94
420.503	472.94
420.726	497.94
420.948	519.94
421.171	525.94
421.394	572.94
421.617	518.94
421.839	453.94
422.062	487.94
422.285	509.94
422.507	562.94
422.73	649.94
422.953	630.94
423.175	523.94
423.398	503.94
423.621	522.94
423.843	515.94
424.066	523.94
424.288	492.94
424.511	539.94
424.733	618.94
424.956	684.94
425.178	660.94
425.401	662.94
425.623	675.94
425.846	564.94
426.068	542.94
426.291	523.94
426.513	531.94
426.735	542.94
426.958	572.94
427.18	653.94
427.402	765.94
427.625	874.94
427.847	786.94
428.069	666.94
428.292	605.94
428.514	537.94
428.736	491.94
428.958	490.94
429.181	485.94
429.403	469.94
429.625	498.94
429.847	532.94
430.069	613.94
430.292	592.94
430.514	520.94
430.736	479.94
430.958	485.94
431.18	443.94
431.402	457.94
431.624	441.94
431.846	442.94
432.068	448.94
432.29	461.94
432.512	435.94
432.734	484.94
432.956	474.94
433.178	471.94
433.4	435.94
433.622	449.94
433.844	453.94
434.066	442.94
434.287	437.94
434.509	452.94
434.731	459.94
434.953	476.94
435.175	492.94
435.397	490.94
435.618	546.94
435.84	563.94
436.062	671.94
436.284	755.94
436.505	595.94
436.727	550.94
436.949	521.94
437.17	485.94
437.392	483.94
437.614	523.94
437.835	538.94
438.057	663.94
438.278	757.94
438.5	742.94
438.721	787.94
438.943	766.94
439.165	589.94
439.386	553.94
439.608	559.94
439.829	538.94
440.05	566.94
440.272	609.94
440.493	571.94
440.715	535.94
440.936	504.94
441.158	495.94
441.379	470.94
441.6	481.94
441.822	537.94
442.043	565.94
442.264	673.94
442.486	723.94
442.707	604.94
442.928	561.94
443.149	537.94
443.371	569.94
443.592	619.94
443.813	700.94
444.034	749.94
444.255	624.94
444.476	545.94
444.698	524.94
444.919	476.94
445.14	663.94
445.361	606.94
445.582	598.94
445.803	643.94
446.024	712.94
446.245	772.94
446.466	702.94
446.687	585.94
446.908	543.94
447.129	507.94
447.35	506.94
447.571	504.94
447.792	480.94
448.013	497.94
448.234	527.94
448.455	573.94
448.675	665.94
448.896	780.94
449.117	667.94
449.338	656.94
449.559	731.94
449.779	861.94
450	667.94
450.221	560.94
450.442	524.94
450.662	484.94
450.883	476.94
451.104	496.94
451.324	500.94
451.545	471.94
451.766	452.94
451.986	423.94
452.207	423.94
452.428	436.94
452.648	442.94
452.869	444.94
453.089	448.94
453.31	460.94
453.53	442.94
453.751	423.94
453.971	441.94
454.192	461.94
454.412	443.94
454.633	449.94
454.853	445.94
455.073	443.94
455.294	469.94
455.514	539.94
455.734	531.94
455.955	458.94
456.175	440.94
456.395	421.94
456.616	388.94
456.836	402.94
457.056	403.94
457.276	389.94
457.497	385.94
457.717	397.94
457.937	418.94
458.157	408.94
458.377	442.94
458.598	451.94
458.818	531.94
459.038	615.94
459.258	620.94
459.478	514.94
459.698	479.94
459.918	456.94
460.138	437.94
460.358	435.94
460.578	452.94
460.798	444.94
461.018	451.94
461.238	441.94
461.458	451.94
461.678	447.94
461.898	435.94
462.118	451.94
462.338	456.94
462.558	437.94
462.777	454.94
462.997	473.94
463.217	459.94
463.437	468.94
463.657	458.94
463.876	471.94
464.096	463.94
464.316	474.94
464.536	477.94
464.755	486.94
464.975	479.94
465.195	548.94
465.414	600.94
465.634	540.94
465.854	503.94
466.073	475.94
466.293	463.94
466.512	442.94
466.732	423.94
466.951	431.94
467.171	426.94
467.391	415.94
467.61	439.94
467.829	471.94
468.049	469.94
468.268	427.94
468.488	433.94
468.707	428.94
468.927	413.94
469.146	421.94
469.365	412.94
469.585	428.94
469.804	434.94
470.023	417.94
470.243	449.94
470.462	453.94
470.681	471.94
470.901	442.94
471.12	434.94
471.339	437.94
471.558	441.94
471.777	444.94
471.997	432.94
472.216	444.94
472.435	504.94
472.654	490.94
472.873	430.94
473.092	449.94
473.311	435.94
473.53	444.94
473.749	444.94
473.968	508.94
474.187	618.94
474.406	625.94
474.625	533.94
474.844	495.94
475.063	441.94
475.282	462.94
475.501	460.94
475.72	455.94
475.939	455.94
476.158	466.94
476.377	458.94
476.596	453.94
476.814	471.94
477.033	463.94
477.252	479.94
477.471	472.94
477.69	472.94
477.908	462.94
478.127	492.94
478.346	472.94
478.564	472.94
478.783	475.94
479.002	515.94
479.22	480.94
479.439	506.94
479.658	534.94
479.876	543.94
480.095	526.94
480.313	591.94
480.532	552.94
480.751	533.94
480.969	540.94
481.188	631.94
481.406	655.94
481.624	587.94
481.843	554.94
482.061	544.94
482.28	541.94
482.498	540.94
482.717	538.94
482.935	519.94
483.153	504.94
483.372	523.94
483.59	537.94
483.808	529.94
484.027	516.94
484.245	536.94
484.463	534.94
484.681	508.94
484.9	500.94
485.118	532.94
485.336	521.94
485.554	524.94
485.772	553.94
485.99	545.94
486.209	565.94
486.427	522.94
486.645	559.94
486.863	551.94
487.081	574.94
487.299	582.94
487.517	571.94
487.735	568.94
487.953	561.94
488.171	544.94
488.389	569.94
488.607	564.94
488.825	556.94
489.043	547.94
489.261	573.94
489.479	575.94
489.696	573.94
489.914	597.94
490.132	598.94
490.35	593.94
490.568	589.94
490.786	608.94
491.003	628.94
491.221	623.94
491.439	609.94
491.657	608.94
491.874	639.94
492.092	663.94
492.31	664.94
492.527	663.94
492.745	650.94
492.963	647.94
493.18	659.94
493.398	682.94
493.615	664.94
493.833	649.94
494.05	678.94
494.268	673.94
494.485	681.94
494.703	671.94
494.92	665.94
495.138	659.94
495.355	657.94
495.573	685.94
495.79	667.94
496.008	667.94
496.225	662.94
496.442	698.94
496.66	685.94
496.877	669.94
497.094	701.94
497.312	683.94
497.529	664.94
497.746	695.94
497.963	694.94
498.181	715.94
498.398	744.94
498.615	739.94
498.832	725.94
499.049	736.94
499.267	763.94
499.484	761.94
499.701	799.94
499.918	802.94
500.135	810.94
500.352	851.94
500.569	852.94
500.786	861.94
501.003	857.94
501.22	858.94
501.437	842.94
501.654	828.94
501.871	803.94
