Data from 1989.PennyLincolnUp.Lamp.En5.5.200Scan.071819.P2_HRD10591_17-24-09-973.txt Node
Date: Thu Jul 18 17:24:09 EDT 2019
User: cochatt
Spectrometer: HR+D1059
Trigger mode: 1
Integration Time (sec): 1.000000E-1
Scans to average: 1
Electric dark correction enabled: true
Nonlinearity correction enabled: false
Boxcar width: 0
XAxis mode: Wavelengths
Number of Pixels in Spectrum: 2048
>>>>>Begin Spectral Data<<<<<
223.165	-21.31
223.4	-21.31
223.635	-21.31
223.869	-25.31
224.104	-11.31
224.338	-13.31
224.573	-13.31
224.808	-8.31
225.042	-1.31
225.277	1.69
225.511	7.69
225.746	-0.31
225.98	2.69
226.215	-0.31
226.449	19.69
226.683	22.69
226.918	23.69
227.152	16.69
227.387	34.69
227.621	33.69
227.856	41.69
228.09	41.69
228.324	33.69
228.559	60.69
228.793	75.69
229.027	89.69
229.262	129.69
229.496	127.69
229.73	141.69
229.964	156.69
230.199	132.69
230.433	129.69
230.667	123.69
230.901	119.69
231.136	109.69
231.37	107.69
231.604	113.69
231.838	120.69
232.072	109.69
232.306	104.69
232.541	112.69
232.775	113.69
233.009	118.69
233.243	118.69
233.477	120.69
233.711	111.69
233.945	118.69
234.179	125.69
234.413	128.69
234.647	117.69
234.881	112.69
235.115	122.69
235.349	113.69
235.583	106.69
235.817	119.69
236.051	149.69
236.285	138.69
236.519	139.69
236.753	128.69
236.987	136.69
237.221	187.69
237.455	257.69
237.689	193.69
237.922	135.69
238.156	143.69
238.39	136.69
238.624	126.69
238.858	138.69
239.091	129.69
239.325	123.69
239.559	123.69
239.793	134.69
240.027	141.69
240.26	146.69
240.494	165.69
240.728	169.69
240.961	182.69
241.195	161.69
241.429	159.69
241.662	145.69
241.896	138.69
242.13	142.69
242.363	126.69
242.597	139.69
242.83	154.69
243.064	144.69
243.298	144.69
243.531	145.69
243.765	131.69
243.998	145.69
244.232	150.69
244.465	132.69
244.699	152.69
244.932	153.69
245.166	146.69
245.399	157.69
245.633	133.69
245.866	167.69
246.099	153.69
246.333	152.69
246.566	149.69
246.8	166.69
247.033	166.69
247.266	151.69
247.5	168.69
247.733	179.69
247.966	191.69
248.2	188.69
248.433	184.69
248.666	193.69
248.899	204.69
249.133	197.69
249.366	216.69
249.599	215.69
249.832	187.69
250.066	173.69
250.299	204.69
250.532	205.69
250.765	207.69
250.998	219.69
251.231	249.69
251.465	246.69
251.698	226.69
251.931	221.69
252.164	230.69
252.397	230.69
252.63	209.69
252.863	234.69
253.096	233.69
253.329	246.69
253.562	248.69
253.795	242.69
254.028	220.69
254.261	251.69
254.494	252.69
254.727	305.69
254.96	303.69
255.193	303.69
255.426	286.69
255.659	260.69
255.892	257.69
256.124	250.69
256.357	243.69
256.59	229.69
256.823	234.69
257.056	254.69
257.289	230.69
257.521	237.69
257.754	232.69
257.987	222.69
258.22	240.69
258.452	241.69
258.685	217.69
258.918	239.69
259.151	247.69
259.383	241.69
259.616	249.69
259.849	258.69
260.081	273.69
260.314	276.69
260.547	277.69
260.779	281.69
261.012	247.69
261.244	245.69
261.477	241.69
261.71	246.69
261.942	233.69
262.175	246.69
262.407	236.69
262.64	231.69
262.872	224.69
263.105	238.69
263.337	210.69
263.57	218.69
263.802	222.69
264.035	223.69
264.267	227.69
264.499	235.69
264.732	234.69
264.964	227.69
265.197	223.69
265.429	246.69
265.661	222.69
265.894	231.69
266.126	243.69
266.358	226.69
266.591	222.69
266.823	259.69
267.055	266.69
267.287	248.69
267.52	262.69
267.752	258.69
267.984	251.69
268.216	265.69
268.448	255.69
268.681	270.69
268.913	267.69
269.145	286.69
269.377	294.69
269.609	302.69
269.841	290.69
270.073	293.69
270.306	331.69
270.538	354.69
270.77	345.69
271.002	354.69
271.234	319.69
271.466	342.69
271.698	360.69
271.93	357.69
272.162	339.69
272.394	346.69
272.626	334.69
272.858	344.69
273.09	305.69
273.322	319.69
273.553	301.69
273.785	294.69
274.017	285.69
274.249	294.69
274.481	305.69
274.713	289.69
274.945	285.69
275.176	285.69
275.408	276.69
275.64	301.69
275.872	278.69
276.104	305.69
276.335	308.69
276.567	299.69
276.799	305.69
277.031	321.69
277.262	341.69
277.494	355.69
277.726	324.69
277.957	327.69
278.189	309.69
278.421	314.69
278.652	310.69
278.884	303.69
279.115	280.69
279.347	298.69
279.579	285.69
279.81	287.69
280.042	284.69
280.273	290.69
280.505	296.69
280.736	279.69
280.968	281.69
281.199	284.69
281.431	287.69
281.662	286.69
281.894	297.69
282.125	304.69
282.356	313.69
282.588	332.69
282.819	362.69
283.051	311.69
283.282	294.69
283.513	310.69
283.745	293.69
283.976	309.69
284.207	309.69
284.439	315.69
284.67	300.69
284.901	281.69
285.132	301.69
285.364	299.69
285.595	291.69
285.826	301.69
286.057	308.69
286.288	299.69
286.52	311.69
286.751	300.69
286.982	292.69
287.213	289.69
287.444	298.69
287.675	323.69
287.906	319.69
288.138	297.69
288.369	322.69
288.6	319.69
288.831	312.69
289.062	318.69
289.293	327.69
289.524	314.69
289.755	305.69
289.986	309.69
290.217	326.69
290.448	310.69
290.679	327.69
290.91	298.69
291.141	299.69
291.371	306.69
291.602	332.69
291.833	311.69
292.064	307.69
292.295	314.69
292.526	335.69
292.757	318.69
292.987	325.69
293.218	309.69
293.449	309.69
293.68	313.69
293.91	303.69
294.141	308.69
294.372	305.69
294.603	308.69
294.833	306.69
295.064	298.69
295.295	333.69
295.525	317.69
295.756	305.69
295.987	332.69
296.217	331.69
296.448	362.69
296.679	323.69
296.909	336.69
297.14	327.69
297.37	331.69
297.601	327.69
297.831	315.69
298.062	327.69
298.292	311.69
298.523	325.69
298.753	340.69
298.984	328.69
299.214	323.69
299.445	326.69
299.675	300.69
299.905	333.69
300.136	341.69
300.366	334.69
300.597	330.69
300.827	317.69
301.057	342.69
301.288	355.69
301.518	365.69
301.748	347.69
301.979	348.69
302.209	356.69
302.439	334.69
302.669	333.69
302.9	347.69
303.13	340.69
303.36	346.69
303.59	335.69
303.82	360.69
304.051	356.69
304.281	360.69
304.511	359.69
304.741	352.69
304.971	362.69
305.201	344.69
305.431	346.69
305.661	346.69
305.891	348.69
306.121	346.69
306.352	359.69
306.582	351.69
306.812	370.69
307.042	341.69
307.272	360.69
307.502	356.69
307.731	363.69
307.961	347.69
308.191	348.69
308.421	365.69
308.651	370.69
308.881	367.69
309.111	356.69
309.341	358.69
309.571	381.69
309.8	393.69
310.03	411.69
310.26	391.69
310.49	395.69
310.72	420.69
310.949	419.69
311.179	434.69
311.409	396.69
311.639	405.69
311.868	430.69
312.098	410.69
312.328	437.69
312.557	446.69
312.787	478.69
313.017	441.69
313.246	422.69
313.476	412.69
313.706	418.69
313.935	435.69
314.165	408.69
314.394	440.69
314.624	418.69
314.853	418.69
315.083	408.69
315.312	418.69
315.542	400.69
315.771	405.69
316.001	397.69
316.23	394.69
316.46	381.69
316.689	410.69
316.919	411.69
317.148	433.69
317.377	421.69
317.607	402.69
317.836	427.69
318.065	403.69
318.295	409.69
318.524	414.69
318.753	395.69
318.983	425.69
319.212	429.69
319.441	444.69
319.67	420.69
319.9	424.69
320.129	412.69
320.358	405.69
320.587	425.69
320.816	413.69
321.046	436.69
321.275	433.69
321.504	423.69
321.733	427.69
321.962	437.69
322.191	442.69
322.42	478.69
322.649	490.69
322.878	499.69
323.108	523.69
323.337	552.69
323.566	528.69
323.795	585.69
324.024	623.69
324.253	793.69
324.482	1119.69
324.71	1695.69
324.939	2461.69
325.168	2096.69
325.397	1129.69
325.626	740.69
325.855	634.69
326.084	564.69
326.313	548.69
326.542	554.69
326.77	603.69
326.999	725.69
327.228	965.69
327.457	1501.69
327.686	1821.69
327.914	1220.69
328.143	801.69
328.372	659.69
328.6	655.69
328.829	639.69
329.058	619.69
329.287	641.69
329.515	593.69
329.744	550.69
329.972	529.69
330.201	533.69
330.43	570.69
330.658	614.69
330.887	642.69
331.115	651.69
331.344	559.69
331.572	521.69
331.801	518.69
332.03	509.69
332.258	504.69
332.486	490.69
332.715	470.69
332.943	469.69
333.172	467.69
333.4	459.69
333.629	492.69
333.857	470.69
334.085	497.69
334.314	469.69
334.542	482.69
334.771	474.69
334.999	493.69
335.227	481.69
335.455	477.69
335.684	471.69
335.912	456.69
336.14	462.69
336.369	454.69
336.597	451.69
336.825	470.69
337.053	467.69
337.281	460.69
337.51	476.69
337.738	462.69
337.966	467.69
338.194	472.69
338.422	458.69
338.65	464.69
338.878	429.69
339.106	441.69
339.334	461.69
339.562	425.69
339.79	436.69
340.018	431.69
340.246	447.69
340.474	457.69
340.702	446.69
340.93	457.69
341.158	445.69
341.386	451.69
341.614	457.69
341.842	467.69
342.07	452.69
342.298	465.69
342.526	413.69
342.754	437.69
342.981	446.69
343.209	453.69
343.437	433.69
343.665	458.69
343.893	448.69
344.12	487.69
344.348	455.69
344.576	450.69
344.804	471.69
345.031	474.69
345.259	494.69
345.487	480.69
345.714	465.69
345.942	444.69
346.17	428.69
346.397	452.69
346.625	437.69
346.853	433.69
347.08	434.69
347.308	432.69
347.535	439.69
347.763	452.69
347.99	442.69
348.218	475.69
348.445	458.69
348.673	465.69
348.9	452.69
349.128	439.69
349.355	408.69
349.583	433.69
349.81	423.69
350.037	407.69
350.265	414.69
350.492	431.69
350.72	429.69
350.947	435.69
351.174	427.69
351.402	449.69
351.629	448.69
351.856	446.69
352.083	450.69
352.311	470.69
352.538	444.69
352.765	444.69
352.992	440.69
353.22	444.69
353.447	434.69
353.674	414.69
353.901	428.69
354.128	396.69
354.355	404.69
354.583	403.69
354.81	402.69
355.037	412.69
355.264	388.69
355.491	394.69
355.718	391.69
355.945	387.69
356.172	386.69
356.399	396.69
356.626	395.69
356.853	382.69
357.08	393.69
357.307	384.69
357.534	393.69
357.761	393.69
357.988	414.69
358.215	398.69
358.441	385.69
358.668	397.69
358.895	406.69
359.122	424.69
359.349	428.69
359.576	415.69
359.802	446.69
360.029	488.69
360.256	505.69
360.483	470.69
360.709	439.69
360.936	437.69
361.163	427.69
361.39	418.69
361.616	431.69
361.843	430.69
362.07	420.69
362.296	441.69
362.523	450.69
362.749	403.69
362.976	424.69
363.203	439.69
363.429	420.69
363.656	430.69
363.882	400.69
364.109	388.69
364.335	411.69
364.562	427.69
364.788	406.69
365.015	403.69
365.241	421.69
365.468	408.69
365.694	419.69
365.92	421.69
366.147	382.69
366.373	423.69
366.599	394.69
366.826	405.69
367.052	389.69
367.278	403.69
367.505	402.69
367.731	387.69
367.957	402.69
368.184	419.69
368.41	394.69
368.636	430.69
368.862	415.69
369.089	421.69
369.315	417.69
369.541	386.69
369.767	407.69
369.993	403.69
370.219	387.69
370.445	419.69
370.672	406.69
370.898	394.69
371.124	411.69
371.35	403.69
371.576	399.69
371.802	388.69
372.028	397.69
372.254	378.69
372.48	378.69
372.706	404.69
372.932	387.69
373.158	392.69
373.384	379.69
373.61	388.69
373.835	396.69
374.061	397.69
374.287	403.69
374.513	389.69
374.739	401.69
374.965	406.69
375.191	395.69
375.416	401.69
375.642	403.69
375.868	386.69
376.094	386.69
376.319	388.69
376.545	409.69
376.771	381.69
376.997	380.69
377.222	383.69
377.448	391.69
377.674	382.69
377.899	379.69
378.125	411.69
378.35	389.69
378.576	403.69
378.802	385.69
379.027	367.69
379.253	391.69
379.478	377.69
379.704	381.69
379.929	385.69
380.155	391.69
380.38	395.69
380.606	412.69
380.831	369.69
381.057	405.69
381.282	387.69
381.507	395.69
381.733	418.69
381.958	407.69
382.184	385.69
382.409	402.69
382.634	407.69
382.86	390.69
383.085	406.69
383.31	403.69
383.535	402.69
383.761	406.69
383.986	416.69
384.211	403.69
384.436	407.69
384.662	420.69
384.887	403.69
385.112	403.69
385.337	415.69
385.562	417.69
385.787	405.69
386.013	430.69
386.238	427.69
386.463	431.69
386.688	423.69
386.913	417.69
387.138	425.69
387.363	406.69
387.588	410.69
387.813	417.69
388.038	427.69
388.263	423.69
388.488	422.69
388.713	404.69
388.938	437.69
389.163	431.69
389.387	406.69
389.612	437.69
389.837	412.69
390.062	406.69
390.287	399.69
390.512	422.69
390.736	409.69
390.961	405.69
391.186	411.69
391.411	419.69
391.636	419.69
391.86	435.69
392.085	451.69
392.31	397.69
392.534	441.69
392.759	438.69
392.984	400.69
393.208	426.69
393.433	413.69
393.658	416.69
393.882	402.69
394.107	431.69
394.331	415.69
394.556	416.69
394.78	416.69
395.005	401.69
395.229	422.69
395.454	424.69
395.678	443.69
395.903	453.69
396.127	453.69
396.352	459.69
396.576	426.69
396.801	396.69
397.025	427.69
397.249	423.69
397.474	460.69
397.698	444.69
397.922	470.69
398.147	457.69
398.371	455.69
398.595	458.69
398.82	456.69
399.044	449.69
399.268	473.69
399.492	518.69
399.717	521.69
399.941	534.69
400.165	578.69
400.389	584.69
400.613	545.69
400.837	500.69
401.062	489.69
401.286	471.69
401.51	473.69
401.734	474.69
401.958	472.69
402.182	478.69
402.406	485.69
402.63	485.69
402.854	492.69
403.078	469.69
403.302	469.69
403.526	490.69
403.75	461.69
403.974	453.69
404.198	462.69
404.422	486.69
404.645	495.69
404.869	477.69
405.093	495.69
405.317	518.69
405.541	571.69
405.765	542.69
405.988	494.69
406.212	517.69
406.436	532.69
406.66	532.69
406.883	543.69
407.107	555.69
407.331	598.69
407.555	661.69
407.778	628.69
408.002	589.69
408.226	555.69
408.449	541.69
408.673	542.69
408.896	570.69
409.12	614.69
409.344	562.69
409.567	532.69
409.791	485.69
410.014	475.69
410.238	490.69
410.461	497.69
410.685	503.69
410.908	506.69
411.132	546.69
411.355	576.69
411.578	584.69
411.802	509.69
412.025	468.69
412.249	497.69
412.472	497.69
412.695	505.69
412.919	492.69
413.142	467.69
413.365	475.69
413.589	461.69
413.812	445.69
414.035	463.69
414.258	451.69
414.482	463.69
414.705	472.69
414.928	452.69
415.151	460.69
415.374	480.69
415.597	447.69
415.821	417.69
416.044	437.69
416.267	457.69
416.49	466.69
416.713	445.69
416.936	463.69
417.159	463.69
417.382	461.69
417.605	460.69
417.828	471.69
418.051	482.69
418.274	467.69
418.497	450.69
418.72	451.69
418.943	469.69
419.166	466.69
419.389	491.69
419.611	485.69
419.834	471.69
420.057	494.69
420.28	449.69
420.503	461.69
420.726	447.69
420.948	487.69
421.171	527.69
421.394	584.69
421.617	497.69
421.839	491.69
422.062	488.69
422.285	495.69
422.507	559.69
422.73	635.69
422.953	614.69
423.175	515.69
423.398	522.69
423.621	487.69
423.843	523.69
424.066	517.69
424.288	509.69
424.511	542.69
424.733	626.69
424.956	680.69
425.178	671.69
425.401	677.69
425.623	670.69
425.846	566.69
426.068	531.69
426.291	546.69
426.513	530.69
426.735	557.69
426.958	583.69
427.18	641.69
427.402	775.69
427.625	894.69
427.847	757.69
428.069	637.69
428.292	575.69
428.514	533.69
428.736	503.69
428.958	493.69
429.181	477.69
429.403	482.69
429.625	494.69
429.847	530.69
430.069	602.69
430.292	589.69
430.514	516.69
430.736	483.69
430.958	500.69
431.18	465.69
431.402	474.69
431.624	442.69
431.846	457.69
432.068	431.69
432.29	476.69
432.512	451.69
432.734	469.69
432.956	482.69
433.178	490.69
433.4	477.69
433.622	458.69
433.844	485.69
434.066	463.69
434.287	454.69
434.509	453.69
434.731	462.69
434.953	478.69
435.175	519.69
435.397	533.69
435.618	526.69
435.84	571.69
436.062	641.69
436.284	727.69
436.505	616.69
436.727	547.69
436.949	513.69
437.17	476.69
437.392	488.69
437.614	498.69
437.835	549.69
438.057	664.69
438.278	738.69
438.5	736.69
438.721	807.69
438.943	776.69
439.165	615.69
439.386	565.69
439.608	559.69
439.829	531.69
440.05	569.69
440.272	590.69
440.493	594.69
440.715	533.69
440.936	537.69
441.158	506.69
441.379	512.69
441.6	491.69
441.822	513.69
442.043	563.69
442.264	660.69
442.486	712.69
442.707	597.69
442.928	545.69
443.149	565.69
443.371	593.69
443.592	621.69
443.813	711.69
444.034	789.69
444.255	632.69
444.476	564.69
444.698	519.69
444.919	539.69
445.14	614.69
445.361	588.69
445.582	570.69
445.803	629.69
446.024	737.69
446.245	731.69
446.466	681.69
446.687	579.69
446.908	541.69
447.129	499.69
447.35	486.69
447.571	501.69
447.792	490.69
448.013	487.69
448.234	524.69
448.455	550.69
448.675	710.69
448.896	788.69
449.117	674.69
449.338	631.69
449.559	754.69
449.779	837.69
450	665.69
450.221	557.69
450.442	519.69
450.662	479.69
450.883	484.69
451.104	501.69
451.324	507.69
451.545	480.69
451.766	441.69
451.986	446.69
452.207	452.69
452.428	438.69
452.648	422.69
452.869	436.69
453.089	449.69
453.31	463.69
453.53	449.69
453.751	437.69
453.971	439.69
454.192	463.69
454.412	445.69
454.633	417.69
454.853	435.69
455.073	413.69
455.294	448.69
455.514	532.69
455.734	507.69
455.955	437.69
456.175	448.69
456.395	426.69
456.616	407.69
456.836	393.69
457.056	395.69
457.276	419.69
457.497	399.69
457.717	416.69
457.937	424.69
458.157	432.69
458.377	411.69
458.598	470.69
458.818	502.69
459.038	576.69
459.258	618.69
459.478	515.69
459.698	476.69
459.918	428.69
460.138	447.69
460.358	446.69
460.578	444.69
460.798	484.69
461.018	440.69
461.238	450.69
461.458	445.69
461.678	451.69
461.898	459.69
462.118	445.69
462.338	473.69
462.558	451.69
462.777	474.69
462.997	485.69
463.217	484.69
463.437	471.69
463.657	479.69
463.876	462.69
464.096	471.69
464.316	476.69
464.536	476.69
464.755	484.69
464.975	487.69
465.195	531.69
465.414	628.69
465.634	555.69
465.854	496.69
466.073	469.69
466.293	466.69
466.512	445.69
466.732	452.69
466.951	448.69
467.171	448.69
467.391	450.69
467.61	455.69
467.829	453.69
468.049	449.69
468.268	426.69
468.488	445.69
468.707	413.69
468.927	421.69
469.146	412.69
469.365	411.69
469.585	427.69
469.804	425.69
470.023	458.69
470.243	430.69
470.462	457.69
470.681	463.69
470.901	438.69
471.12	461.69
471.339	441.69
471.558	435.69
471.777	458.69
471.997	436.69
472.216	441.69
472.435	458.69
472.654	430.69
472.873	445.69
473.092	424.69
473.311	433.69
473.53	434.69
473.749	451.69
473.968	507.69
474.187	599.69
474.406	653.69
474.625	513.69
474.844	472.69
475.063	467.69
475.282	458.69
475.501	445.69
475.72	461.69
475.939	452.69
476.158	461.69
476.377	463.69
476.596	462.69
476.814	450.69
477.033	461.69
477.252	461.69
477.471	467.69
477.69	459.69
477.908	468.69
478.127	469.69
478.346	482.69
478.564	490.69
478.783	490.69
479.002	515.69
479.22	516.69
479.439	502.69
479.658	498.69
479.876	520.69
480.095	569.69
480.313	576.69
480.532	552.69
480.751	524.69
480.969	525.69
481.188	554.69
481.406	548.69
481.624	525.69
481.843	517.69
482.061	513.69
482.28	533.69
482.498	519.69
482.717	496.69
482.935	509.69
483.153	537.69
483.372	506.69
483.59	500.69
483.808	518.69
484.027	523.69
484.245	534.69
484.463	542.69
484.681	534.69
484.9	524.69
485.118	545.69
485.336	545.69
485.554	524.69
485.772	545.69
485.99	527.69
486.209	551.69
486.427	549.69
486.645	549.69
486.863	583.69
487.081	551.69
487.299	553.69
487.517	553.69
487.735	538.69
487.953	548.69
488.171	545.69
488.389	567.69
488.607	588.69
488.825	585.69
489.043	557.69
489.261	576.69
489.479	568.69
489.696	561.69
489.914	570.69
490.132	575.69
490.35	588.69
490.568	584.69
490.786	597.69
491.003	605.69
491.221	645.69
491.439	612.69
491.657	615.69
491.874	626.69
492.092	622.69
492.31	611.69
492.527	650.69
492.745	641.69
492.963	675.69
493.18	629.69
493.398	654.69
493.615	633.69
493.833	643.69
494.05	671.69
494.268	647.69
494.485	651.69
494.703	669.69
494.92	659.69
495.138	651.69
495.355	676.69
495.573	676.69
495.79	675.69
496.008	659.69
496.225	657.69
496.442	666.69
496.66	678.69
496.877	662.69
497.094	667.69
497.312	670.69
497.529	711.69
497.746	689.69
497.963	665.69
498.181	731.69
498.398	710.69
498.615	742.69
498.832	744.69
499.049	740.69
499.267	760.69
499.484	783.69
499.701	780.69
499.918	793.69
500.135	834.69
500.352	869.69
500.569	846.69
500.786	869.69
501.003	844.69
501.22	848.69
501.437	824.69
501.654	833.69
501.871	831.69
