Data from 1989.PennyLincolnUp.Lamp.En5.5.200Scan.071819.P2_HRD10591_17-24-19-974.txt Node
Date: Thu Jul 18 17:24:19 EDT 2019
User: cochatt
Spectrometer: HR+D1059
Trigger mode: 1
Integration Time (sec): 1.000000E-1
Scans to average: 1
Electric dark correction enabled: true
Nonlinearity correction enabled: false
Boxcar width: 0
XAxis mode: Wavelengths
Number of Pixels in Spectrum: 2048
>>>>>Begin Spectral Data<<<<<
223.165	-7.88
223.4	-7.88
223.635	-7.88
223.869	-14.88
224.104	-9.88
224.338	-12.88
224.573	-24.88
224.808	-2.88
225.042	5.12
225.277	-0.88
225.511	-16.88
225.746	-4.88
225.98	6.12
226.215	10.12
226.449	16.12
226.683	15.12
226.918	4.12
227.152	39.12
227.387	38.12
227.621	49.12
227.856	42.12
228.09	50.12
228.324	48.12
228.559	57.12
228.793	82.12
229.027	104.12
229.262	108.12
229.496	113.12
229.73	144.12
229.964	174.12
230.199	152.12
230.433	129.12
230.667	136.12
230.901	123.12
231.136	123.12
231.37	119.12
231.604	127.12
231.838	101.12
232.072	127.12
232.306	104.12
232.541	105.12
232.775	108.12
233.009	119.12
233.243	125.12
233.477	116.12
233.711	122.12
233.945	105.12
234.179	113.12
234.413	110.12
234.647	116.12
234.881	115.12
235.115	121.12
235.349	111.12
235.583	135.12
235.817	126.12
236.051	129.12
236.285	124.12
236.519	132.12
236.753	142.12
236.987	145.12
237.221	197.12
237.455	248.12
237.689	192.12
237.922	168.12
238.156	131.12
238.39	131.12
238.624	145.12
238.858	131.12
239.091	128.12
239.325	128.12
239.559	135.12
239.793	133.12
240.027	135.12
240.26	146.12
240.494	154.12
240.728	152.12
240.961	165.12
241.195	144.12
241.429	133.12
241.662	130.12
241.896	135.12
242.13	147.12
242.363	138.12
242.597	137.12
242.83	137.12
243.064	136.12
243.298	154.12
243.531	134.12
243.765	127.12
243.998	151.12
244.232	153.12
244.465	175.12
244.699	144.12
244.932	152.12
245.166	165.12
245.399	154.12
245.633	156.12
245.866	160.12
246.099	152.12
246.333	143.12
246.566	159.12
246.8	162.12
247.033	170.12
247.266	162.12
247.5	195.12
247.733	184.12
247.966	173.12
248.2	165.12
248.433	183.12
248.666	177.12
248.899	210.12
249.133	205.12
249.366	208.12
249.599	219.12
249.832	207.12
250.066	202.12
250.299	182.12
250.532	203.12
250.765	217.12
250.998	227.12
251.231	231.12
251.465	222.12
251.698	225.12
251.931	225.12
252.164	215.12
252.397	199.12
252.63	218.12
252.863	232.12
253.096	226.12
253.329	257.12
253.562	229.12
253.795	240.12
254.028	241.12
254.261	239.12
254.494	236.12
254.727	274.12
254.96	310.12
255.193	292.12
255.426	277.12
255.659	257.12
255.892	255.12
256.124	240.12
256.357	244.12
256.59	229.12
256.823	233.12
257.056	221.12
257.289	226.12
257.521	236.12
257.754	228.12
257.987	208.12
258.22	238.12
258.452	226.12
258.685	232.12
258.918	237.12
259.151	237.12
259.383	245.12
259.616	268.12
259.849	248.12
260.081	255.12
260.314	272.12
260.547	279.12
260.779	263.12
261.012	254.12
261.244	261.12
261.477	238.12
261.71	230.12
261.942	262.12
262.175	251.12
262.407	237.12
262.64	243.12
262.872	230.12
263.105	237.12
263.337	238.12
263.57	227.12
263.802	225.12
264.035	216.12
264.267	224.12
264.499	219.12
264.732	243.12
264.964	244.12
265.197	231.12
265.429	243.12
265.661	224.12
265.894	237.12
266.126	230.12
266.358	241.12
266.591	229.12
266.823	238.12
267.055	249.12
267.287	233.12
267.52	243.12
267.752	267.12
267.984	247.12
268.216	236.12
268.448	258.12
268.681	248.12
268.913	269.12
269.145	288.12
269.377	296.12
269.609	298.12
269.841	305.12
270.073	314.12
270.306	317.12
270.538	352.12
270.77	346.12
271.002	332.12
271.234	322.12
271.466	340.12
271.698	350.12
271.93	342.12
272.162	341.12
272.394	342.12
272.626	350.12
272.858	309.12
273.09	321.12
273.322	307.12
273.553	299.12
273.785	286.12
274.017	283.12
274.249	289.12
274.481	309.12
274.713	280.12
274.945	301.12
275.176	292.12
275.408	288.12
275.64	264.12
275.872	257.12
276.104	293.12
276.335	273.12
276.567	301.12
276.799	295.12
277.031	347.12
277.262	353.12
277.494	356.12
277.726	331.12
277.957	313.12
278.189	316.12
278.421	299.12
278.652	302.12
278.884	298.12
279.115	322.12
279.347	300.12
279.579	283.12
279.81	286.12
280.042	283.12
280.273	286.12
280.505	281.12
280.736	259.12
280.968	281.12
281.199	279.12
281.431	294.12
281.662	266.12
281.894	279.12
282.125	295.12
282.356	305.12
282.588	336.12
282.819	322.12
283.051	301.12
283.282	285.12
283.513	296.12
283.745	298.12
283.976	311.12
284.207	318.12
284.439	299.12
284.67	307.12
284.901	298.12
285.132	290.12
285.364	294.12
285.595	292.12
285.826	304.12
286.057	287.12
286.288	280.12
286.52	311.12
286.751	288.12
286.982	279.12
287.213	285.12
287.444	297.12
287.675	328.12
287.906	321.12
288.138	317.12
288.369	323.12
288.6	328.12
288.831	319.12
289.062	303.12
289.293	315.12
289.524	313.12
289.755	295.12
289.986	299.12
290.217	282.12
290.448	310.12
290.679	320.12
290.91	304.12
291.141	303.12
291.371	312.12
291.602	316.12
291.833	311.12
292.064	309.12
292.295	297.12
292.526	302.12
292.757	303.12
292.987	314.12
293.218	311.12
293.449	299.12
293.68	319.12
293.91	302.12
294.141	304.12
294.372	318.12
294.603	307.12
294.833	324.12
295.064	329.12
295.295	315.12
295.525	313.12
295.756	303.12
295.987	331.12
296.217	368.12
296.448	356.12
296.679	337.12
296.909	312.12
297.14	308.12
297.37	324.12
297.601	333.12
297.831	320.12
298.062	316.12
298.292	324.12
298.523	314.12
298.753	339.12
298.984	318.12
299.214	326.12
299.445	328.12
299.675	321.12
299.905	328.12
300.136	309.12
300.366	324.12
300.597	341.12
300.827	331.12
301.057	352.12
301.288	333.12
301.518	347.12
301.748	319.12
301.979	363.12
302.209	361.12
302.439	366.12
302.669	324.12
302.9	337.12
303.13	352.12
303.36	359.12
303.59	354.12
303.82	356.12
304.051	357.12
304.281	343.12
304.511	341.12
304.741	353.12
304.971	346.12
305.201	360.12
305.431	341.12
305.661	329.12
305.891	333.12
306.121	352.12
306.352	355.12
306.582	358.12
306.812	354.12
307.042	352.12
307.272	356.12
307.502	359.12
307.731	349.12
307.961	362.12
308.191	356.12
308.421	352.12
308.651	374.12
308.881	344.12
309.111	372.12
309.341	351.12
309.571	360.12
309.8	380.12
310.03	407.12
310.26	391.12
310.49	406.12
310.72	421.12
310.949	399.12
311.179	451.12
311.409	417.12
311.639	392.12
311.868	392.12
312.098	402.12
312.328	383.12
312.557	400.12
312.787	421.12
313.017	448.12
313.246	437.12
313.476	393.12
313.706	389.12
313.935	413.12
314.165	421.12
314.394	452.12
314.624	431.12
314.853	417.12
315.083	399.12
315.312	400.12
315.542	397.12
315.771	393.12
316.001	394.12
316.23	390.12
316.46	389.12
316.689	391.12
316.919	399.12
317.148	410.12
317.377	399.12
317.607	412.12
317.836	394.12
318.065	393.12
318.295	405.12
318.524	391.12
318.753	387.12
318.983	420.12
319.212	403.12
319.441	398.12
319.67	408.12
319.9	413.12
320.129	400.12
320.358	387.12
320.587	420.12
320.816	425.12
321.046	436.12
321.275	424.12
321.504	432.12
321.733	421.12
321.962	433.12
322.191	447.12
322.42	475.12
322.649	476.12
322.878	515.12
323.108	513.12
323.337	525.12
323.566	549.12
323.795	590.12
324.024	635.12
324.253	776.12
324.482	1093.12
324.71	1751.12
324.939	2466.12
325.168	2147.12
325.397	1105.12
325.626	748.12
325.855	603.12
326.084	559.12
326.313	558.12
326.542	545.12
326.77	620.12
326.999	721.12
327.228	999.12
327.457	1491.12
327.686	1843.12
327.914	1211.12
328.143	783.12
328.372	678.12
328.6	631.12
328.829	604.12
329.058	617.12
329.287	643.12
329.515	567.12
329.744	552.12
329.972	543.12
330.201	519.12
330.43	553.12
330.658	601.12
330.887	663.12
331.115	652.12
331.344	558.12
331.572	530.12
331.801	518.12
332.03	515.12
332.258	507.12
332.486	462.12
332.715	467.12
332.943	480.12
333.172	480.12
333.4	462.12
333.629	472.12
333.857	493.12
334.085	497.12
334.314	475.12
334.542	477.12
334.771	486.12
334.999	485.12
335.227	482.12
335.455	470.12
335.684	450.12
335.912	459.12
336.14	446.12
336.369	457.12
336.597	449.12
336.825	454.12
337.053	472.12
337.281	440.12
337.51	465.12
337.738	444.12
337.966	446.12
338.194	456.12
338.422	464.12
338.65	462.12
338.878	457.12
339.106	447.12
339.334	449.12
339.562	435.12
339.79	443.12
340.018	472.12
340.246	459.12
340.474	453.12
340.702	452.12
340.93	453.12
341.158	422.12
341.386	447.12
341.614	441.12
341.842	433.12
342.07	447.12
342.298	446.12
342.526	411.12
342.754	421.12
342.981	417.12
343.209	446.12
343.437	420.12
343.665	427.12
343.893	435.12
344.12	448.12
344.348	452.12
344.576	463.12
344.804	458.12
345.031	461.12
345.259	460.12
345.487	456.12
345.714	456.12
345.942	469.12
346.17	450.12
346.397	415.12
346.625	424.12
346.853	442.12
347.08	432.12
347.308	454.12
347.535	462.12
347.763	447.12
347.99	433.12
348.218	448.12
348.445	456.12
348.673	459.12
348.9	443.12
349.128	437.12
349.355	408.12
349.583	407.12
349.81	404.12
350.037	400.12
350.265	414.12
350.492	411.12
350.72	417.12
350.947	430.12
351.174	435.12
351.402	419.12
351.629	437.12
351.856	430.12
352.083	427.12
352.311	462.12
352.538	457.12
352.765	421.12
352.992	443.12
353.22	457.12
353.447	432.12
353.674	415.12
353.901	405.12
354.128	398.12
354.355	393.12
354.583	414.12
354.81	401.12
355.037	402.12
355.264	407.12
355.491	369.12
355.718	396.12
355.945	395.12
356.172	401.12
356.399	380.12
356.626	381.12
356.853	385.12
357.08	398.12
357.307	395.12
357.534	404.12
357.761	377.12
357.988	396.12
358.215	399.12
358.441	389.12
358.668	402.12
358.895	412.12
359.122	429.12
359.349	410.12
359.576	440.12
359.802	470.12
360.029	468.12
360.256	492.12
360.483	464.12
360.709	427.12
360.936	419.12
361.163	431.12
361.39	435.12
361.616	424.12
361.843	427.12
362.07	415.12
362.296	419.12
362.523	425.12
362.749	429.12
362.976	425.12
363.203	403.12
363.429	412.12
363.656	415.12
363.882	411.12
364.109	414.12
364.335	419.12
364.562	426.12
364.788	401.12
365.015	400.12
365.241	414.12
365.468	414.12
365.694	411.12
365.92	400.12
366.147	400.12
366.373	394.12
366.599	400.12
366.826	426.12
367.052	390.12
367.278	397.12
367.505	383.12
367.731	392.12
367.957	381.12
368.184	391.12
368.41	390.12
368.636	401.12
368.862	411.12
369.089	391.12
369.315	407.12
369.541	380.12
369.767	402.12
369.993	415.12
370.219	401.12
370.445	399.12
370.672	396.12
370.898	390.12
371.124	382.12
371.35	404.12
371.576	393.12
371.802	409.12
372.028	392.12
372.254	400.12
372.48	397.12
372.706	399.12
372.932	402.12
373.158	396.12
373.384	391.12
373.61	394.12
373.835	390.12
374.061	366.12
374.287	368.12
374.513	401.12
374.739	395.12
374.965	385.12
375.191	382.12
375.416	399.12
375.642	401.12
375.868	398.12
376.094	404.12
376.319	381.12
376.545	386.12
376.771	401.12
376.997	383.12
377.222	376.12
377.448	374.12
377.674	384.12
377.899	384.12
378.125	374.12
378.35	379.12
378.576	374.12
378.802	397.12
379.027	379.12
379.253	381.12
379.478	385.12
379.704	384.12
379.929	369.12
380.155	392.12
380.38	384.12
380.606	382.12
380.831	384.12
381.057	420.12
381.282	397.12
381.507	389.12
381.733	403.12
381.958	383.12
382.184	388.12
382.409	401.12
382.634	380.12
382.86	406.12
383.085	395.12
383.31	391.12
383.535	388.12
383.761	392.12
383.986	397.12
384.211	405.12
384.436	413.12
384.662	405.12
384.887	404.12
385.112	395.12
385.337	407.12
385.562	423.12
385.787	420.12
386.013	430.12
386.238	432.12
386.463	423.12
386.688	412.12
386.913	402.12
387.138	408.12
387.363	416.12
387.588	399.12
387.813	407.12
388.038	409.12
388.263	419.12
388.488	417.12
388.713	412.12
388.938	412.12
389.163	426.12
389.387	426.12
389.612	412.12
389.837	412.12
390.062	411.12
390.287	407.12
390.512	407.12
390.736	401.12
390.961	402.12
391.186	411.12
391.411	408.12
391.636	409.12
391.86	391.12
392.085	417.12
392.31	420.12
392.534	416.12
392.759	411.12
392.984	434.12
393.208	431.12
393.433	401.12
393.658	422.12
393.882	419.12
394.107	410.12
394.331	421.12
394.556	407.12
394.78	410.12
395.005	415.12
395.229	437.12
395.454	395.12
395.678	425.12
395.903	444.12
396.127	447.12
396.352	443.12
396.576	441.12
396.801	415.12
397.025	440.12
397.249	411.12
397.474	426.12
397.698	427.12
397.922	452.12
398.147	453.12
398.371	468.12
398.595	460.12
398.82	449.12
399.044	453.12
399.268	478.12
399.492	492.12
399.717	526.12
399.941	525.12
400.165	554.12
400.389	563.12
400.613	524.12
400.837	495.12
401.062	495.12
401.286	470.12
401.51	475.12
401.734	456.12
401.958	470.12
402.182	477.12
402.406	477.12
402.63	472.12
402.854	483.12
403.078	488.12
403.302	463.12
403.526	475.12
403.75	478.12
403.974	496.12
404.198	464.12
404.422	455.12
404.645	481.12
404.869	495.12
405.093	491.12
405.317	525.12
405.541	545.12
405.765	514.12
405.988	497.12
406.212	524.12
406.436	525.12
406.66	567.12
406.883	500.12
407.107	536.12
407.331	569.12
407.555	651.12
407.778	639.12
408.002	583.12
408.226	545.12
408.449	538.12
408.673	504.12
408.896	553.12
409.12	605.12
409.344	550.12
409.567	499.12
409.791	487.12
410.014	464.12
410.238	472.12
410.461	477.12
410.685	472.12
410.908	486.12
411.132	555.12
411.355	585.12
411.578	557.12
411.802	512.12
412.025	488.12
412.249	462.12
412.472	472.12
412.695	503.12
412.919	476.12
413.142	465.12
413.365	448.12
413.589	472.12
413.812	448.12
414.035	451.12
414.258	462.12
414.482	445.12
414.705	456.12
414.928	437.12
415.151	456.12
415.374	454.12
415.597	417.12
415.821	436.12
416.044	451.12
416.267	445.12
416.49	444.12
416.713	454.12
416.936	449.12
417.159	440.12
417.382	441.12
417.605	448.12
417.828	471.12
418.051	487.12
418.274	464.12
418.497	464.12
418.72	453.12
418.943	440.12
419.166	467.12
419.389	467.12
419.611	495.12
419.834	482.12
420.057	461.12
420.28	458.12
420.503	470.12
420.726	467.12
420.948	493.12
421.171	511.12
421.394	543.12
421.617	493.12
421.839	468.12
422.062	480.12
422.285	492.12
422.507	507.12
422.73	623.12
422.953	598.12
423.175	556.12
423.398	519.12
423.621	494.12
423.843	523.12
424.066	518.12
424.288	504.12
424.511	528.12
424.733	592.12
424.956	680.12
425.178	625.12
425.401	630.12
425.623	660.12
425.846	567.12
426.068	537.12
426.291	505.12
426.513	521.12
426.735	536.12
426.958	565.12
427.18	658.12
427.402	780.12
427.625	863.12
427.847	789.12
428.069	613.12
428.292	558.12
428.514	505.12
428.736	520.12
428.958	516.12
429.181	486.12
429.403	488.12
429.625	471.12
429.847	529.12
430.069	601.12
430.292	583.12
430.514	515.12
430.736	477.12
430.958	491.12
431.18	447.12
431.402	443.12
431.624	441.12
431.846	458.12
432.068	441.12
432.29	445.12
432.512	452.12
432.734	448.12
432.956	441.12
433.178	460.12
433.4	466.12
433.622	443.12
433.844	458.12
434.066	448.12
434.287	435.12
434.509	452.12
434.731	451.12
434.953	457.12
435.175	505.12
435.397	513.12
435.618	513.12
435.84	563.12
436.062	657.12
436.284	729.12
436.505	595.12
436.727	541.12
436.949	512.12
437.17	496.12
437.392	492.12
437.614	484.12
437.835	533.12
438.057	616.12
438.278	714.12
438.5	720.12
438.721	774.12
438.943	753.12
439.165	607.12
439.386	557.12
439.608	541.12
439.829	550.12
440.05	532.12
440.272	605.12
440.493	578.12
440.715	509.12
440.936	502.12
441.158	486.12
441.379	478.12
441.6	499.12
441.822	500.12
442.043	544.12
442.264	639.12
442.486	689.12
442.707	579.12
442.928	550.12
443.149	552.12
443.371	571.12
443.592	632.12
443.813	675.12
444.034	736.12
444.255	632.12
444.476	558.12
444.698	521.12
444.919	507.12
445.14	631.12
445.361	583.12
445.582	565.12
445.803	638.12
446.024	741.12
446.245	744.12
446.466	670.12
446.687	568.12
446.908	531.12
447.129	485.12
447.35	454.12
447.571	479.12
447.792	471.12
448.013	484.12
448.234	510.12
448.455	551.12
448.675	680.12
448.896	783.12
449.117	652.12
449.338	630.12
449.559	734.12
449.779	823.12
450	667.12
450.221	547.12
450.442	488.12
450.662	471.12
450.883	484.12
451.104	523.12
451.324	485.12
451.545	458.12
451.766	468.12
451.986	439.12
452.207	429.12
452.428	412.12
452.648	432.12
452.869	441.12
453.089	457.12
453.31	451.12
453.53	455.12
453.751	457.12
453.971	436.12
454.192	453.12
454.412	438.12
454.633	437.12
454.853	430.12
455.073	411.12
455.294	431.12
455.514	512.12
455.734	513.12
455.955	456.12
456.175	416.12
456.395	423.12
456.616	405.12
456.836	437.12
457.056	392.12
457.276	393.12
457.497	421.12
457.717	407.12
457.937	415.12
458.157	428.12
458.377	420.12
458.598	437.12
458.818	522.12
459.038	585.12
459.258	614.12
459.478	507.12
459.698	448.12
459.918	425.12
460.138	445.12
460.358	440.12
460.578	424.12
460.798	445.12
461.018	454.12
461.238	431.12
461.458	456.12
461.678	437.12
461.898	436.12
462.118	440.12
462.338	439.12
462.558	465.12
462.777	460.12
462.997	452.12
463.217	463.12
463.437	473.12
463.657	445.12
463.876	460.12
464.096	477.12
464.316	470.12
464.536	504.12
464.755	468.12
464.975	481.12
465.195	535.12
465.414	613.12
465.634	528.12
465.854	484.12
466.073	455.12
466.293	423.12
466.512	426.12
466.732	446.12
466.951	459.12
467.171	416.12
467.391	428.12
467.61	447.12
467.829	459.12
468.049	478.12
468.268	431.12
468.488	424.12
468.707	408.12
468.927	416.12
469.146	417.12
469.365	432.12
469.585	395.12
469.804	418.12
470.023	433.12
470.243	431.12
470.462	423.12
470.681	453.12
470.901	463.12
471.12	426.12
471.339	433.12
471.558	439.12
471.777	451.12
471.997	432.12
472.216	435.12
472.435	434.12
472.654	425.12
472.873	400.12
473.092	411.12
473.311	421.12
473.53	435.12
473.749	443.12
473.968	465.12
474.187	592.12
474.406	622.12
474.625	508.12
474.844	443.12
475.063	447.12
475.282	448.12
475.501	453.12
475.72	441.12
475.939	447.12
476.158	469.12
476.377	461.12
476.596	453.12
476.814	435.12
477.033	456.12
477.252	478.12
477.471	483.12
477.69	485.12
477.908	474.12
478.127	480.12
478.346	440.12
478.564	482.12
478.783	467.12
479.002	483.12
479.22	482.12
479.439	486.12
479.658	526.12
479.876	541.12
480.095	535.12
480.313	559.12
480.532	546.12
480.751	543.12
480.969	524.12
481.188	540.12
481.406	551.12
481.624	538.12
481.843	510.12
482.061	519.12
482.28	519.12
482.498	507.12
482.717	498.12
482.935	500.12
483.153	508.12
483.372	501.12
483.59	513.12
483.808	522.12
484.027	487.12
484.245	525.12
484.463	517.12
484.681	492.12
484.9	515.12
485.118	503.12
485.336	529.12
485.554	515.12
485.772	519.12
485.99	522.12
486.209	543.12
486.427	543.12
486.645	548.12
486.863	572.12
487.081	568.12
487.299	555.12
487.517	523.12
487.735	527.12
487.953	550.12
488.171	554.12
488.389	560.12
488.607	548.12
488.825	568.12
489.043	541.12
489.261	563.12
489.479	549.12
489.696	557.12
489.914	575.12
490.132	571.12
490.35	569.12
490.568	572.12
490.786	583.12
491.003	599.12
491.221	577.12
491.439	629.12
491.657	609.12
491.874	617.12
492.092	616.12
492.31	620.12
492.527	643.12
492.745	629.12
492.963	619.12
493.18	633.12
493.398	649.12
493.615	639.12
493.833	645.12
494.05	646.12
494.268	640.12
494.485	622.12
494.703	654.12
494.92	629.12
495.138	625.12
495.355	655.12
495.573	653.12
495.79	635.12
496.008	653.12
496.225	681.12
496.442	649.12
496.66	655.12
496.877	645.12
497.094	669.12
497.312	644.12
497.529	663.12
497.746	665.12
497.963	673.12
498.181	691.12
498.398	713.12
498.615	718.12
498.832	717.12
499.049	722.12
499.267	759.12
499.484	722.12
499.701	765.12
499.918	781.12
500.135	810.12
500.352	833.12
500.569	851.12
500.786	853.12
501.003	846.12
501.22	798.12
501.437	814.12
501.654	781.12
501.871	809.12
