Data from 1989.PennyLincolnUp.Lamp.En5.5.200Scan.071819.P2_HRD10591_17-23-57-972.txt Node
Date: Thu Jul 18 17:23:57 EDT 2019
User: cochatt
Spectrometer: HR+D1059
Trigger mode: 1
Integration Time (sec): 1.000000E-1
Scans to average: 1
Electric dark correction enabled: true
Nonlinearity correction enabled: false
Boxcar width: 0
XAxis mode: Wavelengths
Number of Pixels in Spectrum: 2048
>>>>>Begin Spectral Data<<<<<
223.165	-28.12
223.4	-28.12
223.635	-28.12
223.869	-28.12
224.104	-10.12
224.338	-16.12
224.573	-7.12
224.808	-10.12
225.042	-11.12
225.277	-9.12
225.511	4.88
225.746	-3.12
225.98	8.88
226.215	5.88
226.449	3.88
226.683	32.88
226.918	33.88
227.152	32.88
227.387	34.88
227.621	26.88
227.856	44.88
228.09	53.88
228.324	30.88
228.559	61.88
228.793	73.88
229.027	95.88
229.262	119.88
229.496	125.88
229.73	140.88
229.964	161.88
230.199	135.88
230.433	115.88
230.667	121.88
230.901	119.88
231.136	132.88
231.37	121.88
231.604	121.88
231.838	101.88
232.072	127.88
232.306	121.88
232.541	105.88
232.775	114.88
233.009	113.88
233.243	104.88
233.477	125.88
233.711	117.88
233.945	97.88
234.179	123.88
234.413	108.88
234.647	126.88
234.881	123.88
235.115	122.88
235.349	132.88
235.583	120.88
235.817	127.88
236.051	131.88
236.285	138.88
236.519	130.88
236.753	131.88
236.987	125.88
237.221	193.88
237.455	249.88
237.689	197.88
237.922	142.88
238.156	144.88
238.39	138.88
238.624	146.88
238.858	121.88
239.091	124.88
239.325	117.88
239.559	121.88
239.793	141.88
240.027	138.88
240.26	158.88
240.494	179.88
240.728	142.88
240.961	160.88
241.195	143.88
241.429	147.88
241.662	153.88
241.896	144.88
242.13	123.88
242.363	132.88
242.597	149.88
242.83	142.88
243.064	157.88
243.298	138.88
243.531	133.88
243.765	153.88
243.998	151.88
244.232	139.88
244.465	155.88
244.699	161.88
244.932	158.88
245.166	159.88
245.399	164.88
245.633	150.88
245.866	155.88
246.099	147.88
246.333	160.88
246.566	153.88
246.8	174.88
247.033	156.88
247.266	176.88
247.5	172.88
247.733	183.88
247.966	182.88
248.2	187.88
248.433	171.88
248.666	188.88
248.899	197.88
249.133	206.88
249.366	218.88
249.599	198.88
249.832	194.88
250.066	187.88
250.299	189.88
250.532	195.88
250.765	210.88
250.998	229.88
251.231	248.88
251.465	230.88
251.698	220.88
251.931	203.88
252.164	206.88
252.397	227.88
252.63	223.88
252.863	221.88
253.096	227.88
253.329	245.88
253.562	219.88
253.795	219.88
254.028	215.88
254.261	239.88
254.494	243.88
254.727	274.88
254.96	309.88
255.193	298.88
255.426	271.88
255.659	247.88
255.892	242.88
256.124	230.88
256.357	246.88
256.59	231.88
256.823	214.88
257.056	211.88
257.289	219.88
257.521	206.88
257.754	227.88
257.987	230.88
258.22	220.88
258.452	225.88
258.685	203.88
258.918	225.88
259.151	231.88
259.383	219.88
259.616	218.88
259.849	228.88
260.081	244.88
260.314	264.88
260.547	264.88
260.779	265.88
261.012	260.88
261.244	248.88
261.477	243.88
261.71	245.88
261.942	255.88
262.175	263.88
262.407	238.88
262.64	239.88
262.872	230.88
263.105	243.88
263.337	233.88
263.57	222.88
263.802	229.88
264.035	207.88
264.267	233.88
264.499	232.88
264.732	219.88
264.964	237.88
265.197	236.88
265.429	228.88
265.661	215.88
265.894	232.88
266.126	227.88
266.358	243.88
266.591	240.88
266.823	242.88
267.055	234.88
267.287	258.88
267.52	231.88
267.752	244.88
267.984	245.88
268.216	250.88
268.448	260.88
268.681	250.88
268.913	251.88
269.145	263.88
269.377	289.88
269.609	282.88
269.841	286.88
270.073	278.88
270.306	328.88
270.538	342.88
270.77	340.88
271.002	309.88
271.234	316.88
271.466	330.88
271.698	333.88
271.93	329.88
272.162	346.88
272.394	361.88
272.626	339.88
272.858	316.88
273.09	302.88
273.322	312.88
273.553	301.88
273.785	296.88
274.017	281.88
274.249	284.88
274.481	290.88
274.713	283.88
274.945	299.88
275.176	287.88
275.408	298.88
275.64	291.88
275.872	279.88
276.104	293.88
276.335	275.88
276.567	289.88
276.799	313.88
277.031	331.88
277.262	332.88
277.494	354.88
277.726	326.88
277.957	326.88
278.189	310.88
278.421	293.88
278.652	289.88
278.884	284.88
279.115	285.88
279.347	278.88
279.579	297.88
279.81	264.88
280.042	285.88
280.273	282.88
280.505	281.88
280.736	290.88
280.968	268.88
281.199	268.88
281.431	281.88
281.662	277.88
281.894	265.88
282.125	304.88
282.356	301.88
282.588	327.88
282.819	325.88
283.051	311.88
283.282	281.88
283.513	302.88
283.745	274.88
283.976	298.88
284.207	287.88
284.439	315.88
284.67	287.88
284.901	290.88
285.132	280.88
285.364	291.88
285.595	315.88
285.826	289.88
286.057	291.88
286.288	313.88
286.52	300.88
286.751	291.88
286.982	302.88
287.213	278.88
287.444	312.88
287.675	313.88
287.906	309.88
288.138	328.88
288.369	300.88
288.6	326.88
288.831	311.88
289.062	310.88
289.293	313.88
289.524	312.88
289.755	313.88
289.986	307.88
290.217	297.88
290.448	280.88
290.679	293.88
290.91	321.88
291.141	307.88
291.371	318.88
291.602	292.88
291.833	303.88
292.064	310.88
292.295	309.88
292.526	313.88
292.757	303.88
292.987	318.88
293.218	319.88
293.449	300.88
293.68	311.88
293.91	311.88
294.141	308.88
294.372	299.88
294.603	287.88
294.833	313.88
295.064	314.88
295.295	314.88
295.525	307.88
295.756	323.88
295.987	319.88
296.217	351.88
296.448	350.88
296.679	329.88
296.909	302.88
297.14	298.88
297.37	320.88
297.601	326.88
297.831	312.88
298.062	294.88
298.292	331.88
298.523	336.88
298.753	329.88
298.984	301.88
299.214	313.88
299.445	305.88
299.675	323.88
299.905	337.88
300.136	313.88
300.366	323.88
300.597	335.88
300.827	330.88
301.057	310.88
301.288	345.88
301.518	326.88
301.748	328.88
301.979	347.88
302.209	349.88
302.439	350.88
302.669	351.88
302.9	350.88
303.13	345.88
303.36	340.88
303.59	357.88
303.82	362.88
304.051	335.88
304.281	356.88
304.511	348.88
304.741	359.88
304.971	339.88
305.201	330.88
305.431	341.88
305.661	344.88
305.891	331.88
306.121	336.88
306.352	358.88
306.582	346.88
306.812	342.88
307.042	339.88
307.272	356.88
307.502	340.88
307.731	343.88
307.961	351.88
308.191	335.88
308.421	350.88
308.651	349.88
308.881	355.88
309.111	366.88
309.341	369.88
309.571	374.88
309.8	388.88
310.03	375.88
310.26	400.88
310.49	403.88
310.72	410.88
310.949	397.88
311.179	428.88
311.409	396.88
311.639	396.88
311.868	388.88
312.098	409.88
312.328	407.88
312.557	407.88
312.787	428.88
313.017	429.88
313.246	425.88
313.476	393.88
313.706	397.88
313.935	397.88
314.165	429.88
314.394	441.88
314.624	410.88
314.853	408.88
315.083	422.88
315.312	409.88
315.542	392.88
315.771	382.88
316.001	395.88
316.23	392.88
316.46	396.88
316.689	396.88
316.919	416.88
317.148	398.88
317.377	417.88
317.607	400.88
317.836	391.88
318.065	382.88
318.295	398.88
318.524	398.88
318.753	390.88
318.983	390.88
319.212	385.88
319.441	408.88
319.67	417.88
319.9	409.88
320.129	409.88
320.358	399.88
320.587	399.88
320.816	422.88
321.046	421.88
321.275	415.88
321.504	412.88
321.733	432.88
321.962	447.88
322.191	442.88
322.42	445.88
322.649	453.88
322.878	459.88
323.108	492.88
323.337	514.88
323.566	505.88
323.795	568.88
324.024	634.88
324.253	745.88
324.482	1067.88
324.71	1633.88
324.939	2349.88
325.168	2082.88
325.397	1060.88
325.626	724.88
325.855	591.88
326.084	545.88
326.313	541.88
326.542	549.88
326.77	590.88
326.999	710.88
327.228	967.88
327.457	1430.88
327.686	1799.88
327.914	1192.88
328.143	755.88
328.372	647.88
328.6	620.88
328.829	603.88
329.058	629.88
329.287	613.88
329.515	580.88
329.744	541.88
329.972	515.88
330.201	526.88
330.43	558.88
330.658	587.88
330.887	633.88
331.115	622.88
331.344	540.88
331.572	514.88
331.801	504.88
332.03	501.88
332.258	471.88
332.486	479.88
332.715	445.88
332.943	453.88
333.172	458.88
333.4	472.88
333.629	473.88
333.857	484.88
334.085	462.88
334.314	463.88
334.542	475.88
334.771	478.88
334.999	474.88
335.227	434.88
335.455	439.88
335.684	463.88
335.912	461.88
336.14	460.88
336.369	454.88
336.597	463.88
336.825	459.88
337.053	446.88
337.281	441.88
337.51	449.88
337.738	449.88
337.966	467.88
338.194	446.88
338.422	468.88
338.65	449.88
338.878	445.88
339.106	442.88
339.334	431.88
339.562	458.88
339.79	442.88
340.018	415.88
340.246	412.88
340.474	447.88
340.702	431.88
340.93	445.88
341.158	424.88
341.386	447.88
341.614	437.88
341.842	438.88
342.07	455.88
342.298	419.88
342.526	448.88
342.754	417.88
342.981	431.88
343.209	417.88
343.437	415.88
343.665	435.88
343.893	430.88
344.12	455.88
344.348	428.88
344.576	446.88
344.804	449.88
345.031	449.88
345.259	462.88
345.487	451.88
345.714	415.88
345.942	430.88
346.17	423.88
346.397	421.88
346.625	425.88
346.853	426.88
347.08	428.88
347.308	430.88
347.535	427.88
347.763	441.88
347.99	451.88
348.218	431.88
348.445	446.88
348.673	441.88
348.9	429.88
349.128	393.88
349.355	418.88
349.583	410.88
349.81	399.88
350.037	419.88
350.265	414.88
350.492	418.88
350.72	428.88
350.947	423.88
351.174	437.88
351.402	445.88
351.629	430.88
351.856	433.88
352.083	436.88
352.311	445.88
352.538	447.88
352.765	453.88
352.992	471.88
353.22	426.88
353.447	428.88
353.674	412.88
353.901	400.88
354.128	383.88
354.355	405.88
354.583	383.88
354.81	399.88
355.037	412.88
355.264	404.88
355.491	403.88
355.718	381.88
355.945	392.88
356.172	404.88
356.399	405.88
356.626	402.88
356.853	383.88
357.08	387.88
357.307	388.88
357.534	370.88
357.761	392.88
357.988	407.88
358.215	395.88
358.441	412.88
358.668	405.88
358.895	397.88
359.122	391.88
359.349	400.88
359.576	403.88
359.802	429.88
360.029	476.88
360.256	470.88
360.483	449.88
360.709	439.88
360.936	419.88
361.163	429.88
361.39	431.88
361.616	437.88
361.843	406.88
362.07	439.88
362.296	419.88
362.523	405.88
362.749	437.88
362.976	412.88
363.203	390.88
363.429	413.88
363.656	407.88
363.882	392.88
364.109	383.88
364.335	398.88
364.562	394.88
364.788	395.88
365.015	407.88
365.241	395.88
365.468	397.88
365.694	400.88
365.92	411.88
366.147	394.88
366.373	383.88
366.599	394.88
366.826	391.88
367.052	398.88
367.278	393.88
367.505	389.88
367.731	404.88
367.957	398.88
368.184	411.88
368.41	397.88
368.636	391.88
368.862	420.88
369.089	397.88
369.315	376.88
369.541	402.88
369.767	402.88
369.993	382.88
370.219	405.88
370.445	390.88
370.672	405.88
370.898	373.88
371.124	381.88
371.35	374.88
371.576	391.88
371.802	392.88
372.028	375.88
372.254	408.88
372.48	384.88
372.706	404.88
372.932	384.88
373.158	398.88
373.384	377.88
373.61	394.88
373.835	403.88
374.061	381.88
374.287	403.88
374.513	396.88
374.739	371.88
374.965	391.88
375.191	358.88
375.416	403.88
375.642	389.88
375.868	362.88
376.094	379.88
376.319	373.88
376.545	394.88
376.771	389.88
376.997	380.88
377.222	389.88
377.448	381.88
377.674	383.88
377.899	379.88
378.125	370.88
378.35	384.88
378.576	377.88
378.802	388.88
379.027	379.88
379.253	377.88
379.478	375.88
379.704	378.88
379.929	374.88
380.155	377.88
380.38	387.88
380.606	381.88
380.831	385.88
381.057	372.88
381.282	383.88
381.507	389.88
381.733	394.88
381.958	380.88
382.184	385.88
382.409	378.88
382.634	377.88
382.86	371.88
383.085	401.88
383.31	383.88
383.535	407.88
383.761	379.88
383.986	387.88
384.211	387.88
384.436	392.88
384.662	371.88
384.887	403.88
385.112	382.88
385.337	402.88
385.562	419.88
385.787	426.88
386.013	408.88
386.238	413.88
386.463	410.88
386.688	400.88
386.913	413.88
387.138	414.88
387.363	417.88
387.588	385.88
387.813	403.88
388.038	403.88
388.263	415.88
388.488	409.88
388.713	412.88
388.938	410.88
389.163	411.88
389.387	430.88
389.612	406.88
389.837	412.88
390.062	406.88
390.287	377.88
390.512	400.88
390.736	419.88
390.961	406.88
391.186	409.88
391.411	403.88
391.636	409.88
391.86	424.88
392.085	426.88
392.31	401.88
392.534	421.88
392.759	411.88
392.984	402.88
393.208	397.88
393.433	405.88
393.658	417.88
393.882	412.88
394.107	417.88
394.331	401.88
394.556	423.88
394.78	399.88
395.005	415.88
395.229	399.88
395.454	407.88
395.678	427.88
395.903	446.88
396.127	439.88
396.352	451.88
396.576	411.88
396.801	414.88
397.025	431.88
397.249	422.88
397.474	431.88
397.698	429.88
397.922	454.88
398.147	464.88
398.371	483.88
398.595	448.88
398.82	446.88
399.044	450.88
399.268	470.88
399.492	506.88
399.717	517.88
399.941	554.88
400.165	572.88
400.389	590.88
400.613	522.88
400.837	497.88
401.062	468.88
401.286	488.88
401.51	453.88
401.734	457.88
401.958	463.88
402.182	472.88
402.406	474.88
402.63	467.88
402.854	467.88
403.078	479.88
403.302	463.88
403.526	466.88
403.75	489.88
403.974	478.88
404.198	463.88
404.422	479.88
404.645	477.88
404.869	487.88
405.093	525.88
405.317	501.88
405.541	554.88
405.765	519.88
405.988	502.88
406.212	515.88
406.436	535.88
406.66	524.88
406.883	535.88
407.107	558.88
407.331	579.88
407.555	641.88
407.778	631.88
408.002	596.88
408.226	549.88
408.449	540.88
408.673	513.88
408.896	555.88
409.12	618.88
409.344	546.88
409.567	514.88
409.791	495.88
410.014	486.88
410.238	506.88
410.461	465.88
410.685	495.88
410.908	523.88
411.132	530.88
411.355	556.88
411.578	513.88
411.802	497.88
412.025	469.88
412.249	463.88
412.472	481.88
412.695	484.88
412.919	494.88
413.142	461.88
413.365	451.88
413.589	434.88
413.812	439.88
414.035	451.88
414.258	440.88
414.482	437.88
414.705	440.88
414.928	437.88
415.151	426.88
415.374	461.88
415.597	443.88
415.821	464.88
416.044	441.88
416.267	451.88
416.49	441.88
416.713	445.88
416.936	434.88
417.159	446.88
417.382	460.88
417.605	458.88
417.828	458.88
418.051	465.88
418.274	459.88
418.497	459.88
418.72	437.88
418.943	418.88
419.166	449.88
419.389	465.88
419.611	473.88
419.834	459.88
420.057	463.88
420.28	486.88
420.503	473.88
420.726	467.88
420.948	519.88
421.171	537.88
421.394	567.88
421.617	525.88
421.839	468.88
422.062	451.88
422.285	489.88
422.507	565.88
422.73	610.88
422.953	587.88
423.175	500.88
423.398	495.88
423.621	502.88
423.843	522.88
424.066	517.88
424.288	520.88
424.511	520.88
424.733	570.88
424.956	668.88
425.178	641.88
425.401	629.88
425.623	642.88
425.846	555.88
426.068	520.88
426.291	506.88
426.513	516.88
426.735	510.88
426.958	577.88
427.18	645.88
427.402	790.88
427.625	821.88
427.847	753.88
428.069	623.88
428.292	566.88
428.514	525.88
428.736	510.88
428.958	519.88
429.181	471.88
429.403	482.88
429.625	521.88
429.847	515.88
430.069	586.88
430.292	591.88
430.514	497.88
430.736	474.88
430.958	473.88
431.18	456.88
431.402	459.88
431.624	441.88
431.846	450.88
432.068	446.88
432.29	450.88
432.512	444.88
432.734	450.88
432.956	454.88
433.178	461.88
433.4	453.88
433.622	441.88
433.844	438.88
434.066	448.88
434.287	442.88
434.509	470.88
434.731	452.88
434.953	440.88
435.175	494.88
435.397	507.88
435.618	522.88
435.84	568.88
436.062	644.88
436.284	704.88
436.505	605.88
436.727	551.88
436.949	509.88
437.17	478.88
437.392	477.88
437.614	515.88
437.835	556.88
438.057	615.88
438.278	734.88
438.5	711.88
438.721	786.88
438.943	758.88
439.165	605.88
439.386	535.88
439.608	550.88
439.829	537.88
440.05	573.88
440.272	579.88
440.493	593.88
440.715	507.88
440.936	482.88
441.158	494.88
441.379	472.88
441.6	504.88
441.822	503.88
442.043	582.88
442.264	645.88
442.486	684.88
442.707	577.88
442.928	527.88
443.149	547.88
443.371	587.88
443.592	601.88
443.813	679.88
444.034	735.88
444.255	633.88
444.476	550.88
444.698	534.88
444.919	502.88
445.14	611.88
445.361	561.88
445.582	548.88
445.803	621.88
446.024	726.88
446.245	759.88
446.466	657.88
446.687	566.88
446.908	523.88
447.129	501.88
447.35	491.88
447.571	478.88
447.792	473.88
448.013	453.88
448.234	497.88
448.455	542.88
448.675	664.88
448.896	743.88
449.117	671.88
449.338	610.88
449.559	732.88
449.779	821.88
450	637.88
450.221	552.88
450.442	496.88
450.662	491.88
450.883	479.88
451.104	498.88
451.324	470.88
451.545	458.88
451.766	436.88
451.986	434.88
452.207	423.88
452.428	416.88
452.648	412.88
452.869	402.88
453.089	459.88
453.31	455.88
453.53	436.88
453.751	427.88
453.971	442.88
454.192	444.88
454.412	437.88
454.633	438.88
454.853	414.88
455.073	412.88
455.294	470.88
455.514	539.88
455.734	516.88
455.955	434.88
456.175	405.88
456.395	383.88
456.616	393.88
456.836	397.88
457.056	394.88
457.276	393.88
457.497	382.88
457.717	394.88
457.937	421.88
458.157	416.88
458.377	419.88
458.598	443.88
458.818	483.88
459.038	563.88
459.258	599.88
459.478	493.88
459.698	467.88
459.918	425.88
460.138	422.88
460.358	456.88
460.578	437.88
460.798	456.88
461.018	437.88
461.238	446.88
461.458	448.88
461.678	437.88
461.898	444.88
462.118	456.88
462.338	457.88
462.558	436.88
462.777	442.88
462.997	428.88
463.217	469.88
463.437	467.88
463.657	462.88
463.876	453.88
464.096	475.88
464.316	485.88
464.536	461.88
464.755	481.88
464.975	482.88
465.195	515.88
465.414	602.88
465.634	522.88
465.854	490.88
466.073	454.88
466.293	434.88
466.512	434.88
466.732	435.88
466.951	419.88
467.171	407.88
467.391	431.88
467.61	415.88
467.829	461.88
468.049	418.88
468.268	419.88
468.488	428.88
468.707	426.88
468.927	423.88
469.146	411.88
469.365	423.88
469.585	411.88
469.804	426.88
470.023	434.88
470.243	441.88
470.462	441.88
470.681	446.88
470.901	436.88
471.12	450.88
471.339	428.88
471.558	450.88
471.777	435.88
471.997	423.88
472.216	411.88
472.435	413.88
472.654	441.88
472.873	410.88
473.092	426.88
473.311	429.88
473.53	437.88
473.749	442.88
473.968	497.88
474.187	585.88
474.406	593.88
474.625	516.88
474.844	461.88
475.063	451.88
475.282	429.88
475.501	435.88
475.72	469.88
475.939	444.88
476.158	459.88
476.377	450.88
476.596	438.88
476.814	444.88
477.033	461.88
477.252	483.88
477.471	471.88
477.69	456.88
477.908	471.88
478.127	477.88
478.346	476.88
478.564	480.88
478.783	486.88
479.002	462.88
479.22	488.88
479.439	503.88
479.658	529.88
479.876	525.88
480.095	520.88
480.313	545.88
480.532	532.88
480.751	516.88
480.969	514.88
481.188	537.88
481.406	536.88
481.624	519.88
481.843	515.88
482.061	494.88
482.28	515.88
482.498	505.88
482.717	497.88
482.935	511.88
483.153	516.88
483.372	508.88
483.59	502.88
483.808	518.88
484.027	504.88
484.245	503.88
484.463	519.88
484.681	528.88
484.9	520.88
485.118	516.88
485.336	515.88
485.554	498.88
485.772	516.88
485.99	533.88
486.209	524.88
486.427	551.88
486.645	530.88
486.863	554.88
487.081	557.88
487.299	545.88
487.517	530.88
487.735	535.88
487.953	541.88
488.171	523.88
488.389	567.88
488.607	550.88
488.825	555.88
489.043	561.88
489.261	553.88
489.479	548.88
489.696	551.88
489.914	558.88
490.132	551.88
490.35	553.88
490.568	567.88
490.786	599.88
491.003	580.88
491.221	600.88
491.439	587.88
491.657	598.88
491.874	622.88
492.092	618.88
492.31	614.88
492.527	620.88
492.745	604.88
492.963	631.88
493.18	637.88
493.398	606.88
493.615	627.88
493.833	645.88
494.05	631.88
494.268	653.88
494.485	621.88
494.703	634.88
494.92	629.88
495.138	637.88
495.355	639.88
495.573	629.88
495.79	648.88
496.008	645.88
496.225	639.88
496.442	614.88
496.66	643.88
496.877	625.88
497.094	662.88
497.312	660.88
497.529	670.88
497.746	666.88
497.963	694.88
498.181	697.88
498.398	681.88
498.615	701.88
498.832	725.88
499.049	755.88
499.267	737.88
499.484	769.88
499.701	787.88
499.918	784.88
500.135	806.88
500.352	860.88
500.569	850.88
500.786	843.88
501.003	835.88
501.22	828.88
501.437	819.88
501.654	805.88
501.871	808.88
