Data from 1989.PennyLincolnUp.Lamp.En5.5.200Scan.071819.P2_HRD10591_17-24-01-973.txt Node
Date: Thu Jul 18 17:24:01 EDT 2019
User: cochatt
Spectrometer: HR+D1059
Trigger mode: 1
Integration Time (sec): 1.000000E-1
Scans to average: 1
Electric dark correction enabled: true
Nonlinearity correction enabled: false
Boxcar width: 0
XAxis mode: Wavelengths
Number of Pixels in Spectrum: 2048
>>>>>Begin Spectral Data<<<<<
223.165	-5.19
223.4	-5.19
223.635	-5.19
223.869	-14.19
224.104	-27.19
224.338	-9.19
224.573	-13.19
224.808	-9.19
225.042	-4.19
225.277	6.81
225.511	-13.19
225.746	-7.19
225.98	2.81
226.215	11.81
226.449	16.81
226.683	22.81
226.918	21.81
227.152	19.81
227.387	39.81
227.621	38.81
227.856	48.81
228.09	53.81
228.324	51.81
228.559	53.81
228.793	84.81
229.027	103.81
229.262	102.81
229.496	117.81
229.73	138.81
229.964	143.81
230.199	132.81
230.433	119.81
230.667	121.81
230.901	117.81
231.136	116.81
231.37	116.81
231.604	106.81
231.838	111.81
232.072	102.81
232.306	115.81
232.541	116.81
232.775	122.81
233.009	102.81
233.243	112.81
233.477	99.81
233.711	117.81
233.945	116.81
234.179	103.81
234.413	111.81
234.647	116.81
234.881	105.81
235.115	128.81
235.349	104.81
235.583	122.81
235.817	115.81
236.051	126.81
236.285	129.81
236.519	122.81
236.753	131.81
236.987	145.81
237.221	176.81
237.455	225.81
237.689	186.81
237.922	140.81
238.156	134.81
238.39	131.81
238.624	124.81
238.858	128.81
239.091	132.81
239.325	133.81
239.559	130.81
239.793	114.81
240.027	115.81
240.26	146.81
240.494	155.81
240.728	156.81
240.961	149.81
241.195	143.81
241.429	151.81
241.662	152.81
241.896	141.81
242.13	138.81
242.363	128.81
242.597	130.81
242.83	143.81
243.064	139.81
243.298	135.81
243.531	150.81
243.765	128.81
243.998	134.81
244.232	131.81
244.465	136.81
244.699	150.81
244.932	142.81
245.166	148.81
245.399	131.81
245.633	150.81
245.866	150.81
246.099	147.81
246.333	143.81
246.566	156.81
246.8	139.81
247.033	165.81
247.266	164.81
247.5	168.81
247.733	169.81
247.966	180.81
248.2	174.81
248.433	174.81
248.666	185.81
248.899	195.81
249.133	203.81
249.366	211.81
249.599	205.81
249.832	187.81
250.066	174.81
250.299	184.81
250.532	191.81
250.765	206.81
250.998	235.81
251.231	214.81
251.465	220.81
251.698	210.81
251.931	210.81
252.164	204.81
252.397	197.81
252.63	206.81
252.863	223.81
253.096	208.81
253.329	228.81
253.562	220.81
253.795	230.81
254.028	219.81
254.261	226.81
254.494	236.81
254.727	264.81
254.96	272.81
255.193	284.81
255.426	263.81
255.659	243.81
255.892	260.81
256.124	224.81
256.357	221.81
256.59	228.81
256.823	224.81
257.056	220.81
257.289	243.81
257.521	222.81
257.754	225.81
257.987	202.81
258.22	197.81
258.452	209.81
258.685	216.81
258.918	224.81
259.151	225.81
259.383	244.81
259.616	250.81
259.849	251.81
260.081	256.81
260.314	253.81
260.547	262.81
260.779	257.81
261.012	233.81
261.244	233.81
261.477	244.81
261.71	231.81
261.942	240.81
262.175	256.81
262.407	238.81
262.64	211.81
262.872	222.81
263.105	227.81
263.337	221.81
263.57	205.81
263.802	211.81
264.035	224.81
264.267	231.81
264.499	224.81
264.732	215.81
264.964	210.81
265.197	221.81
265.429	210.81
265.661	226.81
265.894	217.81
266.126	235.81
266.358	230.81
266.591	233.81
266.823	231.81
267.055	241.81
267.287	235.81
267.52	234.81
267.752	219.81
267.984	198.81
268.216	238.81
268.448	255.81
268.681	247.81
268.913	242.81
269.145	265.81
269.377	280.81
269.609	274.81
269.841	279.81
270.073	282.81
270.306	306.81
270.538	327.81
270.77	312.81
271.002	308.81
271.234	322.81
271.466	325.81
271.698	327.81
271.93	327.81
272.162	339.81
272.394	323.81
272.626	307.81
272.858	300.81
273.09	287.81
273.322	292.81
273.553	280.81
273.785	280.81
274.017	292.81
274.249	277.81
274.481	274.81
274.713	276.81
274.945	288.81
275.176	276.81
275.408	280.81
275.64	280.81
275.872	266.81
276.104	285.81
276.335	266.81
276.567	290.81
276.799	306.81
277.031	301.81
277.262	336.81
277.494	331.81
277.726	309.81
277.957	293.81
278.189	292.81
278.421	275.81
278.652	279.81
278.884	278.81
279.115	269.81
279.347	275.81
279.579	281.81
279.81	283.81
280.042	267.81
280.273	267.81
280.505	274.81
280.736	275.81
280.968	262.81
281.199	272.81
281.431	273.81
281.662	271.81
281.894	275.81
282.125	264.81
282.356	293.81
282.588	315.81
282.819	324.81
283.051	278.81
283.282	281.81
283.513	275.81
283.745	300.81
283.976	284.81
284.207	284.81
284.439	284.81
284.67	271.81
284.901	298.81
285.132	293.81
285.364	267.81
285.595	288.81
285.826	283.81
286.057	274.81
286.288	265.81
286.52	297.81
286.751	290.81
286.982	287.81
287.213	285.81
287.444	291.81
287.675	302.81
287.906	296.81
288.138	328.81
288.369	328.81
288.6	326.81
288.831	296.81
289.062	307.81
289.293	308.81
289.524	292.81
289.755	307.81
289.986	296.81
290.217	278.81
290.448	301.81
290.679	290.81
290.91	315.81
291.141	305.81
291.371	316.81
291.602	290.81
291.833	294.81
292.064	279.81
292.295	298.81
292.526	319.81
292.757	292.81
292.987	293.81
293.218	293.81
293.449	290.81
293.68	292.81
293.91	311.81
294.141	294.81
294.372	279.81
294.603	311.81
294.833	312.81
295.064	293.81
295.295	284.81
295.525	298.81
295.756	299.81
295.987	307.81
296.217	324.81
296.448	339.81
296.679	310.81
296.909	318.81
297.14	291.81
297.37	300.81
297.601	305.81
297.831	307.81
298.062	303.81
298.292	318.81
298.523	335.81
298.753	325.81
298.984	321.81
299.214	328.81
299.445	309.81
299.675	295.81
299.905	308.81
300.136	323.81
300.366	304.81
300.597	323.81
300.827	315.81
301.057	335.81
301.288	329.81
301.518	322.81
301.748	312.81
301.979	341.81
302.209	341.81
302.439	319.81
302.669	335.81
302.9	337.81
303.13	326.81
303.36	328.81
303.59	325.81
303.82	333.81
304.051	340.81
304.281	340.81
304.511	327.81
304.741	324.81
304.971	330.81
305.201	343.81
305.431	338.81
305.661	332.81
305.891	331.81
306.121	335.81
306.352	342.81
306.582	344.81
306.812	336.81
307.042	335.81
307.272	329.81
307.502	332.81
307.731	337.81
307.961	332.81
308.191	331.81
308.421	334.81
308.651	332.81
308.881	346.81
309.111	337.81
309.341	348.81
309.571	328.81
309.8	369.81
310.03	374.81
310.26	392.81
310.49	375.81
310.72	385.81
310.949	400.81
311.179	407.81
311.409	370.81
311.639	361.81
311.868	396.81
312.098	379.81
312.328	370.81
312.557	427.81
312.787	404.81
313.017	422.81
313.246	402.81
313.476	391.81
313.706	388.81
313.935	396.81
314.165	380.81
314.394	408.81
314.624	388.81
314.853	397.81
315.083	393.81
315.312	407.81
315.542	392.81
315.771	387.81
316.001	370.81
316.23	368.81
316.46	371.81
316.689	378.81
316.919	376.81
317.148	395.81
317.377	399.81
317.607	396.81
317.836	383.81
318.065	378.81
318.295	379.81
318.524	379.81
318.753	374.81
318.983	397.81
319.212	386.81
319.441	385.81
319.67	409.81
319.9	395.81
320.129	388.81
320.358	388.81
320.587	384.81
320.816	412.81
321.046	402.81
321.275	404.81
321.504	422.81
321.733	404.81
321.962	438.81
322.191	430.81
322.42	439.81
322.649	450.81
322.878	455.81
323.108	488.81
323.337	476.81
323.566	522.81
323.795	552.81
324.024	594.81
324.253	727.81
324.482	1022.81
324.71	1548.81
324.939	2232.81
325.168	1897.81
325.397	1020.81
325.626	694.81
325.855	609.81
326.084	524.81
326.313	505.81
326.542	532.81
326.77	564.81
326.999	690.81
327.228	888.81
327.457	1356.81
327.686	1656.81
327.914	1120.81
328.143	739.81
328.372	651.81
328.6	594.81
328.829	574.81
329.058	564.81
329.287	613.81
329.515	544.81
329.744	523.81
329.972	491.81
330.201	485.81
330.43	521.81
330.658	556.81
330.887	624.81
331.115	595.81
331.344	538.81
331.572	487.81
331.801	472.81
332.03	485.81
332.258	483.81
332.486	467.81
332.715	456.81
332.943	467.81
333.172	440.81
333.4	455.81
333.629	434.81
333.857	452.81
334.085	457.81
334.314	463.81
334.542	479.81
334.771	459.81
334.999	447.81
335.227	460.81
335.455	466.81
335.684	428.81
335.912	421.81
336.14	436.81
336.369	450.81
336.597	453.81
336.825	450.81
337.053	415.81
337.281	446.81
337.51	421.81
337.738	427.81
337.966	433.81
338.194	435.81
338.422	450.81
338.65	444.81
338.878	427.81
339.106	407.81
339.334	439.81
339.562	428.81
339.79	411.81
340.018	432.81
340.246	460.81
340.474	447.81
340.702	456.81
340.93	429.81
341.158	407.81
341.386	427.81
341.614	436.81
341.842	423.81
342.07	432.81
342.298	414.81
342.526	410.81
342.754	411.81
342.981	411.81
343.209	412.81
343.437	417.81
343.665	426.81
343.893	416.81
344.12	424.81
344.348	419.81
344.576	423.81
344.804	448.81
345.031	450.81
345.259	449.81
345.487	452.81
345.714	411.81
345.942	422.81
346.17	417.81
346.397	431.81
346.625	418.81
346.853	388.81
347.08	414.81
347.308	401.81
347.535	406.81
347.763	440.81
347.99	422.81
348.218	431.81
348.445	442.81
348.673	428.81
348.9	408.81
349.128	415.81
349.355	396.81
349.583	395.81
349.81	384.81
350.037	392.81
350.265	372.81
350.492	385.81
350.72	399.81
350.947	396.81
351.174	411.81
351.402	405.81
351.629	427.81
351.856	443.81
352.083	430.81
352.311	445.81
352.538	428.81
352.765	419.81
352.992	442.81
353.22	410.81
353.447	414.81
353.674	391.81
353.901	384.81
354.128	383.81
354.355	374.81
354.583	396.81
354.81	387.81
355.037	380.81
355.264	401.81
355.491	372.81
355.718	366.81
355.945	387.81
356.172	378.81
356.399	382.81
356.626	378.81
356.853	386.81
357.08	370.81
357.307	385.81
357.534	383.81
357.761	398.81
357.988	388.81
358.215	387.81
358.441	378.81
358.668	375.81
358.895	368.81
359.122	375.81
359.349	400.81
359.576	401.81
359.802	440.81
360.029	428.81
360.256	462.81
360.483	446.81
360.709	411.81
360.936	423.81
361.163	405.81
361.39	422.81
361.616	397.81
361.843	402.81
362.07	424.81
362.296	399.81
362.523	406.81
362.749	395.81
362.976	406.81
363.203	403.81
363.429	390.81
363.656	388.81
363.882	391.81
364.109	391.81
364.335	383.81
364.562	376.81
364.788	396.81
365.015	377.81
365.241	380.81
365.468	387.81
365.694	373.81
365.92	376.81
366.147	376.81
366.373	400.81
366.599	375.81
366.826	369.81
367.052	388.81
367.278	387.81
367.505	391.81
367.731	379.81
367.957	379.81
368.184	378.81
368.41	398.81
368.636	393.81
368.862	410.81
369.089	381.81
369.315	416.81
369.541	376.81
369.767	389.81
369.993	390.81
370.219	387.81
370.445	370.81
370.672	383.81
370.898	353.81
371.124	388.81
371.35	404.81
371.576	386.81
371.802	375.81
372.028	358.81
372.254	372.81
372.48	380.81
372.706	400.81
372.932	386.81
373.158	372.81
373.384	382.81
373.61	389.81
373.835	377.81
374.061	374.81
374.287	375.81
374.513	387.81
374.739	376.81
374.965	393.81
375.191	377.81
375.416	393.81
375.642	370.81
375.868	364.81
376.094	371.81
376.319	356.81
376.545	384.81
376.771	368.81
376.997	367.81
377.222	382.81
377.448	384.81
377.674	376.81
377.899	371.81
378.125	380.81
378.35	362.81
378.576	368.81
378.802	392.81
379.027	368.81
379.253	371.81
379.478	366.81
379.704	368.81
379.929	376.81
380.155	388.81
380.38	374.81
380.606	351.81
380.831	376.81
381.057	386.81
381.282	379.81
381.507	371.81
381.733	404.81
381.958	370.81
382.184	370.81
382.409	376.81
382.634	392.81
382.86	389.81
383.085	371.81
383.31	376.81
383.535	378.81
383.761	392.81
383.986	392.81
384.211	379.81
384.436	361.81
384.662	374.81
384.887	388.81
385.112	387.81
385.337	406.81
385.562	406.81
385.787	377.81
386.013	398.81
386.238	398.81
386.463	415.81
386.688	394.81
386.913	386.81
387.138	397.81
387.363	411.81
387.588	404.81
387.813	402.81
388.038	386.81
388.263	402.81
388.488	418.81
388.713	388.81
388.938	383.81
389.163	415.81
389.387	416.81
389.612	395.81
389.837	406.81
390.062	410.81
390.287	399.81
390.512	384.81
390.736	393.81
390.961	384.81
391.186	394.81
391.411	394.81
391.636	416.81
391.86	414.81
392.085	419.81
392.31	409.81
392.534	408.81
392.759	422.81
392.984	406.81
393.208	423.81
393.433	406.81
393.658	418.81
393.882	410.81
394.107	398.81
394.331	378.81
394.556	408.81
394.78	395.81
395.005	391.81
395.229	386.81
395.454	400.81
395.678	416.81
395.903	414.81
396.127	420.81
396.352	447.81
396.576	438.81
396.801	404.81
397.025	409.81
397.249	380.81
397.474	416.81
397.698	407.81
397.922	438.81
398.147	449.81
398.371	433.81
398.595	451.81
398.82	426.81
399.044	447.81
399.268	443.81
399.492	472.81
399.717	491.81
399.941	536.81
400.165	558.81
400.389	564.81
400.613	516.81
400.837	460.81
401.062	462.81
401.286	437.81
401.51	442.81
401.734	448.81
401.958	444.81
402.182	440.81
402.406	459.81
402.63	455.81
402.854	479.81
403.078	476.81
403.302	462.81
403.526	450.81
403.75	443.81
403.974	458.81
404.198	447.81
404.422	463.81
404.645	463.81
404.869	467.81
405.093	486.81
405.317	502.81
405.541	536.81
405.765	491.81
405.988	465.81
406.212	491.81
406.436	513.81
406.66	516.81
406.883	514.81
407.107	534.81
407.331	589.81
407.555	614.81
407.778	626.81
408.002	562.81
408.226	522.81
408.449	535.81
408.673	500.81
408.896	528.81
409.12	571.81
409.344	545.81
409.567	488.81
409.791	456.81
410.014	467.81
410.238	481.81
410.461	458.81
410.685	476.81
410.908	473.81
411.132	509.81
411.355	567.81
411.578	523.81
411.802	467.81
412.025	447.81
412.249	451.81
412.472	433.81
412.695	460.81
412.919	455.81
413.142	436.81
413.365	443.81
413.589	432.81
413.812	441.81
414.035	422.81
414.258	438.81
414.482	420.81
414.705	429.81
414.928	436.81
415.151	410.81
415.374	433.81
415.597	430.81
415.821	422.81
416.044	406.81
416.267	419.81
416.49	426.81
416.713	415.81
416.936	430.81
417.159	426.81
417.382	434.81
417.605	433.81
417.828	460.81
418.051	470.81
418.274	458.81
418.497	443.81
418.72	437.81
418.943	424.81
419.166	459.81
419.389	464.81
419.611	450.81
419.834	454.81
420.057	484.81
420.28	445.81
420.503	455.81
420.726	446.81
420.948	473.81
421.171	516.81
421.394	559.81
421.617	475.81
421.839	471.81
422.062	460.81
422.285	506.81
422.507	506.81
422.73	593.81
422.953	566.81
423.175	523.81
423.398	479.81
423.621	483.81
423.843	495.81
424.066	491.81
424.288	488.81
424.511	516.81
424.733	573.81
424.956	658.81
425.178	613.81
425.401	605.81
425.623	599.81
425.846	548.81
426.068	519.81
426.291	512.81
426.513	509.81
426.735	499.81
426.958	554.81
427.18	648.81
427.402	765.81
427.625	824.81
427.847	703.81
428.069	601.81
428.292	543.81
428.514	504.81
428.736	487.81
428.958	510.81
429.181	466.81
429.403	472.81
429.625	485.81
429.847	524.81
430.069	552.81
430.292	571.81
430.514	476.81
430.736	458.81
430.958	462.81
431.18	465.81
431.402	456.81
431.624	438.81
431.846	438.81
432.068	420.81
432.29	418.81
432.512	445.81
432.734	442.81
432.956	433.81
433.178	464.81
433.4	436.81
433.622	453.81
433.844	435.81
434.066	420.81
434.287	425.81
434.509	417.81
434.731	456.81
434.953	447.81
435.175	468.81
435.397	489.81
435.618	523.81
435.84	523.81
436.062	634.81
436.284	676.81
436.505	591.81
436.727	525.81
436.949	474.81
437.17	468.81
437.392	465.81
437.614	476.81
437.835	521.81
438.057	608.81
438.278	679.81
438.5	713.81
438.721	771.81
438.943	727.81
439.165	585.81
439.386	544.81
439.608	505.81
439.829	504.81
440.05	539.81
440.272	586.81
440.493	575.81
440.715	498.81
440.936	482.81
441.158	469.81
441.379	483.81
441.6	504.81
441.822	496.81
442.043	506.81
442.264	623.81
442.486	680.81
442.707	564.81
442.928	532.81
443.149	551.81
443.371	549.81
443.592	585.81
443.813	658.81
444.034	710.81
444.255	593.81
444.476	544.81
444.698	507.81
444.919	481.81
445.14	584.81
445.361	574.81
445.582	556.81
445.803	586.81
446.024	670.81
446.245	703.81
446.466	656.81
446.687	531.81
446.908	503.81
447.129	498.81
447.35	474.81
447.571	473.81
447.792	489.81
448.013	473.81
448.234	486.81
448.455	545.81
448.675	633.81
448.896	748.81
449.117	631.81
449.338	577.81
449.559	682.81
449.779	793.81
450	635.81
450.221	537.81
450.442	509.81
450.662	466.81
450.883	479.81
451.104	473.81
451.324	474.81
451.545	452.81
451.766	420.81
451.986	426.81
452.207	415.81
452.428	394.81
452.648	411.81
452.869	441.81
453.089	422.81
453.31	432.81
453.53	440.81
453.751	436.81
453.971	436.81
454.192	443.81
454.412	419.81
454.633	417.81
454.853	398.81
455.073	418.81
455.294	426.81
455.514	497.81
455.734	510.81
455.955	412.81
456.175	400.81
456.395	386.81
456.616	388.81
456.836	375.81
457.056	387.81
457.276	382.81
457.497	395.81
457.717	402.81
457.937	390.81
458.157	388.81
458.377	425.81
458.598	439.81
458.818	494.81
459.038	581.81
459.258	571.81
459.478	476.81
459.698	438.81
459.918	426.81
460.138	424.81
460.358	451.81
460.578	438.81
460.798	395.81
461.018	425.81
461.238	446.81
461.458	443.81
461.678	440.81
461.898	435.81
462.118	430.81
462.338	435.81
462.558	456.81
462.777	450.81
462.997	448.81
463.217	470.81
463.437	477.81
463.657	458.81
463.876	461.81
464.096	459.81
464.316	456.81
464.536	463.81
464.755	444.81
464.975	456.81
465.195	510.81
465.414	568.81
465.634	496.81
465.854	460.81
466.073	448.81
466.293	434.81
466.512	426.81
466.732	424.81
466.951	422.81
467.171	424.81
467.391	420.81
467.61	434.81
467.829	420.81
468.049	426.81
468.268	414.81
468.488	403.81
468.707	399.81
468.927	414.81
469.146	406.81
469.365	410.81
469.585	405.81
469.804	414.81
470.023	416.81
470.243	441.81
470.462	438.81
470.681	436.81
470.901	462.81
471.12	430.81
471.339	407.81
471.558	426.81
471.777	420.81
471.997	440.81
472.216	418.81
472.435	426.81
472.654	414.81
472.873	434.81
473.092	429.81
473.311	427.81
473.53	439.81
473.749	393.81
473.968	475.81
474.187	569.81
474.406	576.81
474.625	498.81
474.844	444.81
475.063	439.81
475.282	426.81
475.501	418.81
475.72	437.81
475.939	435.81
476.158	443.81
476.377	451.81
476.596	450.81
476.814	458.81
477.033	457.81
477.252	443.81
477.471	433.81
477.69	443.81
477.908	445.81
478.127	464.81
478.346	442.81
478.564	488.81
478.783	454.81
479.002	446.81
479.22	498.81
479.439	503.81
479.658	496.81
479.876	505.81
480.095	510.81
480.313	536.81
480.532	536.81
480.751	524.81
480.969	510.81
481.188	526.81
481.406	543.81
481.624	501.81
481.843	483.81
482.061	474.81
482.28	498.81
482.498	512.81
482.717	498.81
482.935	522.81
483.153	498.81
483.372	497.81
483.59	509.81
483.808	471.81
484.027	496.81
484.245	500.81
484.463	499.81
484.681	489.81
484.9	499.81
485.118	515.81
485.336	519.81
485.554	502.81
485.772	505.81
485.99	514.81
486.209	536.81
486.427	518.81
486.645	518.81
486.863	553.81
487.081	535.81
487.299	530.81
487.517	521.81
487.735	529.81
487.953	552.81
488.171	536.81
488.389	532.81
488.607	535.81
488.825	530.81
489.043	530.81
489.261	522.81
489.479	531.81
489.696	530.81
489.914	555.81
490.132	544.81
490.35	566.81
490.568	562.81
490.786	553.81
491.003	585.81
491.221	578.81
491.439	582.81
491.657	583.81
491.874	614.81
492.092	600.81
492.31	619.81
492.527	603.81
492.745	619.81
492.963	618.81
493.18	619.81
493.398	638.81
493.615	632.81
493.833	624.81
494.05	609.81
494.268	630.81
494.485	630.81
494.703	630.81
494.92	623.81
495.138	606.81
495.355	617.81
495.573	642.81
495.79	624.81
496.008	650.81
496.225	639.81
496.442	646.81
496.66	644.81
496.877	629.81
497.094	634.81
497.312	634.81
497.529	637.81
497.746	662.81
497.963	678.81
498.181	680.81
498.398	678.81
498.615	682.81
498.832	706.81
499.049	707.81
499.267	708.81
499.484	721.81
499.701	754.81
499.918	795.81
500.135	807.81
500.352	830.81
500.569	810.81
500.786	851.81
501.003	809.81
501.22	784.81
501.437	795.81
501.654	755.81
501.871	777.81
