Data from 1989.PennyLincolnUp.Lamp.En5.5.200Scan.071819.P2_HRD10591_17-26-06-973.txt Node
Date: Thu Jul 18 17:26:06 EDT 2019
User: cochatt
Spectrometer: HR+D1059
Trigger mode: 1
Integration Time (sec): 1.000000E-1
Scans to average: 1
Electric dark correction enabled: true
Nonlinearity correction enabled: false
Boxcar width: 0
XAxis mode: Wavelengths
Number of Pixels in Spectrum: 2048
>>>>>Begin Spectral Data<<<<<
223.165	-20.88
223.4	-20.88
223.635	-20.88
223.869	-20.88
224.104	-18.88
224.338	-15.88
224.573	-22.88
224.808	-24.88
225.042	-13.88
225.277	-2.88
225.511	4.12
225.746	14.12
225.98	13.12
226.215	16.12
226.449	17.12
226.683	10.12
226.918	29.12
227.152	37.12
227.387	30.12
227.621	36.12
227.856	30.12
228.09	37.12
228.324	53.12
228.559	63.12
228.793	62.12
229.027	98.12
229.262	102.12
229.496	126.12
229.73	147.12
229.964	159.12
230.199	124.12
230.433	106.12
230.667	137.12
230.901	134.12
231.136	121.12
231.37	118.12
231.604	109.12
231.838	116.12
232.072	109.12
232.306	107.12
232.541	116.12
232.775	104.12
233.009	114.12
233.243	123.12
233.477	120.12
233.711	117.12
233.945	118.12
234.179	110.12
234.413	112.12
234.647	118.12
234.881	128.12
235.115	121.12
235.349	117.12
235.583	106.12
235.817	125.12
236.051	140.12
236.285	125.12
236.519	130.12
236.753	141.12
236.987	163.12
237.221	201.12
237.455	275.12
237.689	205.12
237.922	149.12
238.156	138.12
238.39	139.12
238.624	126.12
238.858	135.12
239.091	125.12
239.325	121.12
239.559	133.12
239.793	124.12
240.027	142.12
240.26	135.12
240.494	165.12
240.728	173.12
240.961	145.12
241.195	161.12
241.429	147.12
241.662	143.12
241.896	149.12
242.13	140.12
242.363	146.12
242.597	153.12
242.83	151.12
243.064	141.12
243.298	146.12
243.531	157.12
243.765	158.12
243.998	150.12
244.232	153.12
244.465	157.12
244.699	167.12
244.932	153.12
245.166	142.12
245.399	149.12
245.633	154.12
245.866	145.12
246.099	156.12
246.333	177.12
246.566	172.12
246.8	162.12
247.033	153.12
247.266	166.12
247.5	173.12
247.733	186.12
247.966	203.12
248.2	201.12
248.433	197.12
248.666	181.12
248.899	208.12
249.133	228.12
249.366	227.12
249.599	206.12
249.832	205.12
250.066	215.12
250.299	207.12
250.532	226.12
250.765	239.12
250.998	247.12
251.231	270.12
251.465	246.12
251.698	245.12
251.931	222.12
252.164	224.12
252.397	240.12
252.63	220.12
252.863	220.12
253.096	243.12
253.329	260.12
253.562	251.12
253.795	236.12
254.028	238.12
254.261	212.12
254.494	261.12
254.727	294.12
254.96	323.12
255.193	293.12
255.426	285.12
255.659	273.12
255.892	263.12
256.124	294.12
256.357	277.12
256.59	300.12
256.823	273.12
257.056	259.12
257.289	262.12
257.521	237.12
257.754	227.12
257.987	241.12
258.22	227.12
258.452	229.12
258.685	230.12
258.918	241.12
259.151	222.12
259.383	238.12
259.616	245.12
259.849	256.12
260.081	257.12
260.314	284.12
260.547	300.12
260.779	281.12
261.012	251.12
261.244	245.12
261.477	247.12
261.71	251.12
261.942	257.12
262.175	254.12
262.407	260.12
262.64	259.12
262.872	238.12
263.105	239.12
263.337	237.12
263.57	197.12
263.802	219.12
264.035	237.12
264.267	241.12
264.499	256.12
264.732	231.12
264.964	237.12
265.197	242.12
265.429	247.12
265.661	237.12
265.894	253.12
266.126	238.12
266.358	230.12
266.591	226.12
266.823	239.12
267.055	242.12
267.287	261.12
267.52	247.12
267.752	243.12
267.984	263.12
268.216	259.12
268.448	252.12
268.681	261.12
268.913	275.12
269.145	306.12
269.377	324.12
269.609	322.12
269.841	301.12
270.073	297.12
270.306	331.12
270.538	351.12
270.77	353.12
271.002	338.12
271.234	344.12
271.466	331.12
271.698	350.12
271.93	350.12
272.162	345.12
272.394	353.12
272.626	354.12
272.858	339.12
273.09	309.12
273.322	310.12
273.553	310.12
273.785	294.12
274.017	289.12
274.249	302.12
274.481	285.12
274.713	279.12
274.945	310.12
275.176	307.12
275.408	293.12
275.64	295.12
275.872	306.12
276.104	280.12
276.335	296.12
276.567	317.12
276.799	338.12
277.031	356.12
277.262	356.12
277.494	356.12
277.726	336.12
277.957	321.12
278.189	314.12
278.421	311.12
278.652	303.12
278.884	330.12
279.115	287.12
279.347	289.12
279.579	297.12
279.81	305.12
280.042	318.12
280.273	300.12
280.505	308.12
280.736	294.12
280.968	289.12
281.199	289.12
281.431	295.12
281.662	305.12
281.894	299.12
282.125	291.12
282.356	308.12
282.588	343.12
282.819	350.12
283.051	314.12
283.282	302.12
283.513	302.12
283.745	299.12
283.976	292.12
284.207	308.12
284.439	324.12
284.67	291.12
284.901	305.12
285.132	296.12
285.364	307.12
285.595	313.12
285.826	317.12
286.057	314.12
286.288	311.12
286.52	303.12
286.751	304.12
286.982	313.12
287.213	323.12
287.444	316.12
287.675	341.12
287.906	337.12
288.138	326.12
288.369	332.12
288.6	326.12
288.831	312.12
289.062	337.12
289.293	310.12
289.524	314.12
289.755	331.12
289.986	322.12
290.217	316.12
290.448	317.12
290.679	314.12
290.91	306.12
291.141	304.12
291.371	314.12
291.602	298.12
291.833	328.12
292.064	316.12
292.295	323.12
292.526	311.12
292.757	307.12
292.987	317.12
293.218	315.12
293.449	319.12
293.68	318.12
293.91	325.12
294.141	309.12
294.372	304.12
294.603	308.12
294.833	319.12
295.064	323.12
295.295	328.12
295.525	313.12
295.756	325.12
295.987	324.12
296.217	365.12
296.448	356.12
296.679	342.12
296.909	319.12
297.14	328.12
297.37	325.12
297.601	309.12
297.831	321.12
298.062	327.12
298.292	339.12
298.523	305.12
298.753	334.12
298.984	335.12
299.214	330.12
299.445	338.12
299.675	343.12
299.905	358.12
300.136	341.12
300.366	329.12
300.597	337.12
300.827	334.12
301.057	373.12
301.288	369.12
301.518	357.12
301.748	355.12
301.979	344.12
302.209	359.12
302.439	370.12
302.669	356.12
302.9	345.12
303.13	361.12
303.36	349.12
303.59	346.12
303.82	370.12
304.051	363.12
304.281	350.12
304.511	351.12
304.741	339.12
304.971	361.12
305.201	339.12
305.431	365.12
305.661	382.12
305.891	355.12
306.121	356.12
306.352	383.12
306.582	385.12
306.812	373.12
307.042	370.12
307.272	381.12
307.502	372.12
307.731	372.12
307.961	363.12
308.191	362.12
308.421	335.12
308.651	362.12
308.881	373.12
309.111	371.12
309.341	377.12
309.571	389.12
309.8	394.12
310.03	404.12
310.26	408.12
310.49	421.12
310.72	442.12
310.949	433.12
311.179	427.12
311.409	443.12
311.639	431.12
311.868	425.12
312.098	438.12
312.328	433.12
312.557	441.12
312.787	468.12
313.017	456.12
313.246	443.12
313.476	425.12
313.706	424.12
313.935	433.12
314.165	456.12
314.394	433.12
314.624	421.12
314.853	443.12
315.083	427.12
315.312	410.12
315.542	393.12
315.771	404.12
316.001	389.12
316.23	398.12
316.46	403.12
316.689	400.12
316.919	433.12
317.148	419.12
317.377	438.12
317.607	430.12
317.836	436.12
318.065	414.12
318.295	418.12
318.524	414.12
318.753	415.12
318.983	412.12
319.212	430.12
319.441	435.12
319.67	426.12
319.9	427.12
320.129	431.12
320.358	437.12
320.587	399.12
320.816	445.12
321.046	434.12
321.275	449.12
321.504	462.12
321.733	467.12
321.962	458.12
322.191	473.12
322.42	478.12
322.649	511.12
322.878	510.12
323.108	557.12
323.337	541.12
323.566	565.12
323.795	600.12
324.024	663.12
324.253	810.12
324.482	1163.12
324.71	1835.12
324.939	2620.12
325.168	2319.12
325.397	1186.12
325.626	794.12
325.855	645.12
326.084	584.12
326.313	602.12
326.542	589.12
326.77	639.12
326.999	765.12
327.228	1076.12
327.457	1618.12
327.686	2009.12
327.914	1338.12
328.143	897.12
328.372	741.12
328.6	698.12
328.829	685.12
329.058	677.12
329.287	684.12
329.515	644.12
329.744	595.12
329.972	615.12
330.201	647.12
330.43	673.12
330.658	712.12
330.887	735.12
331.115	685.12
331.344	611.12
331.572	572.12
331.801	569.12
332.03	549.12
332.258	539.12
332.486	515.12
332.715	515.12
332.943	524.12
333.172	502.12
333.4	505.12
333.629	511.12
333.857	559.12
334.085	547.12
334.314	594.12
334.542	649.12
334.771	690.12
334.999	587.12
335.227	545.12
335.455	497.12
335.684	510.12
335.912	493.12
336.14	494.12
336.369	477.12
336.597	476.12
336.825	495.12
337.053	492.12
337.281	460.12
337.51	466.12
337.738	473.12
337.966	489.12
338.194	489.12
338.422	485.12
338.65	464.12
338.878	475.12
339.106	454.12
339.334	470.12
339.562	472.12
339.79	469.12
340.018	473.12
340.246	467.12
340.474	469.12
340.702	470.12
340.93	454.12
341.158	469.12
341.386	455.12
341.614	461.12
341.842	465.12
342.07	457.12
342.298	467.12
342.526	450.12
342.754	454.12
342.981	452.12
343.209	451.12
343.437	452.12
343.665	439.12
343.893	452.12
344.12	439.12
344.348	451.12
344.576	460.12
344.804	478.12
345.031	474.12
345.259	473.12
345.487	470.12
345.714	435.12
345.942	477.12
346.17	425.12
346.397	434.12
346.625	443.12
346.853	462.12
347.08	447.12
347.308	450.12
347.535	439.12
347.763	463.12
347.99	463.12
348.218	459.12
348.445	465.12
348.673	465.12
348.9	464.12
349.128	456.12
349.355	438.12
349.583	422.12
349.81	424.12
350.037	433.12
350.265	444.12
350.492	413.12
350.72	439.12
350.947	440.12
351.174	451.12
351.402	459.12
351.629	446.12
351.856	436.12
352.083	462.12
352.311	469.12
352.538	446.12
352.765	453.12
352.992	470.12
353.22	425.12
353.447	451.12
353.674	433.12
353.901	420.12
354.128	419.12
354.355	408.12
354.583	403.12
354.81	409.12
355.037	412.12
355.264	405.12
355.491	411.12
355.718	417.12
355.945	409.12
356.172	397.12
356.399	396.12
356.626	391.12
356.853	409.12
357.08	406.12
357.307	407.12
357.534	409.12
357.761	395.12
357.988	395.12
358.215	423.12
358.441	417.12
358.668	411.12
358.895	416.12
359.122	420.12
359.349	420.12
359.576	449.12
359.802	456.12
360.029	484.12
360.256	505.12
360.483	475.12
360.709	426.12
360.936	428.12
361.163	440.12
361.39	447.12
361.616	451.12
361.843	427.12
362.07	433.12
362.296	441.12
362.523	433.12
362.749	446.12
362.976	435.12
363.203	419.12
363.429	415.12
363.656	430.12
363.882	405.12
364.109	415.12
364.335	417.12
364.562	425.12
364.788	398.12
365.015	408.12
365.241	407.12
365.468	390.12
365.694	426.12
365.92	431.12
366.147	419.12
366.373	408.12
366.599	407.12
366.826	407.12
367.052	414.12
367.278	400.12
367.505	413.12
367.731	419.12
367.957	417.12
368.184	410.12
368.41	412.12
368.636	436.12
368.862	413.12
369.089	417.12
369.315	395.12
369.541	383.12
369.767	399.12
369.993	407.12
370.219	407.12
370.445	401.12
370.672	408.12
370.898	400.12
371.124	393.12
371.35	403.12
371.576	391.12
371.802	404.12
372.028	397.12
372.254	404.12
372.48	410.12
372.706	382.12
372.932	402.12
373.158	388.12
373.384	426.12
373.61	400.12
373.835	408.12
374.061	390.12
374.287	395.12
374.513	395.12
374.739	410.12
374.965	419.12
375.191	403.12
375.416	414.12
375.642	399.12
375.868	427.12
376.094	408.12
376.319	397.12
376.545	397.12
376.771	396.12
376.997	373.12
377.222	394.12
377.448	395.12
377.674	390.12
377.899	379.12
378.125	391.12
378.35	387.12
378.576	371.12
378.802	389.12
379.027	386.12
379.253	380.12
379.478	381.12
379.704	399.12
379.929	414.12
380.155	397.12
380.38	397.12
380.606	394.12
380.831	395.12
381.057	418.12
381.282	409.12
381.507	411.12
381.733	388.12
381.958	397.12
382.184	403.12
382.409	391.12
382.634	427.12
382.86	408.12
383.085	403.12
383.31	407.12
383.535	406.12
383.761	390.12
383.986	414.12
384.211	412.12
384.436	410.12
384.662	402.12
384.887	411.12
385.112	412.12
385.337	382.12
385.562	396.12
385.787	405.12
386.013	417.12
386.238	424.12
386.463	426.12
386.688	409.12
386.913	416.12
387.138	416.12
387.363	411.12
387.588	417.12
387.813	422.12
388.038	397.12
388.263	411.12
388.488	435.12
388.713	431.12
388.938	425.12
389.163	427.12
389.387	428.12
389.612	409.12
389.837	419.12
390.062	422.12
390.287	429.12
390.512	417.12
390.736	416.12
390.961	412.12
391.186	413.12
391.411	410.12
391.636	447.12
391.86	428.12
392.085	429.12
392.31	407.12
392.534	419.12
392.759	426.12
392.984	427.12
393.208	427.12
393.433	411.12
393.658	421.12
393.882	404.12
394.107	404.12
394.331	399.12
394.556	423.12
394.78	408.12
395.005	407.12
395.229	419.12
395.454	436.12
395.678	407.12
395.903	442.12
396.127	449.12
396.352	461.12
396.576	444.12
396.801	419.12
397.025	439.12
397.249	443.12
397.474	423.12
397.698	433.12
397.922	455.12
398.147	483.12
398.371	482.12
398.595	487.12
398.82	446.12
399.044	481.12
399.268	466.12
399.492	479.12
399.717	531.12
399.941	550.12
400.165	586.12
400.389	592.12
400.613	537.12
400.837	511.12
401.062	490.12
401.286	477.12
401.51	466.12
401.734	474.12
401.958	486.12
402.182	474.12
402.406	486.12
402.63	480.12
402.854	474.12
403.078	475.12
403.302	468.12
403.526	478.12
403.75	498.12
403.974	492.12
404.198	484.12
404.422	490.12
404.645	512.12
404.869	517.12
405.093	539.12
405.317	588.12
405.541	628.12
405.765	577.12
405.988	547.12
406.212	553.12
406.436	547.12
406.66	552.12
406.883	542.12
407.107	545.12
407.331	594.12
407.555	628.12
407.778	655.12
408.002	587.12
408.226	552.12
408.449	541.12
408.673	528.12
408.896	567.12
409.12	619.12
409.344	584.12
409.567	517.12
409.791	501.12
410.014	502.12
410.238	488.12
410.461	486.12
410.685	483.12
410.908	513.12
411.132	571.12
411.355	567.12
411.578	561.12
411.802	512.12
412.025	499.12
412.249	519.12
412.472	543.12
412.695	606.12
412.919	596.12
413.142	546.12
413.365	501.12
413.589	490.12
413.812	484.12
414.035	462.12
414.258	474.12
414.482	468.12
414.705	457.12
414.928	435.12
415.151	457.12
415.374	472.12
415.597	461.12
415.821	441.12
416.044	437.12
416.267	476.12
416.49	470.12
416.713	452.12
416.936	473.12
417.159	482.12
417.382	476.12
417.605	463.12
417.828	470.12
418.051	500.12
418.274	497.12
418.497	450.12
418.72	464.12
418.943	466.12
419.166	472.12
419.389	491.12
419.611	497.12
419.834	503.12
420.057	495.12
420.28	525.12
420.503	501.12
420.726	517.12
420.948	525.12
421.171	542.12
421.394	603.12
421.617	524.12
421.839	505.12
422.062	489.12
422.285	515.12
422.507	565.12
422.73	629.12
422.953	611.12
423.175	540.12
423.398	503.12
423.621	520.12
423.843	515.12
424.066	539.12
424.288	519.12
424.511	550.12
424.733	595.12
424.956	696.12
425.178	677.12
425.401	665.12
425.623	669.12
425.846	565.12
426.068	544.12
426.291	510.12
426.513	518.12
426.735	542.12
426.958	575.12
427.18	674.12
427.402	801.12
427.625	891.12
427.847	817.12
428.069	709.12
428.292	587.12
428.514	554.12
428.736	510.12
428.958	506.12
429.181	485.12
429.403	477.12
429.625	497.12
429.847	523.12
430.069	614.12
430.292	612.12
430.514	517.12
430.736	488.12
430.958	501.12
431.18	469.12
431.402	475.12
431.624	458.12
431.846	445.12
432.068	455.12
432.29	452.12
432.512	457.12
432.734	477.12
432.956	466.12
433.178	473.12
433.4	493.12
433.622	492.12
433.844	455.12
434.066	452.12
434.287	472.12
434.509	460.12
434.731	464.12
434.953	479.12
435.175	486.12
435.397	510.12
435.618	538.12
435.84	582.12
436.062	675.12
436.284	744.12
436.505	626.12
436.727	558.12
436.949	523.12
437.17	494.12
437.392	498.12
437.614	504.12
437.835	552.12
438.057	646.12
438.278	760.12
438.5	719.12
438.721	804.12
438.943	779.12
439.165	603.12
439.386	580.12
439.608	558.12
439.829	542.12
440.05	554.12
440.272	622.12
440.493	591.12
440.715	537.12
440.936	487.12
441.158	488.12
441.379	491.12
441.6	498.12
441.822	547.12
442.043	584.12
442.264	661.12
442.486	707.12
442.707	601.12
442.928	572.12
443.149	575.12
443.371	580.12
443.592	612.12
443.813	733.12
444.034	798.12
444.255	624.12
444.476	569.12
444.698	547.12
444.919	542.12
445.14	654.12
445.361	608.12
445.582	575.12
445.803	669.12
446.024	769.12
446.245	782.12
446.466	714.12
446.687	580.12
446.908	543.12
447.129	505.12
447.35	490.12
447.571	468.12
447.792	465.12
448.013	503.12
448.234	521.12
448.455	567.12
448.675	675.12
448.896	791.12
449.117	675.12
449.338	613.12
449.559	755.12
449.779	846.12
450	664.12
450.221	543.12
450.442	520.12
450.662	494.12
450.883	484.12
451.104	509.12
451.324	492.12
451.545	481.12
451.766	437.12
451.986	430.12
452.207	449.12
452.428	441.12
452.648	420.12
452.869	421.12
453.089	460.12
453.31	477.12
453.53	446.12
453.751	436.12
453.971	440.12
454.192	462.12
454.412	457.12
454.633	455.12
454.853	434.12
455.073	453.12
455.294	473.12
455.514	542.12
455.734	531.12
455.955	439.12
456.175	426.12
456.395	407.12
456.616	407.12
456.836	410.12
457.056	407.12
457.276	390.12
457.497	405.12
457.717	401.12
457.937	419.12
458.157	425.12
458.377	450.12
458.598	447.12
458.818	537.12
459.038	609.12
459.258	619.12
459.478	499.12
459.698	468.12
459.918	446.12
460.138	482.12
460.358	449.12
460.578	441.12
460.798	448.12
461.018	447.12
461.238	431.12
461.458	451.12
461.678	453.12
461.898	437.12
462.118	442.12
462.338	445.12
462.558	444.12
462.777	460.12
462.997	456.12
463.217	498.12
463.437	491.12
463.657	489.12
463.876	482.12
464.096	462.12
464.316	473.12
464.536	464.12
464.755	488.12
464.975	476.12
465.195	523.12
465.414	619.12
465.634	547.12
465.854	492.12
466.073	490.12
466.293	473.12
466.512	448.12
466.732	417.12
466.951	423.12
467.171	447.12
467.391	445.12
467.61	463.12
467.829	458.12
468.049	453.12
468.268	462.12
468.488	459.12
468.707	447.12
468.927	426.12
469.146	419.12
469.365	428.12
469.585	436.12
469.804	449.12
470.023	444.12
470.243	460.12
470.462	462.12
470.681	457.12
470.901	464.12
471.12	452.12
471.339	441.12
471.558	458.12
471.777	448.12
471.997	461.12
472.216	448.12
472.435	537.12
472.654	515.12
472.873	458.12
473.092	449.12
473.311	429.12
473.53	443.12
473.749	460.12
473.968	494.12
474.187	599.12
474.406	662.12
474.625	527.12
474.844	472.12
475.063	453.12
475.282	452.12
475.501	465.12
475.72	471.12
475.939	462.12
476.158	461.12
476.377	461.12
476.596	432.12
476.814	460.12
477.033	464.12
477.252	485.12
477.471	479.12
477.69	469.12
477.908	489.12
478.127	497.12
478.346	476.12
478.564	495.12
478.783	487.12
479.002	504.12
479.22	494.12
479.439	522.12
479.658	526.12
479.876	566.12
480.095	538.12
480.313	543.12
480.532	554.12
480.751	553.12
480.969	600.12
481.188	686.12
481.406	753.12
481.624	649.12
481.843	588.12
482.061	535.12
482.28	554.12
482.498	536.12
482.717	525.12
482.935	536.12
483.153	509.12
483.372	539.12
483.59	556.12
483.808	533.12
484.027	529.12
484.245	528.12
484.463	547.12
484.681	504.12
484.9	535.12
485.118	541.12
485.336	533.12
485.554	549.12
485.772	537.12
485.99	546.12
486.209	539.12
486.427	527.12
486.645	538.12
486.863	574.12
487.081	582.12
487.299	561.12
487.517	571.12
487.735	566.12
487.953	570.12
488.171	594.12
488.389	567.12
488.607	565.12
488.825	574.12
489.043	566.12
489.261	573.12
489.479	589.12
489.696	581.12
489.914	602.12
490.132	583.12
490.35	632.12
490.568	604.12
490.786	619.12
491.003	643.12
491.221	642.12
491.439	649.12
491.657	662.12
491.874	671.12
492.092	669.12
492.31	681.12
492.527	679.12
492.745	693.12
492.963	675.12
493.18	669.12
493.398	684.12
493.615	708.12
493.833	698.12
494.05	665.12
494.268	683.12
494.485	705.12
494.703	689.12
494.92	666.12
495.138	689.12
495.355	680.12
495.573	682.12
495.79	685.12
496.008	686.12
496.225	693.12
496.442	683.12
496.66	697.12
496.877	677.12
497.094	691.12
497.312	689.12
497.529	693.12
497.746	714.12
497.963	703.12
498.181	726.12
498.398	745.12
498.615	736.12
498.832	762.12
499.049	746.12
499.267	740.12
499.484	768.12
499.701	777.12
499.918	790.12
500.135	857.12
500.352	855.12
500.569	856.12
500.786	865.12
501.003	871.12
501.22	852.12
501.437	827.12
501.654	854.12
501.871	819.12
