Data from 1989.PennyLincolnUp.Lamp.En5.5.200Scan.071819.P2_HRD10591_17-26-19-975.txt Node
Date: Thu Jul 18 17:26:19 EDT 2019
User: cochatt
Spectrometer: HR+D1059
Trigger mode: 1
Integration Time (sec): 1.000000E-1
Scans to average: 1
Electric dark correction enabled: true
Nonlinearity correction enabled: false
Boxcar width: 0
XAxis mode: Wavelengths
Number of Pixels in Spectrum: 2048
>>>>>Begin Spectral Data<<<<<
223.165	-6.62
223.4	-6.62
223.635	-6.62
223.869	-13.62
224.104	-16.62
224.338	-16.62
224.573	-7.62
224.808	-26.62
225.042	-11.62
225.277	-13.62
225.511	0.38
225.746	-0.62
225.98	2.38
226.215	3.38
226.449	16.38
226.683	26.38
226.918	30.38
227.152	34.38
227.387	32.38
227.621	28.38
227.856	28.38
228.09	53.38
228.324	63.38
228.559	54.38
228.793	78.38
229.027	107.38
229.262	103.38
229.496	128.38
229.73	137.38
229.964	176.38
230.199	119.38
230.433	127.38
230.667	131.38
230.901	122.38
231.136	96.38
231.37	109.38
231.604	116.38
231.838	108.38
232.072	123.38
232.306	123.38
232.541	121.38
232.775	114.38
233.009	128.38
233.243	131.38
233.477	109.38
233.711	117.38
233.945	109.38
234.179	128.38
234.413	116.38
234.647	118.38
234.881	116.38
235.115	123.38
235.349	114.38
235.583	120.38
235.817	116.38
236.051	135.38
236.285	134.38
236.519	117.38
236.753	135.38
236.987	161.38
237.221	196.38
237.455	263.38
237.689	214.38
237.922	156.38
238.156	154.38
238.39	143.38
238.624	144.38
238.858	114.38
239.091	122.38
239.325	133.38
239.559	138.38
239.793	127.38
240.027	143.38
240.26	148.38
240.494	159.38
240.728	167.38
240.961	145.38
241.195	156.38
241.429	145.38
241.662	140.38
241.896	153.38
242.13	152.38
242.363	142.38
242.597	138.38
242.83	152.38
243.064	141.38
243.298	140.38
243.531	161.38
243.765	146.38
243.998	149.38
244.232	152.38
244.465	149.38
244.699	150.38
244.932	154.38
245.166	152.38
245.399	143.38
245.633	146.38
245.866	137.38
246.099	148.38
246.333	149.38
246.566	157.38
246.8	160.38
247.033	177.38
247.266	157.38
247.5	174.38
247.733	181.38
247.966	185.38
248.2	187.38
248.433	187.38
248.666	189.38
248.899	198.38
249.133	226.38
249.366	239.38
249.599	217.38
249.832	206.38
250.066	193.38
250.299	223.38
250.532	228.38
250.765	244.38
250.998	261.38
251.231	261.38
251.465	243.38
251.698	233.38
251.931	227.38
252.164	211.38
252.397	212.38
252.63	219.38
252.863	235.38
253.096	220.38
253.329	234.38
253.562	258.38
253.795	226.38
254.028	251.38
254.261	253.38
254.494	257.38
254.727	289.38
254.96	314.38
255.193	305.38
255.426	273.38
255.659	265.38
255.892	284.38
256.124	288.38
256.357	293.38
256.59	281.38
256.823	272.38
257.056	251.38
257.289	245.38
257.521	257.38
257.754	243.38
257.987	249.38
258.22	232.38
258.452	235.38
258.685	233.38
258.918	239.38
259.151	230.38
259.383	230.38
259.616	256.38
259.849	244.38
260.081	266.38
260.314	289.38
260.547	303.38
260.779	297.38
261.012	260.38
261.244	260.38
261.477	250.38
261.71	250.38
261.942	259.38
262.175	259.38
262.407	246.38
262.64	244.38
262.872	246.38
263.105	231.38
263.337	234.38
263.57	240.38
263.802	239.38
264.035	226.38
264.267	237.38
264.499	242.38
264.732	228.38
264.964	227.38
265.197	237.38
265.429	231.38
265.661	243.38
265.894	250.38
266.126	228.38
266.358	251.38
266.591	253.38
266.823	247.38
267.055	248.38
267.287	254.38
267.52	251.38
267.752	263.38
267.984	245.38
268.216	257.38
268.448	255.38
268.681	251.38
268.913	289.38
269.145	288.38
269.377	332.38
269.609	307.38
269.841	308.38
270.073	293.38
270.306	329.38
270.538	371.38
270.77	349.38
271.002	359.38
271.234	329.38
271.466	348.38
271.698	355.38
271.93	366.38
272.162	357.38
272.394	351.38
272.626	360.38
272.858	313.38
273.09	310.38
273.322	291.38
273.553	300.38
273.785	295.38
274.017	301.38
274.249	289.38
274.481	289.38
274.713	292.38
274.945	294.38
275.176	308.38
275.408	307.38
275.64	309.38
275.872	309.38
276.104	289.38
276.335	313.38
276.567	303.38
276.799	325.38
277.031	360.38
277.262	342.38
277.494	356.38
277.726	354.38
277.957	306.38
278.189	303.38
278.421	310.38
278.652	310.38
278.884	311.38
279.115	303.38
279.347	298.38
279.579	295.38
279.81	310.38
280.042	292.38
280.273	289.38
280.505	296.38
280.736	310.38
280.968	292.38
281.199	296.38
281.431	297.38
281.662	299.38
281.894	284.38
282.125	284.38
282.356	308.38
282.588	342.38
282.819	357.38
283.051	312.38
283.282	287.38
283.513	307.38
283.745	306.38
283.976	301.38
284.207	310.38
284.439	313.38
284.67	294.38
284.901	315.38
285.132	322.38
285.364	326.38
285.595	304.38
285.826	293.38
286.057	294.38
286.288	308.38
286.52	289.38
286.751	321.38
286.982	310.38
287.213	307.38
287.444	317.38
287.675	307.38
287.906	320.38
288.138	330.38
288.369	332.38
288.6	351.38
288.831	347.38
289.062	320.38
289.293	315.38
289.524	308.38
289.755	311.38
289.986	305.38
290.217	317.38
290.448	319.38
290.679	312.38
290.91	314.38
291.141	306.38
291.371	316.38
291.602	326.38
291.833	316.38
292.064	311.38
292.295	317.38
292.526	328.38
292.757	310.38
292.987	311.38
293.218	309.38
293.449	322.38
293.68	301.38
293.91	319.38
294.141	313.38
294.372	315.38
294.603	323.38
294.833	320.38
295.064	323.38
295.295	327.38
295.525	344.38
295.756	333.38
295.987	330.38
296.217	352.38
296.448	376.38
296.679	329.38
296.909	333.38
297.14	305.38
297.37	308.38
297.601	332.38
297.831	335.38
298.062	324.38
298.292	323.38
298.523	337.38
298.753	332.38
298.984	330.38
299.214	319.38
299.445	341.38
299.675	341.38
299.905	347.38
300.136	337.38
300.366	331.38
300.597	341.38
300.827	363.38
301.057	359.38
301.288	337.38
301.518	346.38
301.748	348.38
301.979	330.38
302.209	360.38
302.439	353.38
302.669	366.38
302.9	346.38
303.13	350.38
303.36	376.38
303.59	345.38
303.82	367.38
304.051	357.38
304.281	339.38
304.511	340.38
304.741	359.38
304.971	336.38
305.201	341.38
305.431	358.38
305.661	348.38
305.891	353.38
306.121	375.38
306.352	365.38
306.582	375.38
306.812	368.38
307.042	351.38
307.272	354.38
307.502	349.38
307.731	370.38
307.961	381.38
308.191	381.38
308.421	362.38
308.651	369.38
308.881	371.38
309.111	376.38
309.341	367.38
309.571	395.38
309.8	389.38
310.03	407.38
310.26	418.38
310.49	435.38
310.72	430.38
310.949	410.38
311.179	447.38
311.409	443.38
311.639	417.38
311.868	430.38
312.098	417.38
312.328	412.38
312.557	435.38
312.787	467.38
313.017	448.38
313.246	436.38
313.476	410.38
313.706	416.38
313.935	437.38
314.165	446.38
314.394	434.38
314.624	429.38
314.853	446.38
315.083	407.38
315.312	410.38
315.542	405.38
315.771	390.38
316.001	409.38
316.23	393.38
316.46	426.38
316.689	402.38
316.919	429.38
317.148	445.38
317.377	446.38
317.607	447.38
317.836	415.38
318.065	413.38
318.295	417.38
318.524	426.38
318.753	413.38
318.983	395.38
319.212	416.38
319.441	432.38
319.67	457.38
319.9	427.38
320.129	417.38
320.358	436.38
320.587	405.38
320.816	434.38
321.046	461.38
321.275	454.38
321.504	449.38
321.733	444.38
321.962	453.38
322.191	483.38
322.42	500.38
322.649	518.38
322.878	486.38
323.108	534.38
323.337	550.38
323.566	586.38
323.795	616.38
324.024	677.38
324.253	821.38
324.482	1208.38
324.71	1843.38
324.939	2632.38
325.168	2299.38
325.397	1194.38
325.626	761.38
325.855	679.38
326.084	584.38
326.313	560.38
326.542	585.38
326.77	641.38
326.999	762.38
327.228	1074.38
327.457	1651.38
327.686	1999.38
327.914	1350.38
328.143	875.38
328.372	730.38
328.6	727.38
328.829	666.38
329.058	674.38
329.287	709.38
329.515	687.38
329.744	587.38
329.972	634.38
330.201	657.38
330.43	727.38
330.658	742.38
330.887	749.38
331.115	721.38
331.344	606.38
331.572	565.38
331.801	594.38
332.03	560.38
332.258	560.38
332.486	522.38
332.715	501.38
332.943	512.38
333.172	522.38
333.4	526.38
333.629	529.38
333.857	539.38
334.085	566.38
334.314	625.38
334.542	711.38
334.771	716.38
334.999	613.38
335.227	561.38
335.455	535.38
335.684	517.38
335.912	491.38
336.14	511.38
336.369	499.38
336.597	505.38
336.825	495.38
337.053	507.38
337.281	482.38
337.51	490.38
337.738	479.38
337.966	451.38
338.194	481.38
338.422	490.38
338.65	473.38
338.878	454.38
339.106	477.38
339.334	466.38
339.562	462.38
339.79	445.38
340.018	437.38
340.246	482.38
340.474	479.38
340.702	453.38
340.93	455.38
341.158	457.38
341.386	447.38
341.614	442.38
341.842	469.38
342.07	465.38
342.298	474.38
342.526	450.38
342.754	431.38
342.981	432.38
343.209	447.38
343.437	460.38
343.665	452.38
343.893	461.38
344.12	465.38
344.348	469.38
344.576	450.38
344.804	458.38
345.031	465.38
345.259	469.38
345.487	482.38
345.714	444.38
345.942	419.38
346.17	458.38
346.397	443.38
346.625	440.38
346.853	423.38
347.08	449.38
347.308	457.38
347.535	466.38
347.763	441.38
347.99	471.38
348.218	463.38
348.445	463.38
348.673	477.38
348.9	453.38
349.128	447.38
349.355	425.38
349.583	439.38
349.81	425.38
350.037	421.38
350.265	421.38
350.492	411.38
350.72	442.38
350.947	425.38
351.174	443.38
351.402	435.38
351.629	439.38
351.856	448.38
352.083	447.38
352.311	458.38
352.538	478.38
352.765	466.38
352.992	452.38
353.22	415.38
353.447	431.38
353.674	445.38
353.901	415.38
354.128	431.38
354.355	411.38
354.583	410.38
354.81	422.38
355.037	416.38
355.264	389.38
355.491	403.38
355.718	416.38
355.945	401.38
356.172	392.38
356.399	400.38
356.626	414.38
356.853	403.38
357.08	406.38
357.307	413.38
357.534	395.38
357.761	406.38
357.988	394.38
358.215	375.38
358.441	414.38
358.668	401.38
358.895	399.38
359.122	408.38
359.349	417.38
359.576	418.38
359.802	471.38
360.029	521.38
360.256	498.38
360.483	491.38
360.709	435.38
360.936	447.38
361.163	429.38
361.39	424.38
361.616	466.38
361.843	433.38
362.07	410.38
362.296	429.38
362.523	441.38
362.749	443.38
362.976	433.38
363.203	416.38
363.429	409.38
363.656	410.38
363.882	418.38
364.109	425.38
364.335	393.38
364.562	413.38
364.788	417.38
365.015	414.38
365.241	417.38
365.468	409.38
365.694	435.38
365.92	425.38
366.147	426.38
366.373	415.38
366.599	395.38
366.826	413.38
367.052	408.38
367.278	406.38
367.505	423.38
367.731	414.38
367.957	411.38
368.184	410.38
368.41	409.38
368.636	422.38
368.862	436.38
369.089	426.38
369.315	406.38
369.541	387.38
369.767	406.38
369.993	382.38
370.219	389.38
370.445	397.38
370.672	403.38
370.898	411.38
371.124	408.38
371.35	397.38
371.576	384.38
371.802	409.38
372.028	384.38
372.254	377.38
372.48	398.38
372.706	413.38
372.932	398.38
373.158	392.38
373.384	403.38
373.61	380.38
373.835	397.38
374.061	397.38
374.287	404.38
374.513	418.38
374.739	403.38
374.965	379.38
375.191	403.38
375.416	402.38
375.642	410.38
375.868	417.38
376.094	390.38
376.319	401.38
376.545	395.38
376.771	394.38
376.997	373.38
377.222	390.38
377.448	362.38
377.674	393.38
377.899	377.38
378.125	380.38
378.35	381.38
378.576	405.38
378.802	390.38
379.027	382.38
379.253	392.38
379.478	381.38
379.704	381.38
379.929	385.38
380.155	397.38
380.38	395.38
380.606	392.38
380.831	384.38
381.057	381.38
381.282	401.38
381.507	384.38
381.733	387.38
381.958	368.38
382.184	399.38
382.409	393.38
382.634	392.38
382.86	389.38
383.085	410.38
383.31	405.38
383.535	410.38
383.761	403.38
383.986	408.38
384.211	396.38
384.436	416.38
384.662	394.38
384.887	408.38
385.112	406.38
385.337	423.38
385.562	390.38
385.787	410.38
386.013	420.38
386.238	420.38
386.463	426.38
386.688	402.38
386.913	405.38
387.138	434.38
387.363	413.38
387.588	425.38
387.813	420.38
388.038	417.38
388.263	413.38
388.488	422.38
388.713	425.38
388.938	413.38
389.163	416.38
389.387	446.38
389.612	410.38
389.837	420.38
390.062	439.38
390.287	435.38
390.512	418.38
390.736	419.38
390.961	394.38
391.186	410.38
391.411	434.38
391.636	437.38
391.86	433.38
392.085	424.38
392.31	416.38
392.534	409.38
392.759	406.38
392.984	433.38
393.208	391.38
393.433	398.38
393.658	417.38
393.882	411.38
394.107	408.38
394.331	417.38
394.556	418.38
394.78	401.38
395.005	421.38
395.229	420.38
395.454	435.38
395.678	423.38
395.903	432.38
396.127	440.38
396.352	448.38
396.576	408.38
396.801	433.38
397.025	408.38
397.249	413.38
397.474	433.38
397.698	447.38
397.922	454.38
398.147	465.38
398.371	473.38
398.595	443.38
398.82	459.38
399.044	471.38
399.268	488.38
399.492	499.38
399.717	527.38
399.941	555.38
400.165	569.38
400.389	589.38
400.613	554.38
400.837	521.38
401.062	480.38
401.286	464.38
401.51	465.38
401.734	448.38
401.958	451.38
402.182	467.38
402.406	511.38
402.63	485.38
402.854	453.38
403.078	494.38
403.302	493.38
403.526	489.38
403.75	500.38
403.974	489.38
404.198	493.38
404.422	493.38
404.645	514.38
404.869	518.38
405.093	547.38
405.317	634.38
405.541	648.38
405.765	576.38
405.988	553.38
406.212	559.38
406.436	521.38
406.66	559.38
406.883	543.38
407.107	558.38
407.331	593.38
407.555	657.38
407.778	680.38
408.002	610.38
408.226	550.38
408.449	539.38
408.673	546.38
408.896	583.38
409.12	606.38
409.344	589.38
409.567	521.38
409.791	518.38
410.014	503.38
410.238	510.38
410.461	485.38
410.685	493.38
410.908	523.38
411.132	529.38
411.355	581.38
411.578	563.38
411.802	534.38
412.025	481.38
412.249	523.38
412.472	555.38
412.695	618.38
412.919	583.38
413.142	549.38
413.365	509.38
413.589	496.38
413.812	505.38
414.035	467.38
414.258	480.38
414.482	470.38
414.705	468.38
414.928	462.38
415.151	432.38
415.374	452.38
415.597	442.38
415.821	448.38
416.044	468.38
416.267	463.38
416.49	455.38
416.713	459.38
416.936	469.38
417.159	458.38
417.382	465.38
417.605	455.38
417.828	488.38
418.051	503.38
418.274	485.38
418.497	468.38
418.72	463.38
418.943	461.38
419.166	484.38
419.389	470.38
419.611	494.38
419.834	477.38
420.057	486.38
420.28	507.38
420.503	517.38
420.726	489.38
420.948	510.38
421.171	570.38
421.394	599.38
421.617	519.38
421.839	482.38
422.062	480.38
422.285	513.38
422.507	548.38
422.73	637.38
422.953	621.38
423.175	517.38
423.398	518.38
423.621	524.38
423.843	519.38
424.066	543.38
424.288	540.38
424.511	536.38
424.733	605.38
424.956	691.38
425.178	651.38
425.401	665.38
425.623	694.38
425.846	569.38
426.068	529.38
426.291	515.38
426.513	541.38
426.735	545.38
426.958	563.38
427.18	674.38
427.402	811.38
427.625	875.38
427.847	816.38
428.069	724.38
428.292	633.38
428.514	549.38
428.736	529.38
428.958	524.38
429.181	489.38
429.403	490.38
429.625	495.38
429.847	531.38
430.069	619.38
430.292	596.38
430.514	513.38
430.736	495.38
430.958	485.38
431.18	478.38
431.402	454.38
431.624	457.38
431.846	457.38
432.068	443.38
432.29	452.38
432.512	454.38
432.734	461.38
432.956	444.38
433.178	474.38
433.4	463.38
433.622	463.38
433.844	457.38
434.066	454.38
434.287	443.38
434.509	469.38
434.731	449.38
434.953	462.38
435.175	479.38
435.397	516.38
435.618	545.38
435.84	586.38
436.062	671.38
436.284	766.38
436.505	612.38
436.727	546.38
436.949	513.38
437.17	494.38
437.392	509.38
437.614	505.38
437.835	549.38
438.057	643.38
438.278	753.38
438.5	782.38
438.721	823.38
438.943	821.38
439.165	638.38
439.386	574.38
439.608	537.38
439.829	547.38
440.05	569.38
440.272	629.38
440.493	601.38
440.715	521.38
440.936	521.38
441.158	479.38
441.379	481.38
441.6	518.38
441.822	525.38
442.043	581.38
442.264	655.38
442.486	710.38
442.707	605.38
442.928	558.38
443.149	548.38
443.371	581.38
443.592	619.38
443.813	699.38
444.034	789.38
444.255	618.38
444.476	561.38
444.698	552.38
444.919	527.38
445.14	629.38
445.361	606.38
445.582	575.38
445.803	657.38
446.024	779.38
446.245	776.38
446.466	695.38
446.687	609.38
446.908	534.38
447.129	499.38
447.35	488.38
447.571	484.38
447.792	482.38
448.013	507.38
448.234	509.38
448.455	581.38
448.675	695.38
448.896	796.38
449.117	680.38
449.338	633.38
449.559	733.38
449.779	869.38
450	700.38
450.221	539.38
450.442	527.38
450.662	476.38
450.883	517.38
451.104	531.38
451.324	525.38
451.545	488.38
451.766	442.38
451.986	449.38
452.207	444.38
452.428	437.38
452.648	434.38
452.869	443.38
453.089	463.38
453.31	466.38
453.53	462.38
453.751	450.38
453.971	452.38
454.192	477.38
454.412	431.38
454.633	462.38
454.853	429.38
455.073	438.38
455.294	467.38
455.514	536.38
455.734	545.38
455.955	458.38
456.175	410.38
456.395	403.38
456.616	409.38
456.836	413.38
457.056	401.38
457.276	407.38
457.497	417.38
457.717	411.38
457.937	396.38
458.157	427.38
458.377	421.38
458.598	441.38
458.818	523.38
459.038	602.38
459.258	625.38
459.478	501.38
459.698	468.38
459.918	449.38
460.138	438.38
460.358	449.38
460.578	442.38
460.798	457.38
461.018	459.38
461.238	449.38
461.458	458.38
461.678	437.38
461.898	440.38
462.118	471.38
462.338	454.38
462.558	474.38
462.777	453.38
462.997	472.38
463.217	491.38
463.437	488.38
463.657	467.38
463.876	439.38
464.096	485.38
464.316	486.38
464.536	496.38
464.755	486.38
464.975	480.38
465.195	535.38
465.414	619.38
465.634	516.38
465.854	489.38
466.073	491.38
466.293	453.38
466.512	435.38
466.732	443.38
466.951	439.38
467.171	414.38
467.391	447.38
467.61	483.38
467.829	466.38
468.049	471.38
468.268	470.38
468.488	457.38
468.707	433.38
468.927	441.38
469.146	431.38
469.365	440.38
469.585	413.38
469.804	442.38
470.023	461.38
470.243	456.38
470.462	479.38
470.681	483.38
470.901	488.38
471.12	474.38
471.339	438.38
471.558	461.38
471.777	458.38
471.997	464.38
472.216	459.38
472.435	548.38
472.654	520.38
472.873	456.38
473.092	468.38
473.311	442.38
473.53	454.38
473.749	464.38
473.968	516.38
474.187	623.38
474.406	646.38
474.625	529.38
474.844	477.38
475.063	466.38
475.282	435.38
475.501	449.38
475.72	495.38
475.939	468.38
476.158	469.38
476.377	453.38
476.596	457.38
476.814	469.38
477.033	471.38
477.252	476.38
477.471	477.38
477.69	465.38
477.908	478.38
478.127	504.38
478.346	467.38
478.564	505.38
478.783	498.38
479.002	512.38
479.22	512.38
479.439	519.38
479.658	529.38
479.876	527.38
480.095	544.38
480.313	577.38
480.532	586.38
480.751	553.38
480.969	581.38
481.188	707.38
481.406	794.38
481.624	641.38
481.843	584.38
482.061	564.38
482.28	555.38
482.498	552.38
482.717	541.38
482.935	542.38
483.153	541.38
483.372	533.38
483.59	517.38
483.808	549.38
484.027	527.38
484.245	544.38
484.463	543.38
484.681	513.38
484.9	539.38
485.118	538.38
485.336	549.38
485.554	554.38
485.772	566.38
485.99	568.38
486.209	571.38
486.427	569.38
486.645	584.38
486.863	617.38
487.081	598.38
487.299	585.38
487.517	574.38
487.735	553.38
487.953	589.38
488.171	579.38
488.389	596.38
488.607	593.38
488.825	580.38
489.043	580.38
489.261	586.38
489.479	587.38
489.696	589.38
489.914	597.38
490.132	582.38
490.35	596.38
490.568	610.38
490.786	633.38
491.003	637.38
491.221	658.38
491.439	675.38
491.657	651.38
491.874	657.38
492.092	690.38
492.31	687.38
492.527	712.38
492.745	698.38
492.963	704.38
493.18	697.38
493.398	672.38
493.615	685.38
493.833	697.38
494.05	692.38
494.268	706.38
494.485	678.38
494.703	677.38
494.92	673.38
495.138	701.38
495.355	697.38
495.573	697.38
495.79	723.38
496.008	689.38
496.225	693.38
496.442	669.38
496.66	683.38
496.877	692.38
497.094	710.38
497.312	677.38
497.529	677.38
497.746	696.38
497.963	689.38
498.181	715.38
498.398	745.38
498.615	740.38
498.832	718.38
499.049	774.38
499.267	766.38
499.484	753.38
499.701	802.38
499.918	819.38
500.135	852.38
500.352	845.38
500.569	876.38
500.786	907.38
501.003	884.38
501.22	863.38
501.437	817.38
501.654	815.38
501.871	853.38
