Data from 1989.PennyLincolnUp.Lamp.En5.5.200Scan.071819.P2_HRD10591_17-25-14-973.txt Node
Date: Thu Jul 18 17:25:14 EDT 2019
User: cochatt
Spectrometer: HR+D1059
Trigger mode: 1
Integration Time (sec): 1.000000E-1
Scans to average: 1
Electric dark correction enabled: true
Nonlinearity correction enabled: false
Boxcar width: 0
XAxis mode: Wavelengths
Number of Pixels in Spectrum: 2048
>>>>>Begin Spectral Data<<<<<
223.165	-17.06
223.4	-17.06
223.635	-17.06
223.869	-8.06
224.104	-22.06
224.338	-19.06
224.573	-27.06
224.808	-12.06
225.042	-15.06
225.277	1.94
225.511	-18.06
225.746	1.94
225.98	9.94
226.215	19.94
226.449	29.94
226.683	20.94
226.918	24.94
227.152	28.94
227.387	30.94
227.621	26.94
227.856	46.94
228.09	51.94
228.324	48.94
228.559	65.94
228.793	71.94
229.027	103.94
229.262	124.94
229.496	125.94
229.73	156.94
229.964	154.94
230.199	148.94
230.433	118.94
230.667	128.94
230.901	112.94
231.136	103.94
231.37	116.94
231.604	108.94
231.838	120.94
232.072	121.94
232.306	107.94
232.541	122.94
232.775	125.94
233.009	127.94
233.243	117.94
233.477	118.94
233.711	109.94
233.945	125.94
234.179	123.94
234.413	126.94
234.647	121.94
234.881	120.94
235.115	130.94
235.349	122.94
235.583	117.94
235.817	122.94
236.051	127.94
236.285	111.94
236.519	131.94
236.753	142.94
236.987	158.94
237.221	191.94
237.455	257.94
237.689	196.94
237.922	155.94
238.156	141.94
238.39	129.94
238.624	124.94
238.858	122.94
239.091	127.94
239.325	131.94
239.559	141.94
239.793	134.94
240.027	146.94
240.26	148.94
240.494	173.94
240.728	164.94
240.961	150.94
241.195	156.94
241.429	145.94
241.662	134.94
241.896	131.94
242.13	134.94
242.363	147.94
242.597	151.94
242.83	147.94
243.064	150.94
243.298	143.94
243.531	145.94
243.765	161.94
243.998	157.94
244.232	156.94
244.465	150.94
244.699	148.94
244.932	155.94
245.166	152.94
245.399	163.94
245.633	157.94
245.866	144.94
246.099	157.94
246.333	156.94
246.566	172.94
246.8	167.94
247.033	171.94
247.266	149.94
247.5	188.94
247.733	187.94
247.966	202.94
248.2	182.94
248.433	195.94
248.666	195.94
248.899	198.94
249.133	211.94
249.366	234.94
249.599	227.94
249.832	185.94
250.066	186.94
250.299	196.94
250.532	213.94
250.765	226.94
250.998	264.94
251.231	259.94
251.465	245.94
251.698	245.94
251.931	220.94
252.164	222.94
252.397	224.94
252.63	226.94
252.863	231.94
253.096	247.94
253.329	247.94
253.562	268.94
253.795	230.94
254.028	244.94
254.261	247.94
254.494	251.94
254.727	297.94
254.96	319.94
255.193	312.94
255.426	286.94
255.659	254.94
255.892	260.94
256.124	267.94
256.357	250.94
256.59	252.94
256.823	239.94
257.056	243.94
257.289	248.94
257.521	232.94
257.754	236.94
257.987	217.94
258.22	229.94
258.452	237.94
258.685	224.94
258.918	242.94
259.151	241.94
259.383	232.94
259.616	253.94
259.849	246.94
260.081	263.94
260.314	274.94
260.547	294.94
260.779	264.94
261.012	260.94
261.244	247.94
261.477	251.94
261.71	265.94
261.942	271.94
262.175	245.94
262.407	261.94
262.64	245.94
262.872	260.94
263.105	223.94
263.337	247.94
263.57	224.94
263.802	241.94
264.035	236.94
264.267	225.94
264.499	220.94
264.732	235.94
264.964	228.94
265.197	236.94
265.429	232.94
265.661	252.94
265.894	229.94
266.126	228.94
266.358	234.94
266.591	233.94
266.823	250.94
267.055	265.94
267.287	235.94
267.52	249.94
267.752	249.94
267.984	242.94
268.216	251.94
268.448	260.94
268.681	265.94
268.913	279.94
269.145	277.94
269.377	314.94
269.609	303.94
269.841	300.94
270.073	302.94
270.306	338.94
270.538	354.94
270.77	360.94
271.002	353.94
271.234	341.94
271.466	326.94
271.698	354.94
271.93	360.94
272.162	382.94
272.394	371.94
272.626	336.94
272.858	330.94
273.09	318.94
273.322	299.94
273.553	307.94
273.785	301.94
274.017	309.94
274.249	287.94
274.481	296.94
274.713	282.94
274.945	301.94
275.176	275.94
275.408	278.94
275.64	291.94
275.872	294.94
276.104	309.94
276.335	286.94
276.567	305.94
276.799	326.94
277.031	327.94
277.262	359.94
277.494	352.94
277.726	356.94
277.957	324.94
278.189	309.94
278.421	298.94
278.652	308.94
278.884	299.94
279.115	273.94
279.347	297.94
279.579	308.94
279.81	289.94
280.042	296.94
280.273	292.94
280.505	290.94
280.736	281.94
280.968	284.94
281.199	301.94
281.431	301.94
281.662	303.94
281.894	277.94
282.125	285.94
282.356	312.94
282.588	336.94
282.819	343.94
283.051	302.94
283.282	284.94
283.513	297.94
283.745	305.94
283.976	282.94
284.207	303.94
284.439	307.94
284.67	313.94
284.901	302.94
285.132	298.94
285.364	294.94
285.595	313.94
285.826	315.94
286.057	305.94
286.288	310.94
286.52	301.94
286.751	300.94
286.982	299.94
287.213	314.94
287.444	334.94
287.675	326.94
287.906	335.94
288.138	335.94
288.369	325.94
288.6	333.94
288.831	341.94
289.062	339.94
289.293	321.94
289.524	299.94
289.755	310.94
289.986	307.94
290.217	317.94
290.448	300.94
290.679	313.94
290.91	311.94
291.141	322.94
291.371	330.94
291.602	326.94
291.833	313.94
292.064	309.94
292.295	314.94
292.526	333.94
292.757	326.94
292.987	311.94
293.218	309.94
293.449	316.94
293.68	309.94
293.91	312.94
294.141	304.94
294.372	318.94
294.603	319.94
294.833	313.94
295.064	306.94
295.295	335.94
295.525	309.94
295.756	339.94
295.987	331.94
296.217	347.94
296.448	378.94
296.679	317.94
296.909	311.94
297.14	312.94
297.37	325.94
297.601	332.94
297.831	331.94
298.062	340.94
298.292	316.94
298.523	325.94
298.753	322.94
298.984	326.94
299.214	326.94
299.445	346.94
299.675	334.94
299.905	334.94
300.136	336.94
300.366	330.94
300.597	358.94
300.827	340.94
301.057	353.94
301.288	353.94
301.518	350.94
301.748	371.94
301.979	343.94
302.209	353.94
302.439	354.94
302.669	355.94
302.9	361.94
303.13	341.94
303.36	356.94
303.59	377.94
303.82	369.94
304.051	381.94
304.281	363.94
304.511	342.94
304.741	360.94
304.971	360.94
305.201	362.94
305.431	339.94
305.661	332.94
305.891	377.94
306.121	335.94
306.352	346.94
306.582	357.94
306.812	353.94
307.042	350.94
307.272	349.94
307.502	376.94
307.731	363.94
307.961	356.94
308.191	373.94
308.421	359.94
308.651	356.94
308.881	354.94
309.111	381.94
309.341	372.94
309.571	375.94
309.8	394.94
310.03	401.94
310.26	401.94
310.49	409.94
310.72	430.94
310.949	429.94
311.179	455.94
311.409	424.94
311.639	397.94
311.868	434.94
312.098	403.94
312.328	427.94
312.557	433.94
312.787	459.94
313.017	456.94
313.246	445.94
313.476	407.94
313.706	421.94
313.935	408.94
314.165	421.94
314.394	439.94
314.624	431.94
314.853	411.94
315.083	407.94
315.312	414.94
315.542	391.94
315.771	417.94
316.001	406.94
316.23	396.94
316.46	422.94
316.689	414.94
316.919	423.94
317.148	435.94
317.377	429.94
317.607	435.94
317.836	444.94
318.065	417.94
318.295	414.94
318.524	408.94
318.753	406.94
318.983	432.94
319.212	413.94
319.441	419.94
319.67	439.94
319.9	438.94
320.129	413.94
320.358	426.94
320.587	414.94
320.816	429.94
321.046	441.94
321.275	462.94
321.504	424.94
321.733	445.94
321.962	462.94
322.191	481.94
322.42	484.94
322.649	496.94
322.878	517.94
323.108	503.94
323.337	531.94
323.566	561.94
323.795	614.94
324.024	650.94
324.253	821.94
324.482	1142.94
324.71	1803.94
324.939	2572.94
325.168	2241.94
325.397	1163.94
325.626	777.94
325.855	667.94
326.084	600.94
326.313	561.94
326.542	577.94
326.77	626.94
326.999	736.94
327.228	1009.94
327.457	1612.94
327.686	1934.94
327.914	1294.94
328.143	850.94
328.372	732.94
328.6	675.94
328.829	633.94
329.058	649.94
329.287	646.94
329.515	593.94
329.744	589.94
329.972	571.94
330.201	603.94
330.43	620.94
330.658	672.94
330.887	692.94
331.115	662.94
331.344	575.94
331.572	517.94
331.801	571.94
332.03	531.94
332.258	508.94
332.486	487.94
332.715	494.94
332.943	496.94
333.172	490.94
333.4	479.94
333.629	492.94
333.857	513.94
334.085	509.94
334.314	537.94
334.542	557.94
334.771	579.94
334.999	545.94
335.227	483.94
335.455	475.94
335.684	483.94
335.912	462.94
336.14	480.94
336.369	488.94
336.597	482.94
336.825	482.94
337.053	479.94
337.281	484.94
337.51	449.94
337.738	467.94
337.966	475.94
338.194	476.94
338.422	484.94
338.65	478.94
338.878	450.94
339.106	437.94
339.334	463.94
339.562	455.94
339.79	455.94
340.018	472.94
340.246	484.94
340.474	471.94
340.702	450.94
340.93	461.94
341.158	457.94
341.386	460.94
341.614	466.94
341.842	474.94
342.07	466.94
342.298	434.94
342.526	445.94
342.754	445.94
342.981	425.94
343.209	414.94
343.437	453.94
343.665	449.94
343.893	455.94
344.12	449.94
344.348	469.94
344.576	461.94
344.804	461.94
345.031	476.94
345.259	499.94
345.487	482.94
345.714	455.94
345.942	453.94
346.17	434.94
346.397	436.94
346.625	445.94
346.853	447.94
347.08	431.94
347.308	434.94
347.535	451.94
347.763	463.94
347.99	461.94
348.218	455.94
348.445	456.94
348.673	439.94
348.9	423.94
349.128	424.94
349.355	427.94
349.583	422.94
349.81	419.94
350.037	433.94
350.265	427.94
350.492	440.94
350.72	429.94
350.947	439.94
351.174	463.94
351.402	449.94
351.629	430.94
351.856	445.94
352.083	467.94
352.311	460.94
352.538	446.94
352.765	455.94
352.992	446.94
353.22	438.94
353.447	448.94
353.674	439.94
353.901	438.94
354.128	405.94
354.355	412.94
354.583	420.94
354.81	398.94
355.037	422.94
355.264	387.94
355.491	400.94
355.718	410.94
355.945	395.94
356.172	394.94
356.399	407.94
356.626	401.94
356.853	386.94
357.08	405.94
357.307	375.94
357.534	409.94
357.761	416.94
357.988	406.94
358.215	413.94
358.441	387.94
358.668	399.94
358.895	378.94
359.122	396.94
359.349	426.94
359.576	435.94
359.802	470.94
360.029	474.94
360.256	497.94
360.483	469.94
360.709	443.94
360.936	449.94
361.163	422.94
361.39	435.94
361.616	454.94
361.843	414.94
362.07	415.94
362.296	451.94
362.523	427.94
362.749	403.94
362.976	437.94
363.203	437.94
363.429	423.94
363.656	420.94
363.882	405.94
364.109	403.94
364.335	414.94
364.562	395.94
364.788	423.94
365.015	421.94
365.241	395.94
365.468	428.94
365.694	403.94
365.92	411.94
366.147	398.94
366.373	408.94
366.599	414.94
366.826	392.94
367.052	408.94
367.278	409.94
367.505	420.94
367.731	420.94
367.957	422.94
368.184	408.94
368.41	401.94
368.636	411.94
368.862	431.94
369.089	426.94
369.315	409.94
369.541	392.94
369.767	395.94
369.993	403.94
370.219	413.94
370.445	425.94
370.672	398.94
370.898	406.94
371.124	395.94
371.35	391.94
371.576	387.94
371.802	400.94
372.028	407.94
372.254	413.94
372.48	406.94
372.706	414.94
372.932	388.94
373.158	395.94
373.384	406.94
373.61	378.94
373.835	411.94
374.061	389.94
374.287	409.94
374.513	396.94
374.739	408.94
374.965	413.94
375.191	395.94
375.416	411.94
375.642	408.94
375.868	400.94
376.094	390.94
376.319	391.94
376.545	409.94
376.771	394.94
376.997	400.94
377.222	381.94
377.448	376.94
377.674	394.94
377.899	396.94
378.125	399.94
378.35	387.94
378.576	395.94
378.802	395.94
379.027	399.94
379.253	383.94
379.478	369.94
379.704	405.94
379.929	373.94
380.155	379.94
380.38	389.94
380.606	405.94
380.831	394.94
381.057	387.94
381.282	401.94
381.507	403.94
381.733	411.94
381.958	389.94
382.184	414.94
382.409	395.94
382.634	395.94
382.86	397.94
383.085	396.94
383.31	398.94
383.535	382.94
383.761	398.94
383.986	405.94
384.211	389.94
384.436	394.94
384.662	392.94
384.887	402.94
385.112	427.94
385.337	414.94
385.562	403.94
385.787	407.94
386.013	432.94
386.238	430.94
386.463	429.94
386.688	437.94
386.913	408.94
387.138	414.94
387.363	412.94
387.588	399.94
387.813	412.94
388.038	398.94
388.263	424.94
388.488	411.94
388.713	446.94
388.938	434.94
389.163	407.94
389.387	428.94
389.612	401.94
389.837	427.94
390.062	433.94
390.287	424.94
390.512	409.94
390.736	398.94
390.961	426.94
391.186	426.94
391.411	422.94
391.636	422.94
391.86	419.94
392.085	431.94
392.31	409.94
392.534	447.94
392.759	419.94
392.984	409.94
393.208	408.94
393.433	411.94
393.658	417.94
393.882	418.94
394.107	410.94
394.331	409.94
394.556	432.94
394.78	417.94
395.005	417.94
395.229	398.94
395.454	415.94
395.678	416.94
395.903	429.94
396.127	467.94
396.352	463.94
396.576	424.94
396.801	437.94
397.025	421.94
397.249	407.94
397.474	443.94
397.698	442.94
397.922	459.94
398.147	492.94
398.371	484.94
398.595	442.94
398.82	453.94
399.044	481.94
399.268	487.94
399.492	521.94
399.717	517.94
399.941	551.94
400.165	563.94
400.389	588.94
400.613	563.94
400.837	498.94
401.062	500.94
401.286	484.94
401.51	467.94
401.734	475.94
401.958	479.94
402.182	474.94
402.406	505.94
402.63	483.94
402.854	489.94
403.078	475.94
403.302	466.94
403.526	465.94
403.75	497.94
403.974	477.94
404.198	463.94
404.422	504.94
404.645	505.94
404.869	491.94
405.093	525.94
405.317	564.94
405.541	583.94
405.765	551.94
405.988	514.94
406.212	504.94
406.436	542.94
406.66	549.94
406.883	525.94
407.107	550.94
407.331	596.94
407.555	665.94
407.778	652.94
408.002	614.94
408.226	554.94
408.449	544.94
408.673	526.94
408.896	561.94
409.12	613.94
409.344	588.94
409.567	522.94
409.791	491.94
410.014	497.94
410.238	491.94
410.461	486.94
410.685	508.94
410.908	503.94
411.132	555.94
411.355	556.94
411.578	559.94
411.802	501.94
412.025	503.94
412.249	491.94
412.472	504.94
412.695	543.94
412.919	510.94
413.142	501.94
413.365	483.94
413.589	473.94
413.812	459.94
414.035	464.94
414.258	456.94
414.482	466.94
414.705	461.94
414.928	428.94
415.151	460.94
415.374	463.94
415.597	456.94
415.821	454.94
416.044	444.94
416.267	451.94
416.49	464.94
416.713	449.94
416.936	428.94
417.159	446.94
417.382	464.94
417.605	470.94
417.828	473.94
418.051	466.94
418.274	474.94
418.497	451.94
418.72	473.94
418.943	458.94
419.166	469.94
419.389	481.94
419.611	488.94
419.834	469.94
420.057	493.94
420.28	463.94
420.503	481.94
420.726	492.94
420.948	497.94
421.171	568.94
421.394	563.94
421.617	502.94
421.839	484.94
422.062	487.94
422.285	504.94
422.507	570.94
422.73	628.94
422.953	592.94
423.175	526.94
423.398	505.94
423.621	519.94
423.843	534.94
424.066	531.94
424.288	523.94
424.511	539.94
424.733	612.94
424.956	691.94
425.178	657.94
425.401	664.94
425.623	671.94
425.846	600.94
426.068	544.94
426.291	527.94
426.513	504.94
426.735	537.94
426.958	581.94
427.18	645.94
427.402	801.94
427.625	889.94
427.847	768.94
428.069	682.94
428.292	576.94
428.514	519.94
428.736	514.94
428.958	514.94
429.181	504.94
429.403	484.94
429.625	497.94
429.847	538.94
430.069	599.94
430.292	570.94
430.514	521.94
430.736	518.94
430.958	488.94
431.18	473.94
431.402	455.94
431.624	451.94
431.846	450.94
432.068	435.94
432.29	450.94
432.512	465.94
432.734	496.94
432.956	481.94
433.178	461.94
433.4	487.94
433.622	455.94
433.844	459.94
434.066	439.94
434.287	435.94
434.509	442.94
434.731	443.94
434.953	482.94
435.175	492.94
435.397	513.94
435.618	513.94
435.84	572.94
436.062	674.94
436.284	745.94
436.505	637.94
436.727	547.94
436.949	519.94
437.17	523.94
437.392	494.94
437.614	523.94
437.835	566.94
438.057	646.94
438.278	734.94
438.5	747.94
438.721	789.94
438.943	783.94
439.165	643.94
439.386	545.94
439.608	552.94
439.829	545.94
440.05	588.94
440.272	609.94
440.493	569.94
440.715	525.94
440.936	518.94
441.158	494.94
441.379	483.94
441.6	495.94
441.822	520.94
442.043	549.94
442.264	653.94
442.486	675.94
442.707	581.94
442.928	565.94
443.149	552.94
443.371	584.94
443.592	658.94
443.813	712.94
444.034	746.94
444.255	620.94
444.476	571.94
444.698	553.94
444.919	531.94
445.14	631.94
445.361	590.94
445.582	574.94
445.803	636.94
446.024	773.94
446.245	760.94
446.466	699.94
446.687	591.94
446.908	548.94
447.129	510.94
447.35	467.94
447.571	481.94
447.792	499.94
448.013	522.94
448.234	490.94
448.455	581.94
448.675	691.94
448.896	815.94
449.117	689.94
449.338	639.94
449.559	749.94
449.779	855.94
450	684.94
450.221	562.94
450.442	506.94
450.662	482.94
450.883	510.94
451.104	521.94
451.324	502.94
451.545	475.94
451.766	459.94
451.986	444.94
452.207	426.94
452.428	437.94
452.648	472.94
452.869	435.94
453.089	455.94
453.31	454.94
453.53	443.94
453.751	434.94
453.971	435.94
454.192	462.94
454.412	443.94
454.633	422.94
454.853	426.94
455.073	417.94
455.294	466.94
455.514	543.94
455.734	538.94
455.955	458.94
456.175	429.94
456.395	418.94
456.616	412.94
456.836	407.94
457.056	405.94
457.276	383.94
457.497	393.94
457.717	418.94
457.937	424.94
458.157	417.94
458.377	423.94
458.598	457.94
458.818	515.94
459.038	595.94
459.258	605.94
459.478	519.94
459.698	451.94
459.918	453.94
460.138	436.94
460.358	464.94
460.578	445.94
460.798	459.94
461.018	465.94
461.238	443.94
461.458	471.94
461.678	443.94
461.898	456.94
462.118	439.94
462.338	438.94
462.558	465.94
462.777	447.94
462.997	499.94
463.217	478.94
463.437	499.94
463.657	477.94
463.876	465.94
464.096	476.94
464.316	489.94
464.536	476.94
464.755	473.94
464.975	492.94
465.195	545.94
465.414	646.94
465.634	543.94
465.854	479.94
466.073	444.94
466.293	439.94
466.512	429.94
466.732	435.94
466.951	435.94
467.171	428.94
467.391	428.94
467.61	441.94
467.829	485.94
468.049	461.94
468.268	451.94
468.488	430.94
468.707	422.94
468.927	405.94
469.146	420.94
469.365	426.94
469.585	407.94
469.804	448.94
470.023	461.94
470.243	453.94
470.462	465.94
470.681	478.94
470.901	471.94
471.12	471.94
471.339	445.94
471.558	465.94
471.777	466.94
471.997	443.94
472.216	462.94
472.435	482.94
472.654	467.94
472.873	430.94
473.092	459.94
473.311	419.94
473.53	458.94
473.749	455.94
473.968	506.94
474.187	619.94
474.406	638.94
474.625	531.94
474.844	491.94
475.063	470.94
475.282	451.94
475.501	446.94
475.72	457.94
475.939	448.94
476.158	445.94
476.377	477.94
476.596	459.94
476.814	460.94
477.033	453.94
477.252	476.94
477.471	479.94
477.69	488.94
477.908	468.94
478.127	478.94
478.346	473.94
478.564	483.94
478.783	493.94
479.002	505.94
479.22	505.94
479.439	514.94
479.658	520.94
479.876	545.94
480.095	540.94
480.313	568.94
480.532	585.94
480.751	554.94
480.969	566.94
481.188	609.94
481.406	627.94
481.624	588.94
481.843	539.94
482.061	526.94
482.28	527.94
482.498	521.94
482.717	537.94
482.935	539.94
483.153	507.94
483.372	535.94
483.59	535.94
483.808	540.94
484.027	501.94
484.245	532.94
484.463	531.94
484.681	552.94
484.9	513.94
485.118	533.94
485.336	533.94
485.554	550.94
485.772	531.94
485.99	533.94
486.209	547.94
486.427	551.94
486.645	553.94
486.863	588.94
487.081	567.94
487.299	570.94
487.517	547.94
487.735	569.94
487.953	549.94
488.171	555.94
488.389	579.94
488.607	586.94
488.825	571.94
489.043	561.94
489.261	574.94
489.479	581.94
489.696	561.94
489.914	588.94
490.132	601.94
490.35	587.94
490.568	599.94
490.786	590.94
491.003	587.94
491.221	617.94
491.439	630.94
491.657	653.94
491.874	637.94
492.092	634.94
492.31	647.94
492.527	653.94
492.745	660.94
492.963	663.94
493.18	657.94
493.398	667.94
493.615	695.94
493.833	666.94
494.05	653.94
494.268	656.94
494.485	666.94
494.703	678.94
494.92	671.94
495.138	657.94
495.355	661.94
495.573	678.94
495.79	681.94
496.008	681.94
496.225	677.94
496.442	679.94
496.66	670.94
496.877	666.94
497.094	678.94
497.312	681.94
497.529	669.94
497.746	678.94
497.963	714.94
498.181	723.94
498.398	742.94
498.615	731.94
498.832	731.94
499.049	772.94
499.267	753.94
499.484	798.94
499.701	791.94
499.918	803.94
500.135	826.94
500.352	858.94
500.569	881.94
500.786	887.94
501.003	856.94
501.22	861.94
501.437	822.94
501.654	846.94
501.871	829.94
