Data from 1989.PennyLincolnUp.Lamp.En5.5.200Scan.071819.P2_HRD10591_17-25-13-973.txt Node
Date: Thu Jul 18 17:25:13 EDT 2019
User: cochatt
Spectrometer: HR+D1059
Trigger mode: 1
Integration Time (sec): 1.000000E-1
Scans to average: 1
Electric dark correction enabled: true
Nonlinearity correction enabled: false
Boxcar width: 0
XAxis mode: Wavelengths
Number of Pixels in Spectrum: 2048
>>>>>Begin Spectral Data<<<<<
223.165	-5.38
223.4	-5.38
223.635	-5.38
223.869	-22.38
224.104	-27.38
224.338	-8.38
224.573	-8.38
224.808	-10.38
225.042	-13.38
225.277	-7.38
225.511	-13.38
225.746	4.62
225.98	-0.38
226.215	16.62
226.449	18.62
226.683	12.62
226.918	21.62
227.152	42.62
227.387	22.62
227.621	37.62
227.856	44.62
228.09	55.62
228.324	58.62
228.559	58.62
228.793	67.62
229.027	90.62
229.262	104.62
229.496	120.62
229.73	139.62
229.964	164.62
230.199	135.62
230.433	122.62
230.667	118.62
230.901	125.62
231.136	105.62
231.37	96.62
231.604	118.62
231.838	121.62
232.072	113.62
232.306	129.62
232.541	115.62
232.775	128.62
233.009	104.62
233.243	99.62
233.477	103.62
233.711	108.62
233.945	128.62
234.179	120.62
234.413	116.62
234.647	126.62
234.881	107.62
235.115	119.62
235.349	112.62
235.583	122.62
235.817	124.62
236.051	126.62
236.285	119.62
236.519	117.62
236.753	144.62
236.987	163.62
237.221	204.62
237.455	245.62
237.689	198.62
237.922	173.62
238.156	140.62
238.39	140.62
238.624	135.62
238.858	116.62
239.091	127.62
239.325	133.62
239.559	134.62
239.793	130.62
240.027	151.62
240.26	142.62
240.494	161.62
240.728	181.62
240.961	152.62
241.195	147.62
241.429	147.62
241.662	144.62
241.896	146.62
242.13	139.62
242.363	143.62
242.597	124.62
242.83	118.62
243.064	145.62
243.298	137.62
243.531	140.62
243.765	146.62
243.998	148.62
244.232	158.62
244.465	137.62
244.699	152.62
244.932	142.62
245.166	142.62
245.399	149.62
245.633	150.62
245.866	165.62
246.099	169.62
246.333	166.62
246.566	153.62
246.8	160.62
247.033	174.62
247.266	167.62
247.5	168.62
247.733	179.62
247.966	185.62
248.2	177.62
248.433	171.62
248.666	174.62
248.899	219.62
249.133	221.62
249.366	241.62
249.599	223.62
249.832	197.62
250.066	203.62
250.299	185.62
250.532	203.62
250.765	234.62
250.998	243.62
251.231	260.62
251.465	235.62
251.698	238.62
251.931	220.62
252.164	217.62
252.397	217.62
252.63	216.62
252.863	241.62
253.096	247.62
253.329	241.62
253.562	243.62
253.795	238.62
254.028	234.62
254.261	229.62
254.494	227.62
254.727	288.62
254.96	311.62
255.193	306.62
255.426	262.62
255.659	260.62
255.892	259.62
256.124	256.62
256.357	270.62
256.59	247.62
256.823	254.62
257.056	227.62
257.289	227.62
257.521	232.62
257.754	232.62
257.987	249.62
258.22	240.62
258.452	222.62
258.685	211.62
258.918	226.62
259.151	230.62
259.383	223.62
259.616	239.62
259.849	266.62
260.081	253.62
260.314	270.62
260.547	287.62
260.779	276.62
261.012	260.62
261.244	256.62
261.477	275.62
261.71	236.62
261.942	254.62
262.175	271.62
262.407	262.62
262.64	227.62
262.872	226.62
263.105	234.62
263.337	226.62
263.57	232.62
263.802	227.62
264.035	219.62
264.267	226.62
264.499	243.62
264.732	230.62
264.964	230.62
265.197	241.62
265.429	240.62
265.661	255.62
265.894	219.62
266.126	240.62
266.358	224.62
266.591	235.62
266.823	259.62
267.055	248.62
267.287	263.62
267.52	243.62
267.752	248.62
267.984	257.62
268.216	243.62
268.448	246.62
268.681	248.62
268.913	281.62
269.145	282.62
269.377	297.62
269.609	312.62
269.841	297.62
270.073	299.62
270.306	315.62
270.538	339.62
270.77	372.62
271.002	332.62
271.234	326.62
271.466	330.62
271.698	328.62
271.93	363.62
272.162	365.62
272.394	371.62
272.626	353.62
272.858	314.62
273.09	302.62
273.322	302.62
273.553	283.62
273.785	302.62
274.017	296.62
274.249	296.62
274.481	295.62
274.713	297.62
274.945	294.62
275.176	316.62
275.408	312.62
275.64	302.62
275.872	285.62
276.104	302.62
276.335	272.62
276.567	288.62
276.799	309.62
277.031	334.62
277.262	356.62
277.494	362.62
277.726	330.62
277.957	297.62
278.189	315.62
278.421	331.62
278.652	300.62
278.884	290.62
279.115	311.62
279.347	296.62
279.579	296.62
279.81	294.62
280.042	293.62
280.273	295.62
280.505	308.62
280.736	299.62
280.968	302.62
281.199	289.62
281.431	290.62
281.662	302.62
281.894	283.62
282.125	295.62
282.356	315.62
282.588	339.62
282.819	338.62
283.051	296.62
283.282	287.62
283.513	314.62
283.745	303.62
283.976	298.62
284.207	294.62
284.439	283.62
284.67	281.62
284.901	305.62
285.132	295.62
285.364	287.62
285.595	302.62
285.826	295.62
286.057	294.62
286.288	305.62
286.52	285.62
286.751	303.62
286.982	298.62
287.213	323.62
287.444	319.62
287.675	303.62
287.906	303.62
288.138	308.62
288.369	330.62
288.6	344.62
288.831	318.62
289.062	315.62
289.293	314.62
289.524	307.62
289.755	313.62
289.986	307.62
290.217	324.62
290.448	319.62
290.679	297.62
290.91	312.62
291.141	302.62
291.371	292.62
291.602	310.62
291.833	291.62
292.064	297.62
292.295	307.62
292.526	295.62
292.757	299.62
292.987	312.62
293.218	311.62
293.449	322.62
293.68	307.62
293.91	316.62
294.141	311.62
294.372	307.62
294.603	292.62
294.833	294.62
295.064	310.62
295.295	328.62
295.525	320.62
295.756	299.62
295.987	314.62
296.217	322.62
296.448	362.62
296.679	335.62
296.909	314.62
297.14	313.62
297.37	332.62
297.601	316.62
297.831	312.62
298.062	324.62
298.292	332.62
298.523	320.62
298.753	309.62
298.984	335.62
299.214	336.62
299.445	335.62
299.675	327.62
299.905	326.62
300.136	323.62
300.366	327.62
300.597	349.62
300.827	325.62
301.057	350.62
301.288	354.62
301.518	347.62
301.748	346.62
301.979	349.62
302.209	346.62
302.439	354.62
302.669	346.62
302.9	329.62
303.13	340.62
303.36	359.62
303.59	369.62
303.82	351.62
304.051	370.62
304.281	353.62
304.511	348.62
304.741	342.62
304.971	338.62
305.201	350.62
305.431	338.62
305.661	351.62
305.891	363.62
306.121	357.62
306.352	355.62
306.582	353.62
306.812	356.62
307.042	354.62
307.272	348.62
307.502	362.62
307.731	386.62
307.961	363.62
308.191	358.62
308.421	345.62
308.651	353.62
308.881	356.62
309.111	380.62
309.341	379.62
309.571	375.62
309.8	405.62
310.03	395.62
310.26	405.62
310.49	394.62
310.72	420.62
310.949	415.62
311.179	454.62
311.409	425.62
311.639	437.62
311.868	426.62
312.098	416.62
312.328	437.62
312.557	448.62
312.787	437.62
313.017	448.62
313.246	449.62
313.476	413.62
313.706	422.62
313.935	420.62
314.165	426.62
314.394	445.62
314.624	443.62
314.853	394.62
315.083	421.62
315.312	414.62
315.542	409.62
315.771	398.62
316.001	404.62
316.23	396.62
316.46	406.62
316.689	409.62
316.919	408.62
317.148	412.62
317.377	403.62
317.607	420.62
317.836	435.62
318.065	424.62
318.295	415.62
318.524	412.62
318.753	393.62
318.983	392.62
319.212	399.62
319.441	432.62
319.67	424.62
319.9	421.62
320.129	385.62
320.358	426.62
320.587	434.62
320.816	435.62
321.046	418.62
321.275	442.62
321.504	455.62
321.733	457.62
321.962	424.62
322.191	421.62
322.42	478.62
322.649	497.62
322.878	487.62
323.108	530.62
323.337	547.62
323.566	571.62
323.795	598.62
324.024	681.62
324.253	843.62
324.482	1173.62
324.71	1835.62
324.939	2585.62
325.168	2269.62
325.397	1156.62
325.626	778.62
325.855	643.62
326.084	592.62
326.313	590.62
326.542	584.62
326.77	650.62
326.999	741.62
327.228	1031.62
327.457	1588.62
327.686	1948.62
327.914	1321.62
328.143	827.62
328.372	728.62
328.6	676.62
328.829	653.62
329.058	660.62
329.287	674.62
329.515	631.62
329.744	578.62
329.972	599.62
330.201	602.62
330.43	631.62
330.658	646.62
330.887	695.62
331.115	680.62
331.344	596.62
331.572	549.62
331.801	558.62
332.03	543.62
332.258	501.62
332.486	512.62
332.715	485.62
332.943	478.62
333.172	479.62
333.4	481.62
333.629	496.62
333.857	484.62
334.085	507.62
334.314	503.62
334.542	562.62
334.771	584.62
334.999	510.62
335.227	524.62
335.455	484.62
335.684	490.62
335.912	480.62
336.14	465.62
336.369	468.62
336.597	472.62
336.825	460.62
337.053	486.62
337.281	456.62
337.51	468.62
337.738	452.62
337.966	443.62
338.194	480.62
338.422	478.62
338.65	459.62
338.878	458.62
339.106	427.62
339.334	460.62
339.562	455.62
339.79	459.62
340.018	460.62
340.246	450.62
340.474	452.62
340.702	461.62
340.93	458.62
341.158	426.62
341.386	452.62
341.614	439.62
341.842	440.62
342.07	437.62
342.298	439.62
342.526	447.62
342.754	439.62
342.981	452.62
343.209	444.62
343.437	439.62
343.665	423.62
343.893	434.62
344.12	455.62
344.348	436.62
344.576	448.62
344.804	473.62
345.031	471.62
345.259	481.62
345.487	479.62
345.714	446.62
345.942	449.62
346.17	455.62
346.397	439.62
346.625	431.62
346.853	426.62
347.08	426.62
347.308	418.62
347.535	430.62
347.763	450.62
347.99	454.62
348.218	451.62
348.445	435.62
348.673	444.62
348.9	448.62
349.128	423.62
349.355	414.62
349.583	418.62
349.81	405.62
350.037	417.62
350.265	437.62
350.492	421.62
350.72	424.62
350.947	426.62
351.174	438.62
351.402	434.62
351.629	412.62
351.856	424.62
352.083	438.62
352.311	441.62
352.538	420.62
352.765	453.62
352.992	440.62
353.22	435.62
353.447	439.62
353.674	422.62
353.901	440.62
354.128	422.62
354.355	395.62
354.583	405.62
354.81	407.62
355.037	417.62
355.264	412.62
355.491	391.62
355.718	397.62
355.945	404.62
356.172	401.62
356.399	409.62
356.626	401.62
356.853	403.62
357.08	394.62
357.307	376.62
357.534	373.62
357.761	407.62
357.988	422.62
358.215	400.62
358.441	406.62
358.668	395.62
358.895	414.62
359.122	423.62
359.349	441.62
359.576	429.62
359.802	468.62
360.029	500.62
360.256	499.62
360.483	484.62
360.709	446.62
360.936	443.62
361.163	417.62
361.39	444.62
361.616	432.62
361.843	442.62
362.07	433.62
362.296	431.62
362.523	425.62
362.749	415.62
362.976	441.62
363.203	418.62
363.429	423.62
363.656	408.62
363.882	399.62
364.109	416.62
364.335	408.62
364.562	411.62
364.788	419.62
365.015	399.62
365.241	388.62
365.468	417.62
365.694	427.62
365.92	408.62
366.147	409.62
366.373	412.62
366.599	400.62
366.826	389.62
367.052	418.62
367.278	400.62
367.505	395.62
367.731	404.62
367.957	388.62
368.184	416.62
368.41	415.62
368.636	406.62
368.862	426.62
369.089	396.62
369.315	387.62
369.541	400.62
369.767	397.62
369.993	397.62
370.219	408.62
370.445	397.62
370.672	384.62
370.898	379.62
371.124	402.62
371.35	394.62
371.576	382.62
371.802	402.62
372.028	404.62
372.254	415.62
372.48	394.62
372.706	392.62
372.932	404.62
373.158	392.62
373.384	399.62
373.61	385.62
373.835	389.62
374.061	409.62
374.287	410.62
374.513	412.62
374.739	385.62
374.965	390.62
375.191	417.62
375.416	425.62
375.642	392.62
375.868	406.62
376.094	380.62
376.319	391.62
376.545	407.62
376.771	362.62
376.997	385.62
377.222	389.62
377.448	404.62
377.674	374.62
377.899	392.62
378.125	379.62
378.35	384.62
378.576	376.62
378.802	375.62
379.027	381.62
379.253	384.62
379.478	376.62
379.704	379.62
379.929	368.62
380.155	397.62
380.38	398.62
380.606	411.62
380.831	384.62
381.057	415.62
381.282	400.62
381.507	394.62
381.733	398.62
381.958	400.62
382.184	415.62
382.409	390.62
382.634	382.62
382.86	377.62
383.085	389.62
383.31	392.62
383.535	394.62
383.761	407.62
383.986	419.62
384.211	412.62
384.436	404.62
384.662	396.62
384.887	410.62
385.112	400.62
385.337	414.62
385.562	395.62
385.787	402.62
386.013	425.62
386.238	432.62
386.463	442.62
386.688	413.62
386.913	422.62
387.138	408.62
387.363	414.62
387.588	407.62
387.813	415.62
388.038	400.62
388.263	426.62
388.488	423.62
388.713	419.62
388.938	407.62
389.163	412.62
389.387	426.62
389.612	412.62
389.837	413.62
390.062	386.62
390.287	412.62
390.512	388.62
390.736	400.62
390.961	419.62
391.186	427.62
391.411	418.62
391.636	409.62
391.86	418.62
392.085	414.62
392.31	416.62
392.534	399.62
392.759	437.62
392.984	411.62
393.208	414.62
393.433	400.62
393.658	406.62
393.882	430.62
394.107	426.62
394.331	437.62
394.556	396.62
394.78	406.62
395.005	412.62
395.229	435.62
395.454	430.62
395.678	439.62
395.903	433.62
396.127	458.62
396.352	465.62
396.576	433.62
396.801	423.62
397.025	430.62
397.249	440.62
397.474	433.62
397.698	416.62
397.922	455.62
398.147	477.62
398.371	466.62
398.595	454.62
398.82	454.62
399.044	482.62
399.268	483.62
399.492	492.62
399.717	491.62
399.941	537.62
400.165	554.62
400.389	578.62
400.613	528.62
400.837	480.62
401.062	480.62
401.286	485.62
401.51	472.62
401.734	463.62
401.958	471.62
402.182	470.62
402.406	471.62
402.63	494.62
402.854	462.62
403.078	483.62
403.302	483.62
403.526	484.62
403.75	489.62
403.974	471.62
404.198	468.62
404.422	470.62
404.645	481.62
404.869	474.62
405.093	517.62
405.317	542.62
405.541	584.62
405.765	529.62
405.988	516.62
406.212	511.62
406.436	542.62
406.66	562.62
406.883	519.62
407.107	550.62
407.331	588.62
407.555	644.62
407.778	649.62
408.002	604.62
408.226	557.62
408.449	533.62
408.673	526.62
408.896	566.62
409.12	630.62
409.344	582.62
409.567	512.62
409.791	501.62
410.014	492.62
410.238	488.62
410.461	484.62
410.685	494.62
410.908	498.62
411.132	543.62
411.355	575.62
411.578	546.62
411.802	492.62
412.025	502.62
412.249	487.62
412.472	511.62
412.695	558.62
412.919	516.62
413.142	489.62
413.365	463.62
413.589	450.62
413.812	485.62
414.035	463.62
414.258	466.62
414.482	436.62
414.705	463.62
414.928	441.62
415.151	450.62
415.374	451.62
415.597	457.62
415.821	463.62
416.044	458.62
416.267	443.62
416.49	416.62
416.713	452.62
416.936	466.62
417.159	462.62
417.382	480.62
417.605	484.62
417.828	464.62
418.051	495.62
418.274	499.62
418.497	445.62
418.72	456.62
418.943	449.62
419.166	475.62
419.389	478.62
419.611	495.62
419.834	497.62
420.057	477.62
420.28	499.62
420.503	496.62
420.726	478.62
420.948	478.62
421.171	546.62
421.394	580.62
421.617	517.62
421.839	499.62
422.062	491.62
422.285	518.62
422.507	558.62
422.73	616.62
422.953	615.62
423.175	539.62
423.398	512.62
423.621	512.62
423.843	536.62
424.066	532.62
424.288	532.62
424.511	537.62
424.733	590.62
424.956	696.62
425.178	671.62
425.401	640.62
425.623	682.62
425.846	564.62
426.068	518.62
426.291	504.62
426.513	530.62
426.735	546.62
426.958	572.62
427.18	691.62
427.402	796.62
427.625	854.62
427.847	754.62
428.069	674.62
428.292	585.62
428.514	529.62
428.736	516.62
428.958	507.62
429.181	502.62
429.403	492.62
429.625	488.62
429.847	521.62
430.069	617.62
430.292	601.62
430.514	525.62
430.736	478.62
430.958	477.62
431.18	457.62
431.402	448.62
431.624	429.62
431.846	442.62
432.068	442.62
432.29	447.62
432.512	461.62
432.734	471.62
432.956	456.62
433.178	473.62
433.4	470.62
433.622	477.62
433.844	458.62
434.066	444.62
434.287	444.62
434.509	472.62
434.731	467.62
434.953	459.62
435.175	478.62
435.397	492.62
435.618	512.62
435.84	564.62
436.062	683.62
436.284	758.62
436.505	616.62
436.727	544.62
436.949	524.62
437.17	495.62
437.392	499.62
437.614	504.62
437.835	545.62
438.057	652.62
438.278	739.62
438.5	726.62
438.721	799.62
438.943	766.62
439.165	626.62
439.386	569.62
439.608	566.62
439.829	545.62
440.05	580.62
440.272	612.62
440.493	607.62
440.715	515.62
440.936	515.62
441.158	500.62
441.379	491.62
441.6	514.62
441.822	536.62
442.043	562.62
442.264	645.62
442.486	704.62
442.707	606.62
442.928	547.62
443.149	562.62
443.371	555.62
443.592	593.62
443.813	712.62
444.034	734.62
444.255	636.62
444.476	563.62
444.698	528.62
444.919	520.62
445.14	620.62
445.361	562.62
445.582	566.62
445.803	659.62
446.024	752.62
446.245	754.62
446.466	690.62
446.687	579.62
446.908	545.62
447.129	496.62
447.35	471.62
447.571	485.62
447.792	500.62
448.013	491.62
448.234	486.62
448.455	566.62
448.675	692.62
448.896	829.62
449.117	656.62
449.338	656.62
449.559	745.62
449.779	821.62
450	665.62
450.221	560.62
450.442	506.62
450.662	454.62
450.883	490.62
451.104	502.62
451.324	510.62
451.545	467.62
451.766	434.62
451.986	443.62
452.207	441.62
452.428	461.62
452.648	438.62
452.869	450.62
453.089	451.62
453.31	482.62
453.53	445.62
453.751	437.62
453.971	456.62
454.192	471.62
454.412	449.62
454.633	427.62
454.853	424.62
455.073	427.62
455.294	466.62
455.514	517.62
455.734	499.62
455.955	440.62
456.175	416.62
456.395	408.62
456.616	407.62
456.836	416.62
457.056	425.62
457.276	381.62
457.497	408.62
457.717	417.62
457.937	402.62
458.157	423.62
458.377	406.62
458.598	443.62
458.818	522.62
459.038	605.62
459.258	626.62
459.478	513.62
459.698	467.62
459.918	442.62
460.138	432.62
460.358	454.62
460.578	438.62
460.798	450.62
461.018	434.62
461.238	433.62
461.458	437.62
461.678	438.62
461.898	444.62
462.118	457.62
462.338	448.62
462.558	447.62
462.777	451.62
462.997	451.62
463.217	482.62
463.437	446.62
463.657	477.62
463.876	475.62
464.096	471.62
464.316	463.62
464.536	496.62
464.755	495.62
464.975	467.62
465.195	544.62
465.414	598.62
465.634	568.62
465.854	478.62
466.073	445.62
466.293	455.62
466.512	447.62
466.732	445.62
466.951	446.62
467.171	428.62
467.391	456.62
467.61	461.62
467.829	465.62
468.049	459.62
468.268	454.62
468.488	442.62
468.707	411.62
468.927	418.62
469.146	414.62
469.365	441.62
469.585	436.62
469.804	438.62
470.023	450.62
470.243	445.62
470.462	451.62
470.681	473.62
470.901	464.62
471.12	439.62
471.339	455.62
471.558	442.62
471.777	440.62
471.997	431.62
472.216	439.62
472.435	482.62
472.654	465.62
472.873	468.62
473.092	437.62
473.311	426.62
473.53	441.62
473.749	473.62
473.968	502.62
474.187	615.62
474.406	640.62
474.625	518.62
474.844	468.62
475.063	463.62
475.282	461.62
475.501	443.62
475.72	479.62
475.939	432.62
476.158	454.62
476.377	467.62
476.596	450.62
476.814	452.62
477.033	486.62
477.252	481.62
477.471	462.62
477.69	469.62
477.908	466.62
478.127	473.62
478.346	458.62
478.564	493.62
478.783	489.62
479.002	514.62
479.22	508.62
479.439	510.62
479.658	528.62
479.876	530.62
480.095	519.62
480.313	556.62
480.532	545.62
480.751	525.62
480.969	558.62
481.188	599.62
481.406	642.62
481.624	542.62
481.843	535.62
482.061	522.62
482.28	522.62
482.498	494.62
482.717	479.62
482.935	528.62
483.153	501.62
483.372	507.62
483.59	518.62
483.808	500.62
484.027	518.62
484.245	512.62
484.463	535.62
484.681	533.62
484.9	535.62
485.118	546.62
485.336	530.62
485.554	524.62
485.772	571.62
485.99	547.62
486.209	523.62
486.427	546.62
486.645	548.62
486.863	571.62
487.081	574.62
487.299	584.62
487.517	551.62
487.735	561.62
487.953	580.62
488.171	563.62
488.389	551.62
488.607	558.62
488.825	548.62
489.043	554.62
489.261	574.62
489.479	542.62
489.696	550.62
489.914	560.62
490.132	560.62
490.35	582.62
490.568	595.62
490.786	587.62
491.003	624.62
491.221	638.62
491.439	627.62
491.657	632.62
491.874	663.62
492.092	627.62
492.31	660.62
492.527	672.62
492.745	647.62
492.963	662.62
493.18	671.62
493.398	640.62
493.615	674.62
493.833	654.62
494.05	669.62
494.268	670.62
494.485	693.62
494.703	682.62
494.92	686.62
495.138	672.62
495.355	679.62
495.573	660.62
495.79	681.62
496.008	662.62
496.225	667.62
496.442	663.62
496.66	671.62
496.877	664.62
497.094	673.62
497.312	681.62
497.529	689.62
497.746	710.62
497.963	694.62
498.181	715.62
498.398	722.62
498.615	746.62
498.832	751.62
499.049	752.62
499.267	769.62
499.484	774.62
499.701	792.62
499.918	788.62
500.135	807.62
500.352	839.62
500.569	878.62
500.786	857.62
501.003	863.62
501.22	840.62
501.437	832.62
501.654	826.62
501.871	814.62
