Data from 1989.PennyLincolnUp.Lamp.En5.5.200Scan.071819.P2_HRD10591_17-25-32-973.txt Node
Date: Thu Jul 18 17:25:32 EDT 2019
User: cochatt
Spectrometer: HR+D1059
Trigger mode: 1
Integration Time (sec): 1.000000E-1
Scans to average: 1
Electric dark correction enabled: true
Nonlinearity correction enabled: false
Boxcar width: 0
XAxis mode: Wavelengths
Number of Pixels in Spectrum: 2048
>>>>>Begin Spectral Data<<<<<
223.165	-2.81
223.4	-2.81
223.635	-2.81
223.869	-23.81
224.104	-11.81
224.338	-12.81
224.573	-19.81
224.808	-15.81
225.042	-9.81
225.277	-17.81
225.511	4.19
225.746	1.19
225.98	10.19
226.215	19.19
226.449	7.19
226.683	13.19
226.918	31.19
227.152	28.19
227.387	41.19
227.621	44.19
227.856	53.19
228.09	36.19
228.324	43.19
228.559	49.19
228.793	68.19
229.027	101.19
229.262	124.19
229.496	117.19
229.73	132.19
229.964	172.19
230.199	140.19
230.433	125.19
230.667	91.19
230.901	123.19
231.136	118.19
231.37	119.19
231.604	123.19
231.838	121.19
232.072	128.19
232.306	112.19
232.541	125.19
232.775	112.19
233.009	107.19
233.243	121.19
233.477	113.19
233.711	119.19
233.945	121.19
234.179	113.19
234.413	125.19
234.647	115.19
234.881	118.19
235.115	122.19
235.349	122.19
235.583	129.19
235.817	118.19
236.051	128.19
236.285	125.19
236.519	118.19
236.753	131.19
236.987	178.19
237.221	198.19
237.455	236.19
237.689	198.19
237.922	154.19
238.156	157.19
238.39	137.19
238.624	137.19
238.858	132.19
239.091	116.19
239.325	122.19
239.559	130.19
239.793	133.19
240.027	133.19
240.26	141.19
240.494	172.19
240.728	153.19
240.961	164.19
241.195	157.19
241.429	161.19
241.662	136.19
241.896	148.19
242.13	141.19
242.363	148.19
242.597	157.19
242.83	141.19
243.064	141.19
243.298	138.19
243.531	149.19
243.765	138.19
243.998	154.19
244.232	154.19
244.465	152.19
244.699	154.19
244.932	149.19
245.166	149.19
245.399	151.19
245.633	137.19
245.866	161.19
246.099	165.19
246.333	151.19
246.566	157.19
246.8	161.19
247.033	168.19
247.266	185.19
247.5	178.19
247.733	186.19
247.966	191.19
248.2	198.19
248.433	193.19
248.666	198.19
248.899	195.19
249.133	227.19
249.366	234.19
249.599	233.19
249.832	207.19
250.066	198.19
250.299	206.19
250.532	210.19
250.765	227.19
250.998	248.19
251.231	243.19
251.465	246.19
251.698	224.19
251.931	246.19
252.164	220.19
252.397	209.19
252.63	215.19
252.863	233.19
253.096	235.19
253.329	246.19
253.562	245.19
253.795	247.19
254.028	243.19
254.261	226.19
254.494	258.19
254.727	275.19
254.96	317.19
255.193	324.19
255.426	289.19
255.659	264.19
255.892	284.19
256.124	270.19
256.357	279.19
256.59	264.19
256.823	245.19
257.056	244.19
257.289	228.19
257.521	232.19
257.754	248.19
257.987	226.19
258.22	248.19
258.452	215.19
258.685	233.19
258.918	233.19
259.151	240.19
259.383	238.19
259.616	254.19
259.849	253.19
260.081	257.19
260.314	278.19
260.547	284.19
260.779	275.19
261.012	280.19
261.244	269.19
261.477	270.19
261.71	251.19
261.942	281.19
262.175	261.19
262.407	244.19
262.64	252.19
262.872	241.19
263.105	243.19
263.337	229.19
263.57	238.19
263.802	235.19
264.035	237.19
264.267	230.19
264.499	248.19
264.732	254.19
264.964	236.19
265.197	257.19
265.429	224.19
265.661	241.19
265.894	232.19
266.126	235.19
266.358	222.19
266.591	250.19
266.823	238.19
267.055	240.19
267.287	242.19
267.52	253.19
267.752	250.19
267.984	267.19
268.216	256.19
268.448	242.19
268.681	263.19
268.913	281.19
269.145	301.19
269.377	326.19
269.609	308.19
269.841	308.19
270.073	293.19
270.306	328.19
270.538	347.19
270.77	344.19
271.002	369.19
271.234	321.19
271.466	344.19
271.698	362.19
271.93	360.19
272.162	353.19
272.394	369.19
272.626	348.19
272.858	338.19
273.09	312.19
273.322	320.19
273.553	297.19
273.785	296.19
274.017	312.19
274.249	316.19
274.481	288.19
274.713	287.19
274.945	308.19
275.176	310.19
275.408	315.19
275.64	304.19
275.872	322.19
276.104	307.19
276.335	294.19
276.567	333.19
276.799	314.19
277.031	352.19
277.262	360.19
277.494	347.19
277.726	348.19
277.957	324.19
278.189	328.19
278.421	304.19
278.652	310.19
278.884	289.19
279.115	308.19
279.347	308.19
279.579	293.19
279.81	309.19
280.042	302.19
280.273	299.19
280.505	304.19
280.736	308.19
280.968	300.19
281.199	302.19
281.431	304.19
281.662	301.19
281.894	272.19
282.125	288.19
282.356	312.19
282.588	331.19
282.819	347.19
283.051	315.19
283.282	300.19
283.513	302.19
283.745	324.19
283.976	319.19
284.207	297.19
284.439	306.19
284.67	325.19
284.901	302.19
285.132	307.19
285.364	298.19
285.595	304.19
285.826	320.19
286.057	323.19
286.288	318.19
286.52	322.19
286.751	309.19
286.982	309.19
287.213	309.19
287.444	320.19
287.675	311.19
287.906	309.19
288.138	329.19
288.369	336.19
288.6	347.19
288.831	334.19
289.062	321.19
289.293	322.19
289.524	306.19
289.755	314.19
289.986	312.19
290.217	324.19
290.448	318.19
290.679	312.19
290.91	313.19
291.141	311.19
291.371	316.19
291.602	308.19
291.833	311.19
292.064	321.19
292.295	320.19
292.526	319.19
292.757	340.19
292.987	329.19
293.218	326.19
293.449	302.19
293.68	313.19
293.91	322.19
294.141	295.19
294.372	334.19
294.603	308.19
294.833	290.19
295.064	320.19
295.295	317.19
295.525	325.19
295.756	327.19
295.987	348.19
296.217	348.19
296.448	357.19
296.679	338.19
296.909	328.19
297.14	334.19
297.37	316.19
297.601	316.19
297.831	327.19
298.062	336.19
298.292	333.19
298.523	333.19
298.753	342.19
298.984	320.19
299.214	314.19
299.445	341.19
299.675	338.19
299.905	342.19
300.136	342.19
300.366	322.19
300.597	343.19
300.827	356.19
301.057	355.19
301.288	366.19
301.518	368.19
301.748	356.19
301.979	365.19
302.209	357.19
302.439	357.19
302.669	352.19
302.9	355.19
303.13	353.19
303.36	354.19
303.59	342.19
303.82	366.19
304.051	360.19
304.281	368.19
304.511	365.19
304.741	348.19
304.971	347.19
305.201	346.19
305.431	344.19
305.661	370.19
305.891	357.19
306.121	359.19
306.352	355.19
306.582	360.19
306.812	373.19
307.042	384.19
307.272	374.19
307.502	354.19
307.731	360.19
307.961	344.19
308.191	332.19
308.421	362.19
308.651	375.19
308.881	378.19
309.111	379.19
309.341	378.19
309.571	398.19
309.8	397.19
310.03	425.19
310.26	435.19
310.49	420.19
310.72	409.19
310.949	432.19
311.179	448.19
311.409	431.19
311.639	418.19
311.868	427.19
312.098	440.19
312.328	441.19
312.557	436.19
312.787	450.19
313.017	427.19
313.246	427.19
313.476	411.19
313.706	422.19
313.935	420.19
314.165	444.19
314.394	467.19
314.624	438.19
314.853	414.19
315.083	408.19
315.312	424.19
315.542	410.19
315.771	408.19
316.001	410.19
316.23	411.19
316.46	402.19
316.689	408.19
316.919	425.19
317.148	433.19
317.377	427.19
317.607	419.19
317.836	413.19
318.065	416.19
318.295	425.19
318.524	397.19
318.753	393.19
318.983	405.19
319.212	409.19
319.441	438.19
319.67	439.19
319.9	421.19
320.129	427.19
320.358	430.19
320.587	406.19
320.816	421.19
321.046	456.19
321.275	456.19
321.504	434.19
321.733	439.19
321.962	456.19
322.191	476.19
322.42	478.19
322.649	493.19
322.878	492.19
323.108	515.19
323.337	556.19
323.566	601.19
323.795	654.19
324.024	664.19
324.253	817.19
324.482	1203.19
324.71	1852.19
324.939	2616.19
325.168	2295.19
325.397	1146.19
325.626	766.19
325.855	657.19
326.084	591.19
326.313	576.19
326.542	584.19
326.77	643.19
326.999	750.19
327.228	1073.19
327.457	1627.19
327.686	1956.19
327.914	1314.19
328.143	869.19
328.372	737.19
328.6	694.19
328.829	665.19
329.058	670.19
329.287	697.19
329.515	619.19
329.744	599.19
329.972	570.19
330.201	606.19
330.43	648.19
330.658	704.19
330.887	719.19
331.115	701.19
331.344	610.19
331.572	554.19
331.801	550.19
332.03	552.19
332.258	544.19
332.486	496.19
332.715	481.19
332.943	487.19
333.172	505.19
333.4	501.19
333.629	500.19
333.857	558.19
334.085	564.19
334.314	551.19
334.542	588.19
334.771	633.19
334.999	572.19
335.227	541.19
335.455	485.19
335.684	487.19
335.912	474.19
336.14	473.19
336.369	483.19
336.597	492.19
336.825	492.19
337.053	477.19
337.281	471.19
337.51	482.19
337.738	483.19
337.966	481.19
338.194	483.19
338.422	472.19
338.65	463.19
338.878	437.19
339.106	461.19
339.334	467.19
339.562	458.19
339.79	457.19
340.018	451.19
340.246	457.19
340.474	462.19
340.702	478.19
340.93	450.19
341.158	432.19
341.386	463.19
341.614	472.19
341.842	453.19
342.07	468.19
342.298	430.19
342.526	436.19
342.754	423.19
342.981	438.19
343.209	443.19
343.437	450.19
343.665	449.19
343.893	473.19
344.12	468.19
344.348	464.19
344.576	451.19
344.804	451.19
345.031	486.19
345.259	483.19
345.487	470.19
345.714	445.19
345.942	474.19
346.17	435.19
346.397	444.19
346.625	429.19
346.853	446.19
347.08	440.19
347.308	448.19
347.535	468.19
347.763	452.19
347.99	449.19
348.218	458.19
348.445	468.19
348.673	454.19
348.9	451.19
349.128	429.19
349.355	432.19
349.583	419.19
349.81	456.19
350.037	432.19
350.265	407.19
350.492	425.19
350.72	435.19
350.947	429.19
351.174	444.19
351.402	469.19
351.629	453.19
351.856	413.19
352.083	446.19
352.311	462.19
352.538	470.19
352.765	460.19
352.992	449.19
353.22	468.19
353.447	441.19
353.674	436.19
353.901	435.19
354.128	423.19
354.355	426.19
354.583	409.19
354.81	412.19
355.037	405.19
355.264	406.19
355.491	401.19
355.718	420.19
355.945	398.19
356.172	406.19
356.399	413.19
356.626	398.19
356.853	408.19
357.08	396.19
357.307	383.19
357.534	414.19
357.761	405.19
357.988	408.19
358.215	411.19
358.441	389.19
358.668	415.19
358.895	413.19
359.122	405.19
359.349	428.19
359.576	439.19
359.802	455.19
360.029	493.19
360.256	495.19
360.483	460.19
360.709	459.19
360.936	450.19
361.163	429.19
361.39	438.19
361.616	435.19
361.843	428.19
362.07	418.19
362.296	459.19
362.523	426.19
362.749	434.19
362.976	433.19
363.203	430.19
363.429	402.19
363.656	411.19
363.882	400.19
364.109	421.19
364.335	418.19
364.562	421.19
364.788	418.19
365.015	429.19
365.241	420.19
365.468	415.19
365.694	421.19
365.92	417.19
366.147	424.19
366.373	414.19
366.599	393.19
366.826	404.19
367.052	400.19
367.278	404.19
367.505	406.19
367.731	435.19
367.957	401.19
368.184	405.19
368.41	412.19
368.636	423.19
368.862	432.19
369.089	440.19
369.315	389.19
369.541	400.19
369.767	418.19
369.993	394.19
370.219	391.19
370.445	407.19
370.672	406.19
370.898	404.19
371.124	401.19
371.35	413.19
371.576	384.19
371.802	411.19
372.028	418.19
372.254	388.19
372.48	401.19
372.706	414.19
372.932	420.19
373.158	398.19
373.384	395.19
373.61	398.19
373.835	406.19
374.061	398.19
374.287	407.19
374.513	402.19
374.739	411.19
374.965	394.19
375.191	395.19
375.416	416.19
375.642	402.19
375.868	404.19
376.094	393.19
376.319	396.19
376.545	386.19
376.771	384.19
376.997	401.19
377.222	382.19
377.448	365.19
377.674	394.19
377.899	403.19
378.125	390.19
378.35	391.19
378.576	400.19
378.802	395.19
379.027	384.19
379.253	406.19
379.478	383.19
379.704	393.19
379.929	386.19
380.155	400.19
380.38	383.19
380.606	390.19
380.831	392.19
381.057	405.19
381.282	396.19
381.507	388.19
381.733	387.19
381.958	396.19
382.184	402.19
382.409	410.19
382.634	396.19
382.86	390.19
383.085	408.19
383.31	388.19
383.535	394.19
383.761	391.19
383.986	416.19
384.211	428.19
384.436	427.19
384.662	417.19
384.887	390.19
385.112	397.19
385.337	418.19
385.562	407.19
385.787	426.19
386.013	437.19
386.238	415.19
386.463	422.19
386.688	418.19
386.913	426.19
387.138	413.19
387.363	436.19
387.588	424.19
387.813	417.19
388.038	419.19
388.263	410.19
388.488	418.19
388.713	436.19
388.938	417.19
389.163	413.19
389.387	421.19
389.612	412.19
389.837	405.19
390.062	427.19
390.287	405.19
390.512	410.19
390.736	416.19
390.961	402.19
391.186	427.19
391.411	410.19
391.636	424.19
391.86	424.19
392.085	447.19
392.31	422.19
392.534	417.19
392.759	414.19
392.984	414.19
393.208	413.19
393.433	435.19
393.658	429.19
393.882	417.19
394.107	432.19
394.331	398.19
394.556	434.19
394.78	409.19
395.005	422.19
395.229	421.19
395.454	442.19
395.678	453.19
395.903	428.19
396.127	452.19
396.352	477.19
396.576	437.19
396.801	439.19
397.025	443.19
397.249	427.19
397.474	443.19
397.698	440.19
397.922	436.19
398.147	480.19
398.371	490.19
398.595	471.19
398.82	447.19
399.044	465.19
399.268	483.19
399.492	512.19
399.717	530.19
399.941	567.19
400.165	593.19
400.389	592.19
400.613	532.19
400.837	502.19
401.062	483.19
401.286	490.19
401.51	465.19
401.734	484.19
401.958	481.19
402.182	487.19
402.406	488.19
402.63	500.19
402.854	516.19
403.078	470.19
403.302	497.19
403.526	501.19
403.75	469.19
403.974	471.19
404.198	475.19
404.422	509.19
404.645	499.19
404.869	503.19
405.093	537.19
405.317	560.19
405.541	626.19
405.765	570.19
405.988	538.19
406.212	572.19
406.436	556.19
406.66	564.19
406.883	540.19
407.107	552.19
407.331	594.19
407.555	660.19
407.778	659.19
408.002	612.19
408.226	534.19
408.449	530.19
408.673	542.19
408.896	578.19
409.12	607.19
409.344	567.19
409.567	515.19
409.791	493.19
410.014	519.19
410.238	493.19
410.461	499.19
410.685	506.19
410.908	514.19
411.132	553.19
411.355	590.19
411.578	565.19
411.802	548.19
412.025	483.19
412.249	514.19
412.472	533.19
412.695	586.19
412.919	548.19
413.142	498.19
413.365	497.19
413.589	491.19
413.812	480.19
414.035	477.19
414.258	460.19
414.482	469.19
414.705	442.19
414.928	451.19
415.151	463.19
415.374	472.19
415.597	444.19
415.821	474.19
416.044	457.19
416.267	492.19
416.49	472.19
416.713	442.19
416.936	453.19
417.159	458.19
417.382	471.19
417.605	496.19
417.828	465.19
418.051	500.19
418.274	493.19
418.497	502.19
418.72	492.19
418.943	481.19
419.166	475.19
419.389	483.19
419.611	490.19
419.834	493.19
420.057	464.19
420.28	497.19
420.503	494.19
420.726	503.19
420.948	520.19
421.171	548.19
421.394	586.19
421.617	521.19
421.839	498.19
422.062	499.19
422.285	500.19
422.507	545.19
422.73	624.19
422.953	602.19
423.175	550.19
423.398	522.19
423.621	509.19
423.843	526.19
424.066	539.19
424.288	548.19
424.511	557.19
424.733	596.19
424.956	664.19
425.178	649.19
425.401	658.19
425.623	686.19
425.846	584.19
426.068	544.19
426.291	533.19
426.513	536.19
426.735	528.19
426.958	587.19
427.18	666.19
427.402	820.19
427.625	912.19
427.847	793.19
428.069	668.19
428.292	591.19
428.514	552.19
428.736	510.19
428.958	494.19
429.181	497.19
429.403	484.19
429.625	504.19
429.847	560.19
430.069	633.19
430.292	603.19
430.514	514.19
430.736	509.19
430.958	481.19
431.18	475.19
431.402	460.19
431.624	466.19
431.846	433.19
432.068	471.19
432.29	466.19
432.512	465.19
432.734	468.19
432.956	487.19
433.178	476.19
433.4	486.19
433.622	459.19
433.844	445.19
434.066	477.19
434.287	470.19
434.509	449.19
434.731	456.19
434.953	479.19
435.175	469.19
435.397	541.19
435.618	540.19
435.84	582.19
436.062	681.19
436.284	748.19
436.505	602.19
436.727	579.19
436.949	528.19
437.17	508.19
437.392	488.19
437.614	484.19
437.835	536.19
438.057	649.19
438.278	764.19
438.5	761.19
438.721	812.19
438.943	776.19
439.165	642.19
439.386	550.19
439.608	562.19
439.829	543.19
440.05	589.19
440.272	616.19
440.493	571.19
440.715	540.19
440.936	489.19
441.158	515.19
441.379	501.19
441.6	507.19
441.822	528.19
442.043	587.19
442.264	672.19
442.486	717.19
442.707	600.19
442.928	546.19
443.149	596.19
443.371	580.19
443.592	609.19
443.813	720.19
444.034	768.19
444.255	634.19
444.476	574.19
444.698	534.19
444.919	533.19
445.14	675.19
445.361	598.19
445.582	599.19
445.803	665.19
446.024	757.19
446.245	761.19
446.466	711.19
446.687	598.19
446.908	524.19
447.129	509.19
447.35	499.19
447.571	483.19
447.792	491.19
448.013	499.19
448.234	508.19
448.455	582.19
448.675	675.19
448.896	804.19
449.117	684.19
449.338	627.19
449.559	733.19
449.779	851.19
450	665.19
450.221	549.19
450.442	519.19
450.662	489.19
450.883	485.19
451.104	502.19
451.324	503.19
451.545	468.19
451.766	458.19
451.986	450.19
452.207	441.19
452.428	426.19
452.648	457.19
452.869	425.19
453.089	450.19
453.31	478.19
453.53	472.19
453.751	420.19
453.971	469.19
454.192	466.19
454.412	442.19
454.633	452.19
454.853	436.19
455.073	444.19
455.294	475.19
455.514	531.19
455.734	540.19
455.955	446.19
456.175	436.19
456.395	396.19
456.616	420.19
456.836	388.19
457.056	407.19
457.276	392.19
457.497	408.19
457.717	412.19
457.937	429.19
458.157	427.19
458.377	441.19
458.598	436.19
458.818	521.19
459.038	614.19
459.258	615.19
459.478	527.19
459.698	488.19
459.918	439.19
460.138	459.19
460.358	453.19
460.578	453.19
460.798	449.19
461.018	434.19
461.238	447.19
461.458	455.19
461.678	439.19
461.898	435.19
462.118	455.19
462.338	457.19
462.558	484.19
462.777	491.19
462.997	467.19
463.217	498.19
463.437	491.19
463.657	463.19
463.876	468.19
464.096	483.19
464.316	471.19
464.536	506.19
464.755	485.19
464.975	495.19
465.195	550.19
465.414	618.19
465.634	543.19
465.854	478.19
466.073	473.19
466.293	450.19
466.512	449.19
466.732	448.19
466.951	438.19
467.171	439.19
467.391	441.19
467.61	472.19
467.829	465.19
468.049	465.19
468.268	450.19
468.488	436.19
468.707	420.19
468.927	436.19
469.146	410.19
469.365	414.19
469.585	432.19
469.804	432.19
470.023	459.19
470.243	447.19
470.462	467.19
470.681	472.19
470.901	460.19
471.12	443.19
471.339	433.19
471.558	458.19
471.777	454.19
471.997	440.19
472.216	448.19
472.435	492.19
472.654	488.19
472.873	457.19
473.092	445.19
473.311	432.19
473.53	446.19
473.749	471.19
473.968	522.19
474.187	612.19
474.406	631.19
474.625	518.19
474.844	471.19
475.063	475.19
475.282	456.19
475.501	477.19
475.72	468.19
475.939	476.19
476.158	452.19
476.377	473.19
476.596	472.19
476.814	469.19
477.033	494.19
477.252	484.19
477.471	489.19
477.69	481.19
477.908	499.19
478.127	488.19
478.346	476.19
478.564	496.19
478.783	489.19
479.002	491.19
479.22	498.19
479.439	501.19
479.658	546.19
479.876	533.19
480.095	521.19
480.313	574.19
480.532	554.19
480.751	556.19
480.969	578.19
481.188	644.19
481.406	686.19
481.624	605.19
481.843	564.19
482.061	537.19
482.28	548.19
482.498	536.19
482.717	524.19
482.935	521.19
483.153	533.19
483.372	532.19
483.59	525.19
483.808	521.19
484.027	538.19
484.245	536.19
484.463	532.19
484.681	537.19
484.9	539.19
485.118	529.19
485.336	571.19
485.554	555.19
485.772	530.19
485.99	546.19
486.209	558.19
486.427	552.19
486.645	554.19
486.863	581.19
487.081	587.19
487.299	557.19
487.517	557.19
487.735	582.19
487.953	569.19
488.171	577.19
488.389	581.19
488.607	574.19
488.825	572.19
489.043	581.19
489.261	561.19
489.479	570.19
489.696	586.19
489.914	588.19
490.132	610.19
490.35	591.19
490.568	608.19
490.786	585.19
491.003	627.19
491.221	616.19
491.439	633.19
491.657	653.19
491.874	663.19
492.092	648.19
492.31	681.19
492.527	648.19
492.745	696.19
492.963	692.19
493.18	677.19
493.398	689.19
493.615	692.19
493.833	702.19
494.05	699.19
494.268	689.19
494.485	682.19
494.703	687.19
494.92	672.19
495.138	685.19
495.355	679.19
495.573	667.19
495.79	678.19
496.008	708.19
496.225	669.19
496.442	706.19
496.66	686.19
496.877	686.19
497.094	680.19
497.312	698.19
497.529	701.19
497.746	695.19
497.963	698.19
498.181	707.19
498.398	745.19
498.615	741.19
498.832	725.19
499.049	756.19
499.267	772.19
499.484	780.19
499.701	796.19
499.918	835.19
500.135	857.19
500.352	865.19
500.569	870.19
500.786	868.19
501.003	888.19
501.22	866.19
501.437	860.19
501.654	852.19
501.871	839.19
