Data from 1989.PennyLincolnUp.Lamp.En5.5.200Scan.071819.P2_HRD10591_17-23-22-973.txt Node
Date: Thu Jul 18 17:23:22 EDT 2019
User: cochatt
Spectrometer: HR+D1059
Trigger mode: 1
Integration Time (sec): 1.000000E-1
Scans to average: 1
Electric dark correction enabled: true
Nonlinearity correction enabled: false
Boxcar width: 0
XAxis mode: Wavelengths
Number of Pixels in Spectrum: 2048
>>>>>Begin Spectral Data<<<<<
223.165	-11.19
223.4	-11.19
223.635	-11.19
223.869	-25.19
224.104	-19.19
224.338	-15.19
224.573	-16.19
224.808	-8.19
225.042	-10.19
225.277	-10.19
225.511	-7.19
225.746	1.81
225.98	10.81
226.215	22.81
226.449	20.81
226.683	25.81
226.918	24.81
227.152	15.81
227.387	42.81
227.621	42.81
227.856	49.81
228.09	47.81
228.324	58.81
228.559	43.81
228.793	73.81
229.027	85.81
229.262	95.81
229.496	94.81
229.73	123.81
229.964	140.81
230.199	126.81
230.433	114.81
230.667	116.81
230.901	105.81
231.136	117.81
231.37	103.81
231.604	116.81
231.838	101.81
232.072	113.81
232.306	123.81
232.541	106.81
232.775	108.81
233.009	113.81
233.243	113.81
233.477	109.81
233.711	102.81
233.945	106.81
234.179	107.81
234.413	114.81
234.647	100.81
234.881	107.81
235.115	119.81
235.349	117.81
235.583	107.81
235.817	120.81
236.051	124.81
236.285	115.81
236.519	123.81
236.753	130.81
236.987	147.81
237.221	174.81
237.455	203.81
237.689	159.81
237.922	136.81
238.156	128.81
238.39	111.81
238.624	125.81
238.858	115.81
239.091	121.81
239.325	115.81
239.559	126.81
239.793	130.81
240.027	111.81
240.26	129.81
240.494	156.81
240.728	157.81
240.961	150.81
241.195	133.81
241.429	133.81
241.662	137.81
241.896	140.81
242.13	111.81
242.363	142.81
242.597	122.81
242.83	129.81
243.064	129.81
243.298	133.81
243.531	132.81
243.765	147.81
243.998	137.81
244.232	137.81
244.465	142.81
244.699	149.81
244.932	149.81
245.166	161.81
245.399	137.81
245.633	154.81
245.866	152.81
246.099	156.81
246.333	141.81
246.566	138.81
246.8	155.81
247.033	153.81
247.266	142.81
247.5	141.81
247.733	148.81
247.966	171.81
248.2	160.81
248.433	168.81
248.666	186.81
248.899	171.81
249.133	187.81
249.366	207.81
249.599	186.81
249.832	193.81
250.066	195.81
250.299	184.81
250.532	172.81
250.765	189.81
250.998	218.81
251.231	224.81
251.465	211.81
251.698	185.81
251.931	195.81
252.164	202.81
252.397	207.81
252.63	191.81
252.863	194.81
253.096	225.81
253.329	228.81
253.562	220.81
253.795	230.81
254.028	204.81
254.261	225.81
254.494	211.81
254.727	244.81
254.96	271.81
255.193	265.81
255.426	247.81
255.659	232.81
255.892	227.81
256.124	220.81
256.357	199.81
256.59	205.81
256.823	191.81
257.056	199.81
257.289	199.81
257.521	210.81
257.754	206.81
257.987	212.81
258.22	202.81
258.452	211.81
258.685	201.81
258.918	211.81
259.151	229.81
259.383	219.81
259.616	213.81
259.849	227.81
260.081	243.81
260.314	251.81
260.547	233.81
260.779	225.81
261.012	226.81
261.244	217.81
261.477	233.81
261.71	228.81
261.942	228.81
262.175	230.81
262.407	218.81
262.64	203.81
262.872	207.81
263.105	215.81
263.337	210.81
263.57	207.81
263.802	205.81
264.035	211.81
264.267	210.81
264.499	206.81
264.732	233.81
264.964	223.81
265.197	220.81
265.429	219.81
265.661	215.81
265.894	216.81
266.126	217.81
266.358	220.81
266.591	226.81
266.823	215.81
267.055	225.81
267.287	239.81
267.52	211.81
267.752	220.81
267.984	207.81
268.216	217.81
268.448	237.81
268.681	225.81
268.913	230.81
269.145	264.81
269.377	260.81
269.609	267.81
269.841	258.81
270.073	243.81
270.306	280.81
270.538	310.81
270.77	293.81
271.002	305.81
271.234	298.81
271.466	287.81
271.698	287.81
271.93	281.81
272.162	302.81
272.394	295.81
272.626	289.81
272.858	277.81
273.09	262.81
273.322	273.81
273.553	282.81
273.785	264.81
274.017	277.81
274.249	257.81
274.481	267.81
274.713	256.81
274.945	275.81
275.176	262.81
275.408	258.81
275.64	251.81
275.872	245.81
276.104	244.81
276.335	264.81
276.567	263.81
276.799	279.81
277.031	291.81
277.262	299.81
277.494	293.81
277.726	313.81
277.957	269.81
278.189	271.81
278.421	281.81
278.652	278.81
278.884	269.81
279.115	251.81
279.347	243.81
279.579	259.81
279.81	272.81
280.042	255.81
280.273	271.81
280.505	263.81
280.736	248.81
280.968	263.81
281.199	256.81
281.431	249.81
281.662	276.81
281.894	274.81
282.125	267.81
282.356	283.81
282.588	295.81
282.819	277.81
283.051	277.81
283.282	248.81
283.513	269.81
283.745	269.81
283.976	268.81
284.207	263.81
284.439	275.81
284.67	285.81
284.901	287.81
285.132	259.81
285.364	259.81
285.595	281.81
285.826	279.81
286.057	263.81
286.288	265.81
286.52	265.81
286.751	276.81
286.982	285.81
287.213	281.81
287.444	283.81
287.675	310.81
287.906	278.81
288.138	303.81
288.369	306.81
288.6	301.81
288.831	305.81
289.062	270.81
289.293	281.81
289.524	281.81
289.755	276.81
289.986	290.81
290.217	289.81
290.448	280.81
290.679	276.81
290.91	271.81
291.141	270.81
291.371	282.81
291.602	281.81
291.833	274.81
292.064	282.81
292.295	280.81
292.526	279.81
292.757	270.81
292.987	275.81
293.218	277.81
293.449	270.81
293.68	283.81
293.91	279.81
294.141	289.81
294.372	287.81
294.603	259.81
294.833	284.81
295.064	302.81
295.295	276.81
295.525	287.81
295.756	290.81
295.987	297.81
296.217	295.81
296.448	318.81
296.679	299.81
296.909	289.81
297.14	276.81
297.37	302.81
297.601	300.81
297.831	285.81
298.062	300.81
298.292	292.81
298.523	297.81
298.753	299.81
298.984	281.81
299.214	315.81
299.445	305.81
299.675	299.81
299.905	309.81
300.136	294.81
300.366	308.81
300.597	296.81
300.827	309.81
301.057	310.81
301.288	315.81
301.518	302.81
301.748	295.81
301.979	324.81
302.209	297.81
302.439	320.81
302.669	321.81
302.9	318.81
303.13	316.81
303.36	325.81
303.59	330.81
303.82	326.81
304.051	319.81
304.281	313.81
304.511	322.81
304.741	311.81
304.971	308.81
305.201	302.81
305.431	319.81
305.661	321.81
305.891	314.81
306.121	300.81
306.352	331.81
306.582	320.81
306.812	323.81
307.042	314.81
307.272	322.81
307.502	313.81
307.731	327.81
307.961	328.81
308.191	334.81
308.421	317.81
308.651	312.81
308.881	339.81
309.111	309.81
309.341	325.81
309.571	326.81
309.8	352.81
310.03	340.81
310.26	361.81
310.49	363.81
310.72	357.81
310.949	375.81
311.179	374.81
311.409	353.81
311.639	347.81
311.868	348.81
312.098	372.81
312.328	365.81
312.557	371.81
312.787	373.81
313.017	355.81
313.246	373.81
313.476	382.81
313.706	359.81
313.935	365.81
314.165	388.81
314.394	379.81
314.624	381.81
314.853	363.81
315.083	371.81
315.312	363.81
315.542	365.81
315.771	346.81
316.001	369.81
316.23	379.81
316.46	358.81
316.689	371.81
316.919	385.81
317.148	361.81
317.377	389.81
317.607	367.81
317.836	382.81
318.065	355.81
318.295	356.81
318.524	361.81
318.753	350.81
318.983	365.81
319.212	359.81
319.441	349.81
319.67	379.81
319.9	377.81
320.129	369.81
320.358	366.81
320.587	365.81
320.816	379.81
321.046	375.81
321.275	372.81
321.504	372.81
321.733	363.81
321.962	389.81
322.191	383.81
322.42	398.81
322.649	430.81
322.878	389.81
323.108	424.81
323.337	445.81
323.566	447.81
323.795	474.81
324.024	519.81
324.253	630.81
324.482	832.81
324.71	1275.81
324.939	1863.81
325.168	1660.81
325.397	825.81
325.626	561.81
325.855	506.81
326.084	466.81
326.313	455.81
326.542	464.81
326.77	489.81
326.999	569.81
327.228	757.81
327.457	1158.81
327.686	1392.81
327.914	957.81
328.143	601.81
328.372	529.81
328.6	501.81
328.829	520.81
329.058	515.81
329.287	481.81
329.515	478.81
329.744	443.81
329.972	459.81
330.201	454.81
330.43	482.81
330.658	504.81
330.887	505.81
331.115	516.81
331.344	459.81
331.572	442.81
331.801	443.81
332.03	447.81
332.258	405.81
332.486	434.81
332.715	418.81
332.943	437.81
333.172	430.81
333.4	430.81
333.629	425.81
333.857	422.81
334.085	443.81
334.314	421.81
334.542	423.81
334.771	413.81
334.999	429.81
335.227	422.81
335.455	425.81
335.684	410.81
335.912	420.81
336.14	408.81
336.369	416.81
336.597	408.81
336.825	421.81
337.053	430.81
337.281	423.81
337.51	397.81
337.738	433.81
337.966	406.81
338.194	419.81
338.422	405.81
338.65	415.81
338.878	430.81
339.106	398.81
339.334	407.81
339.562	407.81
339.79	420.81
340.018	402.81
340.246	385.81
340.474	423.81
340.702	392.81
340.93	408.81
341.158	408.81
341.386	402.81
341.614	402.81
341.842	386.81
342.07	410.81
342.298	379.81
342.526	374.81
342.754	384.81
342.981	371.81
343.209	399.81
343.437	405.81
343.665	423.81
343.893	407.81
344.12	426.81
344.348	411.81
344.576	420.81
344.804	448.81
345.031	393.81
345.259	430.81
345.487	423.81
345.714	400.81
345.942	403.81
346.17	408.81
346.397	387.81
346.625	393.81
346.853	400.81
347.08	399.81
347.308	389.81
347.535	380.81
347.763	389.81
347.99	398.81
348.218	409.81
348.445	405.81
348.673	398.81
348.9	397.81
349.128	398.81
349.355	375.81
349.583	386.81
349.81	375.81
350.037	373.81
350.265	383.81
350.492	354.81
350.72	377.81
350.947	398.81
351.174	397.81
351.402	385.81
351.629	405.81
351.856	389.81
352.083	391.81
352.311	408.81
352.538	413.81
352.765	391.81
352.992	398.81
353.22	382.81
353.447	377.81
353.674	370.81
353.901	359.81
354.128	387.81
354.355	379.81
354.583	379.81
354.81	372.81
355.037	358.81
355.264	355.81
355.491	367.81
355.718	365.81
355.945	372.81
356.172	347.81
356.399	346.81
356.626	369.81
356.853	340.81
357.08	379.81
357.307	355.81
357.534	371.81
357.761	363.81
357.988	369.81
358.215	373.81
358.441	357.81
358.668	352.81
358.895	357.81
359.122	376.81
359.349	371.81
359.576	373.81
359.802	391.81
360.029	416.81
360.256	425.81
360.483	403.81
360.709	391.81
360.936	381.81
361.163	369.81
361.39	378.81
361.616	379.81
361.843	365.81
362.07	374.81
362.296	377.81
362.523	391.81
362.749	398.81
362.976	369.81
363.203	365.81
363.429	339.81
363.656	366.81
363.882	369.81
364.109	383.81
364.335	357.81
364.562	374.81
364.788	365.81
365.015	356.81
365.241	358.81
365.468	369.81
365.694	378.81
365.92	379.81
366.147	375.81
366.373	367.81
366.599	357.81
366.826	357.81
367.052	371.81
367.278	351.81
367.505	349.81
367.731	374.81
367.957	362.81
368.184	373.81
368.41	371.81
368.636	364.81
368.862	377.81
369.089	376.81
369.315	369.81
369.541	371.81
369.767	373.81
369.993	363.81
370.219	364.81
370.445	375.81
370.672	369.81
370.898	356.81
371.124	357.81
371.35	352.81
371.576	366.81
371.802	347.81
372.028	363.81
372.254	377.81
372.48	391.81
372.706	367.81
372.932	366.81
373.158	362.81
373.384	360.81
373.61	376.81
373.835	370.81
374.061	354.81
374.287	378.81
374.513	361.81
374.739	368.81
374.965	363.81
375.191	371.81
375.416	377.81
375.642	366.81
375.868	378.81
376.094	374.81
376.319	362.81
376.545	349.81
376.771	347.81
376.997	378.81
377.222	371.81
377.448	379.81
377.674	358.81
377.899	386.81
378.125	353.81
378.35	356.81
378.576	345.81
378.802	367.81
379.027	356.81
379.253	357.81
379.478	348.81
379.704	369.81
379.929	349.81
380.155	359.81
380.38	371.81
380.606	383.81
380.831	372.81
381.057	343.81
381.282	362.81
381.507	375.81
381.733	361.81
381.958	364.81
382.184	382.81
382.409	371.81
382.634	371.81
382.86	363.81
383.085	367.81
383.31	378.81
383.535	381.81
383.761	364.81
383.986	383.81
384.211	382.81
384.436	397.81
384.662	386.81
384.887	389.81
385.112	383.81
385.337	380.81
385.562	390.81
385.787	389.81
386.013	417.81
386.238	398.81
386.463	410.81
386.688	405.81
386.913	387.81
387.138	390.81
387.363	384.81
387.588	389.81
387.813	389.81
388.038	382.81
388.263	398.81
388.488	401.81
388.713	391.81
388.938	377.81
389.163	382.81
389.387	395.81
389.612	393.81
389.837	389.81
390.062	379.81
390.287	364.81
390.512	379.81
390.736	373.81
390.961	380.81
391.186	388.81
391.411	395.81
391.636	392.81
391.86	389.81
392.085	400.81
392.31	411.81
392.534	386.81
392.759	379.81
392.984	399.81
393.208	401.81
393.433	397.81
393.658	401.81
393.882	373.81
394.107	389.81
394.331	385.81
394.556	390.81
394.78	401.81
395.005	397.81
395.229	387.81
395.454	397.81
395.678	392.81
395.903	406.81
396.127	411.81
396.352	448.81
396.576	404.81
396.801	413.81
397.025	394.81
397.249	383.81
397.474	401.81
397.698	405.81
397.922	413.81
398.147	457.81
398.371	444.81
398.595	436.81
398.82	430.81
399.044	430.81
399.268	469.81
399.492	469.81
399.717	492.81
399.941	493.81
400.165	515.81
400.389	549.81
400.613	501.81
400.837	463.81
401.062	437.81
401.286	431.81
401.51	440.81
401.734	409.81
401.958	439.81
402.182	426.81
402.406	413.81
402.63	461.81
402.854	430.81
403.078	436.81
403.302	448.81
403.526	459.81
403.75	448.81
403.974	442.81
404.198	449.81
404.422	446.81
404.645	451.81
404.869	451.81
405.093	454.81
405.317	481.81
405.541	489.81
405.765	468.81
405.988	468.81
406.212	465.81
406.436	469.81
406.66	488.81
406.883	487.81
407.107	473.81
407.331	532.81
407.555	571.81
407.778	583.81
408.002	522.81
408.226	531.81
408.449	501.81
408.673	500.81
408.896	544.81
409.12	553.81
409.344	512.81
409.567	477.81
409.791	462.81
410.014	443.81
410.238	462.81
410.461	447.81
410.685	440.81
410.908	479.81
411.132	495.81
411.355	517.81
411.578	489.81
411.802	472.81
412.025	427.81
412.249	445.81
412.472	466.81
412.695	444.81
412.919	454.81
413.142	434.81
413.365	428.81
413.589	430.81
413.812	429.81
414.035	419.81
414.258	423.81
414.482	418.81
414.705	438.81
414.928	428.81
415.151	419.81
415.374	418.81
415.597	424.81
415.821	428.81
416.044	404.81
416.267	421.81
416.49	430.81
416.713	417.81
416.936	414.81
417.159	423.81
417.382	429.81
417.605	437.81
417.828	434.81
418.051	435.81
418.274	428.81
418.497	414.81
418.72	417.81
418.943	409.81
419.166	437.81
419.389	475.81
419.611	425.81
419.834	469.81
420.057	446.81
420.28	430.81
420.503	437.81
420.726	455.81
420.948	454.81
421.171	490.81
421.394	520.81
421.617	447.81
421.839	438.81
422.062	447.81
422.285	470.81
422.507	492.81
422.73	575.81
422.953	552.81
423.175	477.81
423.398	460.81
423.621	458.81
423.843	497.81
424.066	474.81
424.288	463.81
424.511	506.81
424.733	545.81
424.956	609.81
425.178	601.81
425.401	581.81
425.623	598.81
425.846	531.81
426.068	484.81
426.291	481.81
426.513	451.81
426.735	486.81
426.958	513.81
427.18	601.81
427.402	700.81
427.625	771.81
427.847	654.81
428.069	557.81
428.292	500.81
428.514	479.81
428.736	474.81
428.958	437.81
429.181	442.81
429.403	427.81
429.625	461.81
429.847	484.81
430.069	556.81
430.292	538.81
430.514	467.81
430.736	430.81
430.958	440.81
431.18	414.81
431.402	423.81
431.624	391.81
431.846	409.81
432.068	401.81
432.29	423.81
432.512	423.81
432.734	424.81
432.956	429.81
433.178	427.81
433.4	443.81
433.622	419.81
433.844	418.81
434.066	415.81
434.287	421.81
434.509	435.81
434.731	415.81
434.953	421.81
435.175	437.81
435.397	469.81
435.618	481.81
435.84	513.81
436.062	591.81
436.284	654.81
436.505	575.81
436.727	502.81
436.949	483.81
437.17	436.81
437.392	448.81
437.614	456.81
437.835	477.81
438.057	563.81
438.278	655.81
438.5	653.81
438.721	719.81
438.943	693.81
439.165	561.81
439.386	515.81
439.608	488.81
439.829	492.81
440.05	503.81
440.272	534.81
440.493	526.81
440.715	453.81
440.936	467.81
441.158	448.81
441.379	442.81
441.6	461.81
441.822	463.81
442.043	515.81
442.264	583.81
442.486	635.81
442.707	537.81
442.928	500.81
443.149	509.81
443.371	502.81
443.592	533.81
443.813	609.81
444.034	691.81
444.255	574.81
444.476	507.81
444.698	481.81
444.919	480.81
445.14	563.81
445.361	504.81
445.582	511.81
445.803	573.81
446.024	654.81
446.245	663.81
446.466	597.81
446.687	523.81
446.908	481.81
447.129	459.81
447.35	444.81
447.571	430.81
447.792	444.81
448.013	445.81
448.234	449.81
448.455	499.81
448.675	612.81
448.896	715.81
449.117	612.81
449.338	594.81
449.559	641.81
449.779	767.81
450	604.81
450.221	516.81
450.442	437.81
450.662	429.81
450.883	421.81
451.104	439.81
451.324	451.81
451.545	423.81
451.766	423.81
451.986	381.81
452.207	404.81
452.428	385.81
452.648	387.81
452.869	398.81
453.089	411.81
453.31	389.81
453.53	414.81
453.751	376.81
453.971	403.81
454.192	423.81
454.412	401.81
454.633	381.81
454.853	391.81
455.073	383.81
455.294	411.81
455.514	445.81
455.734	480.81
455.955	405.81
456.175	361.81
456.395	377.81
456.616	379.81
456.836	366.81
457.056	365.81
457.276	366.81
457.497	370.81
457.717	383.81
457.937	374.81
458.157	384.81
458.377	363.81
458.598	415.81
458.818	430.81
459.038	491.81
459.258	525.81
459.478	450.81
459.698	401.81
459.918	418.81
460.138	409.81
460.358	408.81
460.578	413.81
460.798	413.81
461.018	426.81
461.238	407.81
461.458	427.81
461.678	418.81
461.898	417.81
462.118	418.81
462.338	426.81
462.558	413.81
462.777	427.81
462.997	460.81
463.217	446.81
463.437	444.81
463.657	440.81
463.876	436.81
464.096	444.81
464.316	450.81
464.536	446.81
464.755	439.81
464.975	446.81
465.195	468.81
465.414	518.81
465.634	455.81
465.854	437.81
466.073	405.81
466.293	403.81
466.512	399.81
466.732	393.81
466.951	408.81
467.171	395.81
467.391	392.81
467.61	404.81
467.829	407.81
468.049	397.81
468.268	399.81
468.488	391.81
468.707	394.81
468.927	392.81
469.146	380.81
469.365	389.81
469.585	375.81
469.804	395.81
470.023	414.81
470.243	421.81
470.462	404.81
470.681	414.81
470.901	419.81
471.12	411.81
471.339	397.81
471.558	409.81
471.777	438.81
471.997	402.81
472.216	399.81
472.435	398.81
472.654	421.81
472.873	400.81
473.092	392.81
473.311	410.81
473.53	405.81
473.749	413.81
473.968	453.81
474.187	540.81
474.406	551.81
474.625	485.81
474.844	417.81
475.063	405.81
475.282	429.81
475.501	409.81
475.72	428.81
475.939	421.81
476.158	409.81
476.377	421.81
476.596	417.81
476.814	417.81
477.033	424.81
477.252	423.81
477.471	436.81
477.69	421.81
477.908	426.81
478.127	446.81
478.346	447.81
478.564	467.81
478.783	457.81
479.002	463.81
479.22	464.81
479.439	469.81
479.658	485.81
479.876	477.81
480.095	487.81
480.313	509.81
480.532	495.81
480.751	497.81
480.969	473.81
481.188	490.81
481.406	490.81
481.624	471.81
481.843	473.81
482.061	480.81
482.28	466.81
482.498	464.81
482.717	467.81
482.935	481.81
483.153	471.81
483.372	479.81
483.59	465.81
483.808	478.81
484.027	472.81
484.245	474.81
484.463	480.81
484.681	498.81
484.9	475.81
485.118	486.81
485.336	485.81
485.554	467.81
485.772	500.81
485.99	479.81
486.209	475.81
486.427	484.81
486.645	494.81
486.863	515.81
487.081	518.81
487.299	495.81
487.517	501.81
487.735	480.81
487.953	526.81
488.171	511.81
488.389	497.81
488.607	487.81
488.825	499.81
489.043	501.81
489.261	521.81
489.479	537.81
489.696	503.81
489.914	521.81
490.132	501.81
490.35	520.81
490.568	516.81
490.786	532.81
491.003	537.81
491.221	562.81
491.439	545.81
491.657	566.81
491.874	537.81
492.092	561.81
492.31	574.81
492.527	561.81
492.745	576.81
492.963	538.81
493.18	576.81
493.398	575.81
493.615	571.81
493.833	600.81
494.05	608.81
494.268	610.81
494.485	589.81
494.703	583.81
494.92	599.81
495.138	576.81
495.355	568.81
495.573	599.81
495.79	587.81
496.008	611.81
496.225	584.81
496.442	587.81
496.66	615.81
496.877	599.81
497.094	639.81
497.312	620.81
497.529	618.81
497.746	630.81
497.963	641.81
498.181	637.81
498.398	653.81
498.615	659.81
498.832	663.81
499.049	665.81
499.267	695.81
499.484	717.81
499.701	727.81
499.918	754.81
500.135	795.81
500.352	814.81
500.569	796.81
500.786	820.81
501.003	807.81
501.22	773.81
501.437	733.81
501.654	728.81
501.871	749.81
