Data from 1989.PennyLincolnUp.Lamp.En5.5.200Scan.071819.P2_HRD10591_17-23-51-973.txt Node
Date: Thu Jul 18 17:23:51 EDT 2019
User: cochatt
Spectrometer: HR+D1059
Trigger mode: 1
Integration Time (sec): 1.000000E-1
Scans to average: 1
Electric dark correction enabled: true
Nonlinearity correction enabled: false
Boxcar width: 0
XAxis mode: Wavelengths
Number of Pixels in Spectrum: 2048
>>>>>Begin Spectral Data<<<<<
223.165	-14.62
223.4	-14.62
223.635	-14.62
223.869	-11.62
224.104	-11.62
224.338	-4.62
224.573	-11.62
224.808	-9.62
225.042	-6.62
225.277	-13.62
225.511	-6.62
225.746	1.38
225.98	4.38
226.215	9.38
226.449	4.38
226.683	2.38
226.918	32.38
227.152	36.38
227.387	37.38
227.621	41.38
227.856	43.38
228.09	41.38
228.324	49.38
228.559	48.38
228.793	66.38
229.027	113.38
229.262	112.38
229.496	119.38
229.73	131.38
229.964	142.38
230.199	109.38
230.433	117.38
230.667	119.38
230.901	122.38
231.136	105.38
231.37	115.38
231.604	102.38
231.838	114.38
232.072	118.38
232.306	113.38
232.541	118.38
232.775	108.38
233.009	125.38
233.243	108.38
233.477	120.38
233.711	113.38
233.945	115.38
234.179	121.38
234.413	121.38
234.647	119.38
234.881	126.38
235.115	122.38
235.349	115.38
235.583	121.38
235.817	109.38
236.051	123.38
236.285	117.38
236.519	125.38
236.753	138.38
236.987	160.38
237.221	169.38
237.455	232.38
237.689	178.38
237.922	140.38
238.156	122.38
238.39	129.38
238.624	126.38
238.858	121.38
239.091	123.38
239.325	138.38
239.559	133.38
239.793	128.38
240.027	139.38
240.26	152.38
240.494	171.38
240.728	154.38
240.961	143.38
241.195	140.38
241.429	134.38
241.662	129.38
241.896	129.38
242.13	116.38
242.363	124.38
242.597	132.38
242.83	144.38
243.064	151.38
243.298	147.38
243.531	154.38
243.765	132.38
243.998	142.38
244.232	151.38
244.465	140.38
244.699	154.38
244.932	144.38
245.166	153.38
245.399	149.38
245.633	144.38
245.866	154.38
246.099	151.38
246.333	146.38
246.566	152.38
246.8	151.38
247.033	158.38
247.266	171.38
247.5	172.38
247.733	183.38
247.966	174.38
248.2	182.38
248.433	178.38
248.666	194.38
248.899	185.38
249.133	192.38
249.366	225.38
249.599	214.38
249.832	185.38
250.066	182.38
250.299	200.38
250.532	199.38
250.765	204.38
250.998	225.38
251.231	237.38
251.465	217.38
251.698	190.38
251.931	197.38
252.164	221.38
252.397	212.38
252.63	209.38
252.863	226.38
253.096	220.38
253.329	240.38
253.562	241.38
253.795	232.38
254.028	233.38
254.261	216.38
254.494	242.38
254.727	278.38
254.96	277.38
255.193	286.38
255.426	267.38
255.659	260.38
255.892	240.38
256.124	230.38
256.357	230.38
256.59	241.38
256.823	211.38
257.056	224.38
257.289	231.38
257.521	230.38
257.754	221.38
257.987	221.38
258.22	213.38
258.452	211.38
258.685	225.38
258.918	219.38
259.151	205.38
259.383	237.38
259.616	229.38
259.849	238.38
260.081	247.38
260.314	266.38
260.547	282.38
260.779	251.38
261.012	251.38
261.244	255.38
261.477	231.38
261.71	243.38
261.942	232.38
262.175	234.38
262.407	230.38
262.64	236.38
262.872	235.38
263.105	231.38
263.337	234.38
263.57	219.38
263.802	216.38
264.035	219.38
264.267	212.38
264.499	223.38
264.732	208.38
264.964	212.38
265.197	234.38
265.429	223.38
265.661	206.38
265.894	215.38
266.126	219.38
266.358	206.38
266.591	245.38
266.823	230.38
267.055	246.38
267.287	242.38
267.52	260.38
267.752	242.38
267.984	242.38
268.216	252.38
268.448	257.38
268.681	243.38
268.913	262.38
269.145	274.38
269.377	308.38
269.609	281.38
269.841	280.38
270.073	293.38
270.306	287.38
270.538	347.38
270.77	329.38
271.002	319.38
271.234	319.38
271.466	318.38
271.698	334.38
271.93	337.38
272.162	336.38
272.394	310.38
272.626	316.38
272.858	289.38
273.09	292.38
273.322	287.38
273.553	287.38
273.785	275.38
274.017	296.38
274.249	278.38
274.481	291.38
274.713	280.38
274.945	275.38
275.176	280.38
275.408	296.38
275.64	279.38
275.872	271.38
276.104	286.38
276.335	282.38
276.567	275.38
276.799	298.38
277.031	310.38
277.262	332.38
277.494	348.38
277.726	328.38
277.957	309.38
278.189	293.38
278.421	295.38
278.652	289.38
278.884	272.38
279.115	282.38
279.347	284.38
279.579	273.38
279.81	269.38
280.042	283.38
280.273	274.38
280.505	282.38
280.736	280.38
280.968	284.38
281.199	283.38
281.431	289.38
281.662	279.38
281.894	267.38
282.125	293.38
282.356	305.38
282.588	306.38
282.819	338.38
283.051	319.38
283.282	270.38
283.513	276.38
283.745	287.38
283.976	286.38
284.207	299.38
284.439	307.38
284.67	310.38
284.901	280.38
285.132	292.38
285.364	290.38
285.595	295.38
285.826	300.38
286.057	293.38
286.288	301.38
286.52	298.38
286.751	292.38
286.982	279.38
287.213	286.38
287.444	294.38
287.675	319.38
287.906	308.38
288.138	307.38
288.369	331.38
288.6	321.38
288.831	301.38
289.062	320.38
289.293	296.38
289.524	306.38
289.755	304.38
289.986	279.38
290.217	316.38
290.448	284.38
290.679	298.38
290.91	296.38
291.141	278.38
291.371	302.38
291.602	293.38
291.833	295.38
292.064	288.38
292.295	308.38
292.526	304.38
292.757	301.38
292.987	297.38
293.218	297.38
293.449	306.38
293.68	303.38
293.91	298.38
294.141	309.38
294.372	290.38
294.603	299.38
294.833	311.38
295.064	318.38
295.295	312.38
295.525	294.38
295.756	324.38
295.987	328.38
296.217	328.38
296.448	349.38
296.679	333.38
296.909	315.38
297.14	320.38
297.37	298.38
297.601	280.38
297.831	308.38
298.062	305.38
298.292	308.38
298.523	332.38
298.753	326.38
298.984	310.38
299.214	324.38
299.445	318.38
299.675	326.38
299.905	325.38
300.136	334.38
300.366	312.38
300.597	311.38
300.827	323.38
301.057	349.38
301.288	324.38
301.518	338.38
301.748	329.38
301.979	367.38
302.209	340.38
302.439	333.38
302.669	354.38
302.9	322.38
303.13	334.38
303.36	352.38
303.59	327.38
303.82	336.38
304.051	339.38
304.281	357.38
304.511	356.38
304.741	338.38
304.971	338.38
305.201	328.38
305.431	332.38
305.661	345.38
305.891	320.38
306.121	338.38
306.352	331.38
306.582	348.38
306.812	348.38
307.042	349.38
307.272	358.38
307.502	342.38
307.731	346.38
307.961	336.38
308.191	353.38
308.421	342.38
308.651	349.38
308.881	341.38
309.111	353.38
309.341	367.38
309.571	360.38
309.8	378.38
310.03	387.38
310.26	384.38
310.49	395.38
310.72	409.38
310.949	414.38
311.179	420.38
311.409	389.38
311.639	382.38
311.868	394.38
312.098	394.38
312.328	410.38
312.557	398.38
312.787	435.38
313.017	410.38
313.246	416.38
313.476	390.38
313.706	401.38
313.935	393.38
314.165	389.38
314.394	406.38
314.624	401.38
314.853	388.38
315.083	393.38
315.312	399.38
315.542	391.38
315.771	406.38
316.001	384.38
316.23	380.38
316.46	385.38
316.689	398.38
316.919	403.38
317.148	383.38
317.377	412.38
317.607	382.38
317.836	379.38
318.065	384.38
318.295	404.38
318.524	398.38
318.753	402.38
318.983	387.38
319.212	392.38
319.441	399.38
319.67	414.38
319.9	397.38
320.129	392.38
320.358	380.38
320.587	392.38
320.816	397.38
321.046	419.38
321.275	416.38
321.504	419.38
321.733	423.38
321.962	426.38
322.191	437.38
322.42	422.38
322.649	448.38
322.878	460.38
323.108	491.38
323.337	515.38
323.566	514.38
323.795	535.38
324.024	609.38
324.253	739.38
324.482	1040.38
324.71	1575.38
324.939	2307.38
325.168	1954.38
325.397	1040.38
325.626	692.38
325.855	573.38
326.084	546.38
326.313	548.38
326.542	531.38
326.77	571.38
326.999	677.38
327.228	924.38
327.457	1420.38
327.686	1745.38
327.914	1154.38
328.143	756.38
328.372	656.38
328.6	597.38
328.829	597.38
329.058	586.38
329.287	574.38
329.515	560.38
329.744	509.38
329.972	499.38
330.201	517.38
330.43	530.38
330.658	572.38
330.887	618.38
331.115	625.38
331.344	524.38
331.572	496.38
331.801	492.38
332.03	498.38
332.258	488.38
332.486	462.38
332.715	447.38
332.943	454.38
333.172	468.38
333.4	452.38
333.629	451.38
333.857	469.38
334.085	477.38
334.314	446.38
334.542	454.38
334.771	489.38
334.999	457.38
335.227	460.38
335.455	453.38
335.684	446.38
335.912	448.38
336.14	459.38
336.369	440.38
336.597	456.38
336.825	459.38
337.053	455.38
337.281	451.38
337.51	435.38
337.738	428.38
337.966	452.38
338.194	448.38
338.422	437.38
338.65	438.38
338.878	434.38
339.106	437.38
339.334	440.38
339.562	456.38
339.79	416.38
340.018	428.38
340.246	438.38
340.474	424.38
340.702	429.38
340.93	446.38
341.158	440.38
341.386	429.38
341.614	437.38
341.842	457.38
342.07	429.38
342.298	428.38
342.526	450.38
342.754	426.38
342.981	418.38
343.209	419.38
343.437	413.38
343.665	425.38
343.893	436.38
344.12	427.38
344.348	432.38
344.576	436.38
344.804	422.38
345.031	455.38
345.259	471.38
345.487	448.38
345.714	441.38
345.942	426.38
346.17	456.38
346.397	425.38
346.625	430.38
346.853	410.38
347.08	416.38
347.308	406.38
347.535	420.38
347.763	436.38
347.99	449.38
348.218	432.38
348.445	426.38
348.673	421.38
348.9	426.38
349.128	421.38
349.355	412.38
349.583	423.38
349.81	410.38
350.037	429.38
350.265	400.38
350.492	410.38
350.72	410.38
350.947	428.38
351.174	419.38
351.402	433.38
351.629	436.38
351.856	426.38
352.083	419.38
352.311	428.38
352.538	427.38
352.765	437.38
352.992	420.38
353.22	414.38
353.447	420.38
353.674	412.38
353.901	414.38
354.128	391.38
354.355	380.38
354.583	392.38
354.81	372.38
355.037	381.38
355.264	392.38
355.491	395.38
355.718	375.38
355.945	388.38
356.172	381.38
356.399	392.38
356.626	372.38
356.853	394.38
357.08	382.38
357.307	364.38
357.534	398.38
357.761	394.38
357.988	386.38
358.215	387.38
358.441	377.38
358.668	371.38
358.895	388.38
359.122	411.38
359.349	391.38
359.576	402.38
359.802	438.38
360.029	469.38
360.256	481.38
360.483	464.38
360.709	425.38
360.936	412.38
361.163	425.38
361.39	399.38
361.616	419.38
361.843	406.38
362.07	398.38
362.296	419.38
362.523	413.38
362.749	407.38
362.976	417.38
363.203	405.38
363.429	382.38
363.656	393.38
363.882	386.38
364.109	406.38
364.335	406.38
364.562	403.38
364.788	393.38
365.015	362.38
365.241	408.38
365.468	397.38
365.694	398.38
365.92	409.38
366.147	412.38
366.373	384.38
366.599	382.38
366.826	374.38
367.052	379.38
367.278	399.38
367.505	403.38
367.731	414.38
367.957	395.38
368.184	397.38
368.41	399.38
368.636	414.38
368.862	423.38
369.089	384.38
369.315	402.38
369.541	390.38
369.767	393.38
369.993	397.38
370.219	385.38
370.445	395.38
370.672	391.38
370.898	374.38
371.124	390.38
371.35	388.38
371.576	381.38
371.802	362.38
372.028	380.38
372.254	394.38
372.48	382.38
372.706	399.38
372.932	378.38
373.158	394.38
373.384	397.38
373.61	392.38
373.835	399.38
374.061	389.38
374.287	391.38
374.513	387.38
374.739	398.38
374.965	392.38
375.191	381.38
375.416	379.38
375.642	382.38
375.868	386.38
376.094	389.38
376.319	380.38
376.545	397.38
376.771	392.38
376.997	376.38
377.222	386.38
377.448	389.38
377.674	382.38
377.899	401.38
378.125	384.38
378.35	376.38
378.576	363.38
378.802	373.38
379.027	366.38
379.253	374.38
379.478	372.38
379.704	369.38
379.929	382.38
380.155	379.38
380.38	380.38
380.606	361.38
380.831	399.38
381.057	383.38
381.282	365.38
381.507	376.38
381.733	388.38
381.958	392.38
382.184	397.38
382.409	389.38
382.634	394.38
382.86	404.38
383.085	400.38
383.31	379.38
383.535	421.38
383.761	389.38
383.986	397.38
384.211	405.38
384.436	397.38
384.662	409.38
384.887	400.38
385.112	412.38
385.337	408.38
385.562	395.38
385.787	409.38
386.013	423.38
386.238	416.38
386.463	428.38
386.688	410.38
386.913	391.38
387.138	393.38
387.363	380.38
387.588	414.38
387.813	409.38
388.038	397.38
388.263	410.38
388.488	413.38
388.713	405.38
388.938	412.38
389.163	403.38
389.387	411.38
389.612	412.38
389.837	422.38
390.062	402.38
390.287	396.38
390.512	421.38
390.736	399.38
390.961	404.38
391.186	415.38
391.411	406.38
391.636	404.38
391.86	409.38
392.085	410.38
392.31	426.38
392.534	405.38
392.759	416.38
392.984	410.38
393.208	402.38
393.433	419.38
393.658	404.38
393.882	403.38
394.107	401.38
394.331	389.38
394.556	402.38
394.78	411.38
395.005	402.38
395.229	408.38
395.454	402.38
395.678	405.38
395.903	424.38
396.127	434.38
396.352	445.38
396.576	428.38
396.801	456.38
397.025	410.38
397.249	428.38
397.474	427.38
397.698	435.38
397.922	432.38
398.147	444.38
398.371	439.38
398.595	442.38
398.82	444.38
399.044	452.38
399.268	486.38
399.492	497.38
399.717	524.38
399.941	548.38
400.165	557.38
400.389	573.38
400.613	502.38
400.837	506.38
401.062	468.38
401.286	461.38
401.51	466.38
401.734	454.38
401.958	445.38
402.182	464.38
402.406	466.38
402.63	472.38
402.854	455.38
403.078	458.38
403.302	476.38
403.526	478.38
403.75	483.38
403.974	477.38
404.198	471.38
404.422	480.38
404.645	475.38
404.869	467.38
405.093	499.38
405.317	513.38
405.541	530.38
405.765	499.38
405.988	500.38
406.212	499.38
406.436	524.38
406.66	541.38
406.883	499.38
407.107	534.38
407.331	571.38
407.555	617.38
407.778	624.38
408.002	586.38
408.226	543.38
408.449	503.38
408.673	525.38
408.896	540.38
409.12	597.38
409.344	566.38
409.567	501.38
409.791	492.38
410.014	457.38
410.238	459.38
410.461	462.38
410.685	489.38
410.908	514.38
411.132	526.38
411.355	549.38
411.578	543.38
411.802	494.38
412.025	462.38
412.249	471.38
412.472	470.38
412.695	482.38
412.919	476.38
413.142	476.38
413.365	450.38
413.589	451.38
413.812	453.38
414.035	446.38
414.258	439.38
414.482	428.38
414.705	439.38
414.928	440.38
415.151	422.38
415.374	420.38
415.597	433.38
415.821	436.38
416.044	451.38
416.267	425.38
416.49	433.38
416.713	442.38
416.936	453.38
417.159	451.38
417.382	465.38
417.605	457.38
417.828	451.38
418.051	459.38
418.274	460.38
418.497	440.38
418.72	453.38
418.943	434.38
419.166	445.38
419.389	476.38
419.611	457.38
419.834	457.38
420.057	466.38
420.28	458.38
420.503	464.38
420.726	474.38
420.948	461.38
421.171	507.38
421.394	556.38
421.617	483.38
421.839	470.38
422.062	499.38
422.285	472.38
422.507	517.38
422.73	597.38
422.953	605.38
423.175	532.38
423.398	502.38
423.621	485.38
423.843	503.38
424.066	518.38
424.288	524.38
424.511	543.38
424.733	574.38
424.956	660.38
425.178	617.38
425.401	646.38
425.623	647.38
425.846	559.38
426.068	522.38
426.291	494.38
426.513	505.38
426.735	515.38
426.958	557.38
427.18	635.38
427.402	767.38
427.625	859.38
427.847	776.38
428.069	620.38
428.292	553.38
428.514	519.38
428.736	492.38
428.958	480.38
429.181	470.38
429.403	461.38
429.625	471.38
429.847	505.38
430.069	579.38
430.292	587.38
430.514	506.38
430.736	468.38
430.958	466.38
431.18	485.38
431.402	443.38
431.624	440.38
431.846	437.38
432.068	436.38
432.29	458.38
432.512	449.38
432.734	442.38
432.956	453.38
433.178	466.38
433.4	452.38
433.622	458.38
433.844	472.38
434.066	440.38
434.287	441.38
434.509	459.38
434.731	458.38
434.953	461.38
435.175	498.38
435.397	498.38
435.618	504.38
435.84	546.38
436.062	631.38
436.284	705.38
436.505	619.38
436.727	530.38
436.949	485.38
437.17	471.38
437.392	474.38
437.614	496.38
437.835	518.38
438.057	627.38
438.278	717.38
438.5	698.38
438.721	798.38
438.943	742.38
439.165	574.38
439.386	532.38
439.608	541.38
439.829	531.38
440.05	537.38
440.272	587.38
440.493	569.38
440.715	503.38
440.936	474.38
441.158	465.38
441.379	464.38
441.6	483.38
441.822	503.38
442.043	563.38
442.264	626.38
442.486	688.38
442.707	562.38
442.928	543.38
443.149	545.38
443.371	560.38
443.592	594.38
443.813	698.38
444.034	744.38
444.255	593.38
444.476	543.38
444.698	498.38
444.919	493.38
445.14	614.38
445.361	576.38
445.582	564.38
445.803	614.38
446.024	730.38
446.245	732.38
446.466	640.38
446.687	584.38
446.908	513.38
447.129	481.38
447.35	471.38
447.571	488.38
447.792	467.38
448.013	480.38
448.234	502.38
448.455	548.38
448.675	660.38
448.896	729.38
449.117	642.38
449.338	621.38
449.559	724.38
449.779	790.38
450	648.38
450.221	531.38
450.442	484.38
450.662	458.38
450.883	468.38
451.104	496.38
451.324	463.38
451.545	456.38
451.766	439.38
451.986	429.38
452.207	395.38
452.428	399.38
452.648	419.38
452.869	432.38
453.089	442.38
453.31	442.38
453.53	425.38
453.751	397.38
453.971	441.38
454.192	450.38
454.412	445.38
454.633	412.38
454.853	413.38
455.073	412.38
455.294	442.38
455.514	510.38
455.734	488.38
455.955	416.38
456.175	407.38
456.395	402.38
456.616	389.38
456.836	394.38
457.056	397.38
457.276	392.38
457.497	383.38
457.717	374.38
457.937	390.38
458.157	392.38
458.377	404.38
458.598	434.38
458.818	459.38
459.038	541.38
459.258	572.38
459.478	471.38
459.698	429.38
459.918	412.38
460.138	436.38
460.358	460.38
460.578	434.38
460.798	452.38
461.018	457.38
461.238	442.38
461.458	426.38
461.678	434.38
461.898	424.38
462.118	437.38
462.338	437.38
462.558	438.38
462.777	448.38
462.997	454.38
463.217	466.38
463.437	473.38
463.657	452.38
463.876	451.38
464.096	472.38
464.316	483.38
464.536	476.38
464.755	466.38
464.975	469.38
465.195	541.38
465.414	581.38
465.634	525.38
465.854	498.38
466.073	456.38
466.293	433.38
466.512	434.38
466.732	412.38
466.951	434.38
467.171	426.38
467.391	405.38
467.61	420.38
467.829	452.38
468.049	423.38
468.268	424.38
468.488	416.38
468.707	416.38
468.927	427.38
469.146	414.38
469.365	424.38
469.585	426.38
469.804	400.38
470.023	432.38
470.243	437.38
470.462	433.38
470.681	462.38
470.901	448.38
471.12	432.38
471.339	429.38
471.558	427.38
471.777	435.38
471.997	421.38
472.216	408.38
472.435	424.38
472.654	433.38
472.873	416.38
473.092	428.38
473.311	425.38
473.53	439.38
473.749	440.38
473.968	482.38
474.187	578.38
474.406	601.38
474.625	507.38
474.844	462.38
475.063	408.38
475.282	421.38
475.501	432.38
475.72	439.38
475.939	440.38
476.158	435.38
476.377	446.38
476.596	436.38
476.814	457.38
477.033	468.38
477.252	452.38
477.471	449.38
477.69	454.38
477.908	460.38
478.127	457.38
478.346	464.38
478.564	472.38
478.783	469.38
479.002	472.38
479.22	478.38
479.439	503.38
479.658	519.38
479.876	537.38
480.095	533.38
480.313	548.38
480.532	528.38
480.751	531.38
480.969	530.38
481.188	513.38
481.406	533.38
481.624	527.38
481.843	506.38
482.061	494.38
482.28	489.38
482.498	489.38
482.717	481.38
482.935	476.38
483.153	508.38
483.372	489.38
483.59	515.38
483.808	494.38
484.027	489.38
484.245	474.38
484.463	508.38
484.681	511.38
484.9	496.38
485.118	500.38
485.336	489.38
485.554	511.38
485.772	529.38
485.99	529.38
486.209	521.38
486.427	526.38
486.645	521.38
486.863	552.38
487.081	542.38
487.299	546.38
487.517	531.38
487.735	549.38
487.953	522.38
488.171	538.38
488.389	561.38
488.607	535.38
488.825	528.38
489.043	549.38
489.261	538.38
489.479	554.38
489.696	537.38
489.914	541.38
490.132	564.38
490.35	562.38
490.568	550.38
490.786	571.38
491.003	568.38
491.221	589.38
491.439	614.38
491.657	593.38
491.874	574.38
492.092	618.38
492.31	615.38
492.527	611.38
492.745	603.38
492.963	597.38
493.18	611.38
493.398	619.38
493.615	643.38
493.833	633.38
494.05	654.38
494.268	634.38
494.485	629.38
494.703	644.38
494.92	662.38
495.138	651.38
495.355	638.38
495.573	617.38
495.79	656.38
496.008	662.38
496.225	629.38
496.442	635.38
496.66	643.38
496.877	638.38
497.094	651.38
497.312	638.38
497.529	649.38
497.746	665.38
497.963	678.38
498.181	712.38
498.398	698.38
498.615	681.38
498.832	698.38
499.049	701.38
499.267	721.38
499.484	730.38
499.701	750.38
499.918	760.38
500.135	798.38
500.352	833.38
500.569	832.38
500.786	827.38
501.003	841.38
501.22	836.38
501.437	800.38
501.654	792.38
501.871	810.38
