Data from 1989.PennyLincolnUp.Lamp.En5.5.200Scan.071819.P2_HRD10591_17-24-31-973.txt Node
Date: Thu Jul 18 17:24:31 EDT 2019
User: cochatt
Spectrometer: HR+D1059
Trigger mode: 1
Integration Time (sec): 1.000000E-1
Scans to average: 1
Electric dark correction enabled: true
Nonlinearity correction enabled: false
Boxcar width: 0
XAxis mode: Wavelengths
Number of Pixels in Spectrum: 2048
>>>>>Begin Spectral Data<<<<<
223.165	-19.56
223.4	-19.56
223.635	-19.56
223.869	-12.56
224.104	-17.56
224.338	-18.56
224.573	-11.56
224.808	-16.56
225.042	-18.56
225.277	-2.56
225.511	-15.56
225.746	-2.56
225.98	-2.56
226.215	29.44
226.449	25.44
226.683	16.44
226.918	42.44
227.152	24.44
227.387	34.44
227.621	42.44
227.856	38.44
228.09	52.44
228.324	38.44
228.559	45.44
228.793	64.44
229.027	86.44
229.262	102.44
229.496	106.44
229.73	152.44
229.964	162.44
230.199	130.44
230.433	123.44
230.667	111.44
230.901	108.44
231.136	116.44
231.37	105.44
231.604	120.44
231.838	118.44
232.072	108.44
232.306	117.44
232.541	128.44
232.775	101.44
233.009	107.44
233.243	110.44
233.477	107.44
233.711	124.44
233.945	106.44
234.179	112.44
234.413	120.44
234.647	132.44
234.881	123.44
235.115	125.44
235.349	129.44
235.583	121.44
235.817	122.44
236.051	127.44
236.285	124.44
236.519	133.44
236.753	132.44
236.987	144.44
237.221	184.44
237.455	243.44
237.689	212.44
237.922	153.44
238.156	127.44
238.39	135.44
238.624	135.44
238.858	136.44
239.091	132.44
239.325	125.44
239.559	123.44
239.793	122.44
240.027	134.44
240.26	143.44
240.494	192.44
240.728	158.44
240.961	150.44
241.195	138.44
241.429	134.44
241.662	117.44
241.896	128.44
242.13	143.44
242.363	149.44
242.597	134.44
242.83	132.44
243.064	120.44
243.298	130.44
243.531	141.44
243.765	151.44
243.998	147.44
244.232	148.44
244.465	154.44
244.699	142.44
244.932	141.44
245.166	147.44
245.399	141.44
245.633	171.44
245.866	146.44
246.099	138.44
246.333	163.44
246.566	149.44
246.8	156.44
247.033	171.44
247.266	164.44
247.5	153.44
247.733	164.44
247.966	180.44
248.2	168.44
248.433	172.44
248.666	187.44
248.899	200.44
249.133	221.44
249.366	224.44
249.599	214.44
249.832	200.44
250.066	204.44
250.299	193.44
250.532	198.44
250.765	216.44
250.998	237.44
251.231	253.44
251.465	242.44
251.698	220.44
251.931	202.44
252.164	225.44
252.397	203.44
252.63	216.44
252.863	225.44
253.096	245.44
253.329	242.44
253.562	237.44
253.795	220.44
254.028	233.44
254.261	217.44
254.494	251.44
254.727	288.44
254.96	300.44
255.193	294.44
255.426	269.44
255.659	243.44
255.892	252.44
256.124	237.44
256.357	232.44
256.59	240.44
256.823	228.44
257.056	237.44
257.289	228.44
257.521	234.44
257.754	235.44
257.987	219.44
258.22	227.44
258.452	227.44
258.685	228.44
258.918	224.44
259.151	217.44
259.383	248.44
259.616	237.44
259.849	245.44
260.081	246.44
260.314	259.44
260.547	279.44
260.779	248.44
261.012	255.44
261.244	260.44
261.477	244.44
261.71	233.44
261.942	249.44
262.175	247.44
262.407	249.44
262.64	230.44
262.872	222.44
263.105	224.44
263.337	218.44
263.57	232.44
263.802	237.44
264.035	220.44
264.267	228.44
264.499	218.44
264.732	223.44
264.964	231.44
265.197	220.44
265.429	227.44
265.661	240.44
265.894	238.44
266.126	219.44
266.358	220.44
266.591	228.44
266.823	238.44
267.055	242.44
267.287	247.44
267.52	242.44
267.752	238.44
267.984	254.44
268.216	250.44
268.448	253.44
268.681	255.44
268.913	264.44
269.145	300.44
269.377	276.44
269.609	287.44
269.841	293.44
270.073	296.44
270.306	328.44
270.538	344.44
270.77	332.44
271.002	331.44
271.234	323.44
271.466	332.44
271.698	351.44
271.93	349.44
272.162	372.44
272.394	347.44
272.626	320.44
272.858	324.44
273.09	310.44
273.322	314.44
273.553	288.44
273.785	289.44
274.017	299.44
274.249	288.44
274.481	296.44
274.713	291.44
274.945	291.44
275.176	274.44
275.408	284.44
275.64	292.44
275.872	300.44
276.104	264.44
276.335	297.44
276.567	292.44
276.799	308.44
277.031	323.44
277.262	330.44
277.494	334.44
277.726	322.44
277.957	308.44
278.189	293.44
278.421	314.44
278.652	301.44
278.884	294.44
279.115	284.44
279.347	288.44
279.579	304.44
279.81	284.44
280.042	296.44
280.273	289.44
280.505	288.44
280.736	263.44
280.968	273.44
281.199	288.44
281.431	304.44
281.662	262.44
281.894	280.44
282.125	297.44
282.356	308.44
282.588	345.44
282.819	325.44
283.051	302.44
283.282	290.44
283.513	292.44
283.745	291.44
283.976	277.44
284.207	282.44
284.439	305.44
284.67	294.44
284.901	287.44
285.132	297.44
285.364	295.44
285.595	290.44
285.826	288.44
286.057	300.44
286.288	283.44
286.52	292.44
286.751	270.44
286.982	298.44
287.213	289.44
287.444	303.44
287.675	305.44
287.906	324.44
288.138	316.44
288.369	326.44
288.6	313.44
288.831	314.44
289.062	305.44
289.293	297.44
289.524	315.44
289.755	282.44
289.986	290.44
290.217	297.44
290.448	290.44
290.679	300.44
290.91	299.44
291.141	320.44
291.371	304.44
291.602	291.44
291.833	321.44
292.064	313.44
292.295	322.44
292.526	302.44
292.757	309.44
292.987	306.44
293.218	290.44
293.449	301.44
293.68	319.44
293.91	301.44
294.141	318.44
294.372	296.44
294.603	302.44
294.833	307.44
295.064	322.44
295.295	320.44
295.525	293.44
295.756	323.44
295.987	318.44
296.217	342.44
296.448	352.44
296.679	326.44
296.909	322.44
297.14	317.44
297.37	311.44
297.601	315.44
297.831	302.44
298.062	318.44
298.292	311.44
298.523	332.44
298.753	328.44
298.984	325.44
299.214	303.44
299.445	323.44
299.675	315.44
299.905	310.44
300.136	317.44
300.366	307.44
300.597	340.44
300.827	334.44
301.057	342.44
301.288	350.44
301.518	345.44
301.748	347.44
301.979	344.44
302.209	349.44
302.439	338.44
302.669	358.44
302.9	348.44
303.13	339.44
303.36	347.44
303.59	356.44
303.82	348.44
304.051	348.44
304.281	342.44
304.511	347.44
304.741	343.44
304.971	348.44
305.201	356.44
305.431	314.44
305.661	338.44
305.891	353.44
306.121	348.44
306.352	343.44
306.582	345.44
306.812	366.44
307.042	339.44
307.272	349.44
307.502	338.44
307.731	348.44
307.961	362.44
308.191	355.44
308.421	362.44
308.651	347.44
308.881	371.44
309.111	358.44
309.341	337.44
309.571	373.44
309.8	383.44
310.03	412.44
310.26	370.44
310.49	402.44
310.72	410.44
310.949	419.44
311.179	436.44
311.409	401.44
311.639	400.44
311.868	396.44
312.098	402.44
312.328	412.44
312.557	420.44
312.787	457.44
313.017	456.44
313.246	436.44
313.476	380.44
313.706	391.44
313.935	418.44
314.165	408.44
314.394	448.44
314.624	427.44
314.853	424.44
315.083	414.44
315.312	410.44
315.542	397.44
315.771	403.44
316.001	403.44
316.23	392.44
316.46	392.44
316.689	413.44
316.919	406.44
317.148	411.44
317.377	416.44
317.607	412.44
317.836	398.44
318.065	388.44
318.295	416.44
318.524	390.44
318.753	387.44
318.983	404.44
319.212	408.44
319.441	410.44
319.67	412.44
319.9	410.44
320.129	411.44
320.358	394.44
320.587	396.44
320.816	412.44
321.046	415.44
321.275	427.44
321.504	422.44
321.733	426.44
321.962	444.44
322.191	471.44
322.42	465.44
322.649	474.44
322.878	486.44
323.108	477.44
323.337	536.44
323.566	540.44
323.795	551.44
324.024	643.44
324.253	804.44
324.482	1171.44
324.71	1740.44
324.939	2470.44
325.168	2198.44
325.397	1091.44
325.626	732.44
325.855	621.44
326.084	567.44
326.313	571.44
326.542	562.44
326.77	607.44
326.999	722.44
327.228	999.44
327.457	1557.44
327.686	1872.44
327.914	1259.44
328.143	833.44
328.372	705.44
328.6	640.44
328.829	615.44
329.058	651.44
329.287	633.44
329.515	590.44
329.744	534.44
329.972	532.44
330.201	536.44
330.43	569.44
330.658	611.44
330.887	658.44
331.115	650.44
331.344	555.44
331.572	516.44
331.801	524.44
332.03	537.44
332.258	490.44
332.486	490.44
332.715	466.44
332.943	467.44
333.172	462.44
333.4	453.44
333.629	467.44
333.857	476.44
334.085	476.44
334.314	465.44
334.542	494.44
334.771	500.44
334.999	500.44
335.227	465.44
335.455	467.44
335.684	464.44
335.912	467.44
336.14	457.44
336.369	450.44
336.597	473.44
336.825	467.44
337.053	458.44
337.281	454.44
337.51	443.44
337.738	469.44
337.966	430.44
338.194	478.44
338.422	465.44
338.65	466.44
338.878	450.44
339.106	422.44
339.334	442.44
339.562	424.44
339.79	438.44
340.018	438.44
340.246	446.44
340.474	461.44
340.702	455.44
340.93	441.44
341.158	436.44
341.386	446.44
341.614	445.44
341.842	432.44
342.07	424.44
342.298	425.44
342.526	440.44
342.754	421.44
342.981	418.44
343.209	416.44
343.437	428.44
343.665	432.44
343.893	434.44
344.12	446.44
344.348	444.44
344.576	449.44
344.804	475.44
345.031	460.44
345.259	481.44
345.487	444.44
345.714	423.44
345.942	413.44
346.17	422.44
346.397	429.44
346.625	430.44
346.853	419.44
347.08	432.44
347.308	422.44
347.535	442.44
347.763	458.44
347.99	452.44
348.218	462.44
348.445	449.44
348.673	435.44
348.9	422.44
349.128	438.44
349.355	433.44
349.583	423.44
349.81	412.44
350.037	421.44
350.265	402.44
350.492	421.44
350.72	417.44
350.947	428.44
351.174	434.44
351.402	442.44
351.629	439.44
351.856	441.44
352.083	448.44
352.311	451.44
352.538	444.44
352.765	445.44
352.992	450.44
353.22	442.44
353.447	422.44
353.674	414.44
353.901	430.44
354.128	403.44
354.355	392.44
354.583	402.44
354.81	400.44
355.037	398.44
355.264	389.44
355.491	392.44
355.718	386.44
355.945	406.44
356.172	399.44
356.399	411.44
356.626	396.44
356.853	387.44
357.08	377.44
357.307	388.44
357.534	384.44
357.761	377.44
357.988	383.44
358.215	395.44
358.441	388.44
358.668	392.44
358.895	393.44
359.122	413.44
359.349	412.44
359.576	423.44
359.802	460.44
360.029	485.44
360.256	486.44
360.483	473.44
360.709	445.44
360.936	427.44
361.163	418.44
361.39	430.44
361.616	432.44
361.843	434.44
362.07	429.44
362.296	404.44
362.523	410.44
362.749	425.44
362.976	429.44
363.203	412.44
363.429	424.44
363.656	410.44
363.882	398.44
364.109	368.44
364.335	404.44
364.562	404.44
364.788	387.44
365.015	398.44
365.241	397.44
365.468	394.44
365.694	414.44
365.92	417.44
366.147	407.44
366.373	396.44
366.599	384.44
366.826	381.44
367.052	386.44
367.278	410.44
367.505	401.44
367.731	396.44
367.957	398.44
368.184	406.44
368.41	394.44
368.636	423.44
368.862	432.44
369.089	408.44
369.315	392.44
369.541	377.44
369.767	404.44
369.993	404.44
370.219	391.44
370.445	395.44
370.672	361.44
370.898	378.44
371.124	393.44
371.35	383.44
371.576	378.44
371.802	393.44
372.028	390.44
372.254	389.44
372.48	384.44
372.706	378.44
372.932	389.44
373.158	396.44
373.384	404.44
373.61	392.44
373.835	396.44
374.061	383.44
374.287	379.44
374.513	421.44
374.739	400.44
374.965	401.44
375.191	378.44
375.416	383.44
375.642	387.44
375.868	378.44
376.094	399.44
376.319	377.44
376.545	379.44
376.771	378.44
376.997	369.44
377.222	379.44
377.448	392.44
377.674	404.44
377.899	387.44
378.125	365.44
378.35	378.44
378.576	371.44
378.802	386.44
379.027	388.44
379.253	375.44
379.478	383.44
379.704	373.44
379.929	396.44
380.155	387.44
380.38	378.44
380.606	372.44
380.831	390.44
381.057	381.44
381.282	370.44
381.507	388.44
381.733	393.44
381.958	372.44
382.184	388.44
382.409	402.44
382.634	397.44
382.86	399.44
383.085	400.44
383.31	390.44
383.535	400.44
383.761	396.44
383.986	392.44
384.211	396.44
384.436	402.44
384.662	401.44
384.887	408.44
385.112	404.44
385.337	409.44
385.562	398.44
385.787	394.44
386.013	417.44
386.238	417.44
386.463	441.44
386.688	396.44
386.913	402.44
387.138	404.44
387.363	412.44
387.588	394.44
387.813	418.44
388.038	396.44
388.263	399.44
388.488	404.44
388.713	396.44
388.938	413.44
389.163	419.44
389.387	420.44
389.612	403.44
389.837	399.44
390.062	404.44
390.287	382.44
390.512	385.44
390.736	414.44
390.961	400.44
391.186	405.44
391.411	415.44
391.636	410.44
391.86	410.44
392.085	422.44
392.31	420.44
392.534	398.44
392.759	395.44
392.984	418.44
393.208	406.44
393.433	391.44
393.658	392.44
393.882	392.44
394.107	403.44
394.331	414.44
394.556	406.44
394.78	392.44
395.005	412.44
395.229	419.44
395.454	406.44
395.678	419.44
395.903	422.44
396.127	462.44
396.352	452.44
396.576	437.44
396.801	404.44
397.025	424.44
397.249	414.44
397.474	432.44
397.698	421.44
397.922	447.44
398.147	449.44
398.371	474.44
398.595	457.44
398.82	447.44
399.044	484.44
399.268	464.44
399.492	482.44
399.717	510.44
399.941	534.44
400.165	540.44
400.389	555.44
400.613	533.44
400.837	486.44
401.062	459.44
401.286	470.44
401.51	458.44
401.734	444.44
401.958	454.44
402.182	461.44
402.406	484.44
402.63	458.44
402.854	449.44
403.078	466.44
403.302	449.44
403.526	475.44
403.75	492.44
403.974	460.44
404.198	444.44
404.422	474.44
404.645	470.44
404.869	470.44
405.093	494.44
405.317	530.44
405.541	557.44
405.765	513.44
405.988	510.44
406.212	525.44
406.436	566.44
406.66	548.44
406.883	531.44
407.107	520.44
407.331	558.44
407.555	640.44
407.778	634.44
408.002	590.44
408.226	543.44
408.449	515.44
408.673	528.44
408.896	555.44
409.12	573.44
409.344	564.44
409.567	497.44
409.791	491.44
410.014	484.44
410.238	474.44
410.461	462.44
410.685	472.44
410.908	487.44
411.132	524.44
411.355	580.44
411.578	542.44
411.802	502.44
412.025	452.44
412.249	464.44
412.472	488.44
412.695	501.44
412.919	471.44
413.142	478.44
413.365	444.44
413.589	454.44
413.812	442.44
414.035	439.44
414.258	447.44
414.482	465.44
414.705	437.44
414.928	437.44
415.151	436.44
415.374	423.44
415.597	428.44
415.821	435.44
416.044	453.44
416.267	455.44
416.49	443.44
416.713	440.44
416.936	450.44
417.159	444.44
417.382	455.44
417.605	462.44
417.828	455.44
418.051	457.44
418.274	462.44
418.497	442.44
418.72	434.44
418.943	439.44
419.166	456.44
419.389	470.44
419.611	455.44
419.834	466.44
420.057	474.44
420.28	454.44
420.503	445.44
420.726	461.44
420.948	483.44
421.171	488.44
421.394	571.44
421.617	506.44
421.839	466.44
422.062	481.44
422.285	504.44
422.507	534.44
422.73	625.44
422.953	600.44
423.175	534.44
423.398	502.44
423.621	500.44
423.843	519.44
424.066	511.44
424.288	508.44
424.511	503.44
424.733	583.44
424.956	690.44
425.178	645.44
425.401	616.44
425.623	644.44
425.846	570.44
426.068	526.44
426.291	512.44
426.513	516.44
426.735	554.44
426.958	554.44
427.18	631.44
427.402	760.44
427.625	868.44
427.847	772.44
428.069	646.44
428.292	572.44
428.514	512.44
428.736	499.44
428.958	514.44
429.181	469.44
429.403	466.44
429.625	493.44
429.847	538.44
430.069	612.44
430.292	581.44
430.514	510.44
430.736	476.44
430.958	470.44
431.18	468.44
431.402	454.44
431.624	453.44
431.846	440.44
432.068	425.44
432.29	437.44
432.512	448.44
432.734	463.44
432.956	446.44
433.178	438.44
433.4	471.44
433.622	444.44
433.844	435.44
434.066	436.44
434.287	436.44
434.509	439.44
434.731	464.44
434.953	454.44
435.175	469.44
435.397	500.44
435.618	514.44
435.84	574.44
436.062	654.44
436.284	690.44
436.505	602.44
436.727	534.44
436.949	501.44
437.17	499.44
437.392	485.44
437.614	483.44
437.835	526.44
438.057	627.44
438.278	725.44
438.5	712.44
438.721	782.44
438.943	753.44
439.165	603.44
439.386	562.44
439.608	537.44
439.829	539.44
440.05	556.44
440.272	599.44
440.493	555.44
440.715	536.44
440.936	496.44
441.158	501.44
441.379	485.44
441.6	488.44
441.822	481.44
442.043	583.44
442.264	632.44
442.486	676.44
442.707	572.44
442.928	531.44
443.149	546.44
443.371	564.44
443.592	612.44
443.813	698.44
444.034	752.44
444.255	629.44
444.476	543.44
444.698	510.44
444.919	514.44
445.14	617.44
445.361	556.44
445.582	552.44
445.803	628.44
446.024	705.44
446.245	731.44
446.466	664.44
446.687	604.44
446.908	516.44
447.129	498.44
447.35	495.44
447.571	497.44
447.792	477.44
448.013	488.44
448.234	496.44
448.455	561.44
448.675	677.44
448.896	776.44
449.117	651.44
449.338	620.44
449.559	743.44
449.779	811.44
450	652.44
450.221	528.44
450.442	514.44
450.662	468.44
450.883	474.44
451.104	490.44
451.324	479.44
451.545	462.44
451.766	432.44
451.986	440.44
452.207	411.44
452.428	425.44
452.648	426.44
452.869	436.44
453.089	440.44
453.31	452.44
453.53	439.44
453.751	424.44
453.971	436.44
454.192	443.44
454.412	467.44
454.633	427.44
454.853	415.44
455.073	429.44
455.294	459.44
455.514	526.44
455.734	487.44
455.955	437.44
456.175	398.44
456.395	390.44
456.616	391.44
456.836	381.44
457.056	386.44
457.276	381.44
457.497	394.44
457.717	384.44
457.937	392.44
458.157	416.44
458.377	417.44
458.598	442.44
458.818	503.44
459.038	594.44
459.258	585.44
459.478	507.44
459.698	455.44
459.918	436.44
460.138	427.44
460.358	436.44
460.578	423.44
460.798	426.44
461.018	432.44
461.238	432.44
461.458	421.44
461.678	428.44
461.898	448.44
462.118	432.44
462.338	432.44
462.558	454.44
462.777	461.44
462.997	474.44
463.217	467.44
463.437	472.44
463.657	467.44
463.876	446.44
464.096	443.44
464.316	465.44
464.536	494.44
464.755	470.44
464.975	469.44
465.195	537.44
465.414	581.44
465.634	532.44
465.854	501.44
466.073	453.44
466.293	436.44
466.512	434.44
466.732	415.44
466.951	430.44
467.171	444.44
467.391	432.44
467.61	457.44
467.829	468.44
468.049	429.44
468.268	425.44
468.488	424.44
468.707	403.44
468.927	403.44
469.146	409.44
469.365	414.44
469.585	418.44
469.804	423.44
470.023	435.44
470.243	418.44
470.462	445.44
470.681	461.44
470.901	450.44
471.12	434.44
471.339	434.44
471.558	428.44
471.777	424.44
471.997	409.44
472.216	414.44
472.435	423.44
472.654	437.44
472.873	439.44
473.092	432.44
473.311	424.44
473.53	439.44
473.749	440.44
473.968	472.44
474.187	601.44
474.406	619.44
474.625	513.44
474.844	449.44
475.063	414.44
475.282	432.44
475.501	442.44
475.72	447.44
475.939	428.44
476.158	450.44
476.377	436.44
476.596	442.44
476.814	478.44
477.033	453.44
477.252	457.44
477.471	459.44
477.69	461.44
477.908	473.44
478.127	469.44
478.346	468.44
478.564	467.44
478.783	457.44
479.002	496.44
479.22	506.44
479.439	508.44
479.658	527.44
479.876	524.44
480.095	525.44
480.313	526.44
480.532	497.44
480.751	521.44
480.969	507.44
481.188	551.44
481.406	557.44
481.624	523.44
481.843	537.44
482.061	521.44
482.28	498.44
482.498	525.44
482.717	495.44
482.935	496.44
483.153	498.44
483.372	498.44
483.59	534.44
483.808	526.44
484.027	510.44
484.245	505.44
484.463	516.44
484.681	508.44
484.9	541.44
485.118	513.44
485.336	507.44
485.554	540.44
485.772	520.44
485.99	535.44
486.209	526.44
486.427	523.44
486.645	562.44
486.863	557.44
487.081	556.44
487.299	535.44
487.517	569.44
487.735	556.44
487.953	547.44
488.171	554.44
488.389	537.44
488.607	549.44
488.825	532.44
489.043	546.44
489.261	561.44
489.479	548.44
489.696	572.44
489.914	554.44
490.132	555.44
490.35	539.44
490.568	568.44
490.786	593.44
491.003	588.44
491.221	592.44
491.439	608.44
491.657	610.44
491.874	638.44
492.092	640.44
492.31	644.44
492.527	639.44
492.745	617.44
492.963	622.44
493.18	641.44
493.398	613.44
493.615	654.44
493.833	640.44
494.05	652.44
494.268	648.44
494.485	645.44
494.703	659.44
494.92	661.44
495.138	662.44
495.355	648.44
495.573	642.44
495.79	663.44
496.008	679.44
496.225	648.44
496.442	619.44
496.66	660.44
496.877	654.44
497.094	686.44
497.312	654.44
497.529	681.44
497.746	679.44
497.963	680.44
498.181	685.44
498.398	713.44
498.615	703.44
498.832	734.44
499.049	702.44
499.267	724.44
499.484	756.44
499.701	773.44
499.918	772.44
500.135	816.44
500.352	813.44
500.569	830.44
500.786	841.44
501.003	816.44
501.22	805.44
501.437	812.44
501.654	808.44
501.871	784.44
