Data from 1989.PennyLincolnUp.Lamp.En5.5.200Scan.071819.P2_HRD10591_17-24-13-973.txt Node
Date: Thu Jul 18 17:24:13 EDT 2019
User: cochatt
Spectrometer: HR+D1059
Trigger mode: 1
Integration Time (sec): 1.000000E-1
Scans to average: 1
Electric dark correction enabled: true
Nonlinearity correction enabled: false
Boxcar width: 0
XAxis mode: Wavelengths
Number of Pixels in Spectrum: 2048
>>>>>Begin Spectral Data<<<<<
223.165	-12.12
223.4	-12.12
223.635	-12.12
223.869	-14.12
224.104	-15.12
224.338	-7.12
224.573	-26.12
224.808	-19.12
225.042	-8.12
225.277	-10.12
225.511	-6.12
225.746	8.88
225.98	7.88
226.215	9.88
226.449	23.88
226.683	18.88
226.918	16.88
227.152	31.88
227.387	39.88
227.621	41.88
227.856	29.88
228.09	55.88
228.324	52.88
228.559	58.88
228.793	78.88
229.027	108.88
229.262	106.88
229.496	122.88
229.73	139.88
229.964	169.88
230.199	119.88
230.433	106.88
230.667	117.88
230.901	119.88
231.136	104.88
231.37	120.88
231.604	115.88
231.838	119.88
232.072	135.88
232.306	105.88
232.541	100.88
232.775	104.88
233.009	113.88
233.243	111.88
233.477	101.88
233.711	127.88
233.945	131.88
234.179	118.88
234.413	121.88
234.647	110.88
234.881	116.88
235.115	125.88
235.349	109.88
235.583	125.88
235.817	120.88
236.051	121.88
236.285	139.88
236.519	127.88
236.753	142.88
236.987	154.88
237.221	179.88
237.455	225.88
237.689	196.88
237.922	150.88
238.156	137.88
238.39	133.88
238.624	127.88
238.858	136.88
239.091	119.88
239.325	147.88
239.559	133.88
239.793	140.88
240.027	144.88
240.26	129.88
240.494	168.88
240.728	149.88
240.961	161.88
241.195	141.88
241.429	136.88
241.662	123.88
241.896	139.88
242.13	127.88
242.363	143.88
242.597	140.88
242.83	137.88
243.064	144.88
243.298	149.88
243.531	145.88
243.765	144.88
243.998	133.88
244.232	135.88
244.465	141.88
244.699	154.88
244.932	161.88
245.166	157.88
245.399	150.88
245.633	141.88
245.866	153.88
246.099	155.88
246.333	165.88
246.566	161.88
246.8	157.88
247.033	161.88
247.266	167.88
247.5	173.88
247.733	192.88
247.966	187.88
248.2	193.88
248.433	185.88
248.666	182.88
248.899	197.88
249.133	218.88
249.366	209.88
249.599	211.88
249.832	196.88
250.066	197.88
250.299	200.88
250.532	200.88
250.765	198.88
250.998	257.88
251.231	247.88
251.465	230.88
251.698	210.88
251.931	218.88
252.164	204.88
252.397	222.88
252.63	225.88
252.863	221.88
253.096	246.88
253.329	242.88
253.562	252.88
253.795	265.88
254.028	238.88
254.261	253.88
254.494	244.88
254.727	278.88
254.96	295.88
255.193	291.88
255.426	265.88
255.659	236.88
255.892	249.88
256.124	237.88
256.357	234.88
256.59	247.88
256.823	218.88
257.056	241.88
257.289	217.88
257.521	221.88
257.754	230.88
257.987	222.88
258.22	238.88
258.452	214.88
258.685	220.88
258.918	229.88
259.151	231.88
259.383	233.88
259.616	244.88
259.849	243.88
260.081	253.88
260.314	262.88
260.547	265.88
260.779	287.88
261.012	247.88
261.244	266.88
261.477	262.88
261.71	255.88
261.942	243.88
262.175	269.88
262.407	268.88
262.64	245.88
262.872	233.88
263.105	222.88
263.337	245.88
263.57	225.88
263.802	243.88
264.035	237.88
264.267	234.88
264.499	229.88
264.732	237.88
264.964	216.88
265.197	226.88
265.429	238.88
265.661	231.88
265.894	241.88
266.126	237.88
266.358	237.88
266.591	239.88
266.823	238.88
267.055	239.88
267.287	244.88
267.52	242.88
267.752	229.88
267.984	240.88
268.216	239.88
268.448	252.88
268.681	265.88
268.913	269.88
269.145	287.88
269.377	286.88
269.609	289.88
269.841	289.88
270.073	307.88
270.306	331.88
270.538	345.88
270.77	340.88
271.002	326.88
271.234	334.88
271.466	329.88
271.698	349.88
271.93	343.88
272.162	342.88
272.394	362.88
272.626	345.88
272.858	329.88
273.09	296.88
273.322	310.88
273.553	305.88
273.785	291.88
274.017	275.88
274.249	283.88
274.481	291.88
274.713	276.88
274.945	294.88
275.176	301.88
275.408	286.88
275.64	274.88
275.872	284.88
276.104	287.88
276.335	287.88
276.567	291.88
276.799	320.88
277.031	309.88
277.262	342.88
277.494	344.88
277.726	348.88
277.957	322.88
278.189	307.88
278.421	284.88
278.652	307.88
278.884	301.88
279.115	282.88
279.347	287.88
279.579	308.88
279.81	293.88
280.042	280.88
280.273	292.88
280.505	296.88
280.736	294.88
280.968	273.88
281.199	289.88
281.431	286.88
281.662	290.88
281.894	292.88
282.125	281.88
282.356	317.88
282.588	332.88
282.819	349.88
283.051	302.88
283.282	287.88
283.513	300.88
283.745	307.88
283.976	313.88
284.207	305.88
284.439	306.88
284.67	316.88
284.901	306.88
285.132	282.88
285.364	284.88
285.595	302.88
285.826	297.88
286.057	300.88
286.288	306.88
286.52	316.88
286.751	295.88
286.982	300.88
287.213	307.88
287.444	304.88
287.675	322.88
287.906	309.88
288.138	328.88
288.369	329.88
288.6	330.88
288.831	311.88
289.062	323.88
289.293	321.88
289.524	309.88
289.755	325.88
289.986	306.88
290.217	311.88
290.448	316.88
290.679	327.88
290.91	312.88
291.141	305.88
291.371	300.88
291.602	324.88
291.833	313.88
292.064	317.88
292.295	310.88
292.526	293.88
292.757	300.88
292.987	297.88
293.218	305.88
293.449	309.88
293.68	312.88
293.91	311.88
294.141	296.88
294.372	321.88
294.603	299.88
294.833	320.88
295.064	321.88
295.295	315.88
295.525	313.88
295.756	316.88
295.987	324.88
296.217	347.88
296.448	366.88
296.679	335.88
296.909	320.88
297.14	322.88
297.37	321.88
297.601	305.88
297.831	315.88
298.062	331.88
298.292	318.88
298.523	317.88
298.753	340.88
298.984	313.88
299.214	334.88
299.445	314.88
299.675	329.88
299.905	326.88
300.136	329.88
300.366	325.88
300.597	327.88
300.827	349.88
301.057	329.88
301.288	339.88
301.518	339.88
301.748	350.88
301.979	339.88
302.209	344.88
302.439	350.88
302.669	337.88
302.9	345.88
303.13	352.88
303.36	358.88
303.59	356.88
303.82	358.88
304.051	370.88
304.281	339.88
304.511	334.88
304.741	359.88
304.971	342.88
305.201	342.88
305.431	354.88
305.661	350.88
305.891	361.88
306.121	357.88
306.352	360.88
306.582	343.88
306.812	344.88
307.042	358.88
307.272	369.88
307.502	348.88
307.731	340.88
307.961	349.88
308.191	354.88
308.421	356.88
308.651	380.88
308.881	366.88
309.111	371.88
309.341	375.88
309.571	359.88
309.8	385.88
310.03	405.88
310.26	399.88
310.49	397.88
310.72	419.88
310.949	409.88
311.179	435.88
311.409	417.88
311.639	410.88
311.868	408.88
312.098	422.88
312.328	413.88
312.557	422.88
312.787	450.88
313.017	434.88
313.246	411.88
313.476	409.88
313.706	391.88
313.935	417.88
314.165	425.88
314.394	439.88
314.624	404.88
314.853	409.88
315.083	400.88
315.312	403.88
315.542	412.88
315.771	386.88
316.001	397.88
316.23	428.88
316.46	400.88
316.689	403.88
316.919	396.88
317.148	423.88
317.377	407.88
317.607	415.88
317.836	420.88
318.065	409.88
318.295	411.88
318.524	390.88
318.753	400.88
318.983	391.88
319.212	413.88
319.441	418.88
319.67	424.88
319.9	418.88
320.129	399.88
320.358	407.88
320.587	421.88
320.816	440.88
321.046	433.88
321.275	431.88
321.504	417.88
321.733	423.88
321.962	453.88
322.191	462.88
322.42	475.88
322.649	487.88
322.878	498.88
323.108	519.88
323.337	517.88
323.566	557.88
323.795	590.88
324.024	645.88
324.253	765.88
324.482	1114.88
324.71	1689.88
324.939	2438.88
325.168	2177.88
325.397	1105.88
325.626	761.88
325.855	614.88
326.084	569.88
326.313	535.88
326.542	575.88
326.77	617.88
326.999	723.88
327.228	976.88
327.457	1521.88
327.686	1866.88
327.914	1210.88
328.143	819.88
328.372	699.88
328.6	657.88
328.829	619.88
329.058	602.88
329.287	626.88
329.515	589.88
329.744	546.88
329.972	521.88
330.201	548.88
330.43	582.88
330.658	615.88
330.887	668.88
331.115	647.88
331.344	567.88
331.572	526.88
331.801	518.88
332.03	492.88
332.258	501.88
332.486	478.88
332.715	473.88
332.943	476.88
333.172	482.88
333.4	477.88
333.629	488.88
333.857	485.88
334.085	478.88
334.314	485.88
334.542	474.88
334.771	481.88
334.999	455.88
335.227	451.88
335.455	455.88
335.684	444.88
335.912	468.88
336.14	446.88
336.369	460.88
336.597	475.88
336.825	479.88
337.053	457.88
337.281	466.88
337.51	452.88
337.738	460.88
337.966	453.88
338.194	453.88
338.422	456.88
338.65	440.88
338.878	448.88
339.106	441.88
339.334	410.88
339.562	435.88
339.79	460.88
340.018	441.88
340.246	465.88
340.474	446.88
340.702	450.88
340.93	444.88
341.158	460.88
341.386	447.88
341.614	468.88
341.842	435.88
342.07	447.88
342.298	442.88
342.526	425.88
342.754	428.88
342.981	416.88
343.209	435.88
343.437	436.88
343.665	444.88
343.893	447.88
344.12	453.88
344.348	442.88
344.576	479.88
344.804	446.88
345.031	471.88
345.259	455.88
345.487	476.88
345.714	459.88
345.942	434.88
346.17	437.88
346.397	437.88
346.625	447.88
346.853	428.88
347.08	435.88
347.308	445.88
347.535	448.88
347.763	463.88
347.99	440.88
348.218	439.88
348.445	444.88
348.673	443.88
348.9	439.88
349.128	412.88
349.355	415.88
349.583	425.88
349.81	415.88
350.037	409.88
350.265	426.88
350.492	449.88
350.72	423.88
350.947	414.88
351.174	423.88
351.402	439.88
351.629	447.88
351.856	451.88
352.083	454.88
352.311	450.88
352.538	437.88
352.765	437.88
352.992	440.88
353.22	433.88
353.447	424.88
353.674	419.88
353.901	414.88
354.128	410.88
354.355	417.88
354.583	425.88
354.81	418.88
355.037	405.88
355.264	397.88
355.491	396.88
355.718	372.88
355.945	384.88
356.172	367.88
356.399	401.88
356.626	391.88
356.853	388.88
357.08	393.88
357.307	398.88
357.534	421.88
357.761	407.88
357.988	400.88
358.215	388.88
358.441	401.88
358.668	397.88
358.895	380.88
359.122	397.88
359.349	419.88
359.576	414.88
359.802	438.88
360.029	492.88
360.256	499.88
360.483	466.88
360.709	433.88
360.936	418.88
361.163	441.88
361.39	413.88
361.616	431.88
361.843	448.88
362.07	427.88
362.296	429.88
362.523	416.88
362.749	414.88
362.976	404.88
363.203	421.88
363.429	420.88
363.656	403.88
363.882	410.88
364.109	395.88
364.335	373.88
364.562	391.88
364.788	389.88
365.015	397.88
365.241	393.88
365.468	411.88
365.694	407.88
365.92	428.88
366.147	379.88
366.373	403.88
366.599	409.88
366.826	403.88
367.052	399.88
367.278	403.88
367.505	407.88
367.731	391.88
367.957	412.88
368.184	397.88
368.41	407.88
368.636	440.88
368.862	423.88
369.089	412.88
369.315	397.88
369.541	401.88
369.767	402.88
369.993	400.88
370.219	427.88
370.445	390.88
370.672	378.88
370.898	375.88
371.124	408.88
371.35	377.88
371.576	392.88
371.802	397.88
372.028	371.88
372.254	405.88
372.48	401.88
372.706	398.88
372.932	417.88
373.158	411.88
373.384	393.88
373.61	391.88
373.835	394.88
374.061	396.88
374.287	390.88
374.513	397.88
374.739	411.88
374.965	411.88
375.191	384.88
375.416	395.88
375.642	401.88
375.868	398.88
376.094	383.88
376.319	394.88
376.545	391.88
376.771	371.88
376.997	374.88
377.222	372.88
377.448	406.88
377.674	397.88
377.899	374.88
378.125	391.88
378.35	394.88
378.576	393.88
378.802	359.88
379.027	379.88
379.253	378.88
379.478	381.88
379.704	376.88
379.929	379.88
380.155	379.88
380.38	383.88
380.606	377.88
380.831	393.88
381.057	403.88
381.282	422.88
381.507	391.88
381.733	393.88
381.958	412.88
382.184	411.88
382.409	393.88
382.634	376.88
382.86	403.88
383.085	411.88
383.31	389.88
383.535	389.88
383.761	402.88
383.986	383.88
384.211	397.88
384.436	410.88
384.662	420.88
384.887	403.88
385.112	401.88
385.337	412.88
385.562	407.88
385.787	415.88
386.013	420.88
386.238	441.88
386.463	414.88
386.688	425.88
386.913	396.88
387.138	414.88
387.363	418.88
387.588	415.88
387.813	425.88
388.038	390.88
388.263	407.88
388.488	441.88
388.713	414.88
388.938	406.88
389.163	421.88
389.387	415.88
389.612	395.88
389.837	414.88
390.062	397.88
390.287	400.88
390.512	413.88
390.736	397.88
390.961	381.88
391.186	418.88
391.411	416.88
391.636	404.88
391.86	413.88
392.085	415.88
392.31	422.88
392.534	413.88
392.759	419.88
392.984	421.88
393.208	414.88
393.433	419.88
393.658	410.88
393.882	411.88
394.107	420.88
394.331	391.88
394.556	415.88
394.78	424.88
395.005	425.88
395.229	417.88
395.454	419.88
395.678	440.88
395.903	427.88
396.127	461.88
396.352	476.88
396.576	420.88
396.801	415.88
397.025	422.88
397.249	433.88
397.474	455.88
397.698	433.88
397.922	444.88
398.147	467.88
398.371	468.88
398.595	465.88
398.82	465.88
399.044	476.88
399.268	449.88
399.492	497.88
399.717	520.88
399.941	540.88
400.165	561.88
400.389	556.88
400.613	526.88
400.837	502.88
401.062	492.88
401.286	491.88
401.51	465.88
401.734	456.88
401.958	457.88
402.182	467.88
402.406	483.88
402.63	476.88
402.854	479.88
403.078	487.88
403.302	472.88
403.526	479.88
403.75	462.88
403.974	469.88
404.198	457.88
404.422	483.88
404.645	489.88
404.869	502.88
405.093	497.88
405.317	544.88
405.541	554.88
405.765	483.88
405.988	506.88
406.212	507.88
406.436	526.88
406.66	537.88
406.883	527.88
407.107	533.88
407.331	586.88
407.555	641.88
407.778	664.88
408.002	579.88
408.226	557.88
408.449	534.88
408.673	547.88
408.896	563.88
409.12	593.88
409.344	586.88
409.567	515.88
409.791	491.88
410.014	505.88
410.238	480.88
410.461	480.88
410.685	489.88
410.908	503.88
411.132	511.88
411.355	575.88
411.578	541.88
411.802	499.88
412.025	463.88
412.249	472.88
412.472	465.88
412.695	481.88
412.919	502.88
413.142	483.88
413.365	476.88
413.589	472.88
413.812	462.88
414.035	466.88
414.258	438.88
414.482	444.88
414.705	433.88
414.928	454.88
415.151	443.88
415.374	463.88
415.597	450.88
415.821	449.88
416.044	487.88
416.267	462.88
416.49	442.88
416.713	446.88
416.936	451.88
417.159	451.88
417.382	466.88
417.605	463.88
417.828	469.88
418.051	484.88
418.274	481.88
418.497	461.88
418.72	445.88
418.943	450.88
419.166	439.88
419.389	469.88
419.611	483.88
419.834	469.88
420.057	465.88
420.28	446.88
420.503	456.88
420.726	464.88
420.948	483.88
421.171	526.88
421.394	551.88
421.617	502.88
421.839	469.88
422.062	477.88
422.285	469.88
422.507	577.88
422.73	632.88
422.953	607.88
423.175	528.88
423.398	506.88
423.621	523.88
423.843	542.88
424.066	523.88
424.288	509.88
424.511	547.88
424.733	581.88
424.956	658.88
425.178	663.88
425.401	636.88
425.623	657.88
425.846	571.88
426.068	555.88
426.291	546.88
426.513	519.88
426.735	541.88
426.958	568.88
427.18	661.88
427.402	780.88
427.625	838.88
427.847	736.88
428.069	637.88
428.292	581.88
428.514	517.88
428.736	525.88
428.958	498.88
429.181	487.88
429.403	485.88
429.625	481.88
429.847	523.88
430.069	582.88
430.292	610.88
430.514	505.88
430.736	509.88
430.958	478.88
431.18	457.88
431.402	458.88
431.624	442.88
431.846	463.88
432.068	457.88
432.29	453.88
432.512	463.88
432.734	445.88
432.956	474.88
433.178	463.88
433.4	477.88
433.622	446.88
433.844	460.88
434.066	462.88
434.287	455.88
434.509	467.88
434.731	474.88
434.953	474.88
435.175	490.88
435.397	517.88
435.618	500.88
435.84	570.88
436.062	657.88
436.284	735.88
436.505	597.88
436.727	563.88
436.949	518.88
437.17	513.88
437.392	532.88
437.614	481.88
437.835	546.88
438.057	632.88
438.278	735.88
438.5	730.88
438.721	807.88
438.943	755.88
439.165	610.88
439.386	557.88
439.608	566.88
439.829	559.88
440.05	547.88
440.272	599.88
440.493	567.88
440.715	527.88
440.936	493.88
441.158	491.88
441.379	481.88
441.6	523.88
441.822	543.88
442.043	554.88
442.264	651.88
442.486	709.88
442.707	591.88
442.928	551.88
443.149	554.88
443.371	572.88
443.592	597.88
443.813	714.88
444.034	731.88
444.255	635.88
444.476	573.88
444.698	523.88
444.919	521.88
445.14	609.88
445.361	585.88
445.582	559.88
445.803	635.88
446.024	740.88
446.245	771.88
446.466	679.88
446.687	573.88
446.908	546.88
447.129	516.88
447.35	472.88
447.571	501.88
447.792	473.88
448.013	492.88
448.234	518.88
448.455	545.88
448.675	686.88
448.896	813.88
449.117	663.88
449.338	641.88
449.559	733.88
449.779	827.88
450	663.88
450.221	571.88
450.442	500.88
450.662	498.88
450.883	497.88
451.104	519.88
451.324	492.88
451.545	453.88
451.766	443.88
451.986	445.88
452.207	427.88
452.428	435.88
452.648	445.88
452.869	435.88
453.089	440.88
453.31	474.88
453.53	452.88
453.751	423.88
453.971	455.88
454.192	444.88
454.412	469.88
454.633	428.88
454.853	429.88
455.073	438.88
455.294	483.88
455.514	526.88
455.734	502.88
455.955	442.88
456.175	418.88
456.395	426.88
456.616	397.88
456.836	418.88
457.056	397.88
457.276	388.88
457.497	392.88
457.717	405.88
457.937	409.88
458.157	389.88
458.377	415.88
458.598	443.88
458.818	505.88
459.038	614.88
459.258	600.88
459.478	509.88
459.698	459.88
459.918	458.88
460.138	439.88
460.358	439.88
460.578	431.88
460.798	451.88
461.018	452.88
461.238	465.88
461.458	440.88
461.678	421.88
461.898	438.88
462.118	457.88
462.338	446.88
462.558	439.88
462.777	439.88
462.997	474.88
463.217	493.88
463.437	472.88
463.657	479.88
463.876	460.88
464.096	477.88
464.316	464.88
464.536	469.88
464.755	470.88
464.975	466.88
465.195	518.88
465.414	606.88
465.634	547.88
465.854	497.88
466.073	450.88
466.293	457.88
466.512	442.88
466.732	415.88
466.951	444.88
467.171	447.88
467.391	425.88
467.61	419.88
467.829	456.88
468.049	441.88
468.268	435.88
468.488	409.88
468.707	429.88
468.927	420.88
469.146	418.88
469.365	433.88
469.585	420.88
469.804	423.88
470.023	440.88
470.243	451.88
470.462	438.88
470.681	459.88
470.901	459.88
471.12	426.88
471.339	441.88
471.558	449.88
471.777	424.88
471.997	417.88
472.216	424.88
472.435	435.88
472.654	427.88
472.873	449.88
473.092	427.88
473.311	445.88
473.53	433.88
473.749	444.88
473.968	484.88
474.187	631.88
474.406	622.88
474.625	501.88
474.844	458.88
475.063	422.88
475.282	425.88
475.501	457.88
475.72	461.88
475.939	476.88
476.158	460.88
476.377	459.88
476.596	441.88
476.814	445.88
477.033	468.88
477.252	470.88
477.471	475.88
477.69	467.88
477.908	477.88
478.127	474.88
478.346	476.88
478.564	486.88
478.783	479.88
479.002	499.88
479.22	485.88
479.439	505.88
479.658	513.88
479.876	532.88
480.095	527.88
480.313	566.88
480.532	559.88
480.751	546.88
480.969	548.88
481.188	547.88
481.406	567.88
481.624	531.88
481.843	517.88
482.061	525.88
482.28	538.88
482.498	519.88
482.717	507.88
482.935	500.88
483.153	517.88
483.372	510.88
483.59	507.88
483.808	514.88
484.027	513.88
484.245	527.88
484.463	518.88
484.681	506.88
484.9	515.88
485.118	528.88
485.336	515.88
485.554	537.88
485.772	541.88
485.99	542.88
486.209	541.88
486.427	558.88
486.645	536.88
486.863	559.88
487.081	563.88
487.299	545.88
487.517	553.88
487.735	550.88
487.953	574.88
488.171	533.88
488.389	554.88
488.607	586.88
488.825	546.88
489.043	558.88
489.261	569.88
489.479	574.88
489.696	555.88
489.914	552.88
490.132	565.88
490.35	583.88
490.568	586.88
490.786	581.88
491.003	580.88
491.221	605.88
491.439	606.88
491.657	628.88
491.874	619.88
492.092	625.88
492.31	642.88
492.527	641.88
492.745	610.88
492.963	646.88
493.18	645.88
493.398	645.88
493.615	667.88
493.833	638.88
494.05	678.88
494.268	656.88
494.485	638.88
494.703	645.88
494.92	664.88
495.138	663.88
495.355	653.88
495.573	680.88
495.79	643.88
496.008	648.88
496.225	659.88
496.442	664.88
496.66	670.88
496.877	659.88
497.094	661.88
497.312	667.88
497.529	669.88
497.746	697.88
497.963	691.88
498.181	698.88
498.398	706.88
498.615	702.88
498.832	717.88
499.049	720.88
499.267	769.88
499.484	782.88
499.701	772.88
499.918	789.88
500.135	804.88
500.352	859.88
500.569	858.88
500.786	865.88
501.003	862.88
501.22	834.88
501.437	839.88
501.654	829.88
501.871	812.88
