Data from 1989.PennyLincolnUp.Lamp.En5.5.200Scan.071819.P2_HRD10591_17-24-26-973.txt Node
Date: Thu Jul 18 17:24:26 EDT 2019
User: cochatt
Spectrometer: HR+D1059
Trigger mode: 1
Integration Time (sec): 1.000000E-1
Scans to average: 1
Electric dark correction enabled: true
Nonlinearity correction enabled: false
Boxcar width: 0
XAxis mode: Wavelengths
Number of Pixels in Spectrum: 2048
>>>>>Begin Spectral Data<<<<<
223.165	-6.44
223.4	-6.44
223.635	-6.44
223.869	-8.44
224.104	-27.44
224.338	-10.44
224.573	-20.44
224.808	-14.44
225.042	-8.44
225.277	-5.44
225.511	-9.44
225.746	-0.44
225.98	13.56
226.215	8.56
226.449	12.56
226.683	16.56
226.918	26.56
227.152	33.56
227.387	33.56
227.621	24.56
227.856	32.56
228.09	51.56
228.324	40.56
228.559	54.56
228.793	75.56
229.027	107.56
229.262	114.56
229.496	122.56
229.73	134.56
229.964	156.56
230.199	141.56
230.433	118.56
230.667	103.56
230.901	130.56
231.136	103.56
231.37	105.56
231.604	83.56
231.838	106.56
232.072	112.56
232.306	110.56
232.541	115.56
232.775	110.56
233.009	110.56
233.243	120.56
233.477	132.56
233.711	106.56
233.945	126.56
234.179	128.56
234.413	121.56
234.647	122.56
234.881	124.56
235.115	124.56
235.349	123.56
235.583	132.56
235.817	112.56
236.051	111.56
236.285	123.56
236.519	120.56
236.753	122.56
236.987	167.56
237.221	182.56
237.455	254.56
237.689	202.56
237.922	146.56
238.156	147.56
238.39	123.56
238.624	132.56
238.858	124.56
239.091	129.56
239.325	151.56
239.559	136.56
239.793	123.56
240.027	131.56
240.26	130.56
240.494	164.56
240.728	162.56
240.961	148.56
241.195	153.56
241.429	143.56
241.662	132.56
241.896	144.56
242.13	144.56
242.363	162.56
242.597	132.56
242.83	144.56
243.064	143.56
243.298	130.56
243.531	146.56
243.765	147.56
243.998	142.56
244.232	143.56
244.465	148.56
244.699	150.56
244.932	149.56
245.166	153.56
245.399	150.56
245.633	158.56
245.866	144.56
246.099	145.56
246.333	153.56
246.566	166.56
246.8	154.56
247.033	168.56
247.266	162.56
247.5	159.56
247.733	177.56
247.966	174.56
248.2	174.56
248.433	183.56
248.666	187.56
248.899	198.56
249.133	213.56
249.366	235.56
249.599	211.56
249.832	200.56
250.066	188.56
250.299	198.56
250.532	191.56
250.765	221.56
250.998	226.56
251.231	245.56
251.465	224.56
251.698	227.56
251.931	213.56
252.164	224.56
252.397	231.56
252.63	201.56
252.863	216.56
253.096	227.56
253.329	235.56
253.562	230.56
253.795	239.56
254.028	239.56
254.261	239.56
254.494	263.56
254.727	279.56
254.96	304.56
255.193	281.56
255.426	262.56
255.659	251.56
255.892	233.56
256.124	240.56
256.357	219.56
256.59	236.56
256.823	228.56
257.056	228.56
257.289	230.56
257.521	233.56
257.754	202.56
257.987	226.56
258.22	216.56
258.452	246.56
258.685	221.56
258.918	218.56
259.151	220.56
259.383	238.56
259.616	222.56
259.849	246.56
260.081	254.56
260.314	292.56
260.547	290.56
260.779	263.56
261.012	250.56
261.244	242.56
261.477	238.56
261.71	244.56
261.942	234.56
262.175	258.56
262.407	253.56
262.64	223.56
262.872	227.56
263.105	241.56
263.337	232.56
263.57	216.56
263.802	219.56
264.035	215.56
264.267	213.56
264.499	224.56
264.732	242.56
264.964	231.56
265.197	224.56
265.429	243.56
265.661	229.56
265.894	237.56
266.126	235.56
266.358	240.56
266.591	240.56
266.823	243.56
267.055	251.56
267.287	233.56
267.52	231.56
267.752	239.56
267.984	254.56
268.216	248.56
268.448	255.56
268.681	256.56
268.913	279.56
269.145	285.56
269.377	287.56
269.609	295.56
269.841	284.56
270.073	299.56
270.306	317.56
270.538	340.56
270.77	360.56
271.002	340.56
271.234	330.56
271.466	326.56
271.698	330.56
271.93	368.56
272.162	340.56
272.394	360.56
272.626	339.56
272.858	308.56
273.09	305.56
273.322	285.56
273.553	289.56
273.785	285.56
274.017	286.56
274.249	293.56
274.481	270.56
274.713	267.56
274.945	288.56
275.176	296.56
275.408	299.56
275.64	286.56
275.872	274.56
276.104	294.56
276.335	294.56
276.567	292.56
276.799	307.56
277.031	340.56
277.262	339.56
277.494	349.56
277.726	342.56
277.957	314.56
278.189	283.56
278.421	275.56
278.652	280.56
278.884	284.56
279.115	291.56
279.347	287.56
279.579	292.56
279.81	293.56
280.042	278.56
280.273	287.56
280.505	286.56
280.736	289.56
280.968	261.56
281.199	286.56
281.431	297.56
281.662	304.56
281.894	282.56
282.125	284.56
282.356	324.56
282.588	338.56
282.819	343.56
283.051	304.56
283.282	284.56
283.513	280.56
283.745	287.56
283.976	299.56
284.207	292.56
284.439	298.56
284.67	284.56
284.901	307.56
285.132	296.56
285.364	293.56
285.595	289.56
285.826	292.56
286.057	294.56
286.288	308.56
286.52	305.56
286.751	287.56
286.982	285.56
287.213	283.56
287.444	298.56
287.675	295.56
287.906	304.56
288.138	316.56
288.369	326.56
288.6	293.56
288.831	293.56
289.062	298.56
289.293	311.56
289.524	306.56
289.755	307.56
289.986	293.56
290.217	288.56
290.448	282.56
290.679	308.56
290.91	298.56
291.141	306.56
291.371	293.56
291.602	295.56
291.833	292.56
292.064	311.56
292.295	301.56
292.526	302.56
292.757	305.56
292.987	303.56
293.218	297.56
293.449	319.56
293.68	314.56
293.91	306.56
294.141	307.56
294.372	298.56
294.603	327.56
294.833	314.56
295.064	295.56
295.295	296.56
295.525	316.56
295.756	298.56
295.987	319.56
296.217	346.56
296.448	347.56
296.679	314.56
296.909	308.56
297.14	296.56
297.37	315.56
297.601	310.56
297.831	314.56
298.062	292.56
298.292	296.56
298.523	327.56
298.753	331.56
298.984	312.56
299.214	348.56
299.445	323.56
299.675	325.56
299.905	332.56
300.136	304.56
300.366	326.56
300.597	314.56
300.827	326.56
301.057	336.56
301.288	356.56
301.518	331.56
301.748	330.56
301.979	332.56
302.209	335.56
302.439	352.56
302.669	344.56
302.9	366.56
303.13	333.56
303.36	349.56
303.59	347.56
303.82	352.56
304.051	367.56
304.281	342.56
304.511	329.56
304.741	321.56
304.971	330.56
305.201	323.56
305.431	331.56
305.661	359.56
305.891	346.56
306.121	348.56
306.352	344.56
306.582	359.56
306.812	332.56
307.042	338.56
307.272	338.56
307.502	339.56
307.731	350.56
307.961	349.56
308.191	365.56
308.421	345.56
308.651	327.56
308.881	374.56
309.111	337.56
309.341	357.56
309.571	363.56
309.8	381.56
310.03	383.56
310.26	387.56
310.49	389.56
310.72	401.56
310.949	431.56
311.179	431.56
311.409	408.56
311.639	394.56
311.868	397.56
312.098	384.56
312.328	402.56
312.557	411.56
312.787	414.56
313.017	415.56
313.246	425.56
313.476	402.56
313.706	395.56
313.935	420.56
314.165	408.56
314.394	415.56
314.624	435.56
314.853	432.56
315.083	397.56
315.312	380.56
315.542	384.56
315.771	389.56
316.001	379.56
316.23	403.56
316.46	378.56
316.689	401.56
316.919	412.56
317.148	412.56
317.377	424.56
317.607	388.56
317.836	405.56
318.065	397.56
318.295	397.56
318.524	415.56
318.753	389.56
318.983	412.56
319.212	405.56
319.441	402.56
319.67	413.56
319.9	419.56
320.129	404.56
320.358	408.56
320.587	415.56
320.816	396.56
321.046	410.56
321.275	434.56
321.504	421.56
321.733	416.56
321.962	435.56
322.191	461.56
322.42	458.56
322.649	476.56
322.878	512.56
323.108	498.56
323.337	543.56
323.566	545.56
323.795	580.56
324.024	641.56
324.253	807.56
324.482	1103.56
324.71	1732.56
324.939	2452.56
325.168	2160.56
325.397	1123.56
325.626	743.56
325.855	603.56
326.084	566.56
326.313	550.56
326.542	553.56
326.77	605.56
326.999	706.56
327.228	993.56
327.457	1496.56
327.686	1830.56
327.914	1234.56
328.143	809.56
328.372	672.56
328.6	617.56
328.829	615.56
329.058	609.56
329.287	641.56
329.515	596.56
329.744	541.56
329.972	542.56
330.201	531.56
330.43	569.56
330.658	609.56
330.887	682.56
331.115	632.56
331.344	551.56
331.572	530.56
331.801	536.56
332.03	516.56
332.258	485.56
332.486	477.56
332.715	464.56
332.943	447.56
333.172	473.56
333.4	480.56
333.629	475.56
333.857	467.56
334.085	473.56
334.314	468.56
334.542	475.56
334.771	485.56
334.999	467.56
335.227	459.56
335.455	458.56
335.684	465.56
335.912	453.56
336.14	444.56
336.369	464.56
336.597	454.56
336.825	465.56
337.053	453.56
337.281	456.56
337.51	447.56
337.738	451.56
337.966	449.56
338.194	459.56
338.422	457.56
338.65	452.56
338.878	448.56
339.106	463.56
339.334	452.56
339.562	427.56
339.79	425.56
340.018	455.56
340.246	462.56
340.474	449.56
340.702	453.56
340.93	424.56
341.158	441.56
341.386	447.56
341.614	452.56
341.842	431.56
342.07	418.56
342.298	414.56
342.526	407.56
342.754	411.56
342.981	410.56
343.209	417.56
343.437	421.56
343.665	411.56
343.893	441.56
344.12	439.56
344.348	425.56
344.576	455.56
344.804	444.56
345.031	453.56
345.259	460.56
345.487	447.56
345.714	458.56
345.942	435.56
346.17	404.56
346.397	425.56
346.625	426.56
346.853	447.56
347.08	424.56
347.308	422.56
347.535	431.56
347.763	446.56
347.99	434.56
348.218	437.56
348.445	468.56
348.673	438.56
348.9	423.56
349.128	423.56
349.355	406.56
349.583	424.56
349.81	419.56
350.037	407.56
350.265	419.56
350.492	413.56
350.72	423.56
350.947	427.56
351.174	443.56
351.402	443.56
351.629	430.56
351.856	413.56
352.083	433.56
352.311	434.56
352.538	440.56
352.765	450.56
352.992	424.56
353.22	419.56
353.447	401.56
353.674	410.56
353.901	408.56
354.128	392.56
354.355	381.56
354.583	395.56
354.81	377.56
355.037	388.56
355.264	383.56
355.491	386.56
355.718	391.56
355.945	386.56
356.172	395.56
356.399	381.56
356.626	395.56
356.853	368.56
357.08	372.56
357.307	370.56
357.534	376.56
357.761	370.56
357.988	373.56
358.215	386.56
358.441	397.56
358.668	370.56
358.895	370.56
359.122	404.56
359.349	410.56
359.576	436.56
359.802	471.56
360.029	487.56
360.256	469.56
360.483	458.56
360.709	442.56
360.936	418.56
361.163	438.56
361.39	422.56
361.616	430.56
361.843	427.56
362.07	419.56
362.296	415.56
362.523	419.56
362.749	426.56
362.976	430.56
363.203	403.56
363.429	391.56
363.656	393.56
363.882	415.56
364.109	405.56
364.335	390.56
364.562	414.56
364.788	413.56
365.015	396.56
365.241	382.56
365.468	394.56
365.694	419.56
365.92	413.56
366.147	388.56
366.373	391.56
366.599	391.56
366.826	396.56
367.052	389.56
367.278	388.56
367.505	379.56
367.731	392.56
367.957	409.56
368.184	392.56
368.41	376.56
368.636	392.56
368.862	416.56
369.089	391.56
369.315	399.56
369.541	385.56
369.767	402.56
369.993	400.56
370.219	400.56
370.445	379.56
370.672	386.56
370.898	382.56
371.124	389.56
371.35	397.56
371.576	391.56
371.802	383.56
372.028	399.56
372.254	402.56
372.48	381.56
372.706	378.56
372.932	400.56
373.158	397.56
373.384	378.56
373.61	403.56
373.835	374.56
374.061	381.56
374.287	384.56
374.513	389.56
374.739	370.56
374.965	384.56
375.191	375.56
375.416	393.56
375.642	385.56
375.868	387.56
376.094	374.56
376.319	389.56
376.545	374.56
376.771	376.56
376.997	366.56
377.222	355.56
377.448	356.56
377.674	375.56
377.899	372.56
378.125	368.56
378.35	370.56
378.576	386.56
378.802	367.56
379.027	392.56
379.253	367.56
379.478	380.56
379.704	379.56
379.929	383.56
380.155	401.56
380.38	398.56
380.606	394.56
380.831	380.56
381.057	395.56
381.282	381.56
381.507	392.56
381.733	389.56
381.958	382.56
382.184	384.56
382.409	387.56
382.634	400.56
382.86	394.56
383.085	384.56
383.31	384.56
383.535	393.56
383.761	390.56
383.986	396.56
384.211	417.56
384.436	390.56
384.662	405.56
384.887	397.56
385.112	393.56
385.337	386.56
385.562	382.56
385.787	378.56
386.013	423.56
386.238	423.56
386.463	419.56
386.688	415.56
386.913	396.56
387.138	375.56
387.363	406.56
387.588	411.56
387.813	398.56
388.038	388.56
388.263	394.56
388.488	396.56
388.713	416.56
388.938	395.56
389.163	416.56
389.387	424.56
389.612	391.56
389.837	402.56
390.062	397.56
390.287	405.56
390.512	399.56
390.736	397.56
390.961	419.56
391.186	409.56
391.411	397.56
391.636	419.56
391.86	418.56
392.085	417.56
392.31	423.56
392.534	410.56
392.759	404.56
392.984	420.56
393.208	400.56
393.433	412.56
393.658	413.56
393.882	415.56
394.107	402.56
394.331	401.56
394.556	396.56
394.78	385.56
395.005	410.56
395.229	382.56
395.454	411.56
395.678	417.56
395.903	438.56
396.127	452.56
396.352	441.56
396.576	413.56
396.801	417.56
397.025	422.56
397.249	402.56
397.474	410.56
397.698	440.56
397.922	444.56
398.147	444.56
398.371	466.56
398.595	465.56
398.82	432.56
399.044	474.56
399.268	420.56
399.492	470.56
399.717	481.56
399.941	528.56
400.165	562.56
400.389	582.56
400.613	524.56
400.837	494.56
401.062	471.56
401.286	462.56
401.51	441.56
401.734	445.56
401.958	472.56
402.182	469.56
402.406	454.56
402.63	482.56
402.854	466.56
403.078	445.56
403.302	463.56
403.526	473.56
403.75	479.56
403.974	485.56
404.198	472.56
404.422	489.56
404.645	475.56
404.869	475.56
405.093	508.56
405.317	520.56
405.541	558.56
405.765	496.56
405.988	512.56
406.212	523.56
406.436	553.56
406.66	523.56
406.883	543.56
407.107	551.56
407.331	566.56
407.555	625.56
407.778	633.56
408.002	578.56
408.226	528.56
408.449	537.56
408.673	529.56
408.896	552.56
409.12	579.56
409.344	554.56
409.567	497.56
409.791	478.56
410.014	447.56
410.238	452.56
410.461	476.56
410.685	480.56
410.908	504.56
411.132	548.56
411.355	574.56
411.578	542.56
411.802	486.56
412.025	465.56
412.249	481.56
412.472	488.56
412.695	504.56
412.919	484.56
413.142	463.56
413.365	452.56
413.589	455.56
413.812	453.56
414.035	472.56
414.258	426.56
414.482	455.56
414.705	443.56
414.928	450.56
415.151	447.56
415.374	416.56
415.597	439.56
415.821	444.56
416.044	442.56
416.267	439.56
416.49	452.56
416.713	455.56
416.936	460.56
417.159	438.56
417.382	454.56
417.605	441.56
417.828	457.56
418.051	458.56
418.274	473.56
418.497	440.56
418.72	432.56
418.943	441.56
419.166	452.56
419.389	474.56
419.611	467.56
419.834	461.56
420.057	459.56
420.28	471.56
420.503	457.56
420.726	470.56
420.948	489.56
421.171	521.56
421.394	554.56
421.617	488.56
421.839	454.56
422.062	467.56
422.285	481.56
422.507	551.56
422.73	631.56
422.953	594.56
423.175	520.56
423.398	490.56
423.621	488.56
423.843	512.56
424.066	516.56
424.288	502.56
424.511	518.56
424.733	608.56
424.956	676.56
425.178	607.56
425.401	616.56
425.623	634.56
425.846	564.56
426.068	517.56
426.291	512.56
426.513	503.56
426.735	526.56
426.958	565.56
427.18	658.56
427.402	784.56
427.625	843.56
427.847	762.56
428.069	606.56
428.292	566.56
428.514	541.56
428.736	504.56
428.958	498.56
429.181	483.56
429.403	476.56
429.625	482.56
429.847	492.56
430.069	570.56
430.292	568.56
430.514	512.56
430.736	466.56
430.958	466.56
431.18	475.56
431.402	444.56
431.624	433.56
431.846	436.56
432.068	423.56
432.29	434.56
432.512	421.56
432.734	466.56
432.956	468.56
433.178	461.56
433.4	467.56
433.622	459.56
433.844	445.56
434.066	447.56
434.287	439.56
434.509	438.56
434.731	448.56
434.953	465.56
435.175	474.56
435.397	507.56
435.618	523.56
435.84	570.56
436.062	651.56
436.284	710.56
436.505	616.56
436.727	538.56
436.949	485.56
437.17	487.56
437.392	496.56
437.614	495.56
437.835	527.56
438.057	638.56
438.278	720.56
438.5	727.56
438.721	786.56
438.943	760.56
439.165	600.56
439.386	542.56
439.608	518.56
439.829	527.56
440.05	562.56
440.272	610.56
440.493	567.56
440.715	507.56
440.936	489.56
441.158	484.56
441.379	496.56
441.6	502.56
441.822	517.56
442.043	547.56
442.264	642.56
442.486	689.56
442.707	559.56
442.928	522.56
443.149	527.56
443.371	537.56
443.592	600.56
443.813	668.56
444.034	762.56
444.255	625.56
444.476	542.56
444.698	524.56
444.919	522.56
445.14	611.56
445.361	558.56
445.582	575.56
445.803	632.56
446.024	709.56
446.245	752.56
446.466	686.56
446.687	568.56
446.908	532.56
447.129	499.56
447.35	514.56
447.571	468.56
447.792	475.56
448.013	474.56
448.234	512.56
448.455	559.56
448.675	643.56
448.896	797.56
449.117	645.56
449.338	624.56
449.559	717.56
449.779	820.56
450	660.56
450.221	531.56
450.442	510.56
450.662	457.56
450.883	510.56
451.104	504.56
451.324	476.56
451.545	479.56
451.766	440.56
451.986	438.56
452.207	430.56
452.428	430.56
452.648	416.56
452.869	433.56
453.089	465.56
453.31	444.56
453.53	442.56
453.751	464.56
453.971	406.56
454.192	457.56
454.412	420.56
454.633	424.56
454.853	409.56
455.073	434.56
455.294	462.56
455.514	530.56
455.734	502.56
455.955	447.56
456.175	416.56
456.395	409.56
456.616	374.56
456.836	396.56
457.056	396.56
457.276	403.56
457.497	391.56
457.717	395.56
457.937	415.56
458.157	406.56
458.377	420.56
458.598	461.56
458.818	523.56
459.038	565.56
459.258	580.56
459.478	502.56
459.698	450.56
459.918	444.56
460.138	421.56
460.358	432.56
460.578	427.56
460.798	448.56
461.018	434.56
461.238	427.56
461.458	453.56
461.678	436.56
461.898	438.56
462.118	432.56
462.338	452.56
462.558	448.56
462.777	459.56
462.997	462.56
463.217	454.56
463.437	476.56
463.657	471.56
463.876	464.56
464.096	458.56
464.316	460.56
464.536	466.56
464.755	482.56
464.975	484.56
465.195	544.56
465.414	610.56
465.634	531.56
465.854	460.56
466.073	457.56
466.293	436.56
466.512	438.56
466.732	409.56
466.951	404.56
467.171	419.56
467.391	426.56
467.61	431.56
467.829	427.56
468.049	445.56
468.268	442.56
468.488	434.56
468.707	432.56
468.927	424.56
469.146	420.56
469.365	426.56
469.585	419.56
469.804	422.56
470.023	431.56
470.243	440.56
470.462	449.56
470.681	464.56
470.901	450.56
471.12	433.56
471.339	424.56
471.558	454.56
471.777	453.56
471.997	412.56
472.216	411.56
472.435	436.56
472.654	436.56
472.873	425.56
473.092	435.56
473.311	434.56
473.53	424.56
473.749	448.56
473.968	482.56
474.187	589.56
474.406	599.56
474.625	518.56
474.844	449.56
475.063	462.56
475.282	438.56
475.501	450.56
475.72	464.56
475.939	456.56
476.158	455.56
476.377	453.56
476.596	441.56
476.814	468.56
477.033	452.56
477.252	482.56
477.471	452.56
477.69	454.56
477.908	458.56
478.127	469.56
478.346	468.56
478.564	482.56
478.783	478.56
479.002	472.56
479.22	468.56
479.439	508.56
479.658	520.56
479.876	520.56
480.095	519.56
480.313	566.56
480.532	516.56
480.751	516.56
480.969	523.56
481.188	551.56
481.406	532.56
481.624	549.56
481.843	510.56
482.061	528.56
482.28	499.56
482.498	486.56
482.717	508.56
482.935	503.56
483.153	501.56
483.372	496.56
483.59	496.56
483.808	506.56
484.027	495.56
484.245	502.56
484.463	494.56
484.681	514.56
484.9	519.56
485.118	532.56
485.336	504.56
485.554	538.56
485.772	536.56
485.99	531.56
486.209	537.56
486.427	512.56
486.645	526.56
486.863	568.56
487.081	556.56
487.299	547.56
487.517	553.56
487.735	555.56
487.953	555.56
488.171	530.56
488.389	546.56
488.607	545.56
488.825	562.56
489.043	546.56
489.261	548.56
489.479	539.56
489.696	555.56
489.914	556.56
490.132	573.56
490.35	555.56
490.568	578.56
490.786	579.56
491.003	586.56
491.221	611.56
491.439	617.56
491.657	617.56
491.874	617.56
492.092	624.56
492.31	648.56
492.527	641.56
492.745	646.56
492.963	615.56
493.18	668.56
493.398	654.56
493.615	652.56
493.833	627.56
494.05	639.56
494.268	641.56
494.485	649.56
494.703	635.56
494.92	658.56
495.138	641.56
495.355	626.56
495.573	655.56
495.79	653.56
496.008	655.56
496.225	667.56
496.442	650.56
496.66	661.56
496.877	612.56
497.094	662.56
497.312	640.56
497.529	658.56
497.746	675.56
497.963	679.56
498.181	705.56
498.398	702.56
498.615	718.56
498.832	699.56
499.049	699.56
499.267	725.56
499.484	758.56
499.701	780.56
499.918	770.56
500.135	790.56
500.352	849.56
500.569	836.56
500.786	866.56
501.003	814.56
501.22	814.56
501.437	799.56
501.654	810.56
501.871	804.56
