Data from 1989.PennyLincolnUp.Lamp.En5.5.200Scan.071819.P2_HRD10591_17-25-29-973.txt Node
Date: Thu Jul 18 17:25:29 EDT 2019
User: cochatt
Spectrometer: HR+D1059
Trigger mode: 1
Integration Time (sec): 1.000000E-1
Scans to average: 1
Electric dark correction enabled: true
Nonlinearity correction enabled: false
Boxcar width: 0
XAxis mode: Wavelengths
Number of Pixels in Spectrum: 2048
>>>>>Begin Spectral Data<<<<<
223.165	-10.88
223.4	-10.88
223.635	-10.88
223.869	-25.88
224.104	-12.88
224.338	-10.88
224.573	-21.88
224.808	-9.88
225.042	-10.88
225.277	-2.88
225.511	-21.88
225.746	14.12
225.98	9.12
226.215	13.12
226.449	10.12
226.683	15.12
226.918	23.12
227.152	43.12
227.387	28.12
227.621	44.12
227.856	49.12
228.09	41.12
228.324	46.12
228.559	67.12
228.793	70.12
229.027	124.12
229.262	112.12
229.496	119.12
229.73	131.12
229.964	160.12
230.199	140.12
230.433	123.12
230.667	118.12
230.901	105.12
231.136	124.12
231.37	105.12
231.604	111.12
231.838	121.12
232.072	110.12
232.306	125.12
232.541	113.12
232.775	115.12
233.009	118.12
233.243	127.12
233.477	108.12
233.711	101.12
233.945	113.12
234.179	108.12
234.413	117.12
234.647	124.12
234.881	128.12
235.115	115.12
235.349	114.12
235.583	135.12
235.817	123.12
236.051	141.12
236.285	110.12
236.519	121.12
236.753	122.12
236.987	159.12
237.221	181.12
237.455	252.12
237.689	198.12
237.922	147.12
238.156	144.12
238.39	146.12
238.624	130.12
238.858	122.12
239.091	136.12
239.325	133.12
239.559	127.12
239.793	126.12
240.027	143.12
240.26	159.12
240.494	167.12
240.728	174.12
240.961	153.12
241.195	164.12
241.429	154.12
241.662	157.12
241.896	154.12
242.13	146.12
242.363	142.12
242.597	147.12
242.83	155.12
243.064	158.12
243.298	144.12
243.531	146.12
243.765	137.12
243.998	147.12
244.232	159.12
244.465	160.12
244.699	163.12
244.932	151.12
245.166	156.12
245.399	143.12
245.633	160.12
245.866	165.12
246.099	163.12
246.333	155.12
246.566	175.12
246.8	167.12
247.033	166.12
247.266	182.12
247.5	184.12
247.733	181.12
247.966	187.12
248.2	188.12
248.433	206.12
248.666	193.12
248.899	201.12
249.133	224.12
249.366	238.12
249.599	204.12
249.832	211.12
250.066	199.12
250.299	202.12
250.532	206.12
250.765	238.12
250.998	254.12
251.231	263.12
251.465	245.12
251.698	228.12
251.931	237.12
252.164	214.12
252.397	205.12
252.63	209.12
252.863	232.12
253.096	238.12
253.329	246.12
253.562	257.12
253.795	236.12
254.028	241.12
254.261	260.12
254.494	268.12
254.727	278.12
254.96	314.12
255.193	312.12
255.426	289.12
255.659	258.12
255.892	262.12
256.124	276.12
256.357	287.12
256.59	270.12
256.823	250.12
257.056	228.12
257.289	238.12
257.521	225.12
257.754	243.12
257.987	236.12
258.22	227.12
258.452	242.12
258.685	228.12
258.918	241.12
259.151	245.12
259.383	250.12
259.616	230.12
259.849	243.12
260.081	247.12
260.314	271.12
260.547	292.12
260.779	280.12
261.012	270.12
261.244	263.12
261.477	256.12
261.71	252.12
261.942	266.12
262.175	261.12
262.407	249.12
262.64	252.12
262.872	238.12
263.105	223.12
263.337	232.12
263.57	230.12
263.802	229.12
264.035	243.12
264.267	231.12
264.499	229.12
264.732	244.12
264.964	239.12
265.197	229.12
265.429	229.12
265.661	248.12
265.894	235.12
266.126	223.12
266.358	234.12
266.591	254.12
266.823	229.12
267.055	265.12
267.287	252.12
267.52	253.12
267.752	253.12
267.984	265.12
268.216	247.12
268.448	268.12
268.681	270.12
268.913	254.12
269.145	279.12
269.377	305.12
269.609	324.12
269.841	319.12
270.073	314.12
270.306	319.12
270.538	350.12
270.77	365.12
271.002	337.12
271.234	333.12
271.466	335.12
271.698	339.12
271.93	375.12
272.162	388.12
272.394	339.12
272.626	353.12
272.858	343.12
273.09	323.12
273.322	316.12
273.553	281.12
273.785	311.12
274.017	318.12
274.249	292.12
274.481	287.12
274.713	300.12
274.945	285.12
275.176	299.12
275.408	287.12
275.64	297.12
275.872	302.12
276.104	285.12
276.335	291.12
276.567	307.12
276.799	336.12
277.031	351.12
277.262	333.12
277.494	371.12
277.726	356.12
277.957	297.12
278.189	305.12
278.421	319.12
278.652	309.12
278.884	294.12
279.115	336.12
279.347	302.12
279.579	305.12
279.81	294.12
280.042	305.12
280.273	287.12
280.505	312.12
280.736	305.12
280.968	290.12
281.199	289.12
281.431	298.12
281.662	301.12
281.894	298.12
282.125	301.12
282.356	319.12
282.588	349.12
282.819	342.12
283.051	303.12
283.282	294.12
283.513	294.12
283.745	272.12
283.976	303.12
284.207	313.12
284.439	299.12
284.67	325.12
284.901	310.12
285.132	306.12
285.364	295.12
285.595	308.12
285.826	310.12
286.057	323.12
286.288	308.12
286.52	307.12
286.751	311.12
286.982	306.12
287.213	307.12
287.444	323.12
287.675	323.12
287.906	314.12
288.138	323.12
288.369	326.12
288.6	343.12
288.831	315.12
289.062	314.12
289.293	325.12
289.524	312.12
289.755	313.12
289.986	312.12
290.217	317.12
290.448	313.12
290.679	313.12
290.91	293.12
291.141	309.12
291.371	309.12
291.602	308.12
291.833	313.12
292.064	293.12
292.295	321.12
292.526	344.12
292.757	309.12
292.987	298.12
293.218	318.12
293.449	309.12
293.68	309.12
293.91	325.12
294.141	313.12
294.372	317.12
294.603	323.12
294.833	311.12
295.064	312.12
295.295	317.12
295.525	312.12
295.756	341.12
295.987	342.12
296.217	359.12
296.448	355.12
296.679	343.12
296.909	318.12
297.14	321.12
297.37	337.12
297.601	314.12
297.831	321.12
298.062	312.12
298.292	315.12
298.523	349.12
298.753	331.12
298.984	352.12
299.214	349.12
299.445	346.12
299.675	346.12
299.905	340.12
300.136	338.12
300.366	360.12
300.597	326.12
300.827	348.12
301.057	363.12
301.288	363.12
301.518	333.12
301.748	336.12
301.979	361.12
302.209	343.12
302.439	347.12
302.669	364.12
302.9	358.12
303.13	365.12
303.36	361.12
303.59	349.12
303.82	357.12
304.051	374.12
304.281	362.12
304.511	365.12
304.741	365.12
304.971	377.12
305.201	359.12
305.431	351.12
305.661	367.12
305.891	358.12
306.121	349.12
306.352	356.12
306.582	362.12
306.812	358.12
307.042	374.12
307.272	366.12
307.502	357.12
307.731	364.12
307.961	359.12
308.191	357.12
308.421	360.12
308.651	355.12
308.881	361.12
309.111	378.12
309.341	358.12
309.571	381.12
309.8	378.12
310.03	398.12
310.26	415.12
310.49	393.12
310.72	416.12
310.949	442.12
311.179	442.12
311.409	405.12
311.639	395.12
311.868	395.12
312.098	409.12
312.328	430.12
312.557	449.12
312.787	451.12
313.017	459.12
313.246	446.12
313.476	429.12
313.706	416.12
313.935	421.12
314.165	406.12
314.394	429.12
314.624	452.12
314.853	414.12
315.083	435.12
315.312	398.12
315.542	393.12
315.771	419.12
316.001	423.12
316.23	421.12
316.46	412.12
316.689	419.12
316.919	430.12
317.148	424.12
317.377	444.12
317.607	441.12
317.836	425.12
318.065	431.12
318.295	409.12
318.524	407.12
318.753	415.12
318.983	406.12
319.212	425.12
319.441	430.12
319.67	432.12
319.9	451.12
320.129	429.12
320.358	412.12
320.587	439.12
320.816	445.12
321.046	431.12
321.275	425.12
321.504	436.12
321.733	437.12
321.962	455.12
322.191	463.12
322.42	470.12
322.649	509.12
322.878	517.12
323.108	532.12
323.337	546.12
323.566	539.12
323.795	595.12
324.024	664.12
324.253	797.12
324.482	1199.12
324.71	1804.12
324.939	2595.12
325.168	2279.12
325.397	1189.12
325.626	793.12
325.855	614.12
326.084	583.12
326.313	558.12
326.542	592.12
326.77	641.12
326.999	769.12
327.228	1049.12
327.457	1563.12
327.686	1941.12
327.914	1348.12
328.143	862.12
328.372	702.12
328.6	692.12
328.829	663.12
329.058	657.12
329.287	679.12
329.515	631.12
329.744	594.12
329.972	563.12
330.201	600.12
330.43	648.12
330.658	671.12
330.887	719.12
331.115	675.12
331.344	581.12
331.572	579.12
331.801	559.12
332.03	545.12
332.258	518.12
332.486	507.12
332.715	499.12
332.943	491.12
333.172	503.12
333.4	517.12
333.629	514.12
333.857	511.12
334.085	529.12
334.314	566.12
334.542	578.12
334.771	614.12
334.999	552.12
335.227	529.12
335.455	491.12
335.684	499.12
335.912	498.12
336.14	466.12
336.369	485.12
336.597	489.12
336.825	475.12
337.053	477.12
337.281	470.12
337.51	462.12
337.738	462.12
337.966	471.12
338.194	471.12
338.422	489.12
338.65	473.12
338.878	456.12
339.106	465.12
339.334	465.12
339.562	447.12
339.79	445.12
340.018	465.12
340.246	460.12
340.474	448.12
340.702	469.12
340.93	459.12
341.158	460.12
341.386	462.12
341.614	458.12
341.842	462.12
342.07	443.12
342.298	445.12
342.526	459.12
342.754	441.12
342.981	427.12
343.209	455.12
343.437	450.12
343.665	441.12
343.893	447.12
344.12	469.12
344.348	462.12
344.576	463.12
344.804	476.12
345.031	490.12
345.259	499.12
345.487	477.12
345.714	466.12
345.942	455.12
346.17	462.12
346.397	462.12
346.625	442.12
346.853	445.12
347.08	435.12
347.308	446.12
347.535	454.12
347.763	461.12
347.99	439.12
348.218	457.12
348.445	466.12
348.673	452.12
348.9	455.12
349.128	423.12
349.355	423.12
349.583	416.12
349.81	437.12
350.037	405.12
350.265	436.12
350.492	417.12
350.72	429.12
350.947	441.12
351.174	447.12
351.402	470.12
351.629	449.12
351.856	448.12
352.083	458.12
352.311	449.12
352.538	483.12
352.765	472.12
352.992	467.12
353.22	438.12
353.447	428.12
353.674	435.12
353.901	422.12
354.128	416.12
354.355	413.12
354.583	395.12
354.81	441.12
355.037	408.12
355.264	410.12
355.491	405.12
355.718	401.12
355.945	400.12
356.172	386.12
356.399	410.12
356.626	390.12
356.853	402.12
357.08	401.12
357.307	375.12
357.534	420.12
357.761	389.12
357.988	398.12
358.215	413.12
358.441	412.12
358.668	413.12
358.895	423.12
359.122	435.12
359.349	433.12
359.576	461.12
359.802	447.12
360.029	509.12
360.256	516.12
360.483	459.12
360.709	437.12
360.936	438.12
361.163	434.12
361.39	451.12
361.616	433.12
361.843	426.12
362.07	418.12
362.296	436.12
362.523	413.12
362.749	430.12
362.976	419.12
363.203	410.12
363.429	418.12
363.656	418.12
363.882	409.12
364.109	409.12
364.335	421.12
364.562	405.12
364.788	414.12
365.015	407.12
365.241	411.12
365.468	429.12
365.694	392.12
365.92	407.12
366.147	409.12
366.373	392.12
366.599	399.12
366.826	387.12
367.052	391.12
367.278	399.12
367.505	397.12
367.731	420.12
367.957	401.12
368.184	407.12
368.41	430.12
368.636	424.12
368.862	406.12
369.089	415.12
369.315	413.12
369.541	393.12
369.767	426.12
369.993	421.12
370.219	390.12
370.445	403.12
370.672	405.12
370.898	397.12
371.124	418.12
371.35	401.12
371.576	399.12
371.802	405.12
372.028	405.12
372.254	406.12
372.48	397.12
372.706	412.12
372.932	395.12
373.158	411.12
373.384	405.12
373.61	414.12
373.835	406.12
374.061	414.12
374.287	408.12
374.513	397.12
374.739	398.12
374.965	392.12
375.191	399.12
375.416	414.12
375.642	398.12
375.868	417.12
376.094	396.12
376.319	407.12
376.545	402.12
376.771	379.12
376.997	406.12
377.222	405.12
377.448	380.12
377.674	383.12
377.899	391.12
378.125	398.12
378.35	403.12
378.576	381.12
378.802	388.12
379.027	401.12
379.253	393.12
379.478	385.12
379.704	400.12
379.929	398.12
380.155	405.12
380.38	389.12
380.606	390.12
380.831	398.12
381.057	414.12
381.282	369.12
381.507	389.12
381.733	399.12
381.958	394.12
382.184	403.12
382.409	406.12
382.634	414.12
382.86	394.12
383.085	385.12
383.31	398.12
383.535	411.12
383.761	398.12
383.986	411.12
384.211	424.12
384.436	415.12
384.662	413.12
384.887	427.12
385.112	411.12
385.337	396.12
385.562	403.12
385.787	426.12
386.013	445.12
386.238	422.12
386.463	431.12
386.688	436.12
386.913	423.12
387.138	412.12
387.363	419.12
387.588	436.12
387.813	413.12
388.038	413.12
388.263	397.12
388.488	408.12
388.713	428.12
388.938	428.12
389.163	424.12
389.387	419.12
389.612	428.12
389.837	430.12
390.062	430.12
390.287	426.12
390.512	392.12
390.736	423.12
390.961	431.12
391.186	416.12
391.411	420.12
391.636	413.12
391.86	421.12
392.085	426.12
392.31	429.12
392.534	427.12
392.759	444.12
392.984	413.12
393.208	399.12
393.433	411.12
393.658	414.12
393.882	421.12
394.107	425.12
394.331	414.12
394.556	417.12
394.78	424.12
395.005	402.12
395.229	414.12
395.454	427.12
395.678	425.12
395.903	447.12
396.127	449.12
396.352	437.12
396.576	435.12
396.801	423.12
397.025	415.12
397.249	438.12
397.474	419.12
397.698	429.12
397.922	453.12
398.147	458.12
398.371	466.12
398.595	467.12
398.82	454.12
399.044	462.12
399.268	475.12
399.492	487.12
399.717	545.12
399.941	569.12
400.165	581.12
400.389	593.12
400.613	525.12
400.837	511.12
401.062	484.12
401.286	484.12
401.51	492.12
401.734	491.12
401.958	467.12
402.182	464.12
402.406	482.12
402.63	506.12
402.854	468.12
403.078	499.12
403.302	467.12
403.526	496.12
403.75	509.12
403.974	459.12
404.198	489.12
404.422	487.12
404.645	504.12
404.869	491.12
405.093	522.12
405.317	569.12
405.541	615.12
405.765	565.12
405.988	516.12
406.212	530.12
406.436	543.12
406.66	569.12
406.883	541.12
407.107	572.12
407.331	602.12
407.555	672.12
407.778	643.12
408.002	616.12
408.226	548.12
408.449	541.12
408.673	542.12
408.896	580.12
409.12	588.12
409.344	564.12
409.567	514.12
409.791	521.12
410.014	494.12
410.238	491.12
410.461	494.12
410.685	502.12
410.908	513.12
411.132	537.12
411.355	582.12
411.578	548.12
411.802	501.12
412.025	521.12
412.249	489.12
412.472	531.12
412.695	545.12
412.919	565.12
413.142	513.12
413.365	477.12
413.589	489.12
413.812	483.12
414.035	470.12
414.258	485.12
414.482	448.12
414.705	453.12
414.928	469.12
415.151	462.12
415.374	452.12
415.597	451.12
415.821	469.12
416.044	469.12
416.267	460.12
416.49	469.12
416.713	451.12
416.936	465.12
417.159	466.12
417.382	447.12
417.605	472.12
417.828	462.12
418.051	491.12
418.274	470.12
418.497	436.12
418.72	466.12
418.943	450.12
419.166	476.12
419.389	510.12
419.611	482.12
419.834	511.12
420.057	488.12
420.28	492.12
420.503	501.12
420.726	507.12
420.948	515.12
421.171	544.12
421.394	558.12
421.617	515.12
421.839	486.12
422.062	488.12
422.285	524.12
422.507	558.12
422.73	638.12
422.953	629.12
423.175	548.12
423.398	507.12
423.621	519.12
423.843	551.12
424.066	536.12
424.288	554.12
424.511	558.12
424.733	588.12
424.956	685.12
425.178	656.12
425.401	667.12
425.623	683.12
425.846	583.12
426.068	534.12
426.291	551.12
426.513	534.12
426.735	546.12
426.958	575.12
427.18	673.12
427.402	813.12
427.625	895.12
427.847	794.12
428.069	696.12
428.292	601.12
428.514	523.12
428.736	528.12
428.958	518.12
429.181	486.12
429.403	471.12
429.625	499.12
429.847	553.12
430.069	614.12
430.292	595.12
430.514	531.12
430.736	507.12
430.958	483.12
431.18	483.12
431.402	465.12
431.624	445.12
431.846	462.12
432.068	454.12
432.29	454.12
432.512	463.12
432.734	468.12
432.956	463.12
433.178	446.12
433.4	477.12
433.622	461.12
433.844	481.12
434.066	454.12
434.287	463.12
434.509	458.12
434.731	497.12
434.953	473.12
435.175	474.12
435.397	535.12
435.618	526.12
435.84	570.12
436.062	653.12
436.284	728.12
436.505	640.12
436.727	573.12
436.949	528.12
437.17	485.12
437.392	495.12
437.614	506.12
437.835	544.12
438.057	670.12
438.278	744.12
438.5	746.12
438.721	808.12
438.943	777.12
439.165	635.12
439.386	550.12
439.608	566.12
439.829	571.12
440.05	573.12
440.272	626.12
440.493	601.12
440.715	532.12
440.936	502.12
441.158	507.12
441.379	506.12
441.6	502.12
441.822	522.12
442.043	550.12
442.264	649.12
442.486	722.12
442.707	602.12
442.928	536.12
443.149	557.12
443.371	586.12
443.592	619.12
443.813	730.12
444.034	779.12
444.255	640.12
444.476	559.12
444.698	526.12
444.919	529.12
445.14	672.12
445.361	608.12
445.582	592.12
445.803	665.12
446.024	753.12
446.245	743.12
446.466	687.12
446.687	581.12
446.908	561.12
447.129	523.12
447.35	517.12
447.571	511.12
447.792	502.12
448.013	501.12
448.234	526.12
448.455	572.12
448.675	687.12
448.896	808.12
449.117	683.12
449.338	647.12
449.559	753.12
449.779	857.12
450	683.12
450.221	572.12
450.442	511.12
450.662	504.12
450.883	473.12
451.104	507.12
451.324	497.12
451.545	485.12
451.766	455.12
451.986	436.12
452.207	441.12
452.428	431.12
452.648	437.12
452.869	457.12
453.089	447.12
453.31	478.12
453.53	474.12
453.751	434.12
453.971	439.12
454.192	467.12
454.412	481.12
454.633	449.12
454.853	430.12
455.073	444.12
455.294	482.12
455.514	564.12
455.734	531.12
455.955	453.12
456.175	419.12
456.395	420.12
456.616	424.12
456.836	413.12
457.056	404.12
457.276	374.12
457.497	410.12
457.717	414.12
457.937	415.12
458.157	410.12
458.377	408.12
458.598	455.12
458.818	509.12
459.038	621.12
459.258	611.12
459.478	503.12
459.698	471.12
459.918	459.12
460.138	458.12
460.358	454.12
460.578	454.12
460.798	447.12
461.018	467.12
461.238	458.12
461.458	438.12
461.678	450.12
461.898	461.12
462.118	454.12
462.338	451.12
462.558	460.12
462.777	487.12
462.997	479.12
463.217	486.12
463.437	483.12
463.657	497.12
463.876	467.12
464.096	471.12
464.316	483.12
464.536	476.12
464.755	484.12
464.975	493.12
465.195	545.12
465.414	622.12
465.634	527.12
465.854	502.12
466.073	472.12
466.293	457.12
466.512	429.12
466.732	457.12
466.951	461.12
467.171	457.12
467.391	438.12
467.61	449.12
467.829	449.12
468.049	465.12
468.268	451.12
468.488	459.12
468.707	438.12
468.927	413.12
469.146	431.12
469.365	425.12
469.585	409.12
469.804	448.12
470.023	465.12
470.243	428.12
470.462	469.12
470.681	466.12
470.901	476.12
471.12	452.12
471.339	456.12
471.558	444.12
471.777	446.12
471.997	447.12
472.216	472.12
472.435	494.12
472.654	467.12
472.873	446.12
473.092	444.12
473.311	449.12
473.53	470.12
473.749	457.12
473.968	509.12
474.187	620.12
474.406	659.12
474.625	532.12
474.844	476.12
475.063	461.12
475.282	442.12
475.501	461.12
475.72	472.12
475.939	470.12
476.158	457.12
476.377	457.12
476.596	483.12
476.814	483.12
477.033	471.12
477.252	478.12
477.471	463.12
477.69	481.12
477.908	471.12
478.127	472.12
478.346	490.12
478.564	474.12
478.783	498.12
479.002	508.12
479.22	523.12
479.439	520.12
479.658	547.12
479.876	543.12
480.095	555.12
480.313	566.12
480.532	556.12
480.751	546.12
480.969	553.12
481.188	627.12
481.406	669.12
481.624	609.12
481.843	547.12
482.061	539.12
482.28	538.12
482.498	519.12
482.717	513.12
482.935	538.12
483.153	534.12
483.372	543.12
483.59	515.12
483.808	544.12
484.027	527.12
484.245	553.12
484.463	527.12
484.681	517.12
484.9	530.12
485.118	525.12
485.336	551.12
485.554	549.12
485.772	553.12
485.99	548.12
486.209	552.12
486.427	558.12
486.645	596.12
486.863	593.12
487.081	602.12
487.299	576.12
487.517	588.12
487.735	561.12
487.953	561.12
488.171	580.12
488.389	567.12
488.607	569.12
488.825	570.12
489.043	578.12
489.261	561.12
489.479	569.12
489.696	570.12
489.914	562.12
490.132	588.12
490.35	582.12
490.568	599.12
490.786	613.12
491.003	607.12
491.221	633.12
491.439	632.12
491.657	637.12
491.874	650.12
492.092	673.12
492.31	684.12
492.527	664.12
492.745	674.12
492.963	669.12
493.18	680.12
493.398	682.12
493.615	671.12
493.833	668.12
494.05	679.12
494.268	685.12
494.485	667.12
494.703	689.12
494.92	681.12
495.138	677.12
495.355	678.12
495.573	673.12
495.79	682.12
496.008	670.12
496.225	684.12
496.442	692.12
496.66	668.12
496.877	675.12
497.094	686.12
497.312	680.12
497.529	703.12
497.746	701.12
497.963	710.12
498.181	712.12
498.398	713.12
498.615	705.12
498.832	735.12
499.049	759.12
499.267	774.12
499.484	767.12
499.701	827.12
499.918	825.12
500.135	832.12
500.352	874.12
500.569	865.12
500.786	844.12
501.003	885.12
501.22	875.12
501.437	852.12
501.654	846.12
501.871	860.12
