Data from 1989.PennyLincolnUp.Lamp.En5.5.200Scan.071819.P2_HRD10591_17-24-43-973.txt Node
Date: Thu Jul 18 17:24:43 EDT 2019
User: cochatt
Spectrometer: HR+D1059
Trigger mode: 1
Integration Time (sec): 1.000000E-1
Scans to average: 1
Electric dark correction enabled: true
Nonlinearity correction enabled: false
Boxcar width: 0
XAxis mode: Wavelengths
Number of Pixels in Spectrum: 2048
>>>>>Begin Spectral Data<<<<<
223.165	-10.81
223.4	-10.81
223.635	-10.81
223.869	-7.81
224.104	-18.81
224.338	-14.81
224.573	-6.81
224.808	-9.81
225.042	-13.81
225.277	-5.81
225.511	-14.81
225.746	-6.81
225.98	9.19
226.215	8.19
226.449	15.19
226.683	26.19
226.918	27.19
227.152	24.19
227.387	34.19
227.621	30.19
227.856	53.19
228.09	53.19
228.324	42.19
228.559	46.19
228.793	63.19
229.027	94.19
229.262	123.19
229.496	135.19
229.73	151.19
229.964	163.19
230.199	139.19
230.433	112.19
230.667	109.19
230.901	113.19
231.136	123.19
231.37	119.19
231.604	119.19
231.838	114.19
232.072	116.19
232.306	122.19
232.541	116.19
232.775	108.19
233.009	95.19
233.243	120.19
233.477	106.19
233.711	119.19
233.945	113.19
234.179	122.19
234.413	124.19
234.647	137.19
234.881	107.19
235.115	134.19
235.349	116.19
235.583	117.19
235.817	123.19
236.051	136.19
236.285	129.19
236.519	125.19
236.753	135.19
236.987	163.19
237.221	198.19
237.455	248.19
237.689	195.19
237.922	137.19
238.156	130.19
238.39	139.19
238.624	128.19
238.858	133.19
239.091	134.19
239.325	122.19
239.559	126.19
239.793	143.19
240.027	139.19
240.26	146.19
240.494	163.19
240.728	154.19
240.961	161.19
241.195	151.19
241.429	142.19
241.662	129.19
241.896	147.19
242.13	154.19
242.363	131.19
242.597	141.19
242.83	142.19
243.064	136.19
243.298	125.19
243.531	152.19
243.765	132.19
243.998	148.19
244.232	140.19
244.465	153.19
244.699	149.19
244.932	151.19
245.166	139.19
245.399	146.19
245.633	151.19
245.866	158.19
246.099	142.19
246.333	173.19
246.566	167.19
246.8	156.19
247.033	165.19
247.266	157.19
247.5	164.19
247.733	179.19
247.966	189.19
248.2	185.19
248.433	184.19
248.666	178.19
248.899	213.19
249.133	229.19
249.366	234.19
249.599	215.19
249.832	206.19
250.066	202.19
250.299	186.19
250.532	218.19
250.765	206.19
250.998	230.19
251.231	244.19
251.465	236.19
251.698	234.19
251.931	218.19
252.164	218.19
252.397	221.19
252.63	225.19
252.863	230.19
253.096	243.19
253.329	241.19
253.562	242.19
253.795	233.19
254.028	237.19
254.261	242.19
254.494	241.19
254.727	265.19
254.96	303.19
255.193	313.19
255.426	278.19
255.659	257.19
255.892	233.19
256.124	234.19
256.357	227.19
256.59	258.19
256.823	239.19
257.056	245.19
257.289	205.19
257.521	228.19
257.754	224.19
257.987	215.19
258.22	238.19
258.452	233.19
258.685	234.19
258.918	246.19
259.151	225.19
259.383	231.19
259.616	237.19
259.849	257.19
260.081	256.19
260.314	278.19
260.547	291.19
260.779	272.19
261.012	259.19
261.244	235.19
261.477	248.19
261.71	230.19
261.942	239.19
262.175	250.19
262.407	262.19
262.64	249.19
262.872	246.19
263.105	217.19
263.337	226.19
263.57	223.19
263.802	219.19
264.035	220.19
264.267	222.19
264.499	234.19
264.732	245.19
264.964	245.19
265.197	236.19
265.429	206.19
265.661	222.19
265.894	220.19
266.126	235.19
266.358	238.19
266.591	230.19
266.823	251.19
267.055	251.19
267.287	258.19
267.52	242.19
267.752	243.19
267.984	245.19
268.216	245.19
268.448	258.19
268.681	271.19
268.913	263.19
269.145	281.19
269.377	299.19
269.609	280.19
269.841	289.19
270.073	279.19
270.306	317.19
270.538	333.19
270.77	342.19
271.002	343.19
271.234	331.19
271.466	336.19
271.698	344.19
271.93	335.19
272.162	342.19
272.394	346.19
272.626	347.19
272.858	313.19
273.09	313.19
273.322	305.19
273.553	293.19
273.785	307.19
274.017	286.19
274.249	285.19
274.481	286.19
274.713	288.19
274.945	281.19
275.176	303.19
275.408	291.19
275.64	293.19
275.872	286.19
276.104	285.19
276.335	299.19
276.567	297.19
276.799	324.19
277.031	327.19
277.262	344.19
277.494	343.19
277.726	324.19
277.957	306.19
278.189	306.19
278.421	281.19
278.652	308.19
278.884	286.19
279.115	289.19
279.347	296.19
279.579	300.19
279.81	290.19
280.042	285.19
280.273	270.19
280.505	294.19
280.736	299.19
280.968	291.19
281.199	290.19
281.431	273.19
281.662	293.19
281.894	293.19
282.125	294.19
282.356	301.19
282.588	320.19
282.819	330.19
283.051	313.19
283.282	282.19
283.513	293.19
283.745	298.19
283.976	299.19
284.207	292.19
284.439	308.19
284.67	307.19
284.901	307.19
285.132	313.19
285.364	307.19
285.595	307.19
285.826	302.19
286.057	286.19
286.288	299.19
286.52	289.19
286.751	300.19
286.982	293.19
287.213	298.19
287.444	312.19
287.675	315.19
287.906	314.19
288.138	325.19
288.369	312.19
288.6	333.19
288.831	315.19
289.062	313.19
289.293	306.19
289.524	318.19
289.755	291.19
289.986	315.19
290.217	311.19
290.448	306.19
290.679	315.19
290.91	319.19
291.141	299.19
291.371	310.19
291.602	295.19
291.833	307.19
292.064	318.19
292.295	321.19
292.526	326.19
292.757	299.19
292.987	306.19
293.218	313.19
293.449	308.19
293.68	328.19
293.91	310.19
294.141	299.19
294.372	329.19
294.603	317.19
294.833	305.19
295.064	307.19
295.295	307.19
295.525	314.19
295.756	353.19
295.987	339.19
296.217	338.19
296.448	365.19
296.679	304.19
296.909	323.19
297.14	317.19
297.37	323.19
297.601	321.19
297.831	305.19
298.062	325.19
298.292	334.19
298.523	324.19
298.753	314.19
298.984	318.19
299.214	316.19
299.445	321.19
299.675	323.19
299.905	316.19
300.136	334.19
300.366	321.19
300.597	352.19
300.827	333.19
301.057	340.19
301.288	349.19
301.518	349.19
301.748	348.19
301.979	332.19
302.209	347.19
302.439	349.19
302.669	348.19
302.9	342.19
303.13	338.19
303.36	356.19
303.59	369.19
303.82	369.19
304.051	365.19
304.281	353.19
304.511	346.19
304.741	349.19
304.971	349.19
305.201	353.19
305.431	326.19
305.661	379.19
305.891	375.19
306.121	357.19
306.352	349.19
306.582	369.19
306.812	349.19
307.042	356.19
307.272	378.19
307.502	361.19
307.731	350.19
307.961	347.19
308.191	359.19
308.421	347.19
308.651	355.19
308.881	362.19
309.111	360.19
309.341	357.19
309.571	382.19
309.8	387.19
310.03	407.19
310.26	405.19
310.49	398.19
310.72	409.19
310.949	407.19
311.179	433.19
311.409	422.19
311.639	402.19
311.868	416.19
312.098	418.19
312.328	412.19
312.557	440.19
312.787	433.19
313.017	429.19
313.246	427.19
313.476	398.19
313.706	405.19
313.935	388.19
314.165	427.19
314.394	430.19
314.624	430.19
314.853	402.19
315.083	412.19
315.312	389.19
315.542	400.19
315.771	396.19
316.001	391.19
316.23	408.19
316.46	379.19
316.689	401.19
316.919	403.19
317.148	409.19
317.377	418.19
317.607	427.19
317.836	439.19
318.065	411.19
318.295	414.19
318.524	398.19
318.753	392.19
318.983	398.19
319.212	397.19
319.441	429.19
319.67	427.19
319.9	406.19
320.129	409.19
320.358	400.19
320.587	405.19
320.816	412.19
321.046	434.19
321.275	442.19
321.504	456.19
321.733	435.19
321.962	424.19
322.191	457.19
322.42	450.19
322.649	461.19
322.878	502.19
323.108	505.19
323.337	532.19
323.566	565.19
323.795	589.19
324.024	650.19
324.253	805.19
324.482	1135.19
324.71	1748.19
324.939	2537.19
325.168	2182.19
325.397	1128.19
325.626	756.19
325.855	631.19
326.084	567.19
326.313	542.19
326.542	547.19
326.77	623.19
326.999	730.19
327.228	991.19
327.457	1543.19
327.686	1887.19
327.914	1247.19
328.143	819.19
328.372	691.19
328.6	635.19
328.829	598.19
329.058	645.19
329.287	615.19
329.515	597.19
329.744	551.19
329.972	550.19
330.201	526.19
330.43	572.19
330.658	622.19
330.887	654.19
331.115	650.19
331.344	571.19
331.572	521.19
331.801	527.19
332.03	495.19
332.258	490.19
332.486	472.19
332.715	482.19
332.943	464.19
333.172	465.19
333.4	489.19
333.629	481.19
333.857	494.19
334.085	488.19
334.314	474.19
334.542	499.19
334.771	491.19
334.999	501.19
335.227	466.19
335.455	473.19
335.684	462.19
335.912	453.19
336.14	452.19
336.369	428.19
336.597	474.19
336.825	502.19
337.053	452.19
337.281	457.19
337.51	467.19
337.738	448.19
337.966	453.19
338.194	476.19
338.422	450.19
338.65	481.19
338.878	458.19
339.106	423.19
339.334	465.19
339.562	449.19
339.79	445.19
340.018	429.19
340.246	455.19
340.474	455.19
340.702	455.19
340.93	448.19
341.158	455.19
341.386	456.19
341.614	448.19
341.842	458.19
342.07	423.19
342.298	453.19
342.526	451.19
342.754	428.19
342.981	433.19
343.209	440.19
343.437	433.19
343.665	450.19
343.893	436.19
344.12	441.19
344.348	439.19
344.576	460.19
344.804	447.19
345.031	479.19
345.259	454.19
345.487	475.19
345.714	457.19
345.942	446.19
346.17	437.19
346.397	421.19
346.625	439.19
346.853	435.19
347.08	423.19
347.308	414.19
347.535	431.19
347.763	435.19
347.99	450.19
348.218	446.19
348.445	470.19
348.673	452.19
348.9	435.19
349.128	443.19
349.355	425.19
349.583	430.19
349.81	433.19
350.037	433.19
350.265	419.19
350.492	443.19
350.72	431.19
350.947	423.19
351.174	445.19
351.402	451.19
351.629	452.19
351.856	427.19
352.083	450.19
352.311	436.19
352.538	447.19
352.765	456.19
352.992	440.19
353.22	442.19
353.447	429.19
353.674	427.19
353.901	405.19
354.128	393.19
354.355	409.19
354.583	409.19
354.81	396.19
355.037	430.19
355.264	413.19
355.491	393.19
355.718	397.19
355.945	394.19
356.172	399.19
356.399	402.19
356.626	393.19
356.853	391.19
357.08	376.19
357.307	399.19
357.534	410.19
357.761	405.19
357.988	393.19
358.215	418.19
358.441	419.19
358.668	393.19
358.895	400.19
359.122	397.19
359.349	415.19
359.576	420.19
359.802	460.19
360.029	479.19
360.256	495.19
360.483	463.19
360.709	438.19
360.936	419.19
361.163	428.19
361.39	419.19
361.616	425.19
361.843	423.19
362.07	423.19
362.296	429.19
362.523	417.19
362.749	426.19
362.976	414.19
363.203	425.19
363.429	408.19
363.656	421.19
363.882	416.19
364.109	392.19
364.335	403.19
364.562	398.19
364.788	415.19
365.015	397.19
365.241	390.19
365.468	404.19
365.694	410.19
365.92	398.19
366.147	418.19
366.373	404.19
366.599	403.19
366.826	411.19
367.052	404.19
367.278	397.19
367.505	381.19
367.731	402.19
367.957	383.19
368.184	403.19
368.41	417.19
368.636	402.19
368.862	411.19
369.089	404.19
369.315	403.19
369.541	393.19
369.767	391.19
369.993	408.19
370.219	407.19
370.445	387.19
370.672	399.19
370.898	383.19
371.124	381.19
371.35	410.19
371.576	387.19
371.802	404.19
372.028	390.19
372.254	376.19
372.48	400.19
372.706	418.19
372.932	410.19
373.158	384.19
373.384	371.19
373.61	405.19
373.835	397.19
374.061	392.19
374.287	389.19
374.513	405.19
374.739	393.19
374.965	405.19
375.191	390.19
375.416	406.19
375.642	392.19
375.868	414.19
376.094	404.19
376.319	399.19
376.545	397.19
376.771	397.19
376.997	406.19
377.222	399.19
377.448	393.19
377.674	396.19
377.899	396.19
378.125	400.19
378.35	373.19
378.576	396.19
378.802	361.19
379.027	398.19
379.253	389.19
379.478	372.19
379.704	397.19
379.929	384.19
380.155	373.19
380.38	387.19
380.606	403.19
380.831	401.19
381.057	434.19
381.282	360.19
381.507	389.19
381.733	401.19
381.958	400.19
382.184	400.19
382.409	392.19
382.634	375.19
382.86	389.19
383.085	392.19
383.31	390.19
383.535	404.19
383.761	383.19
383.986	389.19
384.211	408.19
384.436	409.19
384.662	413.19
384.887	402.19
385.112	403.19
385.337	401.19
385.562	393.19
385.787	393.19
386.013	442.19
386.238	441.19
386.463	421.19
386.688	404.19
386.913	401.19
387.138	395.19
387.363	389.19
387.588	419.19
387.813	414.19
388.038	407.19
388.263	402.19
388.488	399.19
388.713	412.19
388.938	423.19
389.163	415.19
389.387	401.19
389.612	411.19
389.837	410.19
390.062	418.19
390.287	404.19
390.512	411.19
390.736	400.19
390.961	422.19
391.186	402.19
391.411	411.19
391.636	417.19
391.86	423.19
392.085	394.19
392.31	405.19
392.534	407.19
392.759	421.19
392.984	388.19
393.208	410.19
393.433	397.19
393.658	424.19
393.882	413.19
394.107	422.19
394.331	409.19
394.556	409.19
394.78	405.19
395.005	411.19
395.229	437.19
395.454	398.19
395.678	416.19
395.903	424.19
396.127	452.19
396.352	452.19
396.576	441.19
396.801	420.19
397.025	411.19
397.249	435.19
397.474	455.19
397.698	443.19
397.922	457.19
398.147	455.19
398.371	460.19
398.595	438.19
398.82	449.19
399.044	462.19
399.268	475.19
399.492	504.19
399.717	533.19
399.941	534.19
400.165	580.19
400.389	581.19
400.613	536.19
400.837	487.19
401.062	487.19
401.286	461.19
401.51	485.19
401.734	450.19
401.958	466.19
402.182	471.19
402.406	481.19
402.63	480.19
402.854	453.19
403.078	473.19
403.302	477.19
403.526	483.19
403.75	456.19
403.974	484.19
404.198	479.19
404.422	481.19
404.645	485.19
404.869	511.19
405.093	485.19
405.317	529.19
405.541	575.19
405.765	547.19
405.988	497.19
406.212	535.19
406.436	523.19
406.66	554.19
406.883	530.19
407.107	521.19
407.331	583.19
407.555	633.19
407.778	639.19
408.002	586.19
408.226	549.19
408.449	530.19
408.673	541.19
408.896	566.19
409.12	608.19
409.344	593.19
409.567	509.19
409.791	484.19
410.014	485.19
410.238	484.19
410.461	470.19
410.685	491.19
410.908	492.19
411.132	524.19
411.355	564.19
411.578	535.19
411.802	507.19
412.025	481.19
412.249	486.19
412.472	504.19
412.695	513.19
412.919	499.19
413.142	476.19
413.365	452.19
413.589	479.19
413.812	452.19
414.035	469.19
414.258	429.19
414.482	434.19
414.705	446.19
414.928	453.19
415.151	452.19
415.374	431.19
415.597	449.19
415.821	443.19
416.044	439.19
416.267	445.19
416.49	458.19
416.713	449.19
416.936	440.19
417.159	435.19
417.382	451.19
417.605	457.19
417.828	479.19
418.051	478.19
418.274	480.19
418.497	460.19
418.72	435.19
418.943	453.19
419.166	463.19
419.389	487.19
419.611	479.19
419.834	475.19
420.057	480.19
420.28	471.19
420.503	462.19
420.726	459.19
420.948	475.19
421.171	533.19
421.394	565.19
421.617	497.19
421.839	463.19
422.062	468.19
422.285	505.19
422.507	533.19
422.73	605.19
422.953	609.19
423.175	525.19
423.398	497.19
423.621	501.19
423.843	515.19
424.066	498.19
424.288	525.19
424.511	549.19
424.733	615.19
424.956	677.19
425.178	655.19
425.401	629.19
425.623	651.19
425.846	577.19
426.068	546.19
426.291	523.19
426.513	537.19
426.735	546.19
426.958	575.19
427.18	663.19
427.402	773.19
427.625	866.19
427.847	740.19
428.069	638.19
428.292	569.19
428.514	510.19
428.736	505.19
428.958	504.19
429.181	470.19
429.403	484.19
429.625	501.19
429.847	529.19
430.069	600.19
430.292	580.19
430.514	509.19
430.736	473.19
430.958	479.19
431.18	481.19
431.402	465.19
431.624	442.19
431.846	437.19
432.068	456.19
432.29	447.19
432.512	445.19
432.734	469.19
432.956	460.19
433.178	467.19
433.4	465.19
433.622	455.19
433.844	445.19
434.066	440.19
434.287	449.19
434.509	441.19
434.731	447.19
434.953	463.19
435.175	465.19
435.397	522.19
435.618	506.19
435.84	582.19
436.062	660.19
436.284	706.19
436.505	610.19
436.727	540.19
436.949	520.19
437.17	497.19
437.392	482.19
437.614	514.19
437.835	553.19
438.057	641.19
438.278	730.19
438.5	731.19
438.721	787.19
438.943	754.19
439.165	577.19
439.386	546.19
439.608	533.19
439.829	552.19
440.05	587.19
440.272	623.19
440.493	587.19
440.715	548.19
440.936	502.19
441.158	492.19
441.379	479.19
441.6	507.19
441.822	517.19
442.043	562.19
442.264	629.19
442.486	684.19
442.707	579.19
442.928	547.19
443.149	544.19
443.371	569.19
443.592	602.19
443.813	709.19
444.034	753.19
444.255	629.19
444.476	544.19
444.698	548.19
444.919	521.19
445.14	630.19
445.361	587.19
445.582	571.19
445.803	646.19
446.024	733.19
446.245	758.19
446.466	689.19
446.687	585.19
446.908	547.19
447.129	499.19
447.35	477.19
447.571	494.19
447.792	483.19
448.013	492.19
448.234	514.19
448.455	574.19
448.675	666.19
448.896	786.19
449.117	680.19
449.338	607.19
449.559	744.19
449.779	811.19
450	655.19
450.221	527.19
450.442	499.19
450.662	473.19
450.883	475.19
451.104	508.19
451.324	505.19
451.545	456.19
451.766	464.19
451.986	442.19
452.207	434.19
452.428	423.19
452.648	443.19
452.869	446.19
453.089	445.19
453.31	458.19
453.53	436.19
453.751	422.19
453.971	436.19
454.192	428.19
454.412	422.19
454.633	446.19
454.853	421.19
455.073	425.19
455.294	467.19
455.514	542.19
455.734	501.19
455.955	440.19
456.175	443.19
456.395	411.19
456.616	417.19
456.836	405.19
457.056	392.19
457.276	403.19
457.497	415.19
457.717	392.19
457.937	420.19
458.157	402.19
458.377	406.19
458.598	447.19
458.818	489.19
459.038	604.19
459.258	601.19
459.478	494.19
459.698	449.19
459.918	429.19
460.138	424.19
460.358	446.19
460.578	431.19
460.798	434.19
461.018	435.19
461.238	454.19
461.458	450.19
461.678	434.19
461.898	440.19
462.118	458.19
462.338	477.19
462.558	439.19
462.777	435.19
462.997	461.19
463.217	438.19
463.437	461.19
463.657	457.19
463.876	462.19
464.096	460.19
464.316	469.19
464.536	451.19
464.755	467.19
464.975	473.19
465.195	549.19
465.414	613.19
465.634	522.19
465.854	498.19
466.073	457.19
466.293	442.19
466.512	439.19
466.732	419.19
466.951	433.19
467.171	427.19
467.391	441.19
467.61	458.19
467.829	465.19
468.049	436.19
468.268	431.19
468.488	443.19
468.707	438.19
468.927	406.19
469.146	400.19
469.365	413.19
469.585	409.19
469.804	450.19
470.023	442.19
470.243	450.19
470.462	452.19
470.681	448.19
470.901	458.19
471.12	431.19
471.339	427.19
471.558	417.19
471.777	430.19
471.997	417.19
472.216	417.19
472.435	421.19
472.654	447.19
472.873	412.19
473.092	440.19
473.311	420.19
473.53	443.19
473.749	441.19
473.968	470.19
474.187	615.19
474.406	640.19
474.625	486.19
474.844	459.19
475.063	453.19
475.282	454.19
475.501	437.19
475.72	465.19
475.939	449.19
476.158	452.19
476.377	446.19
476.596	474.19
476.814	463.19
477.033	437.19
477.252	454.19
477.471	461.19
477.69	473.19
477.908	482.19
478.127	492.19
478.346	464.19
478.564	491.19
478.783	489.19
479.002	527.19
479.22	487.19
479.439	517.19
479.658	507.19
479.876	536.19
480.095	513.19
480.313	570.19
480.532	545.19
480.751	533.19
480.969	561.19
481.188	568.19
481.406	573.19
481.624	542.19
481.843	510.19
482.061	506.19
482.28	526.19
482.498	522.19
482.717	521.19
482.935	492.19
483.153	511.19
483.372	519.19
483.59	508.19
483.808	517.19
484.027	495.19
484.245	517.19
484.463	526.19
484.681	538.19
484.9	530.19
485.118	518.19
485.336	522.19
485.554	521.19
485.772	519.19
485.99	546.19
486.209	542.19
486.427	534.19
486.645	539.19
486.863	565.19
487.081	565.19
487.299	575.19
487.517	568.19
487.735	536.19
487.953	554.19
488.171	582.19
488.389	535.19
488.607	539.19
488.825	549.19
489.043	583.19
489.261	570.19
489.479	549.19
489.696	578.19
489.914	551.19
490.132	571.19
490.35	566.19
490.568	580.19
490.786	581.19
491.003	594.19
491.221	585.19
491.439	625.19
491.657	630.19
491.874	638.19
492.092	618.19
492.31	649.19
492.527	635.19
492.745	626.19
492.963	649.19
493.18	677.19
493.398	649.19
493.615	685.19
493.833	651.19
494.05	661.19
494.268	649.19
494.485	649.19
494.703	659.19
494.92	671.19
495.138	654.19
495.355	666.19
495.573	679.19
495.79	637.19
496.008	671.19
496.225	674.19
496.442	663.19
496.66	658.19
496.877	651.19
497.094	659.19
497.312	676.19
497.529	669.19
497.746	683.19
497.963	697.19
498.181	708.19
498.398	713.19
498.615	733.19
498.832	714.19
499.049	709.19
499.267	736.19
499.484	745.19
499.701	767.19
499.918	798.19
500.135	821.19
500.352	847.19
500.569	876.19
500.786	862.19
501.003	839.19
501.22	819.19
501.437	825.19
501.654	829.19
501.871	789.19
