Data from 1989.PennyLincolnUp.Lamp.En5.5.200Scan.071819.P2_HRD10591_17-25-19-975.txt Node
Date: Thu Jul 18 17:25:19 EDT 2019
User: cochatt
Spectrometer: HR+D1059
Trigger mode: 1
Integration Time (sec): 1.000000E-1
Scans to average: 1
Electric dark correction enabled: true
Nonlinearity correction enabled: false
Boxcar width: 0
XAxis mode: Wavelengths
Number of Pixels in Spectrum: 2048
>>>>>Begin Spectral Data<<<<<
223.165	2.19
223.4	2.19
223.635	2.19
223.869	-28.81
224.104	-21.81
224.338	-4.81
224.573	-13.81
224.808	-19.81
225.042	-25.81
225.277	3.19
225.511	-2.81
225.746	9.19
225.98	5.19
226.215	2.19
226.449	16.19
226.683	9.19
226.918	48.19
227.152	22.19
227.387	37.19
227.621	28.19
227.856	50.19
228.09	46.19
228.324	50.19
228.559	41.19
228.793	66.19
229.027	110.19
229.262	116.19
229.496	124.19
229.73	136.19
229.964	165.19
230.199	137.19
230.433	120.19
230.667	133.19
230.901	125.19
231.136	104.19
231.37	116.19
231.604	116.19
231.838	107.19
232.072	100.19
232.306	130.19
232.541	115.19
232.775	107.19
233.009	113.19
233.243	124.19
233.477	120.19
233.711	116.19
233.945	110.19
234.179	110.19
234.413	118.19
234.647	106.19
234.881	110.19
235.115	125.19
235.349	124.19
235.583	136.19
235.817	132.19
236.051	148.19
236.285	136.19
236.519	120.19
236.753	120.19
236.987	164.19
237.221	203.19
237.455	252.19
237.689	205.19
237.922	153.19
238.156	142.19
238.39	143.19
238.624	132.19
238.858	123.19
239.091	122.19
239.325	141.19
239.559	131.19
239.793	138.19
240.027	132.19
240.26	163.19
240.494	155.19
240.728	165.19
240.961	164.19
241.195	149.19
241.429	150.19
241.662	130.19
241.896	137.19
242.13	145.19
242.363	139.19
242.597	124.19
242.83	141.19
243.064	142.19
243.298	152.19
243.531	135.19
243.765	145.19
243.998	143.19
244.232	152.19
244.465	162.19
244.699	155.19
244.932	162.19
245.166	159.19
245.399	170.19
245.633	162.19
245.866	148.19
246.099	150.19
246.333	173.19
246.566	170.19
246.8	161.19
247.033	155.19
247.266	163.19
247.5	165.19
247.733	193.19
247.966	195.19
248.2	185.19
248.433	196.19
248.666	195.19
248.899	202.19
249.133	244.19
249.366	233.19
249.599	214.19
249.832	206.19
250.066	208.19
250.299	203.19
250.532	192.19
250.765	210.19
250.998	248.19
251.231	257.19
251.465	232.19
251.698	221.19
251.931	228.19
252.164	236.19
252.397	220.19
252.63	221.19
252.863	227.19
253.096	241.19
253.329	244.19
253.562	248.19
253.795	232.19
254.028	225.19
254.261	244.19
254.494	247.19
254.727	289.19
254.96	299.19
255.193	328.19
255.426	275.19
255.659	270.19
255.892	248.19
256.124	255.19
256.357	248.19
256.59	237.19
256.823	232.19
257.056	218.19
257.289	210.19
257.521	240.19
257.754	229.19
257.987	238.19
258.22	236.19
258.452	225.19
258.685	236.19
258.918	218.19
259.151	224.19
259.383	241.19
259.616	246.19
259.849	230.19
260.081	274.19
260.314	292.19
260.547	286.19
260.779	270.19
261.012	254.19
261.244	254.19
261.477	249.19
261.71	248.19
261.942	258.19
262.175	241.19
262.407	250.19
262.64	230.19
262.872	238.19
263.105	235.19
263.337	235.19
263.57	228.19
263.802	232.19
264.035	233.19
264.267	219.19
264.499	223.19
264.732	246.19
264.964	231.19
265.197	229.19
265.429	230.19
265.661	231.19
265.894	236.19
266.126	221.19
266.358	224.19
266.591	240.19
266.823	226.19
267.055	249.19
267.287	247.19
267.52	240.19
267.752	242.19
267.984	252.19
268.216	261.19
268.448	261.19
268.681	262.19
268.913	259.19
269.145	303.19
269.377	285.19
269.609	302.19
269.841	288.19
270.073	316.19
270.306	312.19
270.538	358.19
270.77	362.19
271.002	341.19
271.234	335.19
271.466	324.19
271.698	330.19
271.93	341.19
272.162	360.19
272.394	353.19
272.626	331.19
272.858	318.19
273.09	308.19
273.322	309.19
273.553	274.19
273.785	294.19
274.017	285.19
274.249	285.19
274.481	285.19
274.713	289.19
274.945	289.19
275.176	289.19
275.408	297.19
275.64	279.19
275.872	277.19
276.104	296.19
276.335	280.19
276.567	302.19
276.799	317.19
277.031	324.19
277.262	351.19
277.494	373.19
277.726	342.19
277.957	319.19
278.189	299.19
278.421	312.19
278.652	285.19
278.884	290.19
279.115	302.19
279.347	273.19
279.579	292.19
279.81	281.19
280.042	289.19
280.273	279.19
280.505	294.19
280.736	298.19
280.968	294.19
281.199	277.19
281.431	276.19
281.662	297.19
281.894	289.19
282.125	280.19
282.356	309.19
282.588	312.19
282.819	333.19
283.051	299.19
283.282	286.19
283.513	275.19
283.745	283.19
283.976	302.19
284.207	314.19
284.439	298.19
284.67	293.19
284.901	293.19
285.132	294.19
285.364	292.19
285.595	285.19
285.826	292.19
286.057	290.19
286.288	293.19
286.52	308.19
286.751	305.19
286.982	304.19
287.213	306.19
287.444	308.19
287.675	318.19
287.906	314.19
288.138	347.19
288.369	329.19
288.6	337.19
288.831	315.19
289.062	313.19
289.293	291.19
289.524	302.19
289.755	310.19
289.986	311.19
290.217	306.19
290.448	298.19
290.679	326.19
290.91	318.19
291.141	314.19
291.371	308.19
291.602	306.19
291.833	292.19
292.064	301.19
292.295	314.19
292.526	308.19
292.757	324.19
292.987	314.19
293.218	314.19
293.449	293.19
293.68	318.19
293.91	304.19
294.141	290.19
294.372	285.19
294.603	323.19
294.833	309.19
295.064	310.19
295.295	312.19
295.525	307.19
295.756	315.19
295.987	325.19
296.217	345.19
296.448	336.19
296.679	324.19
296.909	317.19
297.14	303.19
297.37	317.19
297.601	320.19
297.831	318.19
298.062	316.19
298.292	321.19
298.523	320.19
298.753	296.19
298.984	310.19
299.214	323.19
299.445	320.19
299.675	336.19
299.905	338.19
300.136	330.19
300.366	326.19
300.597	298.19
300.827	327.19
301.057	332.19
301.288	343.19
301.518	342.19
301.748	358.19
301.979	337.19
302.209	352.19
302.439	360.19
302.669	358.19
302.9	365.19
303.13	353.19
303.36	332.19
303.59	350.19
303.82	363.19
304.051	359.19
304.281	338.19
304.511	356.19
304.741	328.19
304.971	356.19
305.201	323.19
305.431	344.19
305.661	318.19
305.891	366.19
306.121	348.19
306.352	371.19
306.582	353.19
306.812	353.19
307.042	353.19
307.272	369.19
307.502	336.19
307.731	347.19
307.961	363.19
308.191	353.19
308.421	366.19
308.651	360.19
308.881	351.19
309.111	365.19
309.341	380.19
309.571	376.19
309.8	384.19
310.03	396.19
310.26	394.19
310.49	392.19
310.72	402.19
310.949	414.19
311.179	425.19
311.409	408.19
311.639	414.19
311.868	439.19
312.098	416.19
312.328	413.19
312.557	415.19
312.787	450.19
313.017	457.19
313.246	421.19
313.476	408.19
313.706	426.19
313.935	414.19
314.165	423.19
314.394	418.19
314.624	437.19
314.853	433.19
315.083	408.19
315.312	402.19
315.542	394.19
315.771	381.19
316.001	404.19
316.23	408.19
316.46	388.19
316.689	404.19
316.919	396.19
317.148	421.19
317.377	404.19
317.607	416.19
317.836	422.19
318.065	417.19
318.295	398.19
318.524	403.19
318.753	407.19
318.983	421.19
319.212	408.19
319.441	422.19
319.67	425.19
319.9	409.19
320.129	401.19
320.358	397.19
320.587	425.19
320.816	419.19
321.046	431.19
321.275	427.19
321.504	448.19
321.733	446.19
321.962	437.19
322.191	443.19
322.42	478.19
322.649	486.19
322.878	515.19
323.108	505.19
323.337	554.19
323.566	568.19
323.795	588.19
324.024	669.19
324.253	818.19
324.482	1190.19
324.71	1811.19
324.939	2592.19
325.168	2225.19
325.397	1170.19
325.626	776.19
325.855	629.19
326.084	582.19
326.313	557.19
326.542	580.19
326.77	632.19
326.999	736.19
327.228	1060.19
327.457	1572.19
327.686	1946.19
327.914	1298.19
328.143	843.19
328.372	712.19
328.6	681.19
328.829	652.19
329.058	664.19
329.287	648.19
329.515	631.19
329.744	578.19
329.972	557.19
330.201	585.19
330.43	627.19
330.658	643.19
330.887	688.19
331.115	658.19
331.344	561.19
331.572	547.19
331.801	544.19
332.03	542.19
332.258	522.19
332.486	504.19
332.715	480.19
332.943	473.19
333.172	490.19
333.4	464.19
333.629	482.19
333.857	510.19
334.085	505.19
334.314	538.19
334.542	539.19
334.771	560.19
334.999	511.19
335.227	486.19
335.455	487.19
335.684	490.19
335.912	473.19
336.14	466.19
336.369	471.19
336.597	481.19
336.825	471.19
337.053	469.19
337.281	456.19
337.51	480.19
337.738	483.19
337.966	453.19
338.194	469.19
338.422	472.19
338.65	437.19
338.878	443.19
339.106	443.19
339.334	435.19
339.562	417.19
339.79	438.19
340.018	429.19
340.246	461.19
340.474	442.19
340.702	466.19
340.93	487.19
341.158	429.19
341.386	453.19
341.614	438.19
341.842	424.19
342.07	422.19
342.298	429.19
342.526	434.19
342.754	412.19
342.981	419.19
343.209	413.19
343.437	431.19
343.665	436.19
343.893	424.19
344.12	438.19
344.348	444.19
344.576	451.19
344.804	455.19
345.031	476.19
345.259	475.19
345.487	457.19
345.714	443.19
345.942	438.19
346.17	421.19
346.397	413.19
346.625	421.19
346.853	435.19
347.08	422.19
347.308	424.19
347.535	453.19
347.763	478.19
347.99	455.19
348.218	418.19
348.445	448.19
348.673	423.19
348.9	456.19
349.128	432.19
349.355	406.19
349.583	393.19
349.81	408.19
350.037	424.19
350.265	429.19
350.492	414.19
350.72	427.19
350.947	417.19
351.174	443.19
351.402	448.19
351.629	449.19
351.856	415.19
352.083	424.19
352.311	449.19
352.538	458.19
352.765	439.19
352.992	441.19
353.22	417.19
353.447	420.19
353.674	421.19
353.901	418.19
354.128	406.19
354.355	406.19
354.583	422.19
354.81	405.19
355.037	392.19
355.264	388.19
355.491	391.19
355.718	373.19
355.945	389.19
356.172	398.19
356.399	398.19
356.626	393.19
356.853	377.19
357.08	383.19
357.307	396.19
357.534	379.19
357.761	394.19
357.988	395.19
358.215	386.19
358.441	397.19
358.668	370.19
358.895	399.19
359.122	393.19
359.349	406.19
359.576	421.19
359.802	450.19
360.029	506.19
360.256	492.19
360.483	473.19
360.709	453.19
360.936	442.19
361.163	426.19
361.39	444.19
361.616	424.19
361.843	432.19
362.07	426.19
362.296	428.19
362.523	427.19
362.749	391.19
362.976	421.19
363.203	404.19
363.429	409.19
363.656	423.19
363.882	405.19
364.109	417.19
364.335	408.19
364.562	381.19
364.788	416.19
365.015	404.19
365.241	401.19
365.468	397.19
365.694	428.19
365.92	415.19
366.147	410.19
366.373	387.19
366.599	388.19
366.826	365.19
367.052	388.19
367.278	398.19
367.505	382.19
367.731	380.19
367.957	405.19
368.184	392.19
368.41	397.19
368.636	401.19
368.862	409.19
369.089	423.19
369.315	393.19
369.541	368.19
369.767	389.19
369.993	395.19
370.219	394.19
370.445	380.19
370.672	358.19
370.898	378.19
371.124	376.19
371.35	391.19
371.576	397.19
371.802	397.19
372.028	389.19
372.254	377.19
372.48	378.19
372.706	385.19
372.932	390.19
373.158	396.19
373.384	386.19
373.61	380.19
373.835	404.19
374.061	378.19
374.287	386.19
374.513	392.19
374.739	400.19
374.965	378.19
375.191	385.19
375.416	392.19
375.642	382.19
375.868	408.19
376.094	382.19
376.319	381.19
376.545	374.19
376.771	395.19
376.997	387.19
377.222	362.19
377.448	388.19
377.674	386.19
377.899	379.19
378.125	371.19
378.35	375.19
378.576	381.19
378.802	369.19
379.027	372.19
379.253	373.19
379.478	380.19
379.704	366.19
379.929	387.19
380.155	392.19
380.38	385.19
380.606	399.19
380.831	381.19
381.057	382.19
381.282	380.19
381.507	398.19
381.733	393.19
381.958	377.19
382.184	358.19
382.409	382.19
382.634	400.19
382.86	375.19
383.085	380.19
383.31	386.19
383.535	392.19
383.761	384.19
383.986	390.19
384.211	382.19
384.436	377.19
384.662	398.19
384.887	409.19
385.112	382.19
385.337	416.19
385.562	393.19
385.787	404.19
386.013	417.19
386.238	411.19
386.463	418.19
386.688	438.19
386.913	403.19
387.138	398.19
387.363	404.19
387.588	386.19
387.813	424.19
388.038	408.19
388.263	396.19
388.488	399.19
388.713	419.19
388.938	403.19
389.163	393.19
389.387	407.19
389.612	402.19
389.837	374.19
390.062	399.19
390.287	404.19
390.512	412.19
390.736	394.19
390.961	393.19
391.186	402.19
391.411	409.19
391.636	406.19
391.86	412.19
392.085	390.19
392.31	408.19
392.534	384.19
392.759	417.19
392.984	400.19
393.208	409.19
393.433	393.19
393.658	392.19
393.882	404.19
394.107	408.19
394.331	398.19
394.556	408.19
394.78	399.19
395.005	408.19
395.229	399.19
395.454	423.19
395.678	414.19
395.903	405.19
396.127	434.19
396.352	454.19
396.576	408.19
396.801	404.19
397.025	410.19
397.249	412.19
397.474	417.19
397.698	442.19
397.922	448.19
398.147	457.19
398.371	468.19
398.595	448.19
398.82	438.19
399.044	450.19
399.268	460.19
399.492	464.19
399.717	503.19
399.941	527.19
400.165	548.19
400.389	547.19
400.613	531.19
400.837	480.19
401.062	464.19
401.286	474.19
401.51	471.19
401.734	451.19
401.958	454.19
402.182	461.19
402.406	467.19
402.63	458.19
402.854	456.19
403.078	462.19
403.302	462.19
403.526	460.19
403.75	456.19
403.974	469.19
404.198	451.19
404.422	482.19
404.645	474.19
404.869	476.19
405.093	532.19
405.317	546.19
405.541	599.19
405.765	516.19
405.988	503.19
406.212	496.19
406.436	531.19
406.66	552.19
406.883	512.19
407.107	540.19
407.331	576.19
407.555	637.19
407.778	638.19
408.002	573.19
408.226	541.19
408.449	527.19
408.673	518.19
408.896	526.19
409.12	578.19
409.344	570.19
409.567	498.19
409.791	467.19
410.014	469.19
410.238	473.19
410.461	490.19
410.685	456.19
410.908	483.19
411.132	533.19
411.355	564.19
411.578	556.19
411.802	468.19
412.025	462.19
412.249	473.19
412.472	498.19
412.695	536.19
412.919	530.19
413.142	469.19
413.365	452.19
413.589	449.19
413.812	450.19
414.035	453.19
414.258	450.19
414.482	449.19
414.705	436.19
414.928	434.19
415.151	435.19
415.374	416.19
415.597	411.19
415.821	440.19
416.044	438.19
416.267	450.19
416.49	444.19
416.713	446.19
416.936	428.19
417.159	441.19
417.382	437.19
417.605	457.19
417.828	473.19
418.051	482.19
418.274	473.19
418.497	448.19
418.72	437.19
418.943	421.19
419.166	446.19
419.389	465.19
419.611	458.19
419.834	448.19
420.057	468.19
420.28	482.19
420.503	481.19
420.726	490.19
420.948	482.19
421.171	531.19
421.394	544.19
421.617	500.19
421.839	459.19
422.062	463.19
422.285	471.19
422.507	534.19
422.73	632.19
422.953	604.19
423.175	534.19
423.398	492.19
423.621	478.19
423.843	529.19
424.066	541.19
424.288	489.19
424.511	535.19
424.733	574.19
424.956	649.19
425.178	642.19
425.401	626.19
425.623	638.19
425.846	565.19
426.068	519.19
426.291	536.19
426.513	499.19
426.735	495.19
426.958	571.19
427.18	632.19
427.402	766.19
427.625	861.19
427.847	759.19
428.069	658.19
428.292	601.19
428.514	521.19
428.736	519.19
428.958	489.19
429.181	493.19
429.403	491.19
429.625	475.19
429.847	497.19
430.069	600.19
430.292	580.19
430.514	506.19
430.736	477.19
430.958	452.19
431.18	458.19
431.402	460.19
431.624	441.19
431.846	424.19
432.068	439.19
432.29	442.19
432.512	448.19
432.734	446.19
432.956	433.19
433.178	450.19
433.4	458.19
433.622	446.19
433.844	445.19
434.066	436.19
434.287	423.19
434.509	436.19
434.731	454.19
434.953	470.19
435.175	469.19
435.397	492.19
435.618	515.19
435.84	565.19
436.062	659.19
436.284	721.19
436.505	611.19
436.727	516.19
436.949	496.19
437.17	481.19
437.392	483.19
437.614	493.19
437.835	515.19
438.057	631.19
438.278	760.19
438.5	764.19
438.721	810.19
438.943	758.19
439.165	608.19
439.386	540.19
439.608	541.19
439.829	520.19
440.05	560.19
440.272	613.19
440.493	582.19
440.715	520.19
440.936	505.19
441.158	482.19
441.379	470.19
441.6	517.19
441.822	525.19
442.043	550.19
442.264	647.19
442.486	685.19
442.707	578.19
442.928	532.19
443.149	553.19
443.371	566.19
443.592	621.19
443.813	696.19
444.034	745.19
444.255	616.19
444.476	546.19
444.698	530.19
444.919	526.19
445.14	613.19
445.361	573.19
445.582	571.19
445.803	647.19
446.024	712.19
446.245	730.19
446.466	688.19
446.687	569.19
446.908	509.19
447.129	499.19
447.35	481.19
447.571	475.19
447.792	457.19
448.013	489.19
448.234	520.19
448.455	553.19
448.675	667.19
448.896	776.19
449.117	665.19
449.338	627.19
449.559	732.19
449.779	775.19
450	658.19
450.221	528.19
450.442	485.19
450.662	492.19
450.883	482.19
451.104	494.19
451.324	489.19
451.545	454.19
451.766	448.19
451.986	446.19
452.207	422.19
452.428	428.19
452.648	435.19
452.869	434.19
453.089	430.19
453.31	446.19
453.53	451.19
453.751	441.19
453.971	429.19
454.192	450.19
454.412	445.19
454.633	443.19
454.853	420.19
455.073	424.19
455.294	472.19
455.514	513.19
455.734	525.19
455.955	437.19
456.175	415.19
456.395	420.19
456.616	410.19
456.836	405.19
457.056	392.19
457.276	373.19
457.497	407.19
457.717	392.19
457.937	382.19
458.157	398.19
458.377	414.19
458.598	441.19
458.818	516.19
459.038	582.19
459.258	612.19
459.478	504.19
459.698	445.19
459.918	437.19
460.138	432.19
460.358	446.19
460.578	425.19
460.798	422.19
461.018	440.19
461.238	424.19
461.458	441.19
461.678	442.19
461.898	424.19
462.118	419.19
462.338	441.19
462.558	428.19
462.777	425.19
462.997	456.19
463.217	446.19
463.437	471.19
463.657	442.19
463.876	445.19
464.096	469.19
464.316	440.19
464.536	466.19
464.755	475.19
464.975	452.19
465.195	533.19
465.414	598.19
465.634	519.19
465.854	476.19
466.073	442.19
466.293	442.19
466.512	424.19
466.732	426.19
466.951	425.19
467.171	418.19
467.391	416.19
467.61	438.19
467.829	448.19
468.049	458.19
468.268	423.19
468.488	438.19
468.707	418.19
468.927	416.19
469.146	424.19
469.365	409.19
469.585	417.19
469.804	424.19
470.023	427.19
470.243	429.19
470.462	437.19
470.681	450.19
470.901	449.19
471.12	435.19
471.339	426.19
471.558	436.19
471.777	432.19
471.997	415.19
472.216	429.19
472.435	474.19
472.654	468.19
472.873	427.19
473.092	433.19
473.311	408.19
473.53	438.19
473.749	456.19
473.968	494.19
474.187	574.19
474.406	632.19
474.625	510.19
474.844	465.19
475.063	435.19
475.282	446.19
475.501	441.19
475.72	444.19
475.939	440.19
476.158	442.19
476.377	442.19
476.596	439.19
476.814	459.19
477.033	446.19
477.252	461.19
477.471	448.19
477.69	447.19
477.908	477.19
478.127	469.19
478.346	459.19
478.564	481.19
478.783	491.19
479.002	468.19
479.22	471.19
479.439	513.19
479.658	514.19
479.876	517.19
480.095	532.19
480.313	547.19
480.532	564.19
480.751	534.19
480.969	526.19
481.188	584.19
481.406	624.19
481.624	558.19
481.843	534.19
482.061	521.19
482.28	523.19
482.498	517.19
482.717	493.19
482.935	503.19
483.153	501.19
483.372	527.19
483.59	497.19
483.808	494.19
484.027	501.19
484.245	509.19
484.463	517.19
484.681	532.19
484.9	539.19
485.118	514.19
485.336	528.19
485.554	527.19
485.772	544.19
485.99	528.19
486.209	524.19
486.427	533.19
486.645	532.19
486.863	570.19
487.081	566.19
487.299	576.19
487.517	541.19
487.735	553.19
487.953	562.19
488.171	552.19
488.389	545.19
488.607	563.19
488.825	564.19
489.043	556.19
489.261	547.19
489.479	553.19
489.696	579.19
489.914	549.19
490.132	589.19
490.35	562.19
490.568	594.19
490.786	596.19
491.003	580.19
491.221	600.19
491.439	643.19
491.657	626.19
491.874	614.19
492.092	626.19
492.31	636.19
492.527	636.19
492.745	631.19
492.963	643.19
493.18	645.19
493.398	664.19
493.615	650.19
493.833	642.19
494.05	664.19
494.268	678.19
494.485	648.19
494.703	658.19
494.92	667.19
495.138	644.19
495.355	670.19
495.573	667.19
495.79	661.19
496.008	650.19
496.225	660.19
496.442	648.19
496.66	669.19
496.877	680.19
497.094	674.19
497.312	659.19
497.529	654.19
497.746	680.19
497.963	682.19
498.181	694.19
498.398	712.19
498.615	710.19
498.832	720.19
499.049	713.19
499.267	698.19
499.484	749.19
499.701	752.19
499.918	794.19
500.135	785.19
500.352	812.19
500.569	834.19
500.786	814.19
501.003	836.19
501.22	823.19
501.437	776.19
501.654	796.19
501.871	807.19
502.088	775.19
