Data from 1989.PennyLincolnUp.Lamp.En5.5.200Scan.071819.P2_HRD10591_17-23-38-972.txt Node
Date: Thu Jul 18 17:23:38 EDT 2019
User: cochatt
Spectrometer: HR+D1059
Trigger mode: 1
Integration Time (sec): 1.000000E-1
Scans to average: 1
Electric dark correction enabled: true
Nonlinearity correction enabled: false
Boxcar width: 0
XAxis mode: Wavelengths
Number of Pixels in Spectrum: 2048
>>>>>Begin Spectral Data<<<<<
223.165	-33.5
223.4	-33.5
223.635	-33.5
223.869	-25.5
224.104	-6.5
224.338	-28.5
224.573	-13.5
224.808	-7.5
225.042	-3.5
225.277	7.5
225.511	1.5
225.746	1.5
225.98	-0.5
226.215	22.5
226.449	21.5
226.683	20.5
226.918	18.5
227.152	25.5
227.387	36.5
227.621	33.5
227.856	42.5
228.09	42.5
228.324	49.5
228.559	49.5
228.793	66.5
229.027	84.5
229.262	100.5
229.496	114.5
229.73	133.5
229.964	142.5
230.199	131.5
230.433	115.5
230.667	101.5
230.901	104.5
231.136	109.5
231.37	105.5
231.604	93.5
231.838	104.5
232.072	115.5
232.306	123.5
232.541	117.5
232.775	114.5
233.009	104.5
233.243	116.5
233.477	111.5
233.711	117.5
233.945	121.5
234.179	112.5
234.413	122.5
234.647	105.5
234.881	102.5
235.115	113.5
235.349	107.5
235.583	119.5
235.817	117.5
236.051	118.5
236.285	117.5
236.519	128.5
236.753	125.5
236.987	135.5
237.221	166.5
237.455	226.5
237.689	180.5
237.922	139.5
238.156	121.5
238.39	124.5
238.624	125.5
238.858	114.5
239.091	121.5
239.325	113.5
239.559	115.5
239.793	115.5
240.027	119.5
240.26	138.5
240.494	142.5
240.728	148.5
240.961	145.5
241.195	149.5
241.429	132.5
241.662	139.5
241.896	121.5
242.13	124.5
242.363	137.5
242.597	127.5
242.83	135.5
243.064	144.5
243.298	145.5
243.531	145.5
243.765	134.5
243.998	141.5
244.232	142.5
244.465	138.5
244.699	135.5
244.932	143.5
245.166	139.5
245.399	148.5
245.633	139.5
245.866	138.5
246.099	146.5
246.333	144.5
246.566	137.5
246.8	148.5
247.033	160.5
247.266	155.5
247.5	151.5
247.733	182.5
247.966	165.5
248.2	189.5
248.433	175.5
248.666	182.5
248.899	184.5
249.133	196.5
249.366	203.5
249.599	206.5
249.832	189.5
250.066	176.5
250.299	189.5
250.532	179.5
250.765	185.5
250.998	203.5
251.231	232.5
251.465	211.5
251.698	200.5
251.931	195.5
252.164	205.5
252.397	198.5
252.63	203.5
252.863	212.5
253.096	201.5
253.329	212.5
253.562	216.5
253.795	220.5
254.028	241.5
254.261	211.5
254.494	242.5
254.727	243.5
254.96	240.5
255.193	261.5
255.426	245.5
255.659	226.5
255.892	234.5
256.124	211.5
256.357	211.5
256.59	208.5
256.823	216.5
257.056	209.5
257.289	215.5
257.521	207.5
257.754	200.5
257.987	211.5
258.22	204.5
258.452	219.5
258.685	204.5
258.918	213.5
259.151	201.5
259.383	240.5
259.616	245.5
259.849	231.5
260.081	229.5
260.314	232.5
260.547	236.5
260.779	249.5
261.012	242.5
261.244	234.5
261.477	230.5
261.71	225.5
261.942	227.5
262.175	255.5
262.407	241.5
262.64	214.5
262.872	202.5
263.105	212.5
263.337	217.5
263.57	226.5
263.802	206.5
264.035	206.5
264.267	212.5
264.499	206.5
264.732	214.5
264.964	235.5
265.197	214.5
265.429	222.5
265.661	214.5
265.894	213.5
266.126	234.5
266.358	213.5
266.591	226.5
266.823	209.5
267.055	237.5
267.287	226.5
267.52	217.5
267.752	230.5
267.984	234.5
268.216	244.5
268.448	233.5
268.681	259.5
268.913	244.5
269.145	271.5
269.377	282.5
269.609	265.5
269.841	287.5
270.073	262.5
270.306	293.5
270.538	313.5
270.77	329.5
271.002	305.5
271.234	289.5
271.466	315.5
271.698	303.5
271.93	320.5
272.162	297.5
272.394	309.5
272.626	302.5
272.858	295.5
273.09	285.5
273.322	309.5
273.553	281.5
273.785	272.5
274.017	278.5
274.249	280.5
274.481	254.5
274.713	286.5
274.945	267.5
275.176	283.5
275.408	266.5
275.64	279.5
275.872	250.5
276.104	263.5
276.335	275.5
276.567	276.5
276.799	294.5
277.031	317.5
277.262	315.5
277.494	317.5
277.726	301.5
277.957	299.5
278.189	275.5
278.421	275.5
278.652	275.5
278.884	268.5
279.115	268.5
279.347	270.5
279.579	272.5
279.81	271.5
280.042	262.5
280.273	265.5
280.505	271.5
280.736	273.5
280.968	270.5
281.199	277.5
281.431	272.5
281.662	259.5
281.894	274.5
282.125	283.5
282.356	291.5
282.588	305.5
282.819	289.5
283.051	278.5
283.282	289.5
283.513	281.5
283.745	273.5
283.976	283.5
284.207	291.5
284.439	280.5
284.67	286.5
284.901	288.5
285.132	274.5
285.364	274.5
285.595	270.5
285.826	276.5
286.057	285.5
286.288	272.5
286.52	286.5
286.751	279.5
286.982	289.5
287.213	295.5
287.444	282.5
287.675	295.5
287.906	293.5
288.138	297.5
288.369	292.5
288.6	294.5
288.831	296.5
289.062	310.5
289.293	299.5
289.524	291.5
289.755	306.5
289.986	295.5
290.217	268.5
290.448	285.5
290.679	293.5
290.91	277.5
291.141	273.5
291.371	307.5
291.602	289.5
291.833	280.5
292.064	302.5
292.295	290.5
292.526	303.5
292.757	278.5
292.987	285.5
293.218	289.5
293.449	286.5
293.68	286.5
293.91	293.5
294.141	295.5
294.372	293.5
294.603	297.5
294.833	294.5
295.064	289.5
295.295	298.5
295.525	283.5
295.756	297.5
295.987	301.5
296.217	314.5
296.448	345.5
296.679	307.5
296.909	295.5
297.14	301.5
297.37	291.5
297.601	297.5
297.831	308.5
298.062	290.5
298.292	287.5
298.523	306.5
298.753	312.5
298.984	309.5
299.214	311.5
299.445	331.5
299.675	295.5
299.905	313.5
300.136	328.5
300.366	307.5
300.597	301.5
300.827	313.5
301.057	312.5
301.288	326.5
301.518	309.5
301.748	322.5
301.979	321.5
302.209	335.5
302.439	330.5
302.669	331.5
302.9	327.5
303.13	328.5
303.36	327.5
303.59	322.5
303.82	335.5
304.051	316.5
304.281	333.5
304.511	304.5
304.741	337.5
304.971	327.5
305.201	326.5
305.431	336.5
305.661	320.5
305.891	323.5
306.121	329.5
306.352	356.5
306.582	321.5
306.812	349.5
307.042	323.5
307.272	343.5
307.502	327.5
307.731	339.5
307.961	341.5
308.191	325.5
308.421	336.5
308.651	347.5
308.881	332.5
309.111	339.5
309.341	362.5
309.571	367.5
309.8	347.5
310.03	373.5
310.26	379.5
310.49	370.5
310.72	366.5
310.949	377.5
311.179	406.5
311.409	371.5
311.639	372.5
311.868	388.5
312.098	390.5
312.328	388.5
312.557	385.5
312.787	419.5
313.017	414.5
313.246	383.5
313.476	365.5
313.706	383.5
313.935	385.5
314.165	376.5
314.394	389.5
314.624	394.5
314.853	373.5
315.083	376.5
315.312	379.5
315.542	378.5
315.771	380.5
316.001	385.5
316.23	365.5
316.46	366.5
316.689	384.5
316.919	390.5
317.148	385.5
317.377	389.5
317.607	388.5
317.836	394.5
318.065	379.5
318.295	400.5
318.524	365.5
318.753	385.5
318.983	347.5
319.212	371.5
319.441	395.5
319.67	393.5
319.9	388.5
320.129	392.5
320.358	394.5
320.587	386.5
320.816	392.5
321.046	399.5
321.275	387.5
321.504	391.5
321.733	412.5
321.962	405.5
322.191	425.5
322.42	449.5
322.649	440.5
322.878	432.5
323.108	449.5
323.337	480.5
323.566	488.5
323.795	519.5
324.024	577.5
324.253	674.5
324.482	963.5
324.71	1451.5
324.939	2056.5
325.168	1792.5
325.397	951.5
325.626	649.5
325.855	549.5
326.084	505.5
326.313	495.5
326.542	482.5
326.77	545.5
326.999	636.5
327.228	854.5
327.457	1285.5
327.686	1558.5
327.914	1039.5
328.143	697.5
328.372	591.5
328.6	565.5
328.829	523.5
329.058	534.5
329.287	579.5
329.515	545.5
329.744	480.5
329.972	472.5
330.201	500.5
330.43	528.5
330.658	531.5
330.887	571.5
331.115	568.5
331.344	497.5
331.572	469.5
331.801	465.5
332.03	484.5
332.258	447.5
332.486	446.5
332.715	428.5
332.943	425.5
333.172	425.5
333.4	415.5
333.629	437.5
333.857	450.5
334.085	456.5
334.314	452.5
334.542	463.5
334.771	450.5
334.999	446.5
335.227	440.5
335.455	440.5
335.684	433.5
335.912	447.5
336.14	429.5
336.369	432.5
336.597	432.5
336.825	454.5
337.053	431.5
337.281	420.5
337.51	439.5
337.738	447.5
337.966	452.5
338.194	434.5
338.422	430.5
338.65	429.5
338.878	447.5
339.106	411.5
339.334	408.5
339.562	431.5
339.79	414.5
340.018	416.5
340.246	402.5
340.474	420.5
340.702	419.5
340.93	398.5
341.158	417.5
341.386	402.5
341.614	415.5
341.842	434.5
342.07	414.5
342.298	414.5
342.526	402.5
342.754	408.5
342.981	411.5
343.209	400.5
343.437	415.5
343.665	410.5
343.893	422.5
344.12	413.5
344.348	436.5
344.576	431.5
344.804	403.5
345.031	445.5
345.259	442.5
345.487	431.5
345.714	426.5
345.942	399.5
346.17	407.5
346.397	408.5
346.625	399.5
346.853	399.5
347.08	410.5
347.308	412.5
347.535	411.5
347.763	422.5
347.99	447.5
348.218	426.5
348.445	442.5
348.673	417.5
348.9	407.5
349.128	400.5
349.355	386.5
349.583	406.5
349.81	392.5
350.037	383.5
350.265	391.5
350.492	395.5
350.72	396.5
350.947	395.5
351.174	413.5
351.402	417.5
351.629	407.5
351.856	395.5
352.083	393.5
352.311	413.5
352.538	421.5
352.765	398.5
352.992	389.5
353.22	394.5
353.447	399.5
353.674	385.5
353.901	379.5
354.128	380.5
354.355	391.5
354.583	381.5
354.81	394.5
355.037	375.5
355.264	374.5
355.491	386.5
355.718	386.5
355.945	376.5
356.172	384.5
356.399	369.5
356.626	373.5
356.853	382.5
357.08	381.5
357.307	376.5
357.534	372.5
357.761	379.5
357.988	378.5
358.215	394.5
358.441	366.5
358.668	375.5
358.895	380.5
359.122	377.5
359.349	379.5
359.576	398.5
359.802	416.5
360.029	416.5
360.256	441.5
360.483	433.5
360.709	397.5
360.936	410.5
361.163	397.5
361.39	393.5
361.616	399.5
361.843	402.5
362.07	380.5
362.296	375.5
362.523	385.5
362.749	389.5
362.976	378.5
363.203	393.5
363.429	391.5
363.656	387.5
363.882	382.5
364.109	379.5
364.335	378.5
364.562	386.5
364.788	369.5
365.015	374.5
365.241	370.5
365.468	376.5
365.694	378.5
365.92	379.5
366.147	388.5
366.373	385.5
366.599	387.5
366.826	369.5
367.052	388.5
367.278	377.5
367.505	382.5
367.731	377.5
367.957	387.5
368.184	387.5
368.41	382.5
368.636	378.5
368.862	383.5
369.089	364.5
369.315	387.5
369.541	374.5
369.767	361.5
369.993	383.5
370.219	385.5
370.445	376.5
370.672	397.5
370.898	373.5
371.124	383.5
371.35	369.5
371.576	395.5
371.802	383.5
372.028	383.5
372.254	381.5
372.48	358.5
372.706	361.5
372.932	387.5
373.158	388.5
373.384	375.5
373.61	373.5
373.835	382.5
374.061	367.5
374.287	373.5
374.513	362.5
374.739	381.5
374.965	375.5
375.191	382.5
375.416	373.5
375.642	362.5
375.868	381.5
376.094	373.5
376.319	377.5
376.545	382.5
376.771	397.5
376.997	387.5
377.222	369.5
377.448	373.5
377.674	381.5
377.899	370.5
378.125	371.5
378.35	369.5
378.576	358.5
378.802	368.5
379.027	366.5
379.253	363.5
379.478	369.5
379.704	359.5
379.929	367.5
380.155	395.5
380.38	388.5
380.606	377.5
380.831	377.5
381.057	377.5
381.282	375.5
381.507	371.5
381.733	386.5
381.958	367.5
382.184	382.5
382.409	376.5
382.634	373.5
382.86	370.5
383.085	392.5
383.31	390.5
383.535	399.5
383.761	381.5
383.986	389.5
384.211	394.5
384.436	386.5
384.662	393.5
384.887	390.5
385.112	405.5
385.337	375.5
385.562	421.5
385.787	391.5
386.013	431.5
386.238	412.5
386.463	404.5
386.688	399.5
386.913	392.5
387.138	403.5
387.363	406.5
387.588	407.5
387.813	403.5
388.038	405.5
388.263	409.5
388.488	394.5
388.713	421.5
388.938	403.5
389.163	390.5
389.387	400.5
389.612	399.5
389.837	392.5
390.062	397.5
390.287	395.5
390.512	376.5
390.736	390.5
390.961	415.5
391.186	398.5
391.411	381.5
391.636	409.5
391.86	401.5
392.085	412.5
392.31	390.5
392.534	399.5
392.759	401.5
392.984	399.5
393.208	391.5
393.433	405.5
393.658	386.5
393.882	409.5
394.107	386.5
394.331	399.5
394.556	409.5
394.78	397.5
395.005	410.5
395.229	395.5
395.454	410.5
395.678	404.5
395.903	409.5
396.127	432.5
396.352	424.5
396.576	433.5
396.801	404.5
397.025	398.5
397.249	407.5
397.474	416.5
397.698	433.5
397.922	422.5
398.147	433.5
398.371	443.5
398.595	442.5
398.82	424.5
399.044	449.5
399.268	450.5
399.492	477.5
399.717	517.5
399.941	519.5
400.165	526.5
400.389	549.5
400.613	501.5
400.837	498.5
401.062	462.5
401.286	455.5
401.51	457.5
401.734	434.5
401.958	456.5
402.182	455.5
402.406	441.5
402.63	451.5
402.854	449.5
403.078	465.5
403.302	461.5
403.526	447.5
403.75	435.5
403.974	458.5
404.198	451.5
404.422	465.5
404.645	462.5
404.869	455.5
405.093	479.5
405.317	492.5
405.541	537.5
405.765	477.5
405.988	463.5
406.212	486.5
406.436	518.5
406.66	517.5
406.883	501.5
407.107	517.5
407.331	551.5
407.555	622.5
407.778	602.5
408.002	586.5
408.226	518.5
408.449	510.5
408.673	495.5
408.896	524.5
409.12	565.5
409.344	545.5
409.567	486.5
409.791	475.5
410.014	459.5
410.238	458.5
410.461	480.5
410.685	465.5
410.908	478.5
411.132	530.5
411.355	560.5
411.578	526.5
411.802	491.5
412.025	449.5
412.249	456.5
412.472	470.5
412.695	493.5
412.919	474.5
413.142	437.5
413.365	455.5
413.589	451.5
413.812	433.5
414.035	433.5
414.258	442.5
414.482	433.5
414.705	430.5
414.928	425.5
415.151	437.5
415.374	420.5
415.597	434.5
415.821	426.5
416.044	428.5
416.267	439.5
416.49	449.5
416.713	423.5
416.936	446.5
417.159	435.5
417.382	452.5
417.605	449.5
417.828	439.5
418.051	445.5
418.274	466.5
418.497	434.5
418.72	437.5
418.943	437.5
419.166	439.5
419.389	468.5
419.611	464.5
419.834	473.5
420.057	465.5
420.28	438.5
420.503	441.5
420.726	445.5
420.948	465.5
421.171	513.5
421.394	513.5
421.617	470.5
421.839	452.5
422.062	463.5
422.285	475.5
422.507	515.5
422.73	579.5
422.953	569.5
423.175	495.5
423.398	493.5
423.621	471.5
423.843	488.5
424.066	500.5
424.288	489.5
424.511	525.5
424.733	555.5
424.956	598.5
425.178	613.5
425.401	617.5
425.623	641.5
425.846	525.5
426.068	531.5
426.291	484.5
426.513	492.5
426.735	510.5
426.958	539.5
427.18	604.5
427.402	754.5
427.625	830.5
427.847	699.5
428.069	601.5
428.292	547.5
428.514	494.5
428.736	472.5
428.958	465.5
429.181	437.5
429.403	459.5
429.625	471.5
429.847	501.5
430.069	583.5
430.292	569.5
430.514	467.5
430.736	450.5
430.958	453.5
431.18	433.5
431.402	444.5
431.624	423.5
431.846	391.5
432.068	408.5
432.29	437.5
432.512	435.5
432.734	426.5
432.956	436.5
433.178	441.5
433.4	452.5
433.622	425.5
433.844	421.5
434.066	420.5
434.287	415.5
434.509	423.5
434.731	449.5
434.953	449.5
435.175	446.5
435.397	497.5
435.618	499.5
435.84	530.5
436.062	615.5
436.284	691.5
436.505	572.5
436.727	505.5
436.949	486.5
437.17	466.5
437.392	457.5
437.614	478.5
437.835	491.5
438.057	577.5
438.278	671.5
438.5	693.5
438.721	767.5
438.943	706.5
439.165	577.5
439.386	515.5
439.608	513.5
439.829	523.5
440.05	526.5
440.272	550.5
440.493	568.5
440.715	512.5
440.936	474.5
441.158	464.5
441.379	495.5
441.6	483.5
441.822	488.5
442.043	543.5
442.264	597.5
442.486	648.5
442.707	559.5
442.928	506.5
443.149	519.5
443.371	536.5
443.592	569.5
443.813	649.5
444.034	699.5
444.255	579.5
444.476	499.5
444.698	493.5
444.919	479.5
445.14	583.5
445.361	516.5
445.582	535.5
445.803	595.5
446.024	663.5
446.245	676.5
446.466	615.5
446.687	540.5
446.908	490.5
447.129	481.5
447.35	469.5
447.571	443.5
447.792	435.5
448.013	462.5
448.234	471.5
448.455	513.5
448.675	636.5
448.896	765.5
449.117	612.5
449.338	604.5
449.559	692.5
449.779	799.5
450	617.5
450.221	512.5
450.442	464.5
450.662	463.5
450.883	459.5
451.104	461.5
451.324	459.5
451.545	421.5
451.766	420.5
451.986	417.5
452.207	409.5
452.428	415.5
452.648	413.5
452.869	424.5
453.089	433.5
453.31	448.5
453.53	417.5
453.751	388.5
453.971	415.5
454.192	434.5
454.412	426.5
454.633	413.5
454.853	418.5
455.073	402.5
455.294	416.5
455.514	457.5
455.734	480.5
455.955	400.5
456.175	386.5
456.395	387.5
456.616	370.5
456.836	377.5
457.056	390.5
457.276	395.5
457.497	383.5
457.717	376.5
457.937	383.5
458.157	394.5
458.377	401.5
458.598	408.5
458.818	460.5
459.038	538.5
459.258	557.5
459.478	480.5
459.698	429.5
459.918	423.5
460.138	435.5
460.358	437.5
460.578	449.5
460.798	422.5
461.018	439.5
461.238	449.5
461.458	431.5
461.678	423.5
461.898	419.5
462.118	436.5
462.338	417.5
462.558	446.5
462.777	445.5
462.997	446.5
463.217	447.5
463.437	466.5
463.657	430.5
463.876	463.5
464.096	439.5
464.316	441.5
464.536	469.5
464.755	443.5
464.975	486.5
465.195	465.5
465.414	550.5
465.634	491.5
465.854	459.5
466.073	427.5
466.293	416.5
466.512	411.5
466.732	402.5
466.951	412.5
467.171	417.5
467.391	399.5
467.61	407.5
467.829	438.5
468.049	404.5
468.268	412.5
468.488	409.5
468.707	395.5
468.927	390.5
469.146	390.5
469.365	396.5
469.585	401.5
469.804	414.5
470.023	417.5
470.243	429.5
470.462	431.5
470.681	424.5
470.901	423.5
471.12	413.5
471.339	423.5
471.558	417.5
471.777	417.5
471.997	403.5
472.216	389.5
472.435	399.5
472.654	401.5
472.873	413.5
473.092	431.5
473.311	411.5
473.53	425.5
473.749	418.5
473.968	469.5
474.187	565.5
474.406	569.5
474.625	487.5
474.844	435.5
475.063	418.5
475.282	429.5
475.501	420.5
475.72	440.5
475.939	431.5
476.158	435.5
476.377	439.5
476.596	426.5
476.814	423.5
477.033	435.5
477.252	442.5
477.471	445.5
477.69	455.5
477.908	456.5
478.127	439.5
478.346	475.5
478.564	463.5
478.783	456.5
479.002	457.5
479.22	487.5
479.439	487.5
479.658	496.5
479.876	502.5
480.095	486.5
480.313	521.5
480.532	529.5
480.751	513.5
480.969	504.5
481.188	523.5
481.406	527.5
481.624	499.5
481.843	483.5
482.061	475.5
482.28	478.5
482.498	478.5
482.717	496.5
482.935	509.5
483.153	466.5
483.372	486.5
483.59	470.5
483.808	491.5
484.027	499.5
484.245	488.5
484.463	498.5
484.681	507.5
484.9	487.5
485.118	513.5
485.336	516.5
485.554	506.5
485.772	515.5
485.99	524.5
486.209	515.5
486.427	518.5
486.645	491.5
486.863	525.5
487.081	531.5
487.299	535.5
487.517	518.5
487.735	516.5
487.953	502.5
488.171	521.5
488.389	540.5
488.607	542.5
488.825	533.5
489.043	515.5
489.261	536.5
489.479	529.5
489.696	530.5
489.914	519.5
490.132	541.5
490.35	549.5
490.568	545.5
490.786	560.5
491.003	575.5
491.221	588.5
491.439	569.5
491.657	593.5
491.874	580.5
492.092	581.5
492.31	573.5
492.527	607.5
492.745	612.5
492.963	630.5
493.18	602.5
493.398	592.5
493.615	625.5
493.833	592.5
494.05	616.5
494.268	598.5
494.485	588.5
494.703	623.5
494.92	611.5
495.138	624.5
495.355	601.5
495.573	627.5
495.79	621.5
496.008	636.5
496.225	630.5
496.442	626.5
496.66	614.5
496.877	606.5
497.094	609.5
497.312	639.5
497.529	657.5
497.746	660.5
497.963	649.5
498.181	698.5
498.398	693.5
498.615	701.5
498.832	677.5
499.049	705.5
499.267	687.5
499.484	743.5
499.701	756.5
499.918	777.5
500.135	782.5
500.352	815.5
500.569	832.5
500.786	836.5
501.003	826.5
501.22	801.5
501.437	790.5
501.654	792.5
501.871	757.5
502.088	753.5
502.305	729.5
502.522	692.5
502.739	705.5
502.956	682.5
503.172	657.5
503.389	647.5
503.606	639.5
503.823	631.5
504.04	632.5
504.256	634.5
504.473	615.5
504.69	616.5
504.907	618.5
505.123	607.5
505.34	613.5
505.557	590.5
505.773	631.5
505.99	604.5
506.207	617.5
506.423	608.5
506.64	605.5
506.856	580.5
507.073	578.5
507.289	593.5
507.506	585.5
507.722	579.5
507.939	610.5
508.155	574.5
508.372	549.5
508.588	566.5
508.805	553.5
509.021	555.5
509.238	563.5
509.454	570.5
509.67	591.5
509.887	575.5
510.103	557.5
510.319	587.5
510.536	664.5
510.752	1058.5
510.968	898.5
511.184	594.5
511.401	571.5
511.617	547.5
511.833	550.5
512.049	541.5
512.265	513.5
512.481	541.5
512.698	542.5
512.914	553.5
513.13	531.5
513.346	535.5
513.562	531.5
513.778	551.5
513.994	547.5
514.21	532.5
514.426	565.5
514.642	600.5
514.858	634.5
515.074	686.5
515.29	769.5
515.506	1153.5
515.721	938.5
515.937	656.5
516.153	602.5
516.369	569.5
516.585	547.5
516.801	575.5
517.016	546.5
517.232	552.5
517.448	544.5
517.664	572.5
517.879	537.5
518.095	563.5
518.311	518.5
518.527	548.5
518.742	560.5
518.958	557.5
519.173	547.5
519.389	536.5
519.605	529.5
519.82	549.5
