Data from 1989.PennyLincolnUp.Lamp.En5.5.200Scan.071819.P2_HRD10591_17-24-28-972.txt Node
Date: Thu Jul 18 17:24:28 EDT 2019
User: cochatt
Spectrometer: HR+D1059
Trigger mode: 1
Integration Time (sec): 1.000000E-1
Scans to average: 1
Electric dark correction enabled: true
Nonlinearity correction enabled: false
Boxcar width: 0
XAxis mode: Wavelengths
Number of Pixels in Spectrum: 2048
>>>>>Begin Spectral Data<<<<<
223.165	-13.44
223.4	-13.44
223.635	-13.44
223.869	-13.44
224.104	-30.44
224.338	-11.44
224.573	-15.44
224.808	-14.44
225.042	-11.44
225.277	-1.44
225.511	-8.44
225.746	3.56
225.98	20.56
226.215	15.56
226.449	14.56
226.683	24.56
226.918	19.56
227.152	21.56
227.387	42.56
227.621	41.56
227.856	27.56
228.09	42.56
228.324	48.56
228.559	51.56
228.793	52.56
229.027	106.56
229.262	123.56
229.496	120.56
229.73	145.56
229.964	163.56
230.199	124.56
230.433	123.56
230.667	126.56
230.901	108.56
231.136	111.56
231.37	113.56
231.604	116.56
231.838	111.56
232.072	105.56
232.306	115.56
232.541	115.56
232.775	109.56
233.009	105.56
233.243	109.56
233.477	112.56
233.711	121.56
233.945	113.56
234.179	123.56
234.413	108.56
234.647	131.56
234.881	119.56
235.115	104.56
235.349	108.56
235.583	131.56
235.817	131.56
236.051	130.56
236.285	127.56
236.519	137.56
236.753	133.56
236.987	157.56
237.221	189.56
237.455	249.56
237.689	199.56
237.922	146.56
238.156	132.56
238.39	127.56
238.624	132.56
238.858	137.56
239.091	136.56
239.325	130.56
239.559	119.56
239.793	136.56
240.027	133.56
240.26	141.56
240.494	154.56
240.728	163.56
240.961	149.56
241.195	160.56
241.429	145.56
241.662	141.56
241.896	142.56
242.13	139.56
242.363	137.56
242.597	152.56
242.83	139.56
243.064	137.56
243.298	140.56
243.531	141.56
243.765	136.56
243.998	134.56
244.232	149.56
244.465	152.56
244.699	147.56
244.932	156.56
245.166	155.56
245.399	152.56
245.633	142.56
245.866	144.56
246.099	158.56
246.333	149.56
246.566	147.56
246.8	141.56
247.033	160.56
247.266	169.56
247.5	163.56
247.733	177.56
247.966	180.56
248.2	196.56
248.433	180.56
248.666	192.56
248.899	190.56
249.133	217.56
249.366	219.56
249.599	213.56
249.832	201.56
250.066	193.56
250.299	188.56
250.532	189.56
250.765	200.56
250.998	230.56
251.231	251.56
251.465	233.56
251.698	223.56
251.931	203.56
252.164	205.56
252.397	199.56
252.63	209.56
252.863	231.56
253.096	236.56
253.329	236.56
253.562	249.56
253.795	248.56
254.028	220.56
254.261	237.56
254.494	259.56
254.727	270.56
254.96	281.56
255.193	304.56
255.426	263.56
255.659	236.56
255.892	273.56
256.124	233.56
256.357	228.56
256.59	239.56
256.823	227.56
257.056	241.56
257.289	228.56
257.521	223.56
257.754	216.56
257.987	213.56
258.22	231.56
258.452	208.56
258.685	211.56
258.918	224.56
259.151	235.56
259.383	242.56
259.616	222.56
259.849	232.56
260.081	257.56
260.314	273.56
260.547	295.56
260.779	265.56
261.012	249.56
261.244	229.56
261.477	234.56
261.71	232.56
261.942	240.56
262.175	259.56
262.407	243.56
262.64	231.56
262.872	243.56
263.105	221.56
263.337	236.56
263.57	200.56
263.802	235.56
264.035	227.56
264.267	229.56
264.499	224.56
264.732	224.56
264.964	236.56
265.197	205.56
265.429	213.56
265.661	228.56
265.894	227.56
266.126	224.56
266.358	231.56
266.591	239.56
266.823	243.56
267.055	244.56
267.287	256.56
267.52	228.56
267.752	245.56
267.984	238.56
268.216	233.56
268.448	259.56
268.681	254.56
268.913	269.56
269.145	269.56
269.377	269.56
269.609	318.56
269.841	291.56
270.073	281.56
270.306	332.56
270.538	337.56
270.77	348.56
271.002	332.56
271.234	331.56
271.466	322.56
271.698	333.56
271.93	354.56
272.162	349.56
272.394	346.56
272.626	327.56
272.858	313.56
273.09	310.56
273.322	299.56
273.553	303.56
273.785	299.56
274.017	296.56
274.249	289.56
274.481	279.56
274.713	277.56
274.945	292.56
275.176	293.56
275.408	253.56
275.64	289.56
275.872	284.56
276.104	276.56
276.335	283.56
276.567	293.56
276.799	306.56
277.031	310.56
277.262	332.56
277.494	323.56
277.726	330.56
277.957	319.56
278.189	301.56
278.421	293.56
278.652	290.56
278.884	284.56
279.115	294.56
279.347	294.56
279.579	278.56
279.81	283.56
280.042	287.56
280.273	276.56
280.505	264.56
280.736	276.56
280.968	290.56
281.199	274.56
281.431	269.56
281.662	267.56
281.894	276.56
282.125	289.56
282.356	327.56
282.588	336.56
282.819	344.56
283.051	304.56
283.282	278.56
283.513	269.56
283.745	307.56
283.976	275.56
284.207	296.56
284.439	296.56
284.67	292.56
284.901	295.56
285.132	283.56
285.364	289.56
285.595	286.56
285.826	306.56
286.057	300.56
286.288	281.56
286.52	288.56
286.751	280.56
286.982	297.56
287.213	292.56
287.444	292.56
287.675	300.56
287.906	312.56
288.138	314.56
288.369	330.56
288.6	321.56
288.831	297.56
289.062	319.56
289.293	312.56
289.524	316.56
289.755	307.56
289.986	303.56
290.217	312.56
290.448	294.56
290.679	305.56
290.91	294.56
291.141	280.56
291.371	298.56
291.602	292.56
291.833	302.56
292.064	278.56
292.295	298.56
292.526	297.56
292.757	312.56
292.987	292.56
293.218	304.56
293.449	325.56
293.68	319.56
293.91	318.56
294.141	310.56
294.372	296.56
294.603	322.56
294.833	308.56
295.064	310.56
295.295	305.56
295.525	309.56
295.756	312.56
295.987	308.56
296.217	344.56
296.448	345.56
296.679	317.56
296.909	318.56
297.14	300.56
297.37	317.56
297.601	321.56
297.831	300.56
298.062	298.56
298.292	319.56
298.523	323.56
298.753	321.56
298.984	312.56
299.214	314.56
299.445	336.56
299.675	313.56
299.905	330.56
300.136	322.56
300.366	337.56
300.597	325.56
300.827	319.56
301.057	341.56
301.288	324.56
301.518	332.56
301.748	319.56
301.979	346.56
302.209	354.56
302.439	342.56
302.669	339.56
302.9	324.56
303.13	356.56
303.36	333.56
303.59	341.56
303.82	376.56
304.051	358.56
304.281	352.56
304.511	340.56
304.741	333.56
304.971	347.56
305.201	321.56
305.431	346.56
305.661	334.56
305.891	351.56
306.121	337.56
306.352	373.56
306.582	341.56
306.812	331.56
307.042	360.56
307.272	355.56
307.502	342.56
307.731	353.56
307.961	345.56
308.191	361.56
308.421	359.56
308.651	341.56
308.881	364.56
309.111	371.56
309.341	367.56
309.571	362.56
309.8	379.56
310.03	377.56
310.26	393.56
310.49	398.56
310.72	409.56
310.949	398.56
311.179	419.56
311.409	398.56
311.639	391.56
311.868	397.56
312.098	381.56
312.328	397.56
312.557	414.56
312.787	459.56
313.017	431.56
313.246	412.56
313.476	385.56
313.706	407.56
313.935	393.56
314.165	419.56
314.394	427.56
314.624	443.56
314.853	413.56
315.083	424.56
315.312	407.56
315.542	396.56
315.771	400.56
316.001	379.56
316.23	383.56
316.46	372.56
316.689	410.56
316.919	407.56
317.148	401.56
317.377	413.56
317.607	420.56
317.836	394.56
318.065	398.56
318.295	415.56
318.524	380.56
318.753	393.56
318.983	377.56
319.212	381.56
319.441	407.56
319.67	431.56
319.9	423.56
320.129	405.56
320.358	417.56
320.587	397.56
320.816	414.56
321.046	456.56
321.275	431.56
321.504	423.56
321.733	425.56
321.962	419.56
322.191	447.56
322.42	442.56
322.649	482.56
322.878	479.56
323.108	479.56
323.337	536.56
323.566	557.56
323.795	574.56
324.024	642.56
324.253	776.56
324.482	1122.56
324.71	1715.56
324.939	2421.56
325.168	2167.56
325.397	1134.56
325.626	740.56
325.855	616.56
326.084	589.56
326.313	532.56
326.542	547.56
326.77	600.56
326.999	698.56
327.228	994.56
327.457	1490.56
327.686	1836.56
327.914	1250.56
328.143	781.56
328.372	683.56
328.6	621.56
328.829	599.56
329.058	626.56
329.287	633.56
329.515	600.56
329.744	536.56
329.972	535.56
330.201	522.56
330.43	569.56
330.658	603.56
330.887	652.56
331.115	641.56
331.344	569.56
331.572	483.56
331.801	539.56
332.03	516.56
332.258	513.56
332.486	484.56
332.715	469.56
332.943	451.56
333.172	457.56
333.4	475.56
333.629	468.56
333.857	473.56
334.085	457.56
334.314	484.56
334.542	471.56
334.771	476.56
334.999	465.56
335.227	464.56
335.455	473.56
335.684	456.56
335.912	447.56
336.14	461.56
336.369	440.56
336.597	488.56
336.825	472.56
337.053	479.56
337.281	450.56
337.51	423.56
337.738	457.56
337.966	434.56
338.194	442.56
338.422	461.56
338.65	462.56
338.878	449.56
339.106	444.56
339.334	456.56
339.562	439.56
339.79	437.56
340.018	425.56
340.246	438.56
340.474	443.56
340.702	455.56
340.93	424.56
341.158	446.56
341.386	445.56
341.614	455.56
341.842	435.56
342.07	436.56
342.298	422.56
342.526	411.56
342.754	447.56
342.981	423.56
343.209	424.56
343.437	426.56
343.665	428.56
343.893	437.56
344.12	451.56
344.348	462.56
344.576	438.56
344.804	435.56
345.031	453.56
345.259	466.56
345.487	452.56
345.714	444.56
345.942	436.56
346.17	438.56
346.397	421.56
346.625	409.56
346.853	428.56
347.08	419.56
347.308	434.56
347.535	448.56
347.763	436.56
347.99	443.56
348.218	418.56
348.445	461.56
348.673	455.56
348.9	452.56
349.128	437.56
349.355	397.56
349.583	401.56
349.81	424.56
350.037	423.56
350.265	393.56
350.492	400.56
350.72	416.56
350.947	437.56
351.174	428.56
351.402	430.56
351.629	441.56
351.856	432.56
352.083	439.56
352.311	436.56
352.538	440.56
352.765	437.56
352.992	425.56
353.22	435.56
353.447	422.56
353.674	417.56
353.901	411.56
354.128	408.56
354.355	376.56
354.583	390.56
354.81	388.56
355.037	376.56
355.264	406.56
355.491	367.56
355.718	375.56
355.945	370.56
356.172	383.56
356.399	389.56
356.626	373.56
356.853	377.56
357.08	392.56
357.307	388.56
357.534	384.56
357.761	399.56
357.988	390.56
358.215	371.56
358.441	379.56
358.668	381.56
358.895	391.56
359.122	405.56
359.349	429.56
359.576	441.56
359.802	441.56
360.029	476.56
360.256	459.56
360.483	449.56
360.709	422.56
360.936	428.56
361.163	435.56
361.39	421.56
361.616	417.56
361.843	426.56
362.07	411.56
362.296	425.56
362.523	403.56
362.749	411.56
362.976	420.56
363.203	397.56
363.429	388.56
363.656	400.56
363.882	397.56
364.109	361.56
364.335	389.56
364.562	375.56
364.788	387.56
365.015	387.56
365.241	417.56
365.468	414.56
365.694	402.56
365.92	413.56
366.147	395.56
366.373	389.56
366.599	410.56
366.826	375.56
367.052	388.56
367.278	392.56
367.505	382.56
367.731	392.56
367.957	396.56
368.184	374.56
368.41	374.56
368.636	401.56
368.862	406.56
369.089	403.56
369.315	386.56
369.541	387.56
369.767	401.56
369.993	391.56
370.219	370.56
370.445	380.56
370.672	373.56
370.898	395.56
371.124	387.56
371.35	380.56
371.576	369.56
371.802	370.56
372.028	387.56
372.254	355.56
372.48	403.56
372.706	378.56
372.932	394.56
373.158	372.56
373.384	393.56
373.61	377.56
373.835	381.56
374.061	367.56
374.287	402.56
374.513	409.56
374.739	383.56
374.965	421.56
375.191	393.56
375.416	388.56
375.642	403.56
375.868	389.56
376.094	405.56
376.319	359.56
376.545	401.56
376.771	371.56
376.997	379.56
377.222	385.56
377.448	378.56
377.674	375.56
377.899	371.56
378.125	380.56
378.35	369.56
378.576	389.56
378.802	364.56
379.027	379.56
379.253	357.56
379.478	393.56
379.704	363.56
379.929	379.56
380.155	383.56
380.38	376.56
380.606	394.56
380.831	377.56
381.057	356.56
381.282	375.56
381.507	387.56
381.733	381.56
381.958	385.56
382.184	383.56
382.409	379.56
382.634	375.56
382.86	379.56
383.085	409.56
383.31	408.56
383.535	402.56
383.761	396.56
383.986	407.56
384.211	387.56
384.436	398.56
384.662	375.56
384.887	383.56
385.112	415.56
385.337	373.56
385.562	393.56
385.787	387.56
386.013	413.56
386.238	403.56
386.463	389.56
386.688	407.56
386.913	399.56
387.138	419.56
387.363	409.56
387.588	381.56
387.813	421.56
388.038	411.56
388.263	394.56
388.488	399.56
388.713	395.56
388.938	403.56
389.163	406.56
389.387	388.56
389.612	405.56
389.837	404.56
390.062	409.56
390.287	399.56
390.512	414.56
390.736	405.56
390.961	403.56
391.186	407.56
391.411	398.56
391.636	411.56
391.86	403.56
392.085	410.56
392.31	411.56
392.534	404.56
392.759	406.56
392.984	394.56
393.208	393.56
393.433	408.56
393.658	401.56
393.882	387.56
394.107	423.56
394.331	398.56
394.556	415.56
394.78	387.56
395.005	401.56
395.229	404.56
395.454	396.56
395.678	413.56
395.903	438.56
396.127	440.56
396.352	465.56
396.576	433.56
396.801	397.56
397.025	406.56
397.249	408.56
397.474	426.56
397.698	434.56
397.922	437.56
398.147	440.56
398.371	445.56
398.595	434.56
398.82	427.56
399.044	448.56
399.268	458.56
399.492	474.56
399.717	488.56
399.941	534.56
400.165	549.56
400.389	569.56
400.613	531.56
400.837	498.56
401.062	471.56
401.286	458.56
401.51	469.56
401.734	453.56
401.958	455.56
402.182	465.56
402.406	484.56
402.63	478.56
402.854	482.56
403.078	465.56
403.302	451.56
403.526	476.56
403.75	474.56
403.974	451.56
404.198	465.56
404.422	481.56
404.645	462.56
404.869	479.56
405.093	488.56
405.317	514.56
405.541	527.56
405.765	501.56
405.988	497.56
406.212	493.56
406.436	529.56
406.66	546.56
406.883	515.56
407.107	547.56
407.331	569.56
407.555	616.56
407.778	631.56
408.002	587.56
408.226	536.56
408.449	510.56
408.673	499.56
408.896	549.56
409.12	580.56
409.344	566.56
409.567	495.56
409.791	458.56
410.014	483.56
410.238	481.56
410.461	460.56
410.685	462.56
410.908	493.56
411.132	529.56
411.355	559.56
411.578	545.56
411.802	491.56
412.025	474.56
412.249	477.56
412.472	482.56
412.695	488.56
412.919	466.56
413.142	440.56
413.365	438.56
413.589	447.56
413.812	459.56
414.035	450.56
414.258	434.56
414.482	445.56
414.705	433.56
414.928	429.56
415.151	428.56
415.374	437.56
415.597	428.56
415.821	409.56
416.044	429.56
416.267	451.56
416.49	428.56
416.713	428.56
416.936	434.56
417.159	424.56
417.382	433.56
417.605	428.56
417.828	456.56
418.051	468.56
418.274	460.56
418.497	437.56
418.72	443.56
418.943	438.56
419.166	449.56
419.389	448.56
419.611	479.56
419.834	461.56
420.057	453.56
420.28	444.56
420.503	459.56
420.726	455.56
420.948	470.56
421.171	513.56
421.394	556.56
421.617	481.56
421.839	460.56
422.062	458.56
422.285	495.56
422.507	536.56
422.73	612.56
422.953	593.56
423.175	483.56
423.398	498.56
423.621	509.56
423.843	529.56
424.066	533.56
424.288	484.56
424.511	505.56
424.733	573.56
424.956	651.56
425.178	633.56
425.401	624.56
425.623	653.56
425.846	575.56
426.068	529.56
426.291	511.56
426.513	498.56
426.735	536.56
426.958	531.56
427.18	635.56
427.402	757.56
427.625	853.56
427.847	728.56
428.069	641.56
428.292	547.56
428.514	481.56
428.736	502.56
428.958	469.56
429.181	478.56
429.403	445.56
429.625	474.56
429.847	501.56
430.069	589.56
430.292	568.56
430.514	494.56
430.736	477.56
430.958	470.56
431.18	436.56
431.402	429.56
431.624	447.56
431.846	439.56
432.068	428.56
432.29	443.56
432.512	441.56
432.734	463.56
432.956	441.56
433.178	454.56
433.4	457.56
433.622	442.56
433.844	444.56
434.066	435.56
434.287	439.56
434.509	418.56
434.731	468.56
434.953	450.56
435.175	493.56
435.397	493.56
435.618	529.56
435.84	551.56
436.062	632.56
436.284	729.56
436.505	620.56
436.727	542.56
436.949	484.56
437.17	488.56
437.392	478.56
437.614	495.56
437.835	524.56
438.057	623.56
438.278	705.56
438.5	724.56
438.721	801.56
438.943	736.56
439.165	597.56
439.386	544.56
439.608	509.56
439.829	540.56
440.05	553.56
440.272	612.56
440.493	567.56
440.715	544.56
440.936	484.56
441.158	480.56
441.379	492.56
441.6	467.56
441.822	520.56
442.043	545.56
442.264	657.56
442.486	679.56
442.707	585.56
442.928	527.56
443.149	525.56
443.371	543.56
443.592	600.56
443.813	665.56
444.034	770.56
444.255	593.56
444.476	525.56
444.698	521.56
444.919	500.56
445.14	602.56
445.361	561.56
445.582	569.56
445.803	618.56
446.024	712.56
446.245	715.56
446.466	677.56
446.687	576.56
446.908	531.56
447.129	499.56
447.35	474.56
447.571	493.56
447.792	465.56
448.013	475.56
448.234	492.56
448.455	551.56
448.675	661.56
448.896	761.56
449.117	654.56
449.338	627.56
449.559	720.56
449.779	828.56
450	665.56
450.221	549.56
450.442	491.56
450.662	492.56
450.883	505.56
451.104	490.56
451.324	475.56
451.545	467.56
451.766	454.56
451.986	450.56
452.207	444.56
452.428	414.56
452.648	424.56
452.869	416.56
453.089	440.56
453.31	443.56
453.53	417.56
453.751	412.56
453.971	443.56
454.192	449.56
454.412	430.56
454.633	435.56
454.853	435.56
455.073	410.56
455.294	447.56
455.514	516.56
455.734	497.56
455.955	427.56
456.175	401.56
456.395	411.56
456.616	395.56
456.836	392.56
457.056	380.56
457.276	383.56
457.497	396.56
457.717	380.56
457.937	417.56
458.157	417.56
458.377	424.56
458.598	426.56
458.818	510.56
459.038	572.56
459.258	590.56
459.478	506.56
459.698	450.56
459.918	420.56
460.138	422.56
460.358	442.56
460.578	426.56
460.798	444.56
461.018	455.56
461.238	438.56
461.458	433.56
461.678	436.56
461.898	428.56
462.118	423.56
462.338	431.56
462.558	452.56
462.777	429.56
462.997	463.56
463.217	453.56
463.437	468.56
463.657	460.56
463.876	464.56
464.096	457.56
464.316	443.56
464.536	476.56
464.755	477.56
464.975	471.56
465.195	515.56
465.414	599.56
465.634	523.56
465.854	481.56
466.073	456.56
466.293	441.56
466.512	434.56
466.732	426.56
466.951	421.56
467.171	424.56
467.391	438.56
467.61	447.56
467.829	451.56
468.049	427.56
468.268	421.56
468.488	419.56
468.707	391.56
468.927	408.56
469.146	405.56
469.365	400.56
469.585	393.56
469.804	408.56
470.023	431.56
470.243	442.56
470.462	455.56
470.681	469.56
470.901	454.56
471.12	431.56
471.339	433.56
471.558	433.56
471.777	436.56
471.997	424.56
472.216	443.56
472.435	412.56
472.654	428.56
472.873	435.56
473.092	416.56
473.311	419.56
473.53	422.56
473.749	437.56
473.968	490.56
474.187	610.56
474.406	616.56
474.625	503.56
474.844	447.56
475.063	429.56
475.282	438.56
475.501	434.56
475.72	441.56
475.939	421.56
476.158	446.56
476.377	444.56
476.596	435.56
476.814	465.56
477.033	456.56
477.252	460.56
477.471	456.56
477.69	450.56
477.908	450.56
478.127	447.56
478.346	457.56
478.564	460.56
478.783	477.56
479.002	484.56
479.22	475.56
479.439	506.56
479.658	505.56
479.876	525.56
480.095	516.56
480.313	550.56
480.532	533.56
480.751	508.56
480.969	516.56
481.188	537.56
481.406	529.56
481.624	500.56
481.843	515.56
482.061	500.56
482.28	516.56
482.498	520.56
482.717	481.56
482.935	497.56
483.153	486.56
483.372	490.56
483.59	504.56
483.808	499.56
484.027	509.56
484.245	499.56
484.463	505.56
484.681	541.56
484.9	517.56
485.118	501.56
485.336	529.56
485.554	506.56
485.772	506.56
485.99	524.56
486.209	520.56
486.427	545.56
486.645	545.56
486.863	544.56
487.081	540.56
487.299	540.56
487.517	539.56
487.735	546.56
487.953	533.56
488.171	543.56
488.389	559.56
488.607	526.56
488.825	531.56
489.043	548.56
489.261	547.56
489.479	562.56
489.696	551.56
489.914	571.56
490.132	551.56
490.35	563.56
490.568	577.56
490.786	592.56
491.003	597.56
491.221	598.56
491.439	607.56
491.657	599.56
491.874	625.56
492.092	615.56
492.31	618.56
492.527	613.56
492.745	615.56
492.963	616.56
493.18	636.56
493.398	628.56
493.615	638.56
493.833	644.56
494.05	654.56
494.268	628.56
494.485	643.56
494.703	641.56
494.92	648.56
495.138	604.56
495.355	644.56
495.573	655.56
495.79	655.56
496.008	663.56
496.225	643.56
496.442	661.56
496.66	620.56
496.877	633.56
497.094	675.56
497.312	654.56
497.529	639.56
497.746	679.56
497.963	666.56
498.181	703.56
498.398	691.56
498.615	707.56
498.832	701.56
499.049	704.56
499.267	718.56
499.484	732.56
499.701	758.56
499.918	759.56
500.135	810.56
500.352	819.56
500.569	821.56
500.786	834.56
501.003	810.56
501.22	810.56
501.437	785.56
501.654	767.56
501.871	785.56
