Data from 1989.PennyLincolnUp.Lamp.En5.5.200Scan.071819.P2_HRD10591_17-24-20-972.txt Node
Date: Thu Jul 18 17:24:20 EDT 2019
User: cochatt
Spectrometer: HR+D1059
Trigger mode: 1
Integration Time (sec): 1.000000E-1
Scans to average: 1
Electric dark correction enabled: true
Nonlinearity correction enabled: false
Boxcar width: 0
XAxis mode: Wavelengths
Number of Pixels in Spectrum: 2048
>>>>>Begin Spectral Data<<<<<
223.165	-25.38
223.4	-25.38
223.635	-25.38
223.869	-18.38
224.104	-12.38
224.338	-3.38
224.573	1.62
224.808	-7.38
225.042	-5.38
225.277	-14.38
225.511	-15.38
225.746	-1.38
225.98	7.62
226.215	9.62
226.449	19.62
226.683	19.62
226.918	18.62
227.152	26.62
227.387	46.62
227.621	22.62
227.856	50.62
228.09	49.62
228.324	44.62
228.559	73.62
228.793	73.62
229.027	96.62
229.262	116.62
229.496	119.62
229.73	134.62
229.964	169.62
230.199	130.62
230.433	116.62
230.667	108.62
230.901	112.62
231.136	117.62
231.37	108.62
231.604	118.62
231.838	114.62
232.072	107.62
232.306	114.62
232.541	114.62
232.775	108.62
233.009	115.62
233.243	126.62
233.477	110.62
233.711	136.62
233.945	118.62
234.179	111.62
234.413	120.62
234.647	102.62
234.881	109.62
235.115	126.62
235.349	123.62
235.583	124.62
235.817	119.62
236.051	114.62
236.285	121.62
236.519	132.62
236.753	130.62
236.987	136.62
237.221	184.62
237.455	243.62
237.689	186.62
237.922	164.62
238.156	140.62
238.39	141.62
238.624	140.62
238.858	121.62
239.091	131.62
239.325	120.62
239.559	120.62
239.793	130.62
240.027	140.62
240.26	146.62
240.494	166.62
240.728	155.62
240.961	152.62
241.195	158.62
241.429	127.62
241.662	125.62
241.896	140.62
242.13	147.62
242.363	138.62
242.597	143.62
242.83	144.62
243.064	141.62
243.298	138.62
243.531	141.62
243.765	143.62
243.998	141.62
244.232	143.62
244.465	140.62
244.699	123.62
244.932	146.62
245.166	145.62
245.399	155.62
245.633	155.62
245.866	146.62
246.099	152.62
246.333	146.62
246.566	151.62
246.8	151.62
247.033	160.62
247.266	162.62
247.5	190.62
247.733	178.62
247.966	188.62
248.2	183.62
248.433	176.62
248.666	176.62
248.899	190.62
249.133	213.62
249.366	206.62
249.599	208.62
249.832	202.62
250.066	200.62
250.299	197.62
250.532	189.62
250.765	206.62
250.998	232.62
251.231	258.62
251.465	232.62
251.698	219.62
251.931	211.62
252.164	217.62
252.397	213.62
252.63	216.62
252.863	225.62
253.096	231.62
253.329	230.62
253.562	259.62
253.795	248.62
254.028	235.62
254.261	240.62
254.494	246.62
254.727	266.62
254.96	299.62
255.193	286.62
255.426	265.62
255.659	251.62
255.892	235.62
256.124	249.62
256.357	226.62
256.59	227.62
256.823	236.62
257.056	228.62
257.289	232.62
257.521	227.62
257.754	233.62
257.987	220.62
258.22	225.62
258.452	233.62
258.685	214.62
258.918	220.62
259.151	226.62
259.383	219.62
259.616	244.62
259.849	242.62
260.081	242.62
260.314	259.62
260.547	268.62
260.779	274.62
261.012	265.62
261.244	249.62
261.477	240.62
261.71	225.62
261.942	254.62
262.175	256.62
262.407	260.62
262.64	235.62
262.872	240.62
263.105	234.62
263.337	223.62
263.57	233.62
263.802	231.62
264.035	236.62
264.267	222.62
264.499	234.62
264.732	225.62
264.964	214.62
265.197	230.62
265.429	226.62
265.661	225.62
265.894	225.62
266.126	239.62
266.358	227.62
266.591	221.62
266.823	242.62
267.055	233.62
267.287	240.62
267.52	207.62
267.752	248.62
267.984	246.62
268.216	261.62
268.448	260.62
268.681	269.62
268.913	267.62
269.145	268.62
269.377	292.62
269.609	295.62
269.841	316.62
270.073	296.62
270.306	312.62
270.538	344.62
270.77	343.62
271.002	329.62
271.234	320.62
271.466	306.62
271.698	337.62
271.93	337.62
272.162	361.62
272.394	354.62
272.626	312.62
272.858	316.62
273.09	286.62
273.322	301.62
273.553	283.62
273.785	290.62
274.017	298.62
274.249	294.62
274.481	287.62
274.713	274.62
274.945	289.62
275.176	299.62
275.408	287.62
275.64	277.62
275.872	277.62
276.104	289.62
276.335	286.62
276.567	295.62
276.799	308.62
277.031	335.62
277.262	360.62
277.494	356.62
277.726	317.62
277.957	305.62
278.189	284.62
278.421	297.62
278.652	288.62
278.884	287.62
279.115	289.62
279.347	277.62
279.579	282.62
279.81	281.62
280.042	286.62
280.273	277.62
280.505	268.62
280.736	272.62
280.968	273.62
281.199	279.62
281.431	276.62
281.662	282.62
281.894	283.62
282.125	278.62
282.356	310.62
282.588	324.62
282.819	336.62
283.051	300.62
283.282	281.62
283.513	271.62
283.745	284.62
283.976	304.62
284.207	302.62
284.439	291.62
284.67	294.62
284.901	298.62
285.132	284.62
285.364	283.62
285.595	297.62
285.826	309.62
286.057	290.62
286.288	280.62
286.52	306.62
286.751	281.62
286.982	298.62
287.213	296.62
287.444	294.62
287.675	297.62
287.906	313.62
288.138	318.62
288.369	310.62
288.6	309.62
288.831	310.62
289.062	311.62
289.293	311.62
289.524	300.62
289.755	301.62
289.986	300.62
290.217	281.62
290.448	298.62
290.679	292.62
290.91	315.62
291.141	295.62
291.371	283.62
291.602	307.62
291.833	291.62
292.064	306.62
292.295	292.62
292.526	291.62
292.757	289.62
292.987	284.62
293.218	294.62
293.449	311.62
293.68	306.62
293.91	289.62
294.141	311.62
294.372	303.62
294.603	308.62
294.833	308.62
295.064	320.62
295.295	288.62
295.525	318.62
295.756	305.62
295.987	312.62
296.217	331.62
296.448	361.62
296.679	316.62
296.909	306.62
297.14	306.62
297.37	307.62
297.601	309.62
297.831	308.62
298.062	309.62
298.292	308.62
298.523	328.62
298.753	305.62
298.984	337.62
299.214	325.62
299.445	308.62
299.675	308.62
299.905	314.62
300.136	314.62
300.366	320.62
300.597	329.62
300.827	330.62
301.057	340.62
301.288	341.62
301.518	324.62
301.748	330.62
301.979	349.62
302.209	354.62
302.439	344.62
302.669	350.62
302.9	308.62
303.13	327.62
303.36	346.62
303.59	353.62
303.82	374.62
304.051	338.62
304.281	346.62
304.511	314.62
304.741	337.62
304.971	328.62
305.201	348.62
305.431	336.62
305.661	333.62
305.891	342.62
306.121	342.62
306.352	356.62
306.582	341.62
306.812	356.62
307.042	334.62
307.272	338.62
307.502	354.62
307.731	351.62
307.961	341.62
308.191	348.62
308.421	356.62
308.651	341.62
308.881	353.62
309.111	350.62
309.341	358.62
309.571	383.62
309.8	374.62
310.03	394.62
310.26	380.62
310.49	386.62
310.72	401.62
310.949	407.62
311.179	419.62
311.409	396.62
311.639	403.62
311.868	403.62
312.098	413.62
312.328	394.62
312.557	421.62
312.787	451.62
313.017	419.62
313.246	401.62
313.476	406.62
313.706	416.62
313.935	403.62
314.165	426.62
314.394	407.62
314.624	426.62
314.853	412.62
315.083	369.62
315.312	379.62
315.542	416.62
315.771	392.62
316.001	380.62
316.23	386.62
316.46	374.62
316.689	396.62
316.919	404.62
317.148	399.62
317.377	420.62
317.607	382.62
317.836	425.62
318.065	402.62
318.295	400.62
318.524	375.62
318.753	399.62
318.983	401.62
319.212	399.62
319.441	402.62
319.67	403.62
319.9	405.62
320.129	412.62
320.358	392.62
320.587	416.62
320.816	386.62
321.046	422.62
321.275	427.62
321.504	427.62
321.733	432.62
321.962	448.62
322.191	435.62
322.42	467.62
322.649	482.62
322.878	492.62
323.108	485.62
323.337	541.62
323.566	561.62
323.795	572.62
324.024	636.62
324.253	756.62
324.482	1123.62
324.71	1727.62
324.939	2449.62
325.168	2136.62
325.397	1090.62
325.626	741.62
325.855	605.62
326.084	563.62
326.313	544.62
326.542	556.62
326.77	636.62
326.999	726.62
327.228	1011.62
327.457	1479.62
327.686	1832.62
327.914	1254.62
328.143	792.62
328.372	664.62
328.6	642.62
328.829	610.62
329.058	619.62
329.287	630.62
329.515	576.62
329.744	524.62
329.972	539.62
330.201	533.62
330.43	533.62
330.658	603.62
330.887	650.62
331.115	638.62
331.344	544.62
331.572	510.62
331.801	522.62
332.03	515.62
332.258	503.62
332.486	455.62
332.715	455.62
332.943	464.62
333.172	460.62
333.4	472.62
333.629	488.62
333.857	488.62
334.085	481.62
334.314	469.62
334.542	458.62
334.771	477.62
334.999	484.62
335.227	461.62
335.455	455.62
335.684	462.62
335.912	445.62
336.14	453.62
336.369	441.62
336.597	450.62
336.825	452.62
337.053	462.62
337.281	437.62
337.51	455.62
337.738	450.62
337.966	447.62
338.194	459.62
338.422	440.62
338.65	428.62
338.878	419.62
339.106	449.62
339.334	449.62
339.562	437.62
339.79	447.62
340.018	429.62
340.246	432.62
340.474	437.62
340.702	446.62
340.93	450.62
341.158	436.62
341.386	444.62
341.614	427.62
341.842	428.62
342.07	432.62
342.298	425.62
342.526	459.62
342.754	413.62
342.981	417.62
343.209	397.62
343.437	413.62
343.665	420.62
343.893	429.62
344.12	432.62
344.348	446.62
344.576	431.62
344.804	470.62
345.031	458.62
345.259	461.62
345.487	465.62
345.714	450.62
345.942	425.62
346.17	428.62
346.397	423.62
346.625	412.62
346.853	421.62
347.08	421.62
347.308	399.62
347.535	432.62
347.763	425.62
347.99	418.62
348.218	429.62
348.445	439.62
348.673	434.62
348.9	426.62
349.128	430.62
349.355	402.62
349.583	426.62
349.81	393.62
350.037	414.62
350.265	409.62
350.492	417.62
350.72	395.62
350.947	405.62
351.174	424.62
351.402	446.62
351.629	432.62
351.856	429.62
352.083	446.62
352.311	438.62
352.538	450.62
352.765	454.62
352.992	441.62
353.22	413.62
353.447	407.62
353.674	418.62
353.901	415.62
354.128	399.62
354.355	407.62
354.583	404.62
354.81	404.62
355.037	378.62
355.264	387.62
355.491	377.62
355.718	381.62
355.945	373.62
356.172	378.62
356.399	375.62
356.626	396.62
356.853	387.62
357.08	386.62
357.307	382.62
357.534	388.62
357.761	389.62
357.988	400.62
358.215	388.62
358.441	375.62
358.668	404.62
358.895	378.62
359.122	381.62
359.349	418.62
359.576	439.62
359.802	445.62
360.029	460.62
360.256	459.62
360.483	444.62
360.709	432.62
360.936	436.62
361.163	413.62
361.39	411.62
361.616	430.62
361.843	415.62
362.07	420.62
362.296	402.62
362.523	425.62
362.749	411.62
362.976	408.62
363.203	396.62
363.429	397.62
363.656	410.62
363.882	410.62
364.109	403.62
364.335	394.62
364.562	388.62
364.788	389.62
365.015	384.62
365.241	382.62
365.468	398.62
365.694	395.62
365.92	420.62
366.147	380.62
366.373	375.62
366.599	393.62
366.826	397.62
367.052	401.62
367.278	380.62
367.505	412.62
367.731	385.62
367.957	380.62
368.184	377.62
368.41	401.62
368.636	419.62
368.862	423.62
369.089	394.62
369.315	412.62
369.541	389.62
369.767	404.62
369.993	391.62
370.219	382.62
370.445	358.62
370.672	387.62
370.898	390.62
371.124	397.62
371.35	376.62
371.576	390.62
371.802	388.62
372.028	380.62
372.254	375.62
372.48	380.62
372.706	379.62
372.932	363.62
373.158	375.62
373.384	380.62
373.61	392.62
373.835	379.62
374.061	365.62
374.287	402.62
374.513	394.62
374.739	380.62
374.965	381.62
375.191	389.62
375.416	392.62
375.642	391.62
375.868	404.62
376.094	402.62
376.319	387.62
376.545	372.62
376.771	361.62
376.997	365.62
377.222	387.62
377.448	401.62
377.674	379.62
377.899	378.62
378.125	388.62
378.35	363.62
378.576	382.62
378.802	358.62
379.027	376.62
379.253	370.62
379.478	397.62
379.704	368.62
379.929	380.62
380.155	377.62
380.38	379.62
380.606	375.62
380.831	363.62
381.057	389.62
381.282	357.62
381.507	360.62
381.733	389.62
381.958	382.62
382.184	366.62
382.409	370.62
382.634	386.62
382.86	391.62
383.085	374.62
383.31	384.62
383.535	385.62
383.761	396.62
383.986	395.62
384.211	385.62
384.436	389.62
384.662	401.62
384.887	395.62
385.112	381.62
385.337	398.62
385.562	415.62
385.787	398.62
386.013	410.62
386.238	397.62
386.463	401.62
386.688	406.62
386.913	402.62
387.138	396.62
387.363	381.62
387.588	404.62
387.813	403.62
388.038	401.62
388.263	405.62
388.488	399.62
388.713	402.62
388.938	408.62
389.163	405.62
389.387	401.62
389.612	401.62
389.837	385.62
390.062	413.62
390.287	412.62
390.512	394.62
390.736	382.62
390.961	388.62
391.186	397.62
391.411	405.62
391.636	391.62
391.86	400.62
392.085	390.62
392.31	416.62
392.534	407.62
392.759	386.62
392.984	391.62
393.208	383.62
393.433	382.62
393.658	424.62
393.882	403.62
394.107	408.62
394.331	402.62
394.556	395.62
394.78	400.62
395.005	386.62
395.229	408.62
395.454	419.62
395.678	419.62
395.903	416.62
396.127	474.62
396.352	445.62
396.576	418.62
396.801	413.62
397.025	398.62
397.249	420.62
397.474	437.62
397.698	410.62
397.922	415.62
398.147	419.62
398.371	456.62
398.595	432.62
398.82	436.62
399.044	437.62
399.268	463.62
399.492	473.62
399.717	504.62
399.941	517.62
400.165	552.62
400.389	548.62
400.613	526.62
400.837	480.62
401.062	481.62
401.286	464.62
401.51	453.62
401.734	459.62
401.958	465.62
402.182	459.62
402.406	468.62
402.63	502.62
402.854	450.62
403.078	434.62
403.302	452.62
403.526	446.62
403.75	462.62
403.974	447.62
404.198	464.62
404.422	456.62
404.645	462.62
404.869	455.62
405.093	489.62
405.317	508.62
405.541	527.62
405.765	497.62
405.988	493.62
406.212	515.62
406.436	517.62
406.66	539.62
406.883	516.62
407.107	556.62
407.331	568.62
407.555	640.62
407.778	609.62
408.002	562.62
408.226	530.62
408.449	525.62
408.673	516.62
408.896	539.62
409.12	567.62
409.344	546.62
409.567	501.62
409.791	467.62
410.014	468.62
410.238	453.62
410.461	466.62
410.685	468.62
410.908	477.62
411.132	506.62
411.355	550.62
411.578	535.62
411.802	467.62
412.025	469.62
412.249	480.62
412.472	471.62
412.695	475.62
412.919	461.62
413.142	472.62
413.365	460.62
413.589	438.62
413.812	455.62
414.035	466.62
414.258	426.62
414.482	427.62
414.705	434.62
414.928	450.62
415.151	413.62
415.374	408.62
415.597	440.62
415.821	440.62
416.044	429.62
416.267	432.62
416.49	443.62
416.713	414.62
416.936	424.62
417.159	445.62
417.382	445.62
417.605	453.62
417.828	439.62
418.051	478.62
418.274	467.62
418.497	444.62
418.72	438.62
418.943	430.62
419.166	450.62
419.389	475.62
419.611	462.62
419.834	445.62
420.057	471.62
420.28	453.62
420.503	462.62
420.726	452.62
420.948	483.62
421.171	521.62
421.394	560.62
421.617	472.62
421.839	457.62
422.062	479.62
422.285	465.62
422.507	523.62
422.73	617.62
422.953	587.62
423.175	517.62
423.398	485.62
423.621	501.62
423.843	489.62
424.066	499.62
424.288	481.62
424.511	523.62
424.733	576.62
424.956	666.62
425.178	632.62
425.401	625.62
425.623	647.62
425.846	558.62
426.068	526.62
426.291	512.62
426.513	524.62
426.735	510.62
426.958	580.62
427.18	635.62
427.402	784.62
427.625	847.62
427.847	758.62
428.069	627.62
428.292	562.62
428.514	520.62
428.736	499.62
428.958	466.62
429.181	449.62
429.403	462.62
429.625	474.62
429.847	538.62
430.069	586.62
430.292	592.62
430.514	496.62
430.736	460.62
430.958	449.62
431.18	432.62
431.402	451.62
431.624	436.62
431.846	428.62
432.068	436.62
432.29	450.62
432.512	456.62
432.734	453.62
432.956	452.62
433.178	454.62
433.4	458.62
433.622	445.62
433.844	443.62
434.066	435.62
434.287	441.62
434.509	445.62
434.731	441.62
434.953	444.62
435.175	472.62
435.397	491.62
435.618	500.62
435.84	566.62
436.062	633.62
436.284	694.62
436.505	572.62
436.727	530.62
436.949	490.62
437.17	471.62
437.392	455.62
437.614	498.62
437.835	528.62
438.057	639.62
438.278	726.62
438.5	700.62
438.721	792.62
438.943	750.62
439.165	588.62
439.386	538.62
439.608	539.62
439.829	544.62
440.05	548.62
440.272	603.62
440.493	575.62
440.715	490.62
440.936	473.62
441.158	484.62
441.379	457.62
441.6	476.62
441.822	500.62
442.043	557.62
442.264	615.62
442.486	672.62
442.707	552.62
442.928	553.62
443.149	519.62
443.371	564.62
443.592	609.62
443.813	672.62
444.034	724.62
444.255	587.62
444.476	531.62
444.698	527.62
444.919	521.62
445.14	600.62
445.361	568.62
445.582	545.62
445.803	611.62
446.024	727.62
446.245	729.62
446.466	682.62
446.687	580.62
446.908	540.62
447.129	490.62
447.35	475.62
447.571	477.62
447.792	480.62
448.013	472.62
448.234	498.62
448.455	541.62
448.675	647.62
448.896	749.62
449.117	664.62
449.338	590.62
449.559	721.62
449.779	816.62
450	642.62
450.221	538.62
450.442	488.62
450.662	481.62
450.883	469.62
451.104	505.62
451.324	486.62
451.545	483.62
451.766	438.62
451.986	440.62
452.207	418.62
452.428	420.62
452.648	409.62
452.869	423.62
453.089	431.62
453.31	443.62
453.53	445.62
453.751	444.62
453.971	432.62
454.192	459.62
454.412	429.62
454.633	412.62
454.853	396.62
455.073	412.62
455.294	456.62
455.514	534.62
455.734	508.62
455.955	429.62
456.175	405.62
456.395	390.62
456.616	398.62
456.836	411.62
457.056	404.62
457.276	393.62
457.497	401.62
457.717	397.62
457.937	384.62
458.157	395.62
458.377	416.62
458.598	453.62
458.818	512.62
459.038	570.62
459.258	566.62
459.478	494.62
459.698	450.62
459.918	436.62
460.138	453.62
460.358	425.62
460.578	454.62
460.798	446.62
461.018	424.62
461.238	451.62
461.458	435.62
461.678	452.62
461.898	429.62
462.118	432.62
462.338	436.62
462.558	433.62
462.777	465.62
462.997	448.62
463.217	478.62
463.437	454.62
463.657	437.62
463.876	437.62
464.096	458.62
464.316	457.62
464.536	448.62
464.755	460.62
464.975	484.62
465.195	539.62
465.414	614.62
465.634	504.62
465.854	476.62
466.073	463.62
466.293	437.62
466.512	426.62
466.732	423.62
466.951	442.62
467.171	429.62
467.391	440.62
467.61	438.62
467.829	448.62
468.049	419.62
468.268	418.62
468.488	406.62
468.707	418.62
468.927	404.62
469.146	411.62
469.365	418.62
469.585	420.62
469.804	417.62
470.023	440.62
470.243	438.62
470.462	451.62
470.681	473.62
470.901	434.62
471.12	436.62
471.339	440.62
471.558	425.62
471.777	425.62
471.997	413.62
472.216	423.62
472.435	420.62
472.654	423.62
472.873	415.62
473.092	407.62
473.311	455.62
473.53	421.62
473.749	448.62
473.968	485.62
474.187	579.62
474.406	614.62
474.625	461.62
474.844	452.62
475.063	437.62
475.282	434.62
475.501	429.62
475.72	450.62
475.939	449.62
476.158	442.62
476.377	427.62
476.596	444.62
476.814	439.62
477.033	454.62
477.252	458.62
477.471	434.62
477.69	474.62
477.908	452.62
478.127	486.62
478.346	439.62
478.564	458.62
478.783	461.62
479.002	483.62
479.22	488.62
479.439	499.62
479.658	512.62
479.876	523.62
480.095	503.62
480.313	545.62
480.532	538.62
480.751	515.62
480.969	500.62
481.188	545.62
481.406	519.62
481.624	514.62
481.843	498.62
482.061	511.62
482.28	480.62
482.498	498.62
482.717	526.62
482.935	516.62
483.153	489.62
483.372	481.62
483.59	481.62
483.808	473.62
484.027	479.62
484.245	496.62
484.463	496.62
484.681	517.62
484.9	513.62
485.118	516.62
485.336	511.62
485.554	498.62
485.772	521.62
485.99	532.62
486.209	528.62
486.427	530.62
486.645	526.62
486.863	542.62
487.081	556.62
487.299	568.62
487.517	530.62
487.735	515.62
487.953	538.62
488.171	538.62
488.389	552.62
488.607	555.62
488.825	565.62
489.043	539.62
489.261	561.62
489.479	556.62
489.696	576.62
489.914	536.62
490.132	557.62
490.35	577.62
490.568	587.62
490.786	590.62
491.003	561.62
491.221	564.62
491.439	623.62
491.657	610.62
491.874	605.62
492.092	635.62
492.31	638.62
492.527	597.62
492.745	608.62
492.963	625.62
493.18	624.62
493.398	653.62
493.615	628.62
493.833	613.62
494.05	624.62
494.268	626.62
494.485	665.62
494.703	631.62
494.92	654.62
495.138	653.62
495.355	659.62
495.573	642.62
495.79	640.62
496.008	657.62
496.225	652.62
496.442	637.62
496.66	624.62
496.877	660.62
497.094	653.62
497.312	646.62
497.529	657.62
497.746	687.62
497.963	667.62
498.181	676.62
498.398	688.62
498.615	698.62
498.832	720.62
499.049	696.62
499.267	718.62
499.484	745.62
499.701	776.62
499.918	781.62
500.135	798.62
500.352	804.62
500.569	816.62
500.786	854.62
501.003	845.62
501.22	806.62
501.437	790.62
501.654	797.62
501.871	793.62
