Data from 1989.PennyLincolnUp.Lamp.En5.5.200Scan.071819.P2_HRD10591_17-23-40-972.txt Node
Date: Thu Jul 18 17:23:40 EDT 2019
User: cochatt
Spectrometer: HR+D1059
Trigger mode: 1
Integration Time (sec): 1.000000E-1
Scans to average: 1
Electric dark correction enabled: true
Nonlinearity correction enabled: false
Boxcar width: 0
XAxis mode: Wavelengths
Number of Pixels in Spectrum: 2048
>>>>>Begin Spectral Data<<<<<
223.165	-18.88
223.4	-18.88
223.635	-18.88
223.869	-34.88
224.104	-31.88
224.338	-9.88
224.573	-22.88
224.808	-10.88
225.042	-1.88
225.277	-10.88
225.511	3.12
225.746	12.12
225.98	16.12
226.215	17.12
226.449	22.12
226.683	15.12
226.918	27.12
227.152	29.12
227.387	31.12
227.621	39.12
227.856	49.12
228.09	42.12
228.324	34.12
228.559	63.12
228.793	82.12
229.027	103.12
229.262	109.12
229.496	134.12
229.73	124.12
229.964	144.12
230.199	141.12
230.433	110.12
230.667	107.12
230.901	107.12
231.136	123.12
231.37	103.12
231.604	107.12
231.838	113.12
232.072	112.12
232.306	120.12
232.541	134.12
232.775	112.12
233.009	122.12
233.243	121.12
233.477	113.12
233.711	108.12
233.945	105.12
234.179	105.12
234.413	123.12
234.647	116.12
234.881	109.12
235.115	116.12
235.349	107.12
235.583	112.12
235.817	118.12
236.051	118.12
236.285	122.12
236.519	134.12
236.753	138.12
236.987	144.12
237.221	176.12
237.455	228.12
237.689	180.12
237.922	154.12
238.156	132.12
238.39	134.12
238.624	147.12
238.858	120.12
239.091	135.12
239.325	131.12
239.559	129.12
239.793	132.12
240.027	141.12
240.26	141.12
240.494	154.12
240.728	159.12
240.961	141.12
241.195	146.12
241.429	135.12
241.662	134.12
241.896	130.12
242.13	130.12
242.363	144.12
242.597	128.12
242.83	143.12
243.064	149.12
243.298	138.12
243.531	140.12
243.765	143.12
243.998	144.12
244.232	137.12
244.465	133.12
244.699	140.12
244.932	151.12
245.166	146.12
245.399	148.12
245.633	140.12
245.866	155.12
246.099	155.12
246.333	148.12
246.566	158.12
246.8	151.12
247.033	154.12
247.266	156.12
247.5	176.12
247.733	185.12
247.966	166.12
248.2	178.12
248.433	168.12
248.666	180.12
248.899	194.12
249.133	207.12
249.366	231.12
249.599	205.12
249.832	203.12
250.066	198.12
250.299	177.12
250.532	185.12
250.765	202.12
250.998	216.12
251.231	229.12
251.465	220.12
251.698	222.12
251.931	207.12
252.164	207.12
252.397	188.12
252.63	212.12
252.863	204.12
253.096	216.12
253.329	238.12
253.562	242.12
253.795	235.12
254.028	244.12
254.261	224.12
254.494	242.12
254.727	258.12
254.96	289.12
255.193	289.12
255.426	268.12
255.659	238.12
255.892	229.12
256.124	244.12
256.357	223.12
256.59	226.12
256.823	209.12
257.056	201.12
257.289	226.12
257.521	238.12
257.754	217.12
257.987	222.12
258.22	207.12
258.452	221.12
258.685	228.12
258.918	222.12
259.151	213.12
259.383	230.12
259.616	240.12
259.849	236.12
260.081	264.12
260.314	274.12
260.547	274.12
260.779	257.12
261.012	232.12
261.244	257.12
261.477	265.12
261.71	237.12
261.942	224.12
262.175	238.12
262.407	245.12
262.64	231.12
262.872	214.12
263.105	233.12
263.337	230.12
263.57	242.12
263.802	214.12
264.035	217.12
264.267	227.12
264.499	231.12
264.732	235.12
264.964	206.12
265.197	232.12
265.429	227.12
265.661	218.12
265.894	224.12
266.126	241.12
266.358	217.12
266.591	236.12
266.823	248.12
267.055	245.12
267.287	260.12
267.52	233.12
267.752	242.12
267.984	245.12
268.216	230.12
268.448	229.12
268.681	243.12
268.913	246.12
269.145	280.12
269.377	299.12
269.609	278.12
269.841	289.12
270.073	288.12
270.306	292.12
270.538	322.12
270.77	318.12
271.002	326.12
271.234	309.12
271.466	306.12
271.698	324.12
271.93	337.12
272.162	328.12
272.394	316.12
272.626	321.12
272.858	309.12
273.09	279.12
273.322	281.12
273.553	299.12
273.785	268.12
274.017	275.12
274.249	280.12
274.481	278.12
274.713	281.12
274.945	285.12
275.176	295.12
275.408	276.12
275.64	276.12
275.872	281.12
276.104	290.12
276.335	258.12
276.567	308.12
276.799	299.12
277.031	320.12
277.262	322.12
277.494	321.12
277.726	296.12
277.957	283.12
278.189	281.12
278.421	300.12
278.652	287.12
278.884	268.12
279.115	275.12
279.347	275.12
279.579	284.12
279.81	271.12
280.042	280.12
280.273	261.12
280.505	268.12
280.736	285.12
280.968	288.12
281.199	289.12
281.431	274.12
281.662	278.12
281.894	273.12
282.125	282.12
282.356	299.12
282.588	323.12
282.819	303.12
283.051	285.12
283.282	284.12
283.513	304.12
283.745	290.12
283.976	296.12
284.207	298.12
284.439	313.12
284.67	304.12
284.901	280.12
285.132	308.12
285.364	287.12
285.595	269.12
285.826	296.12
286.057	296.12
286.288	277.12
286.52	295.12
286.751	288.12
286.982	277.12
287.213	300.12
287.444	313.12
287.675	295.12
287.906	318.12
288.138	312.12
288.369	317.12
288.6	321.12
288.831	296.12
289.062	301.12
289.293	312.12
289.524	309.12
289.755	299.12
289.986	304.12
290.217	291.12
290.448	306.12
290.679	312.12
290.91	285.12
291.141	296.12
291.371	308.12
291.602	294.12
291.833	290.12
292.064	290.12
292.295	296.12
292.526	298.12
292.757	307.12
292.987	306.12
293.218	301.12
293.449	290.12
293.68	281.12
293.91	307.12
294.141	297.12
294.372	312.12
294.603	309.12
294.833	292.12
295.064	291.12
295.295	318.12
295.525	306.12
295.756	318.12
295.987	319.12
296.217	313.12
296.448	339.12
296.679	344.12
296.909	294.12
297.14	298.12
297.37	308.12
297.601	302.12
297.831	312.12
298.062	300.12
298.292	314.12
298.523	324.12
298.753	304.12
298.984	304.12
299.214	312.12
299.445	317.12
299.675	323.12
299.905	325.12
300.136	313.12
300.366	320.12
300.597	316.12
300.827	323.12
301.057	317.12
301.288	340.12
301.518	333.12
301.748	344.12
301.979	338.12
302.209	332.12
302.439	357.12
302.669	333.12
302.9	328.12
303.13	331.12
303.36	347.12
303.59	358.12
303.82	347.12
304.051	324.12
304.281	340.12
304.511	345.12
304.741	337.12
304.971	329.12
305.201	321.12
305.431	336.12
305.661	330.12
305.891	349.12
306.121	346.12
306.352	358.12
306.582	352.12
306.812	339.12
307.042	343.12
307.272	361.12
307.502	334.12
307.731	350.12
307.961	353.12
308.191	334.12
308.421	361.12
308.651	348.12
308.881	340.12
309.111	345.12
309.341	345.12
309.571	376.12
309.8	372.12
310.03	376.12
310.26	394.12
310.49	382.12
310.72	372.12
310.949	373.12
311.179	404.12
311.409	389.12
311.639	384.12
311.868	382.12
312.098	391.12
312.328	391.12
312.557	402.12
312.787	419.12
313.017	416.12
313.246	383.12
313.476	383.12
313.706	384.12
313.935	406.12
314.165	426.12
314.394	412.12
314.624	394.12
314.853	404.12
315.083	394.12
315.312	407.12
315.542	381.12
315.771	385.12
316.001	378.12
316.23	384.12
316.46	377.12
316.689	386.12
316.919	395.12
317.148	397.12
317.377	416.12
317.607	398.12
317.836	399.12
318.065	394.12
318.295	374.12
318.524	408.12
318.753	388.12
318.983	390.12
319.212	372.12
319.441	406.12
319.67	421.12
319.9	402.12
320.129	391.12
320.358	396.12
320.587	390.12
320.816	413.12
321.046	416.12
321.275	416.12
321.504	416.12
321.733	396.12
321.962	444.12
322.191	442.12
322.42	416.12
322.649	464.12
322.878	468.12
323.108	471.12
323.337	497.12
323.566	520.12
323.795	548.12
324.024	618.12
324.253	731.12
324.482	1015.12
324.71	1518.12
324.939	2202.12
325.168	1955.12
325.397	995.12
325.626	681.12
325.855	562.12
326.084	550.12
326.313	513.12
326.542	520.12
326.77	577.12
326.999	665.12
327.228	906.12
327.457	1356.12
327.686	1697.12
327.914	1108.12
328.143	749.12
328.372	627.12
328.6	584.12
328.829	549.12
329.058	566.12
329.287	580.12
329.515	552.12
329.744	508.12
329.972	496.12
330.201	499.12
330.43	535.12
330.658	544.12
330.887	597.12
331.115	597.12
331.344	513.12
331.572	498.12
331.801	500.12
332.03	503.12
332.258	454.12
332.486	458.12
332.715	442.12
332.943	462.12
333.172	454.12
333.4	465.12
333.629	448.12
333.857	466.12
334.085	458.12
334.314	457.12
334.542	442.12
334.771	474.12
334.999	451.12
335.227	459.12
335.455	474.12
335.684	434.12
335.912	460.12
336.14	446.12
336.369	438.12
336.597	457.12
336.825	459.12
337.053	448.12
337.281	436.12
337.51	441.12
337.738	444.12
337.966	452.12
338.194	430.12
338.422	445.12
338.65	436.12
338.878	430.12
339.106	400.12
339.334	432.12
339.562	440.12
339.79	454.12
340.018	432.12
340.246	435.12
340.474	441.12
340.702	445.12
340.93	435.12
341.158	431.12
341.386	427.12
341.614	444.12
341.842	437.12
342.07	444.12
342.298	416.12
342.526	427.12
342.754	414.12
342.981	413.12
343.209	414.12
343.437	416.12
343.665	422.12
343.893	434.12
344.12	416.12
344.348	438.12
344.576	442.12
344.804	436.12
345.031	448.12
345.259	475.12
345.487	455.12
345.714	433.12
345.942	410.12
346.17	430.12
346.397	425.12
346.625	423.12
346.853	420.12
347.08	401.12
347.308	423.12
347.535	430.12
347.763	442.12
347.99	444.12
348.218	427.12
348.445	437.12
348.673	429.12
348.9	425.12
349.128	422.12
349.355	412.12
349.583	404.12
349.81	407.12
350.037	411.12
350.265	397.12
350.492	412.12
350.72	389.12
350.947	396.12
351.174	409.12
351.402	448.12
351.629	444.12
351.856	430.12
352.083	429.12
352.311	410.12
352.538	434.12
352.765	437.12
352.992	429.12
353.22	419.12
353.447	407.12
353.674	414.12
353.901	398.12
354.128	392.12
354.355	386.12
354.583	374.12
354.81	392.12
355.037	406.12
355.264	384.12
355.491	379.12
355.718	382.12
355.945	394.12
356.172	394.12
356.399	393.12
356.626	374.12
356.853	370.12
357.08	380.12
357.307	378.12
357.534	372.12
357.761	376.12
357.988	399.12
358.215	378.12
358.441	385.12
358.668	384.12
358.895	402.12
359.122	392.12
359.349	375.12
359.576	404.12
359.802	429.12
360.029	441.12
360.256	462.12
360.483	443.12
360.709	402.12
360.936	423.12
361.163	404.12
361.39	392.12
361.616	423.12
361.843	416.12
362.07	408.12
362.296	416.12
362.523	408.12
362.749	436.12
362.976	399.12
363.203	405.12
363.429	391.12
363.656	404.12
363.882	376.12
364.109	406.12
364.335	388.12
364.562	384.12
364.788	403.12
365.015	377.12
365.241	396.12
365.468	402.12
365.694	388.12
365.92	411.12
366.147	385.12
366.373	413.12
366.599	380.12
366.826	388.12
367.052	383.12
367.278	396.12
367.505	398.12
367.731	379.12
367.957	397.12
368.184	380.12
368.41	368.12
368.636	403.12
368.862	391.12
369.089	402.12
369.315	404.12
369.541	380.12
369.767	385.12
369.993	402.12
370.219	376.12
370.445	382.12
370.672	392.12
370.898	401.12
371.124	386.12
371.35	398.12
371.576	382.12
371.802	380.12
372.028	364.12
372.254	390.12
372.48	392.12
372.706	392.12
372.932	401.12
373.158	383.12
373.384	388.12
373.61	365.12
373.835	388.12
374.061	382.12
374.287	385.12
374.513	394.12
374.739	407.12
374.965	390.12
375.191	392.12
375.416	402.12
375.642	390.12
375.868	395.12
376.094	378.12
376.319	366.12
376.545	395.12
376.771	386.12
376.997	378.12
377.222	378.12
377.448	361.12
377.674	380.12
377.899	385.12
378.125	377.12
378.35	376.12
378.576	357.12
378.802	379.12
379.027	378.12
379.253	376.12
379.478	384.12
379.704	374.12
379.929	371.12
380.155	381.12
380.38	392.12
380.606	381.12
380.831	404.12
381.057	396.12
381.282	384.12
381.507	380.12
381.733	375.12
381.958	369.12
382.184	380.12
382.409	396.12
382.634	395.12
382.86	400.12
383.085	387.12
383.31	392.12
383.535	364.12
383.761	393.12
383.986	404.12
384.211	398.12
384.436	378.12
384.662	397.12
384.887	386.12
385.112	392.12
385.337	394.12
385.562	407.12
385.787	402.12
386.013	411.12
386.238	420.12
386.463	416.12
386.688	432.12
386.913	397.12
387.138	398.12
387.363	423.12
387.588	384.12
387.813	411.12
388.038	418.12
388.263	407.12
388.488	405.12
388.713	394.12
388.938	391.12
389.163	404.12
389.387	417.12
389.612	408.12
389.837	401.12
390.062	392.12
390.287	412.12
390.512	408.12
390.736	409.12
390.961	409.12
391.186	412.12
391.411	409.12
391.636	408.12
391.86	394.12
392.085	401.12
392.31	440.12
392.534	413.12
392.759	412.12
392.984	417.12
393.208	410.12
393.433	424.12
393.658	407.12
393.882	406.12
394.107	404.12
394.331	393.12
394.556	398.12
394.78	396.12
395.005	396.12
395.229	404.12
395.454	415.12
395.678	413.12
395.903	418.12
396.127	453.12
396.352	448.12
396.576	424.12
396.801	416.12
397.025	429.12
397.249	411.12
397.474	433.12
397.698	400.12
397.922	439.12
398.147	444.12
398.371	479.12
398.595	461.12
398.82	454.12
399.044	446.12
399.268	456.12
399.492	458.12
399.717	499.12
399.941	500.12
400.165	554.12
400.389	571.12
400.613	526.12
400.837	491.12
401.062	484.12
401.286	454.12
401.51	427.12
401.734	452.12
401.958	444.12
402.182	460.12
402.406	485.12
402.63	469.12
402.854	474.12
403.078	487.12
403.302	456.12
403.526	459.12
403.75	465.12
403.974	450.12
404.198	444.12
404.422	458.12
404.645	482.12
404.869	457.12
405.093	505.12
405.317	504.12
405.541	531.12
405.765	506.12
405.988	501.12
406.212	513.12
406.436	517.12
406.66	529.12
406.883	511.12
407.107	528.12
407.331	590.12
407.555	624.12
407.778	630.12
408.002	570.12
408.226	524.12
408.449	526.12
408.673	517.12
408.896	527.12
409.12	591.12
409.344	570.12
409.567	475.12
409.791	480.12
410.014	485.12
410.238	471.12
410.461	466.12
410.685	490.12
410.908	494.12
411.132	521.12
411.355	572.12
411.578	538.12
411.802	484.12
412.025	452.12
412.249	462.12
412.472	467.12
412.695	467.12
412.919	465.12
413.142	460.12
413.365	448.12
413.589	457.12
413.812	440.12
414.035	461.12
414.258	460.12
414.482	433.12
414.705	436.12
414.928	434.12
415.151	428.12
415.374	428.12
415.597	450.12
415.821	436.12
416.044	439.12
416.267	441.12
416.49	449.12
416.713	434.12
416.936	412.12
417.159	446.12
417.382	455.12
417.605	444.12
417.828	454.12
418.051	473.12
418.274	479.12
418.497	460.12
418.72	434.12
418.943	457.12
419.166	438.12
419.389	489.12
419.611	446.12
419.834	464.12
420.057	462.12
420.28	451.12
420.503	440.12
420.726	459.12
420.948	458.12
421.171	511.12
421.394	537.12
421.617	509.12
421.839	473.12
422.062	459.12
422.285	484.12
422.507	545.12
422.73	622.12
422.953	582.12
423.175	536.12
423.398	508.12
423.621	459.12
423.843	500.12
424.066	477.12
424.288	518.12
424.511	533.12
424.733	568.12
424.956	654.12
425.178	640.12
425.401	610.12
425.623	663.12
425.846	566.12
426.068	513.12
426.291	493.12
426.513	499.12
426.735	509.12
426.958	559.12
427.18	627.12
427.402	756.12
427.625	849.12
427.847	726.12
428.069	598.12
428.292	531.12
428.514	511.12
428.736	481.12
428.958	492.12
429.181	479.12
429.403	491.12
429.625	493.12
429.847	522.12
430.069	567.12
430.292	553.12
430.514	486.12
430.736	456.12
430.958	461.12
431.18	460.12
431.402	437.12
431.624	449.12
431.846	450.12
432.068	419.12
432.29	434.12
432.512	428.12
432.734	426.12
432.956	446.12
433.178	448.12
433.4	464.12
433.622	445.12
433.844	427.12
434.066	456.12
434.287	429.12
434.509	447.12
434.731	432.12
434.953	452.12
435.175	455.12
435.397	496.12
435.618	532.12
435.84	553.12
436.062	649.12
436.284	700.12
436.505	595.12
436.727	532.12
436.949	484.12
437.17	472.12
437.392	486.12
437.614	488.12
437.835	527.12
438.057	640.12
438.278	708.12
438.5	710.12
438.721	766.12
438.943	749.12
439.165	589.12
439.386	527.12
439.608	530.12
439.829	516.12
440.05	555.12
440.272	571.12
440.493	561.12
440.715	505.12
440.936	503.12
441.158	477.12
441.379	460.12
441.6	475.12
441.822	498.12
442.043	549.12
442.264	651.12
442.486	713.12
442.707	575.12
442.928	520.12
443.149	537.12
443.371	526.12
443.592	586.12
443.813	684.12
444.034	725.12
444.255	620.12
444.476	540.12
444.698	496.12
444.919	516.12
445.14	619.12
445.361	574.12
445.582	552.12
445.803	624.12
446.024	727.12
446.245	729.12
446.466	677.12
446.687	563.12
446.908	519.12
447.129	506.12
447.35	482.12
447.571	483.12
447.792	446.12
448.013	485.12
448.234	498.12
448.455	510.12
448.675	658.12
448.896	771.12
449.117	670.12
449.338	614.12
449.559	726.12
449.779	811.12
450	646.12
450.221	535.12
450.442	487.12
450.662	482.12
450.883	483.12
451.104	508.12
451.324	475.12
451.545	441.12
451.766	430.12
451.986	413.12
452.207	427.12
452.428	406.12
452.648	408.12
452.869	432.12
453.089	439.12
453.31	432.12
453.53	409.12
453.751	418.12
453.971	429.12
454.192	429.12
454.412	428.12
454.633	417.12
454.853	434.12
455.073	406.12
455.294	445.12
455.514	516.12
455.734	522.12
455.955	442.12
456.175	411.12
456.395	390.12
456.616	384.12
456.836	384.12
457.056	383.12
457.276	373.12
457.497	400.12
457.717	394.12
457.937	410.12
458.157	410.12
458.377	410.12
458.598	427.12
458.818	490.12
459.038	568.12
459.258	556.12
459.478	492.12
459.698	460.12
459.918	443.12
460.138	421.12
460.358	432.12
460.578	432.12
460.798	434.12
461.018	441.12
461.238	441.12
461.458	423.12
461.678	421.12
461.898	427.12
462.118	442.12
462.338	433.12
462.558	451.12
462.777	450.12
462.997	448.12
463.217	466.12
463.437	461.12
463.657	461.12
463.876	467.12
464.096	459.12
464.316	457.12
464.536	473.12
464.755	483.12
464.975	480.12
465.195	491.12
465.414	561.12
465.634	510.12
465.854	468.12
466.073	453.12
466.293	428.12
466.512	437.12
466.732	424.12
466.951	415.12
467.171	421.12
467.391	420.12
467.61	425.12
467.829	423.12
468.049	441.12
468.268	421.12
468.488	416.12
468.707	404.12
468.927	396.12
469.146	409.12
469.365	407.12
469.585	412.12
469.804	411.12
470.023	424.12
470.243	434.12
470.462	429.12
470.681	442.12
470.901	430.12
471.12	417.12
471.339	446.12
471.558	436.12
471.777	414.12
471.997	419.12
472.216	402.12
472.435	423.12
472.654	423.12
472.873	418.12
473.092	427.12
473.311	428.12
473.53	419.12
473.749	444.12
473.968	495.12
474.187	600.12
474.406	618.12
474.625	498.12
474.844	456.12
475.063	440.12
475.282	442.12
475.501	436.12
475.72	456.12
475.939	433.12
476.158	417.12
476.377	452.12
476.596	440.12
476.814	460.12
477.033	450.12
477.252	447.12
477.471	461.12
477.69	452.12
477.908	450.12
478.127	455.12
478.346	462.12
478.564	475.12
478.783	482.12
479.002	477.12
479.22	466.12
479.439	472.12
479.658	508.12
479.876	534.12
480.095	512.12
480.313	529.12
480.532	521.12
480.751	518.12
480.969	516.12
481.188	539.12
481.406	516.12
481.624	521.12
481.843	483.12
482.061	475.12
482.28	490.12
482.498	494.12
482.717	490.12
482.935	493.12
483.153	492.12
483.372	490.12
483.59	523.12
483.808	493.12
484.027	510.12
484.245	533.12
484.463	486.12
484.681	508.12
484.9	510.12
485.118	524.12
485.336	507.12
485.554	520.12
485.772	520.12
485.99	499.12
486.209	529.12
486.427	533.12
486.645	532.12
486.863	530.12
487.081	533.12
487.299	535.12
487.517	533.12
487.735	513.12
487.953	549.12
488.171	541.12
488.389	536.12
488.607	554.12
488.825	544.12
489.043	540.12
489.261	527.12
489.479	534.12
489.696	555.12
489.914	544.12
490.132	560.12
490.35	541.12
490.568	552.12
490.786	566.12
491.003	564.12
491.221	599.12
491.439	615.12
491.657	582.12
491.874	606.12
492.092	605.12
492.31	605.12
492.527	597.12
492.745	605.12
492.963	636.12
493.18	615.12
493.398	618.12
493.615	620.12
493.833	635.12
494.05	641.12
494.268	640.12
494.485	650.12
494.703	641.12
494.92	625.12
495.138	624.12
495.355	644.12
495.573	644.12
495.79	637.12
496.008	630.12
496.225	626.12
496.442	638.12
496.66	627.12
496.877	630.12
497.094	654.12
497.312	644.12
497.529	660.12
497.746	670.12
497.963	641.12
498.181	700.12
498.398	685.12
498.615	696.12
498.832	733.12
499.049	708.12
499.267	711.12
499.484	751.12
499.701	768.12
499.918	773.12
500.135	788.12
500.352	847.12
500.569	858.12
500.786	823.12
501.003	808.12
501.22	809.12
501.437	782.12
501.654	800.12
501.871	802.12
