Data from 1989.PennyLincolnUp.Lamp.En5.5.200Scan.071819.P2_HRD10591_17-24-39-977.txt Node
Date: Thu Jul 18 17:24:39 EDT 2019
User: cochatt
Spectrometer: HR+D1059
Trigger mode: 1
Integration Time (sec): 1.000000E-1
Scans to average: 1
Electric dark correction enabled: true
Nonlinearity correction enabled: false
Boxcar width: 0
XAxis mode: Wavelengths
Number of Pixels in Spectrum: 2048
>>>>>Begin Spectral Data<<<<<
223.165	-29.69
223.4	-29.69
223.635	-29.69
223.869	-32.69
224.104	-12.69
224.338	-8.69
224.573	-6.69
224.808	-19.69
225.042	-8.69
225.277	-9.69
225.511	9.31
225.746	4.31
225.98	21.31
226.215	6.31
226.449	12.31
226.683	14.31
226.918	22.31
227.152	38.31
227.387	2.31
227.621	24.31
227.856	47.31
228.09	44.31
228.324	40.31
228.559	63.31
228.793	65.31
229.027	107.31
229.262	103.31
229.496	103.31
229.73	122.31
229.964	154.31
230.199	148.31
230.433	117.31
230.667	116.31
230.901	109.31
231.136	122.31
231.37	112.31
231.604	114.31
231.838	111.31
232.072	100.31
232.306	106.31
232.541	108.31
232.775	120.31
233.009	106.31
233.243	104.31
233.477	99.31
233.711	102.31
233.945	121.31
234.179	116.31
234.413	122.31
234.647	116.31
234.881	114.31
235.115	120.31
235.349	116.31
235.583	110.31
235.817	115.31
236.051	128.31
236.285	143.31
236.519	130.31
236.753	124.31
236.987	152.31
237.221	185.31
237.455	236.31
237.689	192.31
237.922	146.31
238.156	129.31
238.39	137.31
238.624	123.31
238.858	120.31
239.091	141.31
239.325	123.31
239.559	139.31
239.793	131.31
240.027	147.31
240.26	149.31
240.494	160.31
240.728	150.31
240.961	148.31
241.195	148.31
241.429	154.31
241.662	146.31
241.896	152.31
242.13	134.31
242.363	139.31
242.597	148.31
242.83	139.31
243.064	145.31
243.298	151.31
243.531	127.31
243.765	159.31
243.998	157.31
244.232	150.31
244.465	144.31
244.699	148.31
244.932	144.31
245.166	156.31
245.399	149.31
245.633	154.31
245.866	148.31
246.099	155.31
246.333	145.31
246.566	164.31
246.8	146.31
247.033	162.31
247.266	161.31
247.5	155.31
247.733	174.31
247.966	184.31
248.2	177.31
248.433	166.31
248.666	177.31
248.899	187.31
249.133	220.31
249.366	211.31
249.599	202.31
249.832	190.31
250.066	204.31
250.299	185.31
250.532	206.31
250.765	206.31
250.998	216.31
251.231	248.31
251.465	229.31
251.698	220.31
251.931	226.31
252.164	208.31
252.397	228.31
252.63	227.31
252.863	225.31
253.096	240.31
253.329	251.31
253.562	242.31
253.795	249.31
254.028	245.31
254.261	236.31
254.494	240.31
254.727	284.31
254.96	304.31
255.193	298.31
255.426	259.31
255.659	258.31
255.892	270.31
256.124	254.31
256.357	231.31
256.59	257.31
256.823	217.31
257.056	234.31
257.289	233.31
257.521	234.31
257.754	228.31
257.987	229.31
258.22	216.31
258.452	220.31
258.685	226.31
258.918	231.31
259.151	228.31
259.383	254.31
259.616	227.31
259.849	243.31
260.081	242.31
260.314	258.31
260.547	279.31
260.779	276.31
261.012	263.31
261.244	244.31
261.477	246.31
261.71	238.31
261.942	247.31
262.175	245.31
262.407	250.31
262.64	235.31
262.872	230.31
263.105	224.31
263.337	238.31
263.57	215.31
263.802	228.31
264.035	221.31
264.267	223.31
264.499	231.31
264.732	223.31
264.964	233.31
265.197	238.31
265.429	236.31
265.661	215.31
265.894	235.31
266.126	240.31
266.358	228.31
266.591	234.31
266.823	265.31
267.055	259.31
267.287	246.31
267.52	234.31
267.752	240.31
267.984	250.31
268.216	266.31
268.448	251.31
268.681	231.31
268.913	259.31
269.145	283.31
269.377	293.31
269.609	308.31
269.841	294.31
270.073	294.31
270.306	327.31
270.538	337.31
270.77	342.31
271.002	337.31
271.234	300.31
271.466	318.31
271.698	332.31
271.93	330.31
272.162	340.31
272.394	346.31
272.626	348.31
272.858	297.31
273.09	298.31
273.322	289.31
273.553	282.31
273.785	290.31
274.017	296.31
274.249	287.31
274.481	303.31
274.713	295.31
274.945	278.31
275.176	296.31
275.408	312.31
275.64	297.31
275.872	284.31
276.104	285.31
276.335	282.31
276.567	282.31
276.799	309.31
277.031	332.31
277.262	349.31
277.494	326.31
277.726	303.31
277.957	325.31
278.189	315.31
278.421	302.31
278.652	296.31
278.884	298.31
279.115	286.31
279.347	285.31
279.579	300.31
279.81	296.31
280.042	286.31
280.273	275.31
280.505	281.31
280.736	278.31
280.968	269.31
281.199	293.31
281.431	288.31
281.662	303.31
281.894	288.31
282.125	294.31
282.356	307.31
282.588	334.31
282.819	336.31
283.051	306.31
283.282	282.31
283.513	289.31
283.745	302.31
283.976	295.31
284.207	308.31
284.439	306.31
284.67	300.31
284.901	308.31
285.132	299.31
285.364	278.31
285.595	289.31
285.826	302.31
286.057	314.31
286.288	271.31
286.52	288.31
286.751	290.31
286.982	294.31
287.213	292.31
287.444	290.31
287.675	313.31
287.906	319.31
288.138	317.31
288.369	331.31
288.6	323.31
288.831	314.31
289.062	309.31
289.293	313.31
289.524	307.31
289.755	304.31
289.986	306.31
290.217	282.31
290.448	309.31
290.679	310.31
290.91	311.31
291.141	314.31
291.371	315.31
291.602	311.31
291.833	303.31
292.064	297.31
292.295	292.31
292.526	317.31
292.757	310.31
292.987	316.31
293.218	286.31
293.449	297.31
293.68	289.31
293.91	298.31
294.141	292.31
294.372	310.31
294.603	315.31
294.833	298.31
295.064	306.31
295.295	306.31
295.525	312.31
295.756	317.31
295.987	336.31
296.217	345.31
296.448	345.31
296.679	344.31
296.909	324.31
297.14	322.31
297.37	329.31
297.601	320.31
297.831	323.31
298.062	307.31
298.292	319.31
298.523	326.31
298.753	322.31
298.984	327.31
299.214	318.31
299.445	313.31
299.675	309.31
299.905	323.31
300.136	322.31
300.366	325.31
300.597	323.31
300.827	323.31
301.057	339.31
301.288	339.31
301.518	340.31
301.748	342.31
301.979	338.31
302.209	348.31
302.439	361.31
302.669	353.31
302.9	335.31
303.13	352.31
303.36	360.31
303.59	324.31
303.82	358.31
304.051	353.31
304.281	344.31
304.511	342.31
304.741	350.31
304.971	321.31
305.201	350.31
305.431	347.31
305.661	343.31
305.891	357.31
306.121	341.31
306.352	344.31
306.582	362.31
306.812	347.31
307.042	356.31
307.272	339.31
307.502	355.31
307.731	338.31
307.961	348.31
308.191	344.31
308.421	356.31
308.651	346.31
308.881	348.31
309.111	373.31
309.341	382.31
309.571	374.31
309.8	376.31
310.03	378.31
310.26	393.31
310.49	380.31
310.72	407.31
310.949	435.31
311.179	442.31
311.409	403.31
311.639	388.31
311.868	392.31
312.098	403.31
312.328	399.31
312.557	402.31
312.787	442.31
313.017	441.31
313.246	416.31
313.476	396.31
313.706	400.31
313.935	400.31
314.165	408.31
314.394	426.31
314.624	410.31
314.853	411.31
315.083	427.31
315.312	411.31
315.542	406.31
315.771	395.31
316.001	399.31
316.23	390.31
316.46	383.31
316.689	396.31
316.919	414.31
317.148	418.31
317.377	419.31
317.607	407.31
317.836	399.31
318.065	405.31
318.295	404.31
318.524	405.31
318.753	387.31
318.983	388.31
319.212	401.31
319.441	403.31
319.67	414.31
319.9	406.31
320.129	408.31
320.358	402.31
320.587	412.31
320.816	422.31
321.046	435.31
321.275	412.31
321.504	420.31
321.733	425.31
321.962	447.31
322.191	441.31
322.42	442.31
322.649	494.31
322.878	486.31
323.108	514.31
323.337	530.31
323.566	562.31
323.795	624.31
324.024	630.31
324.253	784.31
324.482	1128.31
324.71	1748.31
324.939	2509.31
325.168	2150.31
325.397	1112.31
325.626	753.31
325.855	604.31
326.084	564.31
326.313	549.31
326.542	552.31
326.77	621.31
326.999	728.31
327.228	1036.31
327.457	1540.31
327.686	1896.31
327.914	1228.31
328.143	779.31
328.372	688.31
328.6	636.31
328.829	621.31
329.058	631.31
329.287	620.31
329.515	593.31
329.744	538.31
329.972	554.31
330.201	555.31
330.43	565.31
330.658	593.31
330.887	680.31
331.115	638.31
331.344	556.31
331.572	531.31
331.801	540.31
332.03	526.31
332.258	496.31
332.486	464.31
332.715	481.31
332.943	465.31
333.172	450.31
333.4	489.31
333.629	456.31
333.857	470.31
334.085	472.31
334.314	484.31
334.542	504.31
334.771	489.31
334.999	482.31
335.227	475.31
335.455	464.31
335.684	439.31
335.912	454.31
336.14	450.31
336.369	453.31
336.597	469.31
336.825	478.31
337.053	436.31
337.281	451.31
337.51	451.31
337.738	468.31
337.966	456.31
338.194	463.31
338.422	458.31
338.65	458.31
338.878	462.31
339.106	458.31
339.334	458.31
339.562	440.31
339.79	416.31
340.018	456.31
340.246	461.31
340.474	456.31
340.702	442.31
340.93	425.31
341.158	446.31
341.386	441.31
341.614	441.31
341.842	456.31
342.07	451.31
342.298	443.31
342.526	423.31
342.754	410.31
342.981	434.31
343.209	419.31
343.437	438.31
343.665	407.31
343.893	462.31
344.12	463.31
344.348	433.31
344.576	437.31
344.804	462.31
345.031	459.31
345.259	462.31
345.487	454.31
345.714	432.31
345.942	447.31
346.17	423.31
346.397	422.31
346.625	446.31
346.853	443.31
347.08	443.31
347.308	430.31
347.535	466.31
347.763	452.31
347.99	441.31
348.218	448.31
348.445	427.31
348.673	451.31
348.9	425.31
349.128	428.31
349.355	432.31
349.583	402.31
349.81	405.31
350.037	410.31
350.265	413.31
350.492	412.31
350.72	413.31
350.947	415.31
351.174	437.31
351.402	420.31
351.629	418.31
351.856	440.31
352.083	450.31
352.311	444.31
352.538	450.31
352.765	442.31
352.992	426.31
353.22	443.31
353.447	429.31
353.674	404.31
353.901	423.31
354.128	407.31
354.355	394.31
354.583	402.31
354.81	404.31
355.037	402.31
355.264	381.31
355.491	382.31
355.718	384.31
355.945	383.31
356.172	383.31
356.399	402.31
356.626	375.31
356.853	389.31
357.08	386.31
357.307	368.31
357.534	404.31
357.761	386.31
357.988	392.31
358.215	397.31
358.441	377.31
358.668	395.31
358.895	402.31
359.122	415.31
359.349	416.31
359.576	433.31
359.802	449.31
360.029	482.31
360.256	497.31
360.483	473.31
360.709	427.31
360.936	415.31
361.163	428.31
361.39	418.31
361.616	441.31
361.843	434.31
362.07	416.31
362.296	408.31
362.523	422.31
362.749	422.31
362.976	411.31
363.203	396.31
363.429	402.31
363.656	404.31
363.882	397.31
364.109	395.31
364.335	373.31
364.562	404.31
364.788	398.31
365.015	397.31
365.241	415.31
365.468	431.31
365.694	413.31
365.92	409.31
366.147	401.31
366.373	391.31
366.599	400.31
366.826	378.31
367.052	404.31
367.278	399.31
367.505	398.31
367.731	387.31
367.957	392.31
368.184	416.31
368.41	388.31
368.636	415.31
368.862	410.31
369.089	390.31
369.315	419.31
369.541	404.31
369.767	396.31
369.993	386.31
370.219	373.31
370.445	384.31
370.672	394.31
370.898	384.31
371.124	378.31
371.35	374.31
371.576	406.31
371.802	376.31
372.028	372.31
372.254	368.31
372.48	383.31
372.706	376.31
372.932	384.31
373.158	387.31
373.384	391.31
373.61	380.31
373.835	399.31
374.061	396.31
374.287	416.31
374.513	396.31
374.739	402.31
374.965	396.31
375.191	380.31
375.416	390.31
375.642	404.31
375.868	402.31
376.094	387.31
376.319	386.31
376.545	375.31
376.771	376.31
376.997	381.31
377.222	362.31
377.448	368.31
377.674	388.31
377.899	364.31
378.125	388.31
378.35	379.31
378.576	383.31
378.802	376.31
379.027	386.31
379.253	401.31
379.478	370.31
379.704	390.31
379.929	369.31
380.155	396.31
380.38	404.31
380.606	406.31
380.831	376.31
381.057	402.31
381.282	385.31
381.507	411.31
381.733	389.31
381.958	397.31
382.184	403.31
382.409	403.31
382.634	415.31
382.86	388.31
383.085	404.31
383.31	405.31
383.535	406.31
383.761	400.31
383.986	396.31
384.211	385.31
384.436	402.31
384.662	400.31
384.887	403.31
385.112	401.31
385.337	414.31
385.562	392.31
385.787	404.31
386.013	402.31
386.238	412.31
386.463	391.31
386.688	412.31
386.913	400.31
387.138	400.31
387.363	412.31
387.588	410.31
387.813	415.31
388.038	391.31
388.263	398.31
388.488	414.31
388.713	395.31
388.938	406.31
389.163	402.31
389.387	402.31
389.612	399.31
389.837	410.31
390.062	403.31
390.287	410.31
390.512	397.31
390.736	402.31
390.961	427.31
391.186	423.31
391.411	403.31
391.636	429.31
391.86	432.31
392.085	433.31
392.31	415.31
392.534	406.31
392.759	404.31
392.984	418.31
393.208	425.31
393.433	409.31
393.658	413.31
393.882	406.31
394.107	404.31
394.331	417.31
394.556	388.31
394.78	407.31
395.005	413.31
395.229	435.31
395.454	439.31
395.678	415.31
395.903	424.31
396.127	462.31
396.352	455.31
396.576	431.31
396.801	436.31
397.025	433.31
397.249	410.31
397.474	411.31
397.698	417.31
397.922	455.31
398.147	455.31
398.371	459.31
398.595	462.31
398.82	469.31
399.044	474.31
399.268	477.31
399.492	483.31
399.717	522.31
399.941	522.31
400.165	555.31
400.389	569.31
400.613	524.31
400.837	472.31
401.062	481.31
401.286	481.31
401.51	465.31
401.734	454.31
401.958	474.31
402.182	471.31
402.406	459.31
402.63	494.31
402.854	482.31
403.078	459.31
403.302	456.31
403.526	487.31
403.75	484.31
403.974	455.31
404.198	472.31
404.422	470.31
404.645	487.31
404.869	472.31
405.093	488.31
405.317	527.31
405.541	550.31
405.765	532.31
405.988	493.31
406.212	523.31
406.436	532.31
406.66	553.31
406.883	525.31
407.107	551.31
407.331	609.31
407.555	673.31
407.778	659.31
408.002	580.31
408.226	527.31
408.449	512.31
408.673	519.31
408.896	560.31
409.12	590.31
409.344	550.31
409.567	502.31
409.791	498.31
410.014	471.31
410.238	488.31
410.461	472.31
410.685	481.31
410.908	481.31
411.132	506.31
411.355	560.31
411.578	543.31
411.802	499.31
412.025	470.31
412.249	460.31
412.472	479.31
412.695	487.31
412.919	471.31
413.142	475.31
413.365	478.31
413.589	443.31
413.812	459.31
414.035	427.31
414.258	438.31
414.482	456.31
414.705	453.31
414.928	425.31
415.151	454.31
415.374	431.31
415.597	441.31
415.821	436.31
416.044	420.31
416.267	452.31
416.49	482.31
416.713	450.31
416.936	422.31
417.159	444.31
417.382	450.31
417.605	459.31
417.828	464.31
418.051	489.31
418.274	473.31
418.497	444.31
418.72	449.31
418.943	462.31
419.166	445.31
419.389	498.31
419.611	478.31
419.834	449.31
420.057	468.31
420.28	482.31
420.503	475.31
420.726	450.31
420.948	470.31
421.171	524.31
421.394	556.31
421.617	499.31
421.839	471.31
422.062	457.31
422.285	491.31
422.507	514.31
422.73	618.31
422.953	609.31
423.175	538.31
423.398	503.31
423.621	497.31
423.843	514.31
424.066	522.31
424.288	508.31
424.511	542.31
424.733	590.31
424.956	658.31
425.178	663.31
425.401	636.31
425.623	673.31
425.846	561.31
426.068	520.31
426.291	544.31
426.513	533.31
426.735	524.31
426.958	565.31
427.18	656.31
427.402	770.31
427.625	850.31
427.847	755.31
428.069	650.31
428.292	579.31
428.514	526.31
428.736	519.31
428.958	502.31
429.181	479.31
429.403	479.31
429.625	466.31
429.847	524.31
430.069	584.31
430.292	571.31
430.514	518.31
430.736	487.31
430.958	468.31
431.18	454.31
431.402	434.31
431.624	442.31
431.846	444.31
432.068	451.31
432.29	443.31
432.512	442.31
432.734	461.31
432.956	450.31
433.178	486.31
433.4	466.31
433.622	450.31
433.844	439.31
434.066	445.31
434.287	445.31
434.509	450.31
434.731	460.31
434.953	456.31
435.175	451.31
435.397	485.31
435.618	523.31
435.84	549.31
436.062	647.31
436.284	715.31
436.505	612.31
436.727	523.31
436.949	495.31
437.17	483.31
437.392	466.31
437.614	494.31
437.835	517.31
438.057	632.31
438.278	741.31
438.5	734.31
438.721	769.31
438.943	763.31
439.165	586.31
439.386	542.31
439.608	517.31
439.829	515.31
440.05	568.31
440.272	606.31
440.493	578.31
440.715	533.31
440.936	514.31
441.158	516.31
441.379	468.31
441.6	497.31
441.822	519.31
442.043	559.31
442.264	638.31
442.486	693.31
442.707	584.31
442.928	544.31
443.149	529.31
443.371	552.31
443.592	608.31
443.813	723.31
444.034	744.31
444.255	622.31
444.476	548.31
444.698	530.31
444.919	522.31
445.14	627.31
445.361	585.31
445.582	566.31
445.803	671.31
446.024	755.31
446.245	742.31
446.466	667.31
446.687	584.31
446.908	524.31
447.129	498.31
447.35	476.31
447.571	492.31
447.792	476.31
448.013	491.31
448.234	510.31
448.455	570.31
448.675	679.31
448.896	787.31
449.117	689.31
449.338	650.31
449.559	749.31
449.779	851.31
450	686.31
450.221	535.31
450.442	478.31
450.662	471.31
450.883	490.31
451.104	504.31
451.324	481.31
451.545	457.31
451.766	473.31
451.986	450.31
452.207	420.31
452.428	425.31
452.648	420.31
452.869	437.31
453.089	450.31
453.31	465.31
453.53	438.31
453.751	440.31
453.971	424.31
454.192	444.31
454.412	440.31
454.633	446.31
454.853	428.31
455.073	409.31
455.294	459.31
455.514	515.31
455.734	507.31
455.955	431.31
456.175	423.31
456.395	407.31
456.616	417.31
456.836	402.31
457.056	378.31
457.276	379.31
457.497	408.31
457.717	417.31
457.937	398.31
458.157	411.31
458.377	431.31
458.598	442.31
458.818	499.31
459.038	590.31
459.258	597.31
459.478	496.31
459.698	466.31
459.918	447.31
460.138	421.31
460.358	432.31
460.578	428.31
460.798	447.31
461.018	440.31
461.238	432.31
461.458	431.31
461.678	426.31
461.898	458.31
462.118	425.31
462.338	438.31
462.558	442.31
462.777	455.31
462.997	454.31
463.217	449.31
463.437	484.31
463.657	468.31
463.876	459.31
464.096	484.31
464.316	443.31
464.536	475.31
464.755	471.31
464.975	492.31
465.195	549.31
465.414	614.31
465.634	541.31
465.854	482.31
466.073	471.31
466.293	452.31
466.512	436.31
466.732	434.31
466.951	426.31
467.171	448.31
467.391	422.31
467.61	459.31
467.829	440.31
468.049	416.31
468.268	438.31
468.488	433.31
468.707	413.31
468.927	414.31
469.146	401.31
469.365	423.31
469.585	405.31
469.804	432.31
470.023	425.31
470.243	442.31
470.462	450.31
470.681	473.31
470.901	471.31
471.12	439.31
471.339	434.31
471.558	444.31
471.777	411.31
471.997	406.31
472.216	422.31
472.435	442.31
472.654	440.31
472.873	445.31
473.092	409.31
473.311	432.31
473.53	427.31
473.749	437.31
473.968	494.31
474.187	604.31
474.406	620.31
474.625	495.31
474.844	424.31
475.063	436.31
475.282	444.31
475.501	427.31
475.72	425.31
475.939	443.31
476.158	452.31
476.377	447.31
476.596	464.31
476.814	459.31
477.033	469.31
477.252	461.31
477.471	461.31
477.69	461.31
477.908	473.31
478.127	465.31
478.346	474.31
478.564	459.31
478.783	471.31
479.002	491.31
479.22	490.31
479.439	505.31
479.658	520.31
479.876	536.31
480.095	523.31
480.313	551.31
480.532	551.31
480.751	527.31
480.969	540.31
481.188	551.31
481.406	547.31
481.624	544.31
481.843	525.31
482.061	536.31
482.28	517.31
482.498	519.31
482.717	491.31
482.935	506.31
483.153	512.31
483.372	524.31
483.59	491.31
483.808	496.31
484.027	507.31
484.245	494.31
484.463	520.31
484.681	522.31
484.9	491.31
485.118	519.31
485.336	534.31
485.554	542.31
485.772	534.31
485.99	534.31
486.209	530.31
486.427	533.31
486.645	560.31
486.863	555.31
487.081	554.31
487.299	554.31
487.517	553.31
487.735	546.31
487.953	572.31
488.171	580.31
488.389	553.31
488.607	560.31
488.825	546.31
489.043	533.31
489.261	571.31
489.479	556.31
489.696	566.31
489.914	564.31
490.132	556.31
490.35	575.31
490.568	595.31
490.786	591.31
491.003	593.31
491.221	605.31
491.439	616.31
491.657	611.31
491.874	630.31
492.092	630.31
492.31	646.31
492.527	626.31
492.745	630.31
492.963	631.31
493.18	659.31
493.398	633.31
493.615	653.31
493.833	665.31
494.05	660.31
494.268	675.31
494.485	633.31
494.703	658.31
494.92	663.31
495.138	632.31
495.355	655.31
495.573	702.31
495.79	640.31
496.008	674.31
496.225	661.31
496.442	646.31
496.66	654.31
496.877	642.31
497.094	654.31
497.312	653.31
497.529	672.31
497.746	679.31
497.963	683.31
498.181	697.31
498.398	727.31
498.615	731.31
498.832	752.31
499.049	734.31
499.267	738.31
499.484	742.31
499.701	758.31
499.918	818.31
500.135	826.31
500.352	838.31
500.569	852.31
500.786	853.31
501.003	857.31
501.22	810.31
501.437	804.31
501.654	799.31
501.871	791.31
