Data from 1989.PennyLincolnUp.Lamp.En5.5.200Scan.071819.P2_HRD10591_17-26-22-973.txt Node
Date: Thu Jul 18 17:26:22 EDT 2019
User: cochatt
Spectrometer: HR+D1059
Trigger mode: 1
Integration Time (sec): 1.000000E-1
Scans to average: 1
Electric dark correction enabled: true
Nonlinearity correction enabled: false
Boxcar width: 0
XAxis mode: Wavelengths
Number of Pixels in Spectrum: 2048
>>>>>Begin Spectral Data<<<<<
223.165	-4.06
223.4	-4.06
223.635	-4.06
223.869	-13.06
224.104	-14.06
224.338	-22.06
224.573	-5.06
224.808	-18.06
225.042	-6.06
225.277	-9.06
225.511	-1.06
225.746	5.94
225.98	6.94
226.215	14.94
226.449	12.94
226.683	17.94
226.918	9.94
227.152	23.94
227.387	27.94
227.621	44.94
227.856	38.94
228.09	49.94
228.324	59.94
228.559	54.94
228.793	72.94
229.027	101.94
229.262	115.94
229.496	121.94
229.73	138.94
229.964	153.94
230.199	129.94
230.433	123.94
230.667	127.94
230.901	111.94
231.136	107.94
231.37	108.94
231.604	108.94
231.838	126.94
232.072	120.94
232.306	128.94
232.541	130.94
232.775	122.94
233.009	125.94
233.243	123.94
233.477	124.94
233.711	118.94
233.945	117.94
234.179	123.94
234.413	120.94
234.647	126.94
234.881	127.94
235.115	119.94
235.349	121.94
235.583	121.94
235.817	125.94
236.051	117.94
236.285	134.94
236.519	128.94
236.753	149.94
236.987	163.94
237.221	199.94
237.455	272.94
237.689	216.94
237.922	145.94
238.156	142.94
238.39	134.94
238.624	146.94
238.858	125.94
239.091	135.94
239.325	133.94
239.559	138.94
239.793	124.94
240.027	142.94
240.26	160.94
240.494	160.94
240.728	170.94
240.961	170.94
241.195	141.94
241.429	150.94
241.662	140.94
241.896	152.94
242.13	130.94
242.363	142.94
242.597	138.94
242.83	153.94
243.064	139.94
243.298	135.94
243.531	141.94
243.765	152.94
243.998	155.94
244.232	151.94
244.465	147.94
244.699	157.94
244.932	147.94
245.166	154.94
245.399	176.94
245.633	153.94
245.866	154.94
246.099	157.94
246.333	168.94
246.566	174.94
246.8	164.94
247.033	158.94
247.266	161.94
247.5	185.94
247.733	157.94
247.966	187.94
248.2	210.94
248.433	189.94
248.666	205.94
248.899	211.94
249.133	210.94
249.366	235.94
249.599	207.94
249.832	216.94
250.066	206.94
250.299	205.94
250.532	221.94
250.765	234.94
250.998	247.94
251.231	266.94
251.465	244.94
251.698	242.94
251.931	202.94
252.164	231.94
252.397	220.94
252.63	226.94
252.863	221.94
253.096	252.94
253.329	254.94
253.562	269.94
253.795	243.94
254.028	241.94
254.261	241.94
254.494	263.94
254.727	296.94
254.96	312.94
255.193	300.94
255.426	279.94
255.659	284.94
255.892	290.94
256.124	308.94
256.357	290.94
256.59	292.94
256.823	276.94
257.056	263.94
257.289	256.94
257.521	234.94
257.754	253.94
257.987	235.94
258.22	240.94
258.452	242.94
258.685	234.94
258.918	228.94
259.151	230.94
259.383	237.94
259.616	246.94
259.849	240.94
260.081	264.94
260.314	268.94
260.547	298.94
260.779	267.94
261.012	281.94
261.244	246.94
261.477	258.94
261.71	242.94
261.942	262.94
262.175	260.94
262.407	268.94
262.64	243.94
262.872	245.94
263.105	225.94
263.337	241.94
263.57	251.94
263.802	254.94
264.035	246.94
264.267	250.94
264.499	241.94
264.732	233.94
264.964	234.94
265.197	209.94
265.429	241.94
265.661	240.94
265.894	228.94
266.126	249.94
266.358	225.94
266.591	244.94
266.823	253.94
267.055	265.94
267.287	262.94
267.52	272.94
267.752	254.94
267.984	252.94
268.216	252.94
268.448	250.94
268.681	261.94
268.913	282.94
269.145	280.94
269.377	309.94
269.609	298.94
269.841	295.94
270.073	318.94
270.306	332.94
270.538	355.94
270.77	346.94
271.002	352.94
271.234	333.94
271.466	332.94
271.698	352.94
271.93	359.94
272.162	358.94
272.394	368.94
272.626	341.94
272.858	314.94
273.09	326.94
273.322	314.94
273.553	312.94
273.785	298.94
274.017	298.94
274.249	298.94
274.481	298.94
274.713	287.94
274.945	294.94
275.176	301.94
275.408	316.94
275.64	312.94
275.872	312.94
276.104	292.94
276.335	288.94
276.567	301.94
276.799	320.94
277.031	357.94
277.262	369.94
277.494	364.94
277.726	349.94
277.957	334.94
278.189	319.94
278.421	305.94
278.652	311.94
278.884	303.94
279.115	296.94
279.347	301.94
279.579	315.94
279.81	299.94
280.042	289.94
280.273	306.94
280.505	325.94
280.736	298.94
280.968	297.94
281.199	295.94
281.431	265.94
281.662	298.94
281.894	301.94
282.125	289.94
282.356	286.94
282.588	355.94
282.819	353.94
283.051	320.94
283.282	294.94
283.513	319.94
283.745	326.94
283.976	304.94
284.207	310.94
284.439	313.94
284.67	319.94
284.901	309.94
285.132	321.94
285.364	309.94
285.595	294.94
285.826	284.94
286.057	317.94
286.288	313.94
286.52	318.94
286.751	299.94
286.982	320.94
287.213	304.94
287.444	316.94
287.675	323.94
287.906	335.94
288.138	339.94
288.369	324.94
288.6	332.94
288.831	330.94
289.062	312.94
289.293	342.94
289.524	327.94
289.755	312.94
289.986	311.94
290.217	330.94
290.448	322.94
290.679	323.94
290.91	325.94
291.141	301.94
291.371	304.94
291.602	327.94
291.833	305.94
292.064	330.94
292.295	312.94
292.526	325.94
292.757	328.94
292.987	306.94
293.218	306.94
293.449	322.94
293.68	323.94
293.91	305.94
294.141	314.94
294.372	337.94
294.603	309.94
294.833	309.94
295.064	332.94
295.295	318.94
295.525	330.94
295.756	333.94
295.987	347.94
296.217	349.94
296.448	366.94
296.679	356.94
296.909	319.94
297.14	316.94
297.37	330.94
297.601	342.94
297.831	322.94
298.062	331.94
298.292	328.94
298.523	352.94
298.753	331.94
298.984	317.94
299.214	335.94
299.445	346.94
299.675	343.94
299.905	344.94
300.136	348.94
300.366	333.94
300.597	338.94
300.827	360.94
301.057	345.94
301.288	354.94
301.518	352.94
301.748	349.94
301.979	364.94
302.209	378.94
302.439	375.94
302.669	355.94
302.9	358.94
303.13	371.94
303.36	352.94
303.59	380.94
303.82	373.94
304.051	360.94
304.281	368.94
304.511	362.94
304.741	345.94
304.971	352.94
305.201	357.94
305.431	354.94
305.661	379.94
305.891	359.94
306.121	352.94
306.352	377.94
306.582	370.94
306.812	369.94
307.042	370.94
307.272	366.94
307.502	376.94
307.731	365.94
307.961	376.94
308.191	364.94
308.421	363.94
308.651	356.94
308.881	370.94
309.111	375.94
309.341	375.94
309.571	374.94
309.8	387.94
310.03	396.94
310.26	416.94
310.49	404.94
310.72	420.94
310.949	429.94
311.179	434.94
311.409	422.94
311.639	412.94
311.868	412.94
312.098	425.94
312.328	456.94
312.557	443.94
312.787	451.94
313.017	453.94
313.246	445.94
313.476	434.94
313.706	442.94
313.935	419.94
314.165	424.94
314.394	463.94
314.624	438.94
314.853	427.94
315.083	430.94
315.312	402.94
315.542	419.94
315.771	399.94
316.001	405.94
316.23	438.94
316.46	414.94
316.689	395.94
316.919	437.94
317.148	433.94
317.377	439.94
317.607	445.94
317.836	430.94
318.065	436.94
318.295	407.94
318.524	422.94
318.753	411.94
318.983	421.94
319.212	408.94
319.441	418.94
319.67	444.94
319.9	418.94
320.129	433.94
320.358	425.94
320.587	398.94
320.816	430.94
321.046	454.94
321.275	469.94
321.504	443.94
321.733	457.94
321.962	462.94
322.191	464.94
322.42	486.94
322.649	509.94
322.878	516.94
323.108	534.94
323.337	541.94
323.566	581.94
323.795	594.94
324.024	692.94
324.253	820.94
324.482	1192.94
324.71	1834.94
324.939	2602.94
325.168	2308.94
325.397	1160.94
325.626	758.94
325.855	638.94
326.084	605.94
326.313	571.94
326.542	587.94
326.77	651.94
326.999	754.94
327.228	1060.94
327.457	1586.94
327.686	1971.94
327.914	1336.94
328.143	893.94
328.372	769.94
328.6	694.94
328.829	666.94
329.058	666.94
329.287	683.94
329.515	645.94
329.744	619.94
329.972	605.94
330.201	647.94
330.43	749.94
330.658	731.94
330.887	755.94
331.115	710.94
331.344	610.94
331.572	580.94
331.801	574.94
332.03	565.94
332.258	546.94
332.486	522.94
332.715	507.94
332.943	548.94
333.172	518.94
333.4	528.94
333.629	510.94
333.857	557.94
334.085	564.94
334.314	609.94
334.542	697.94
334.771	719.94
334.999	633.94
335.227	539.94
335.455	541.94
335.684	516.94
335.912	508.94
336.14	505.94
336.369	492.94
336.597	504.94
336.825	493.94
337.053	512.94
337.281	469.94
337.51	468.94
337.738	464.94
337.966	464.94
338.194	478.94
338.422	479.94
338.65	458.94
338.878	480.94
339.106	450.94
339.334	472.94
339.562	450.94
339.79	453.94
340.018	457.94
340.246	476.94
340.474	477.94
340.702	463.94
340.93	446.94
341.158	459.94
341.386	460.94
341.614	449.94
341.842	455.94
342.07	451.94
342.298	468.94
342.526	451.94
342.754	429.94
342.981	430.94
343.209	424.94
343.437	458.94
343.665	427.94
343.893	444.94
344.12	466.94
344.348	464.94
344.576	443.94
344.804	488.94
345.031	465.94
345.259	472.94
345.487	473.94
345.714	455.94
345.942	449.94
346.17	429.94
346.397	440.94
346.625	448.94
346.853	440.94
347.08	451.94
347.308	453.94
347.535	470.94
347.763	463.94
347.99	452.94
348.218	465.94
348.445	464.94
348.673	477.94
348.9	454.94
349.128	465.94
349.355	436.94
349.583	436.94
349.81	429.94
350.037	422.94
350.265	393.94
350.492	425.94
350.72	430.94
350.947	424.94
351.174	476.94
351.402	450.94
351.629	458.94
351.856	448.94
352.083	467.94
352.311	453.94
352.538	461.94
352.765	457.94
352.992	452.94
353.22	441.94
353.447	456.94
353.674	433.94
353.901	422.94
354.128	409.94
354.355	412.94
354.583	407.94
354.81	414.94
355.037	411.94
355.264	393.94
355.491	416.94
355.718	411.94
355.945	398.94
356.172	415.94
356.399	414.94
356.626	412.94
356.853	407.94
357.08	399.94
357.307	427.94
357.534	410.94
357.761	424.94
357.988	429.94
358.215	427.94
358.441	413.94
358.668	405.94
358.895	425.94
359.122	434.94
359.349	423.94
359.576	432.94
359.802	457.94
360.029	494.94
360.256	515.94
360.483	479.94
360.709	448.94
360.936	449.94
361.163	446.94
361.39	434.94
361.616	438.94
361.843	436.94
362.07	444.94
362.296	450.94
362.523	437.94
362.749	432.94
362.976	436.94
363.203	419.94
363.429	419.94
363.656	416.94
363.882	405.94
364.109	408.94
364.335	405.94
364.562	400.94
364.788	424.94
365.015	414.94
365.241	405.94
365.468	420.94
365.694	408.94
365.92	408.94
366.147	410.94
366.373	413.94
366.599	420.94
366.826	421.94
367.052	401.94
367.278	388.94
367.505	384.94
367.731	402.94
367.957	412.94
368.184	409.94
368.41	427.94
368.636	435.94
368.862	416.94
369.089	428.94
369.315	404.94
369.541	413.94
369.767	405.94
369.993	423.94
370.219	408.94
370.445	400.94
370.672	404.94
370.898	394.94
371.124	408.94
371.35	413.94
371.576	395.94
371.802	377.94
372.028	406.94
372.254	386.94
372.48	370.94
372.706	404.94
372.932	398.94
373.158	399.94
373.384	406.94
373.61	407.94
373.835	435.94
374.061	401.94
374.287	422.94
374.513	413.94
374.739	413.94
374.965	407.94
375.191	409.94
375.416	419.94
375.642	407.94
375.868	412.94
376.094	387.94
376.319	416.94
376.545	410.94
376.771	375.94
376.997	390.94
377.222	404.94
377.448	402.94
377.674	406.94
377.899	402.94
378.125	395.94
378.35	374.94
378.576	405.94
378.802	405.94
379.027	388.94
379.253	396.94
379.478	393.94
379.704	399.94
379.929	386.94
380.155	410.94
380.38	402.94
380.606	414.94
380.831	390.94
381.057	379.94
381.282	397.94
381.507	375.94
381.733	415.94
381.958	398.94
382.184	395.94
382.409	423.94
382.634	388.94
382.86	398.94
383.085	400.94
383.31	410.94
383.535	411.94
383.761	385.94
383.986	396.94
384.211	405.94
384.436	396.94
384.662	424.94
384.887	433.94
385.112	409.94
385.337	404.94
385.562	414.94
385.787	399.94
386.013	416.94
386.238	430.94
386.463	444.94
386.688	418.94
386.913	402.94
387.138	418.94
387.363	413.94
387.588	408.94
387.813	432.94
388.038	424.94
388.263	422.94
388.488	424.94
388.713	437.94
388.938	432.94
389.163	420.94
389.387	453.94
389.612	418.94
389.837	417.94
390.062	405.94
390.287	398.94
390.512	388.94
390.736	429.94
390.961	421.94
391.186	442.94
391.411	416.94
391.636	417.94
391.86	413.94
392.085	433.94
392.31	420.94
392.534	406.94
392.759	423.94
392.984	422.94
393.208	421.94
393.433	406.94
393.658	406.94
393.882	412.94
394.107	412.94
394.331	400.94
394.556	422.94
394.78	424.94
395.005	401.94
395.229	408.94
395.454	440.94
395.678	429.94
395.903	444.94
396.127	452.94
396.352	452.94
396.576	441.94
396.801	411.94
397.025	404.94
397.249	439.94
397.474	441.94
397.698	454.94
397.922	465.94
398.147	474.94
398.371	478.94
398.595	477.94
398.82	470.94
399.044	451.94
399.268	493.94
399.492	484.94
399.717	534.94
399.941	527.94
400.165	575.94
400.389	588.94
400.613	535.94
400.837	496.94
401.062	470.94
401.286	490.94
401.51	485.94
401.734	469.94
401.958	482.94
402.182	496.94
402.406	521.94
402.63	488.94
402.854	489.94
403.078	471.94
403.302	496.94
403.526	499.94
403.75	499.94
403.974	462.94
404.198	491.94
404.422	498.94
404.645	492.94
404.869	502.94
405.093	556.94
405.317	612.94
405.541	635.94
405.765	594.94
405.988	527.94
406.212	546.94
406.436	576.94
406.66	565.94
406.883	548.94
407.107	543.94
407.331	598.94
407.555	656.94
407.778	650.94
408.002	591.94
408.226	556.94
408.449	567.94
408.673	558.94
408.896	571.94
409.12	599.94
409.344	590.94
409.567	519.94
409.791	525.94
410.014	480.94
410.238	483.94
410.461	479.94
410.685	480.94
410.908	526.94
411.132	548.94
411.355	566.94
411.578	570.94
411.802	529.94
412.025	506.94
412.249	512.94
412.472	562.94
412.695	633.94
412.919	603.94
413.142	543.94
413.365	509.94
413.589	484.94
413.812	496.94
414.035	470.94
414.258	491.94
414.482	473.94
414.705	466.94
414.928	455.94
415.151	444.94
415.374	451.94
415.597	472.94
415.821	444.94
416.044	461.94
416.267	483.94
416.49	468.94
416.713	457.94
416.936	485.94
417.159	467.94
417.382	450.94
417.605	468.94
417.828	476.94
418.051	506.94
418.274	479.94
418.497	480.94
418.72	455.94
418.943	459.94
419.166	481.94
419.389	496.94
419.611	491.94
419.834	496.94
420.057	504.94
420.28	511.94
420.503	516.94
420.726	503.94
420.948	524.94
421.171	556.94
421.394	572.94
421.617	523.94
421.839	492.94
422.062	503.94
422.285	497.94
422.507	554.94
422.73	619.94
422.953	616.94
423.175	544.94
423.398	519.94
423.621	512.94
423.843	525.94
424.066	525.94
424.288	515.94
424.511	541.94
424.733	606.94
424.956	686.94
425.178	675.94
425.401	672.94
425.623	670.94
425.846	580.94
426.068	551.94
426.291	525.94
426.513	523.94
426.735	555.94
426.958	573.94
427.18	670.94
427.402	784.94
427.625	886.94
427.847	820.94
428.069	697.94
428.292	612.94
428.514	556.94
428.736	522.94
428.958	505.94
429.181	499.94
429.403	488.94
429.625	502.94
429.847	544.94
430.069	591.94
430.292	611.94
430.514	527.94
430.736	514.94
430.958	493.94
431.18	484.94
431.402	464.94
431.624	457.94
431.846	470.94
432.068	472.94
432.29	451.94
432.512	447.94
432.734	467.94
432.956	447.94
433.178	473.94
433.4	493.94
433.622	466.94
433.844	461.94
434.066	454.94
434.287	461.94
434.509	459.94
434.731	455.94
434.953	483.94
435.175	485.94
435.397	495.94
435.618	530.94
435.84	589.94
436.062	690.94
436.284	731.94
436.505	608.94
436.727	544.94
436.949	501.94
437.17	506.94
437.392	485.94
437.614	482.94
437.835	546.94
438.057	659.94
438.278	736.94
438.5	738.94
438.721	802.94
438.943	770.94
439.165	620.94
439.386	569.94
439.608	558.94
439.829	544.94
440.05	574.94
440.272	625.94
440.493	587.94
440.715	556.94
440.936	517.94
441.158	515.94
441.379	492.94
441.6	503.94
441.822	550.94
442.043	553.94
442.264	644.94
442.486	716.94
442.707	602.94
442.928	550.94
443.149	549.94
443.371	577.94
443.592	606.94
443.813	723.94
444.034	778.94
444.255	622.94
444.476	552.94
444.698	544.94
444.919	529.94
445.14	634.94
445.361	570.94
445.582	594.94
445.803	673.94
446.024	759.94
446.245	761.94
446.466	697.94
446.687	597.94
446.908	534.94
447.129	515.94
447.35	499.94
447.571	494.94
447.792	502.94
448.013	542.94
448.234	529.94
448.455	580.94
448.675	690.94
448.896	770.94
449.117	667.94
449.338	648.94
449.559	717.94
449.779	842.94
450	680.94
450.221	540.94
450.442	513.94
450.662	489.94
450.883	479.94
451.104	523.94
451.324	501.94
451.545	474.94
451.766	467.94
451.986	426.94
452.207	440.94
452.428	447.94
452.648	444.94
452.869	445.94
453.089	441.94
453.31	473.94
453.53	467.94
453.751	453.94
453.971	448.94
454.192	462.94
454.412	458.94
454.633	441.94
454.853	426.94
455.073	436.94
455.294	466.94
455.514	544.94
455.734	535.94
455.955	451.94
456.175	424.94
456.395	400.94
456.616	401.94
456.836	423.94
457.056	399.94
457.276	393.94
457.497	428.94
457.717	416.94
457.937	407.94
458.157	423.94
458.377	450.94
458.598	448.94
458.818	515.94
459.038	621.94
459.258	602.94
459.478	501.94
459.698	466.94
459.918	463.94
460.138	449.94
460.358	461.94
460.578	435.94
460.798	442.94
461.018	459.94
461.238	452.94
461.458	447.94
461.678	427.94
461.898	451.94
462.118	441.94
462.338	455.94
462.558	464.94
462.777	459.94
462.997	472.94
463.217	471.94
463.437	504.94
463.657	497.94
463.876	466.94
464.096	473.94
464.316	499.94
464.536	483.94
464.755	482.94
464.975	493.94
465.195	535.94
465.414	610.94
465.634	562.94
465.854	510.94
466.073	473.94
466.293	459.94
466.512	472.94
466.732	448.94
466.951	447.94
467.171	441.94
467.391	421.94
467.61	436.94
467.829	453.94
468.049	465.94
468.268	466.94
468.488	450.94
468.707	434.94
468.927	442.94
469.146	430.94
469.365	439.94
469.585	437.94
469.804	461.94
470.023	442.94
470.243	439.94
470.462	450.94
470.681	456.94
470.901	462.94
471.12	461.94
471.339	472.94
471.558	460.94
471.777	473.94
471.997	424.94
472.216	478.94
472.435	571.94
472.654	524.94
472.873	481.94
473.092	468.94
473.311	453.94
473.53	452.94
473.749	460.94
473.968	482.94
474.187	628.94
474.406	660.94
474.625	520.94
474.844	490.94
475.063	449.94
475.282	438.94
475.501	461.94
475.72	457.94
475.939	444.94
476.158	455.94
476.377	461.94
476.596	462.94
476.814	456.94
477.033	466.94
477.252	462.94
477.471	471.94
477.69	477.94
477.908	502.94
478.127	498.94
478.346	470.94
478.564	504.94
478.783	501.94
479.002	522.94
479.22	512.94
479.439	521.94
479.658	539.94
479.876	546.94
480.095	558.94
480.313	570.94
480.532	580.94
480.751	573.94
480.969	591.94
481.188	718.94
481.406	788.94
481.624	626.94
481.843	580.94
482.061	534.94
482.28	551.94
482.498	537.94
482.717	541.94
482.935	545.94
483.153	536.94
483.372	535.94
483.59	517.94
483.808	536.94
484.027	560.94
484.245	525.94
484.463	515.94
484.681	548.94
484.9	545.94
485.118	555.94
485.336	549.94
485.554	540.94
485.772	555.94
485.99	544.94
486.209	584.94
486.427	565.94
486.645	577.94
486.863	590.94
487.081	560.94
487.299	569.94
487.517	586.94
487.735	556.94
487.953	580.94
488.171	574.94
488.389	569.94
488.607	555.94
488.825	577.94
489.043	556.94
489.261	594.94
489.479	580.94
489.696	582.94
489.914	592.94
490.132	622.94
490.35	612.94
490.568	611.94
490.786	631.94
491.003	624.94
491.221	635.94
491.439	661.94
491.657	678.94
491.874	668.94
492.092	682.94
492.31	690.94
492.527	685.94
492.745	685.94
492.963	659.94
493.18	698.94
493.398	681.94
493.615	694.94
493.833	688.94
494.05	688.94
494.268	685.94
494.485	695.94
494.703	682.94
494.92	692.94
495.138	667.94
495.355	698.94
495.573	691.94
495.79	696.94
496.008	712.94
496.225	719.94
496.442	676.94
496.66	692.94
496.877	695.94
497.094	693.94
497.312	688.94
497.529	685.94
497.746	713.94
497.963	702.94
498.181	754.94
498.398	723.94
498.615	732.94
498.832	762.94
499.049	764.94
499.267	760.94
499.484	779.94
499.701	793.94
499.918	804.94
500.135	820.94
500.352	882.94
500.569	865.94
500.786	874.94
501.003	880.94
501.22	872.94
501.437	845.94
501.654	850.94
501.871	841.94
