Data from 1989.PennyLincolnUp.Lamp.En5.5.200Scan.071819.P2_HRD10591_17-23-09-973.txt Node
Date: Thu Jul 18 17:23:09 EDT 2019
User: cochatt
Spectrometer: HR+D1059
Trigger mode: 1
Integration Time (sec): 1.000000E-1
Scans to average: 1
Electric dark correction enabled: true
Nonlinearity correction enabled: false
Boxcar width: 0
XAxis mode: Wavelengths
Number of Pixels in Spectrum: 2048
>>>>>Begin Spectral Data<<<<<
223.165	-4.06
223.4	-4.06
223.635	-4.06
223.869	-20.06
224.104	-21.06
224.338	-29.06
224.573	-20.06
224.808	-12.06
225.042	-22.06
225.277	-2.06
225.511	-13.06
225.746	10.94
225.98	8.94
226.215	11.94
226.449	24.94
226.683	35.94
226.918	19.94
227.152	30.94
227.387	47.94
227.621	52.94
227.856	40.94
228.09	48.94
228.324	54.94
228.559	59.94
228.793	74.94
229.027	89.94
229.262	105.94
229.496	110.94
229.73	135.94
229.964	154.94
230.199	131.94
230.433	120.94
230.667	125.94
230.901	112.94
231.136	115.94
231.37	110.94
231.604	115.94
231.838	99.94
232.072	116.94
232.306	103.94
232.541	123.94
232.775	110.94
233.009	96.94
233.243	114.94
233.477	104.94
233.711	120.94
233.945	104.94
234.179	122.94
234.413	125.94
234.647	116.94
234.881	119.94
235.115	102.94
235.349	107.94
235.583	122.94
235.817	129.94
236.051	121.94
236.285	115.94
236.519	112.94
236.753	123.94
236.987	131.94
237.221	148.94
237.455	200.94
237.689	170.94
237.922	126.94
238.156	122.94
238.39	115.94
238.624	142.94
238.858	123.94
239.091	109.94
239.325	128.94
239.559	120.94
239.793	111.94
240.027	137.94
240.26	112.94
240.494	145.94
240.728	139.94
240.961	126.94
241.195	139.94
241.429	133.94
241.662	125.94
241.896	120.94
242.13	123.94
242.363	126.94
242.597	127.94
242.83	116.94
243.064	117.94
243.298	124.94
243.531	139.94
243.765	119.94
243.998	112.94
244.232	115.94
244.465	141.94
244.699	124.94
244.932	116.94
245.166	119.94
245.399	145.94
245.633	131.94
245.866	122.94
246.099	133.94
246.333	127.94
246.566	125.94
246.8	117.94
247.033	145.94
247.266	144.94
247.5	141.94
247.733	172.94
247.966	153.94
248.2	190.94
248.433	175.94
248.666	159.94
248.899	169.94
249.133	182.94
249.366	193.94
249.599	187.94
249.832	162.94
250.066	159.94
250.299	158.94
250.532	163.94
250.765	181.94
250.998	188.94
251.231	191.94
251.465	168.94
251.698	164.94
251.931	169.94
252.164	168.94
252.397	147.94
252.63	168.94
252.863	160.94
253.096	164.94
253.329	178.94
253.562	181.94
253.795	177.94
254.028	190.94
254.261	179.94
254.494	173.94
254.727	208.94
254.96	214.94
255.193	228.94
255.426	193.94
255.659	179.94
255.892	171.94
256.124	169.94
256.357	167.94
256.59	187.94
256.823	181.94
257.056	193.94
257.289	176.94
257.521	192.94
257.754	175.94
257.987	176.94
258.22	174.94
258.452	159.94
258.685	171.94
258.918	167.94
259.151	184.94
259.383	210.94
259.616	183.94
259.849	197.94
260.081	202.94
260.314	237.94
260.547	218.94
260.779	201.94
261.012	215.94
261.244	196.94
261.477	189.94
261.71	212.94
261.942	233.94
262.175	235.94
262.407	240.94
262.64	207.94
262.872	207.94
263.105	197.94
263.337	205.94
263.57	192.94
263.802	187.94
264.035	200.94
264.267	183.94
264.499	191.94
264.732	199.94
264.964	197.94
265.197	181.94
265.429	199.94
265.661	187.94
265.894	199.94
266.126	198.94
266.358	204.94
266.591	187.94
266.823	189.94
267.055	208.94
267.287	195.94
267.52	201.94
267.752	207.94
267.984	202.94
268.216	192.94
268.448	206.94
268.681	198.94
268.913	209.94
269.145	235.94
269.377	226.94
269.609	238.94
269.841	235.94
270.073	240.94
270.306	237.94
270.538	266.94
270.77	268.94
271.002	244.94
271.234	228.94
271.466	269.94
271.698	267.94
271.93	265.94
272.162	276.94
272.394	264.94
272.626	270.94
272.858	262.94
273.09	251.94
273.322	246.94
273.553	243.94
273.785	230.94
274.017	243.94
274.249	245.94
274.481	236.94
274.713	255.94
274.945	245.94
275.176	244.94
275.408	245.94
275.64	249.94
275.872	244.94
276.104	248.94
276.335	254.94
276.567	259.94
276.799	291.94
277.031	305.94
277.262	302.94
277.494	285.94
277.726	287.94
277.957	248.94
278.189	269.94
278.421	257.94
278.652	274.94
278.884	252.94
279.115	272.94
279.347	297.94
279.579	353.94
279.81	405.94
280.042	354.94
280.273	327.94
280.505	349.94
280.736	305.94
280.968	268.94
281.199	242.94
281.431	231.94
281.662	241.94
281.894	252.94
282.125	260.94
282.356	288.94
282.588	334.94
282.819	328.94
283.051	264.94
283.282	256.94
283.513	239.94
283.745	253.94
283.976	251.94
284.207	248.94
284.439	234.94
284.67	245.94
284.901	267.94
285.132	287.94
285.364	297.94
285.595	307.94
285.826	258.94
286.057	251.94
286.288	258.94
286.52	249.94
286.751	249.94
286.982	234.94
287.213	246.94
287.444	243.94
287.675	259.94
287.906	273.94
288.138	295.94
288.369	298.94
288.6	331.94
288.831	282.94
289.062	274.94
289.293	263.94
289.524	265.94
289.755	264.94
289.986	239.94
290.217	263.94
290.448	262.94
290.679	239.94
290.91	266.94
291.141	244.94
291.371	259.94
291.602	263.94
291.833	259.94
292.064	245.94
292.295	274.94
292.526	256.94
292.757	269.94
292.987	273.94
293.218	256.94
293.449	248.94
293.68	259.94
293.91	254.94
294.141	263.94
294.372	267.94
294.603	270.94
294.833	259.94
295.064	265.94
295.295	266.94
295.525	282.94
295.756	284.94
295.987	273.94
296.217	334.94
296.448	352.94
296.679	299.94
296.909	279.94
297.14	262.94
297.37	266.94
297.601	264.94
297.831	266.94
298.062	267.94
298.292	282.94
298.523	284.94
298.753	275.94
298.984	284.94
299.214	297.94
299.445	294.94
299.675	303.94
299.905	304.94
300.136	318.94
300.366	293.94
300.597	291.94
300.827	303.94
301.057	320.94
301.288	314.94
301.518	317.94
301.748	318.94
301.979	298.94
302.209	312.94
302.439	325.94
302.669	299.94
302.9	293.94
303.13	279.94
303.36	301.94
303.59	303.94
303.82	312.94
304.051	315.94
304.281	302.94
304.511	291.94
304.741	317.94
304.971	295.94
305.201	300.94
305.431	275.94
305.661	310.94
305.891	297.94
306.121	312.94
306.352	306.94
306.582	320.94
306.812	312.94
307.042	310.94
307.272	298.94
307.502	315.94
307.731	300.94
307.961	297.94
308.191	335.94
308.421	322.94
308.651	328.94
308.881	341.94
309.111	357.94
309.341	362.94
309.571	390.94
309.8	383.94
310.03	411.94
310.26	388.94
310.49	399.94
310.72	424.94
310.949	440.94
311.179	433.94
311.409	422.94
311.639	392.94
311.868	382.94
312.098	385.94
312.328	396.94
312.557	452.94
312.787	455.94
313.017	447.94
313.246	392.94
313.476	364.94
313.706	366.94
313.935	387.94
314.165	411.94
314.394	413.94
314.624	425.94
314.853	398.94
315.083	392.94
315.312	353.94
315.542	364.94
315.771	368.94
316.001	372.94
316.23	383.94
316.46	367.94
316.689	393.94
316.919	378.94
317.148	403.94
317.377	398.94
317.607	389.94
317.836	401.94
318.065	418.94
318.295	401.94
318.524	394.94
318.753	380.94
318.983	387.94
319.212	369.94
319.441	395.94
319.67	397.94
319.9	377.94
320.129	376.94
320.358	375.94
320.587	381.94
320.816	396.94
321.046	419.94
321.275	419.94
321.504	396.94
321.733	409.94
321.962	416.94
322.191	437.94
322.42	465.94
322.649	487.94
322.878	538.94
323.108	574.94
323.337	599.94
323.566	646.94
323.795	745.94
324.024	864.94
324.253	1211.94
324.482	1934.94
324.71	3097.94
324.939	4035.94
325.168	3120.94
325.397	1499.94
325.626	933.94
325.855	693.94
326.084	616.94
326.313	639.94
326.542	641.94
326.77	750.94
326.999	1065.94
327.228	1645.94
327.457	2589.94
327.686	2878.94
327.914	1807.94
328.143	1027.94
328.372	844.94
328.6	756.94
328.829	689.94
329.058	729.94
329.287	763.94
329.515	643.94
329.744	573.94
329.972	515.94
330.201	542.94
330.43	607.94
330.658	707.94
330.887	793.94
331.115	745.94
331.344	602.94
331.572	552.94
331.801	541.94
332.03	528.94
332.258	473.94
332.486	443.94
332.715	431.94
332.943	432.94
333.172	419.94
333.4	420.94
333.629	438.94
333.857	451.94
334.085	430.94
334.314	418.94
334.542	424.94
334.771	437.94
334.999	471.94
335.227	442.94
335.455	419.94
335.684	421.94
335.912	404.94
336.14	410.94
336.369	412.94
336.597	444.94
336.825	438.94
337.053	424.94
337.281	398.94
337.51	390.94
337.738	412.94
337.966	426.94
338.194	456.94
338.422	441.94
338.65	427.94
338.878	391.94
339.106	392.94
339.334	374.94
339.562	393.94
339.79	407.94
340.018	420.94
340.246	418.94
340.474	413.94
340.702	417.94
340.93	399.94
341.158	383.94
341.386	420.94
341.614	441.94
341.842	405.94
342.07	397.94
342.298	388.94
342.526	407.94
342.754	368.94
342.981	360.94
343.209	341.94
343.437	357.94
343.665	387.94
343.893	377.94
344.12	390.94
344.348	379.94
344.576	393.94
344.804	407.94
345.031	436.94
345.259	458.94
345.487	427.94
345.714	406.94
345.942	401.94
346.17	401.94
346.397	402.94
346.625	399.94
346.853	382.94
347.08	394.94
347.308	417.94
347.535	416.94
347.763	432.94
347.99	422.94
348.218	412.94
348.445	406.94
348.673	425.94
348.9	379.94
349.128	403.94
349.355	377.94
349.583	377.94
349.81	371.94
350.037	361.94
350.265	373.94
350.492	377.94
350.72	375.94
350.947	380.94
351.174	423.94
351.402	438.94
351.629	426.94
351.856	443.94
352.083	436.94
352.311	464.94
352.538	461.94
352.765	471.94
352.992	419.94
353.22	420.94
353.447	394.94
353.674	381.94
353.901	390.94
354.128	343.94
354.355	366.94
354.583	384.94
354.81	349.94
355.037	353.94
355.264	332.94
355.491	330.94
355.718	317.94
355.945	328.94
356.172	320.94
356.399	333.94
356.626	340.94
356.853	335.94
357.08	346.94
357.307	335.94
357.534	349.94
357.761	336.94
357.988	340.94
358.215	350.94
358.441	361.94
358.668	369.94
358.895	366.94
359.122	360.94
359.349	381.94
359.576	410.94
359.802	443.94
360.029	540.94
360.256	549.94
360.483	480.94
360.709	405.94
360.936	409.94
361.163	425.94
361.39	424.94
361.616	381.94
361.843	395.94
362.07	408.94
362.296	414.94
362.523	383.94
362.749	378.94
362.976	399.94
363.203	381.94
363.429	379.94
363.656	371.94
363.882	360.94
364.109	347.94
364.335	373.94
364.562	365.94
364.788	360.94
365.015	359.94
365.241	369.94
365.468	380.94
365.694	380.94
365.92	378.94
366.147	349.94
366.373	373.94
366.599	365.94
366.826	354.94
367.052	337.94
367.278	351.94
367.505	360.94
367.731	366.94
367.957	357.94
368.184	355.94
368.41	364.94
368.636	382.94
368.862	372.94
369.089	349.94
369.315	349.94
369.541	360.94
369.767	340.94
369.993	337.94
370.219	358.94
370.445	330.94
370.672	326.94
370.898	326.94
371.124	333.94
371.35	313.94
371.576	321.94
371.802	317.94
372.028	328.94
372.254	342.94
372.48	321.94
372.706	304.94
372.932	329.94
373.158	333.94
373.384	325.94
373.61	346.94
373.835	346.94
374.061	352.94
374.287	378.94
374.513	320.94
374.739	334.94
374.965	332.94
375.191	340.94
375.416	337.94
375.642	331.94
375.868	334.94
376.094	356.94
376.319	343.94
376.545	320.94
376.771	338.94
376.997	307.94
377.222	325.94
377.448	314.94
377.674	324.94
377.899	311.94
378.125	323.94
378.35	305.94
378.576	313.94
378.802	336.94
379.027	316.94
379.253	321.94
379.478	331.94
379.704	315.94
379.929	316.94
380.155	333.94
380.38	316.94
380.606	325.94
380.831	335.94
381.057	335.94
381.282	344.94
381.507	339.94
381.733	314.94
381.958	333.94
382.184	344.94
382.409	347.94
382.634	355.94
382.86	344.94
383.085	360.94
383.31	354.94
383.535	376.94
383.761	366.94
383.986	375.94
384.211	379.94
384.436	364.94
384.662	354.94
384.887	355.94
385.112	378.94
385.337	377.94
385.562	390.94
385.787	387.94
386.013	404.94
386.238	421.94
386.463	438.94
386.688	397.94
386.913	379.94
387.138	381.94
387.363	366.94
387.588	371.94
387.813	351.94
388.038	384.94
388.263	410.94
388.488	406.94
388.713	356.94
388.938	326.94
389.163	341.94
389.387	331.94
389.612	329.94
389.837	310.94
390.062	323.94
390.287	311.94
390.512	323.94
390.736	331.94
390.961	325.94
391.186	339.94
391.411	323.94
391.636	337.94
391.86	336.94
392.085	350.94
392.31	362.94
392.534	364.94
392.759	379.94
392.984	450.94
393.208	647.94
393.433	985.94
393.658	973.94
393.882	536.94
394.107	382.94
394.331	387.94
394.556	396.94
394.78	369.94
395.005	366.94
395.229	338.94
395.454	347.94
395.678	357.94
395.903	388.94
396.127	444.94
396.352	513.94
396.576	497.94
396.801	637.94
397.025	821.94
397.249	588.94
397.474	402.94
397.698	380.94
397.922	366.94
398.147	375.94
398.371	371.94
398.595	346.94
398.82	374.94
399.044	365.94
399.268	376.94
399.492	405.94
399.717	413.94
399.941	427.94
400.165	423.94
400.389	441.94
400.613	415.94
400.837	401.94
401.062	380.94
401.286	390.94
401.51	381.94
401.734	375.94
401.958	385.94
402.182	407.94
402.406	417.94
402.63	409.94
402.854	377.94
403.078	408.94
403.302	394.94
403.526	393.94
403.75	399.94
403.974	388.94
404.198	384.94
404.422	385.94
404.645	379.94
404.869	385.94
405.093	417.94
405.317	428.94
405.541	437.94
405.765	448.94
405.988	429.94
406.212	455.94
406.436	500.94
406.66	503.94
406.883	458.94
407.107	466.94
407.331	493.94
407.555	532.94
407.778	523.94
408.002	481.94
408.226	435.94
408.449	440.94
408.673	422.94
408.896	422.94
409.12	451.94
409.344	439.94
409.567	417.94
409.791	392.94
410.014	380.94
410.238	361.94
410.461	385.94
410.685	373.94
410.908	398.94
411.132	409.94
411.355	449.94
411.578	414.94
411.802	380.94
412.025	375.94
412.249	386.94
412.472	366.94
412.695	379.94
412.919	349.94
413.142	356.94
413.365	351.94
413.589	347.94
413.812	362.94
414.035	355.94
414.258	363.94
414.482	344.94
414.705	351.94
414.928	366.94
415.151	360.94
415.374	356.94
415.597	346.94
415.821	365.94
416.044	351.94
416.267	359.94
416.49	351.94
416.713	374.94
416.936	337.94
417.159	339.94
417.382	361.94
417.605	366.94
417.828	381.94
418.051	399.94
418.274	374.94
418.497	355.94
418.72	349.94
418.943	349.94
419.166	364.94
419.389	366.94
419.611	371.94
419.834	348.94
420.057	361.94
420.28	363.94
420.503	366.94
420.726	360.94
420.948	388.94
421.171	399.94
421.394	432.94
421.617	395.94
421.839	372.94
422.062	369.94
422.285	393.94
422.507	469.94
422.73	631.94
422.953	632.94
423.175	454.94
423.398	384.94
423.621	384.94
423.843	392.94
424.066	396.94
424.288	399.94
424.511	417.94
424.733	468.94
424.956	529.94
425.178	505.94
425.401	483.94
425.623	515.94
425.846	440.94
426.068	425.94
426.291	409.94
426.513	419.94
426.735	431.94
426.958	423.94
427.18	519.94
427.402	654.94
427.625	748.94
427.847	734.94
428.069	548.94
428.292	455.94
428.514	427.94
428.736	405.94
428.958	406.94
429.181	391.94
429.403	376.94
429.625	421.94
429.847	411.94
430.069	468.94
430.292	513.94
430.514	423.94
430.736	393.94
430.958	380.94
431.18	352.94
431.402	360.94
431.624	338.94
431.846	368.94
432.068	354.94
432.29	349.94
432.512	372.94
432.734	349.94
432.956	368.94
433.178	376.94
433.4	401.94
433.622	353.94
433.844	341.94
434.066	349.94
434.287	342.94
434.509	340.94
434.731	366.94
434.953	355.94
435.175	354.94
435.397	388.94
435.618	406.94
435.84	454.94
436.062	518.94
436.284	571.94
436.505	490.94
436.727	433.94
436.949	396.94
437.17	393.94
437.392	371.94
437.614	406.94
437.835	468.94
438.057	557.94
438.278	592.94
438.5	573.94
438.721	582.94
438.943	561.94
439.165	471.94
439.386	428.94
439.608	436.94
439.829	450.94
440.05	489.94
440.272	556.94
440.493	490.94
440.715	425.94
440.936	401.94
441.158	388.94
441.379	388.94
441.6	404.94
441.822	421.94
442.043	468.94
442.264	529.94
442.486	533.94
442.707	462.94
442.928	437.94
443.149	470.94
443.371	502.94
443.592	499.94
443.813	560.94
444.034	576.94
444.255	477.94
444.476	429.94
444.698	421.94
444.919	403.94
445.14	507.94
445.361	491.94
445.582	514.94
445.803	628.94
446.024	661.94
446.245	624.94
446.466	581.94
446.687	460.94
446.908	421.94
447.129	399.94
447.35	399.94
447.571	390.94
447.792	388.94
448.013	392.94
448.234	421.94
448.455	473.94
448.675	537.94
448.896	607.94
449.117	506.94
449.338	492.94
449.559	567.94
449.779	631.94
450	502.94
450.221	439.94
450.442	394.94
450.662	439.94
450.883	449.94
451.104	509.94
451.324	454.94
451.545	405.94
451.766	341.94
451.986	336.94
452.207	372.94
452.428	373.94
452.648	366.94
452.869	367.94
453.089	393.94
453.31	387.94
453.53	398.94
453.751	391.94
453.971	406.94
454.192	434.94
454.412	427.94
454.633	379.94
454.853	373.94
455.073	366.94
455.294	391.94
455.514	451.94
455.734	429.94
455.955	357.94
456.175	317.94
456.395	347.94
456.616	325.94
456.836	322.94
457.056	328.94
457.276	296.94
457.497	324.94
457.717	336.94
457.937	335.94
458.157	359.94
458.377	348.94
458.598	415.94
458.818	547.94
459.038	616.94
459.258	575.94
459.478	471.94
459.698	382.94
459.918	387.94
460.138	371.94
460.358	369.94
460.578	363.94
460.798	356.94
461.018	392.94
461.238	353.94
461.458	346.94
461.678	345.94
461.898	360.94
462.118	348.94
462.338	364.94
462.558	336.94
462.777	370.94
462.997	359.94
463.217	377.94
463.437	367.94
463.657	369.94
463.876	355.94
464.096	376.94
464.316	388.94
464.536	405.94
464.755	416.94
464.975	407.94
465.195	564.94
465.414	722.94
465.634	552.94
465.854	423.94
466.073	419.94
466.293	382.94
466.512	371.94
466.732	360.94
466.951	344.94
467.171	343.94
467.391	371.94
467.61	376.94
467.829	410.94
468.049	408.94
468.268	350.94
468.488	351.94
468.707	333.94
468.927	343.94
469.146	320.94
469.365	349.94
469.585	337.94
469.804	368.94
470.023	415.94
470.243	391.94
470.462	390.94
470.681	450.94
470.901	413.94
471.12	359.94
471.339	354.94
471.558	377.94
471.777	359.94
471.997	345.94
472.216	345.94
472.435	345.94
472.654	335.94
472.873	364.94
473.092	332.94
473.311	343.94
473.53	350.94
473.749	357.94
473.968	405.94
474.187	480.94
474.406	510.94
474.625	390.94
474.844	358.94
475.063	361.94
475.282	347.94
475.501	352.94
475.72	350.94
475.939	364.94
476.158	375.94
476.377	355.94
476.596	371.94
476.814	377.94
477.033	408.94
477.252	405.94
477.471	379.94
477.69	395.94
477.908	380.94
478.127	402.94
478.346	382.94
478.564	396.94
478.783	393.94
479.002	419.94
479.22	421.94
479.439	451.94
479.658	488.94
479.876	458.94
480.095	436.94
480.313	447.94
480.532	449.94
480.751	431.94
480.969	428.94
481.188	429.94
481.406	423.94
481.624	414.94
481.843	402.94
482.061	411.94
482.28	410.94
482.498	401.94
482.717	416.94
482.935	409.94
483.153	432.94
483.372	421.94
483.59	407.94
483.808	425.94
484.027	422.94
484.245	413.94
484.463	414.94
484.681	432.94
484.9	437.94
485.118	445.94
485.336	402.94
485.554	435.94
485.772	427.94
485.99	420.94
486.209	407.94
486.427	428.94
486.645	452.94
486.863	504.94
487.081	478.94
487.299	476.94
487.517	451.94
487.735	432.94
487.953	442.94
488.171	421.94
488.389	450.94
488.607	445.94
488.825	448.94
489.043	449.94
489.261	437.94
489.479	451.94
489.696	437.94
489.914	448.94
490.132	444.94
490.35	436.94
490.568	475.94
490.786	443.94
491.003	455.94
491.221	458.94
491.439	477.94
491.657	478.94
491.874	485.94
492.092	483.94
492.31	489.94
492.527	468.94
492.745	474.94
492.963	479.94
493.18	489.94
493.398	490.94
493.615	491.94
493.833	464.94
494.05	488.94
494.268	459.94
494.485	480.94
494.703	484.94
494.92	473.94
495.138	460.94
495.355	494.94
495.573	475.94
495.79	504.94
496.008	537.94
496.225	503.94
496.442	489.94
496.66	486.94
496.877	496.94
497.094	485.94
497.312	504.94
497.529	521.94
497.746	505.94
497.963	523.94
498.181	537.94
498.398	576.94
498.615	543.94
498.832	573.94
499.049	540.94
499.267	556.94
499.484	560.94
499.701	572.94
499.918	591.94
500.135	592.94
500.352	619.94
500.569	581.94
500.786	608.94
501.003	627.94
501.22	617.94
501.437	598.94
501.654	614.94
501.871	633.94
