Data from 1989.PennyLincolnUp.Lamp.En5.5.200Scan.071819.P2_HRD10591_17-24-40-973.txt Node
Date: Thu Jul 18 17:24:40 EDT 2019
User: cochatt
Spectrometer: HR+D1059
Trigger mode: 1
Integration Time (sec): 1.000000E-1
Scans to average: 1
Electric dark correction enabled: true
Nonlinearity correction enabled: false
Boxcar width: 0
XAxis mode: Wavelengths
Number of Pixels in Spectrum: 2048
>>>>>Begin Spectral Data<<<<<
223.165	-11.81
223.4	-11.81
223.635	-11.81
223.869	-14.81
224.104	-21.81
224.338	-8.81
224.573	-5.81
224.808	-13.81
225.042	-9.81
225.277	1.19
225.511	-11.81
225.746	4.19
225.98	-3.81
226.215	10.19
226.449	22.19
226.683	12.19
226.918	20.19
227.152	32.19
227.387	34.19
227.621	40.19
227.856	57.19
228.09	57.19
228.324	38.19
228.559	58.19
228.793	65.19
229.027	99.19
229.262	110.19
229.496	120.19
229.73	126.19
229.964	155.19
230.199	124.19
230.433	124.19
230.667	120.19
230.901	122.19
231.136	108.19
231.37	99.19
231.604	99.19
231.838	118.19
232.072	114.19
232.306	106.19
232.541	120.19
232.775	110.19
233.009	106.19
233.243	123.19
233.477	100.19
233.711	103.19
233.945	132.19
234.179	130.19
234.413	112.19
234.647	120.19
234.881	107.19
235.115	115.19
235.349	114.19
235.583	125.19
235.817	142.19
236.051	135.19
236.285	117.19
236.519	129.19
236.753	145.19
236.987	137.19
237.221	188.19
237.455	238.19
237.689	184.19
237.922	146.19
238.156	140.19
238.39	137.19
238.624	132.19
238.858	128.19
239.091	126.19
239.325	147.19
239.559	122.19
239.793	139.19
240.027	130.19
240.26	133.19
240.494	161.19
240.728	151.19
240.961	149.19
241.195	173.19
241.429	130.19
241.662	137.19
241.896	141.19
242.13	126.19
242.363	127.19
242.597	128.19
242.83	135.19
243.064	155.19
243.298	146.19
243.531	133.19
243.765	140.19
243.998	158.19
244.232	124.19
244.465	144.19
244.699	125.19
244.932	132.19
245.166	158.19
245.399	159.19
245.633	145.19
245.866	140.19
246.099	169.19
246.333	133.19
246.566	153.19
246.8	154.19
247.033	136.19
247.266	153.19
247.5	174.19
247.733	167.19
247.966	179.19
248.2	174.19
248.433	169.19
248.666	185.19
248.899	191.19
249.133	209.19
249.366	234.19
249.599	213.19
249.832	203.19
250.066	191.19
250.299	199.19
250.532	202.19
250.765	205.19
250.998	219.19
251.231	256.19
251.465	224.19
251.698	228.19
251.931	229.19
252.164	204.19
252.397	229.19
252.63	219.19
252.863	221.19
253.096	224.19
253.329	252.19
253.562	243.19
253.795	239.19
254.028	226.19
254.261	249.19
254.494	242.19
254.727	288.19
254.96	293.19
255.193	272.19
255.426	280.19
255.659	257.19
255.892	256.19
256.124	229.19
256.357	226.19
256.59	216.19
256.823	230.19
257.056	231.19
257.289	214.19
257.521	233.19
257.754	218.19
257.987	216.19
258.22	226.19
258.452	219.19
258.685	224.19
258.918	234.19
259.151	226.19
259.383	255.19
259.616	247.19
259.849	247.19
260.081	278.19
260.314	285.19
260.547	288.19
260.779	264.19
261.012	250.19
261.244	248.19
261.477	233.19
261.71	228.19
261.942	237.19
262.175	253.19
262.407	250.19
262.64	246.19
262.872	239.19
263.105	214.19
263.337	220.19
263.57	218.19
263.802	222.19
264.035	225.19
264.267	217.19
264.499	218.19
264.732	237.19
264.964	235.19
265.197	206.19
265.429	230.19
265.661	229.19
265.894	240.19
266.126	231.19
266.358	219.19
266.591	231.19
266.823	258.19
267.055	236.19
267.287	254.19
267.52	257.19
267.752	233.19
267.984	240.19
268.216	240.19
268.448	248.19
268.681	278.19
268.913	257.19
269.145	306.19
269.377	284.19
269.609	298.19
269.841	284.19
270.073	290.19
270.306	300.19
270.538	352.19
270.77	343.19
271.002	329.19
271.234	309.19
271.466	332.19
271.698	354.19
271.93	346.19
272.162	353.19
272.394	328.19
272.626	338.19
272.858	321.19
273.09	304.19
273.322	289.19
273.553	285.19
273.785	281.19
274.017	288.19
274.249	273.19
274.481	296.19
274.713	272.19
274.945	295.19
275.176	275.19
275.408	273.19
275.64	267.19
275.872	280.19
276.104	293.19
276.335	267.19
276.567	298.19
276.799	311.19
277.031	323.19
277.262	331.19
277.494	326.19
277.726	332.19
277.957	295.19
278.189	296.19
278.421	294.19
278.652	289.19
278.884	286.19
279.115	286.19
279.347	289.19
279.579	280.19
279.81	278.19
280.042	288.19
280.273	267.19
280.505	285.19
280.736	293.19
280.968	278.19
281.199	286.19
281.431	268.19
281.662	287.19
281.894	295.19
282.125	301.19
282.356	284.19
282.588	319.19
282.819	336.19
283.051	296.19
283.282	292.19
283.513	293.19
283.745	296.19
283.976	297.19
284.207	292.19
284.439	302.19
284.67	301.19
284.901	319.19
285.132	295.19
285.364	296.19
285.595	305.19
285.826	312.19
286.057	297.19
286.288	304.19
286.52	298.19
286.751	310.19
286.982	281.19
287.213	283.19
287.444	291.19
287.675	295.19
287.906	313.19
288.138	304.19
288.369	317.19
288.6	320.19
288.831	308.19
289.062	312.19
289.293	311.19
289.524	301.19
289.755	290.19
289.986	300.19
290.217	306.19
290.448	283.19
290.679	306.19
290.91	308.19
291.141	305.19
291.371	293.19
291.602	308.19
291.833	309.19
292.064	310.19
292.295	308.19
292.526	318.19
292.757	298.19
292.987	301.19
293.218	313.19
293.449	294.19
293.68	299.19
293.91	301.19
294.141	299.19
294.372	299.19
294.603	317.19
294.833	308.19
295.064	308.19
295.295	312.19
295.525	302.19
295.756	312.19
295.987	317.19
296.217	332.19
296.448	359.19
296.679	324.19
296.909	318.19
297.14	327.19
297.37	311.19
297.601	305.19
297.831	297.19
298.062	288.19
298.292	315.19
298.523	317.19
298.753	347.19
298.984	317.19
299.214	316.19
299.445	312.19
299.675	324.19
299.905	342.19
300.136	328.19
300.366	315.19
300.597	322.19
300.827	333.19
301.057	335.19
301.288	347.19
301.518	342.19
301.748	330.19
301.979	337.19
302.209	338.19
302.439	332.19
302.669	333.19
302.9	332.19
303.13	332.19
303.36	344.19
303.59	346.19
303.82	349.19
304.051	349.19
304.281	348.19
304.511	338.19
304.741	324.19
304.971	330.19
305.201	360.19
305.431	353.19
305.661	342.19
305.891	339.19
306.121	333.19
306.352	338.19
306.582	368.19
306.812	354.19
307.042	349.19
307.272	324.19
307.502	334.19
307.731	351.19
307.961	356.19
308.191	336.19
308.421	329.19
308.651	350.19
308.881	357.19
309.111	360.19
309.341	347.19
309.571	366.19
309.8	369.19
310.03	384.19
310.26	402.19
310.49	395.19
310.72	409.19
310.949	408.19
311.179	430.19
311.409	421.19
311.639	407.19
311.868	394.19
312.098	400.19
312.328	411.19
312.557	441.19
312.787	448.19
313.017	428.19
313.246	425.19
313.476	392.19
313.706	402.19
313.935	404.19
314.165	416.19
314.394	423.19
314.624	411.19
314.853	411.19
315.083	405.19
315.312	384.19
315.542	384.19
315.771	376.19
316.001	395.19
316.23	377.19
316.46	382.19
316.689	400.19
316.919	406.19
317.148	422.19
317.377	401.19
317.607	414.19
317.836	398.19
318.065	383.19
318.295	394.19
318.524	391.19
318.753	383.19
318.983	404.19
319.212	408.19
319.441	396.19
319.67	405.19
319.9	413.19
320.129	408.19
320.358	411.19
320.587	383.19
320.816	426.19
321.046	410.19
321.275	426.19
321.504	399.19
321.733	418.19
321.962	451.19
322.191	435.19
322.42	459.19
322.649	468.19
322.878	519.19
323.108	510.19
323.337	544.19
323.566	533.19
323.795	601.19
324.024	646.19
324.253	793.19
324.482	1122.19
324.71	1726.19
324.939	2498.19
325.168	2158.19
325.397	1127.19
325.626	710.19
325.855	620.19
326.084	578.19
326.313	572.19
326.542	547.19
326.77	607.19
326.999	726.19
327.228	1012.19
327.457	1538.19
327.686	1874.19
327.914	1268.19
328.143	792.19
328.372	688.19
328.6	653.19
328.829	628.19
329.058	600.19
329.287	629.19
329.515	578.19
329.744	539.19
329.972	547.19
330.201	546.19
330.43	553.19
330.658	612.19
330.887	660.19
331.115	636.19
331.344	575.19
331.572	524.19
331.801	518.19
332.03	532.19
332.258	497.19
332.486	496.19
332.715	476.19
332.943	480.19
333.172	481.19
333.4	454.19
333.629	477.19
333.857	493.19
334.085	496.19
334.314	470.19
334.542	489.19
334.771	512.19
334.999	503.19
335.227	486.19
335.455	467.19
335.684	459.19
335.912	461.19
336.14	468.19
336.369	429.19
336.597	478.19
336.825	448.19
337.053	458.19
337.281	453.19
337.51	444.19
337.738	442.19
337.966	453.19
338.194	457.19
338.422	442.19
338.65	444.19
338.878	435.19
339.106	455.19
339.334	422.19
339.562	436.19
339.79	424.19
340.018	427.19
340.246	439.19
340.474	458.19
340.702	466.19
340.93	437.19
341.158	437.19
341.386	424.19
341.614	438.19
341.842	453.19
342.07	433.19
342.298	424.19
342.526	417.19
342.754	440.19
342.981	428.19
343.209	411.19
343.437	443.19
343.665	432.19
343.893	444.19
344.12	431.19
344.348	448.19
344.576	449.19
344.804	437.19
345.031	452.19
345.259	472.19
345.487	460.19
345.714	437.19
345.942	458.19
346.17	420.19
346.397	421.19
346.625	440.19
346.853	400.19
347.08	410.19
347.308	434.19
347.535	440.19
347.763	444.19
347.99	451.19
348.218	443.19
348.445	442.19
348.673	461.19
348.9	438.19
349.128	416.19
349.355	412.19
349.583	399.19
349.81	413.19
350.037	403.19
350.265	418.19
350.492	420.19
350.72	430.19
350.947	422.19
351.174	419.19
351.402	410.19
351.629	423.19
351.856	435.19
352.083	440.19
352.311	441.19
352.538	448.19
352.765	441.19
352.992	432.19
353.22	424.19
353.447	426.19
353.674	412.19
353.901	393.19
354.128	394.19
354.355	393.19
354.583	413.19
354.81	404.19
355.037	388.19
355.264	399.19
355.491	375.19
355.718	372.19
355.945	383.19
356.172	386.19
356.399	389.19
356.626	390.19
356.853	380.19
357.08	376.19
357.307	393.19
357.534	392.19
357.761	381.19
357.988	376.19
358.215	404.19
358.441	371.19
358.668	383.19
358.895	387.19
359.122	384.19
359.349	406.19
359.576	420.19
359.802	436.19
360.029	470.19
360.256	486.19
360.483	466.19
360.709	420.19
360.936	445.19
361.163	404.19
361.39	417.19
361.616	418.19
361.843	408.19
362.07	401.19
362.296	428.19
362.523	428.19
362.749	400.19
362.976	408.19
363.203	410.19
363.429	400.19
363.656	409.19
363.882	418.19
364.109	394.19
364.335	394.19
364.562	399.19
364.788	409.19
365.015	389.19
365.241	403.19
365.468	412.19
365.694	408.19
365.92	416.19
366.147	380.19
366.373	397.19
366.599	397.19
366.826	405.19
367.052	406.19
367.278	408.19
367.505	403.19
367.731	390.19
367.957	411.19
368.184	384.19
368.41	380.19
368.636	400.19
368.862	386.19
369.089	411.19
369.315	388.19
369.541	407.19
369.767	389.19
369.993	386.19
370.219	389.19
370.445	396.19
370.672	370.19
370.898	392.19
371.124	377.19
371.35	386.19
371.576	390.19
371.802	378.19
372.028	381.19
372.254	370.19
372.48	394.19
372.706	401.19
372.932	372.19
373.158	380.19
373.384	394.19
373.61	381.19
373.835	388.19
374.061	385.19
374.287	400.19
374.513	398.19
374.739	388.19
374.965	385.19
375.191	395.19
375.416	398.19
375.642	362.19
375.868	382.19
376.094	372.19
376.319	377.19
376.545	364.19
376.771	386.19
376.997	374.19
377.222	380.19
377.448	379.19
377.674	354.19
377.899	364.19
378.125	376.19
378.35	375.19
378.576	375.19
378.802	365.19
379.027	368.19
379.253	384.19
379.478	376.19
379.704	368.19
379.929	384.19
380.155	398.19
380.38	385.19
380.606	380.19
380.831	376.19
381.057	374.19
381.282	374.19
381.507	359.19
381.733	394.19
381.958	390.19
382.184	386.19
382.409	398.19
382.634	365.19
382.86	379.19
383.085	390.19
383.31	377.19
383.535	399.19
383.761	374.19
383.986	392.19
384.211	391.19
384.436	406.19
384.662	388.19
384.887	387.19
385.112	404.19
385.337	400.19
385.562	398.19
385.787	400.19
386.013	418.19
386.238	408.19
386.463	421.19
386.688	411.19
386.913	388.19
387.138	394.19
387.363	416.19
387.588	403.19
387.813	399.19
388.038	415.19
388.263	400.19
388.488	413.19
388.713	408.19
388.938	416.19
389.163	404.19
389.387	403.19
389.612	419.19
389.837	402.19
390.062	396.19
390.287	412.19
390.512	383.19
390.736	388.19
390.961	408.19
391.186	408.19
391.411	397.19
391.636	416.19
391.86	414.19
392.085	438.19
392.31	404.19
392.534	408.19
392.759	420.19
392.984	415.19
393.208	418.19
393.433	402.19
393.658	426.19
393.882	402.19
394.107	408.19
394.331	388.19
394.556	402.19
394.78	417.19
395.005	421.19
395.229	412.19
395.454	437.19
395.678	429.19
395.903	398.19
396.127	424.19
396.352	435.19
396.576	413.19
396.801	432.19
397.025	428.19
397.249	394.19
397.474	442.19
397.698	407.19
397.922	436.19
398.147	461.19
398.371	446.19
398.595	448.19
398.82	448.19
399.044	469.19
399.268	462.19
399.492	490.19
399.717	509.19
399.941	545.19
400.165	562.19
400.389	555.19
400.613	522.19
400.837	502.19
401.062	465.19
401.286	445.19
401.51	454.19
401.734	456.19
401.958	457.19
402.182	454.19
402.406	484.19
402.63	496.19
402.854	470.19
403.078	476.19
403.302	465.19
403.526	469.19
403.75	458.19
403.974	466.19
404.198	466.19
404.422	470.19
404.645	485.19
404.869	488.19
405.093	484.19
405.317	531.19
405.541	512.19
405.765	504.19
405.988	491.19
406.212	482.19
406.436	530.19
406.66	546.19
406.883	522.19
407.107	537.19
407.331	593.19
407.555	645.19
407.778	645.19
408.002	585.19
408.226	535.19
408.449	518.19
408.673	538.19
408.896	534.19
409.12	589.19
409.344	556.19
409.567	514.19
409.791	491.19
410.014	473.19
410.238	465.19
410.461	488.19
410.685	490.19
410.908	490.19
411.132	519.19
411.355	549.19
411.578	552.19
411.802	477.19
412.025	461.19
412.249	449.19
412.472	457.19
412.695	495.19
412.919	492.19
413.142	479.19
413.365	450.19
413.589	460.19
413.812	446.19
414.035	435.19
414.258	460.19
414.482	417.19
414.705	446.19
414.928	444.19
415.151	434.19
415.374	433.19
415.597	444.19
415.821	445.19
416.044	445.19
416.267	452.19
416.49	435.19
416.713	451.19
416.936	455.19
417.159	435.19
417.382	436.19
417.605	472.19
417.828	444.19
418.051	466.19
418.274	462.19
418.497	469.19
418.72	437.19
418.943	419.19
419.166	444.19
419.389	468.19
419.611	470.19
419.834	461.19
420.057	469.19
420.28	478.19
420.503	462.19
420.726	477.19
420.948	480.19
421.171	522.19
421.394	540.19
421.617	503.19
421.839	478.19
422.062	507.19
422.285	478.19
422.507	532.19
422.73	591.19
422.953	589.19
423.175	535.19
423.398	504.19
423.621	476.19
423.843	508.19
424.066	505.19
424.288	528.19
424.511	541.19
424.733	583.19
424.956	677.19
425.178	642.19
425.401	621.19
425.623	655.19
425.846	576.19
426.068	529.19
426.291	508.19
426.513	504.19
426.735	527.19
426.958	571.19
427.18	640.19
427.402	795.19
427.625	846.19
427.847	746.19
428.069	612.19
428.292	564.19
428.514	536.19
428.736	481.19
428.958	488.19
429.181	491.19
429.403	481.19
429.625	468.19
429.847	526.19
430.069	578.19
430.292	601.19
430.514	482.19
430.736	480.19
430.958	461.19
431.18	464.19
431.402	443.19
431.624	423.19
431.846	436.19
432.068	448.19
432.29	429.19
432.512	434.19
432.734	464.19
432.956	459.19
433.178	482.19
433.4	466.19
433.622	448.19
433.844	451.19
434.066	439.19
434.287	440.19
434.509	453.19
434.731	454.19
434.953	444.19
435.175	482.19
435.397	504.19
435.618	516.19
435.84	571.19
436.062	668.19
436.284	698.19
436.505	616.19
436.727	540.19
436.949	512.19
437.17	471.19
437.392	469.19
437.614	484.19
437.835	526.19
438.057	612.19
438.278	734.19
438.5	700.19
438.721	777.19
438.943	742.19
439.165	598.19
439.386	548.19
439.608	527.19
439.829	537.19
440.05	563.19
440.272	619.19
440.493	561.19
440.715	517.19
440.936	494.19
441.158	488.19
441.379	481.19
441.6	510.19
441.822	535.19
442.043	560.19
442.264	638.19
442.486	670.19
442.707	586.19
442.928	522.19
443.149	538.19
443.371	566.19
443.592	579.19
443.813	688.19
444.034	740.19
444.255	589.19
444.476	556.19
444.698	518.19
444.919	532.19
445.14	618.19
445.361	560.19
445.582	564.19
445.803	640.19
446.024	751.19
446.245	750.19
446.466	672.19
446.687	596.19
446.908	534.19
447.129	503.19
447.35	466.19
447.571	475.19
447.792	458.19
448.013	474.19
448.234	508.19
448.455	548.19
448.675	655.19
448.896	783.19
449.117	657.19
449.338	632.19
449.559	716.19
449.779	822.19
450	654.19
450.221	541.19
450.442	512.19
450.662	456.19
450.883	467.19
451.104	496.19
451.324	489.19
451.545	474.19
451.766	445.19
451.986	414.19
452.207	444.19
452.428	420.19
452.648	445.19
452.869	445.19
453.089	462.19
453.31	446.19
453.53	421.19
453.751	442.19
453.971	429.19
454.192	435.19
454.412	432.19
454.633	426.19
454.853	443.19
455.073	425.19
455.294	443.19
455.514	539.19
455.734	479.19
455.955	442.19
456.175	422.19
456.395	399.19
456.616	423.19
456.836	389.19
457.056	388.19
457.276	402.19
457.497	398.19
457.717	399.19
457.937	398.19
458.157	404.19
458.377	405.19
458.598	414.19
458.818	503.19
459.038	584.19
459.258	619.19
459.478	519.19
459.698	455.19
459.918	438.19
460.138	419.19
460.358	439.19
460.578	444.19
460.798	461.19
461.018	451.19
461.238	448.19
461.458	430.19
461.678	445.19
461.898	437.19
462.118	439.19
462.338	435.19
462.558	440.19
462.777	439.19
462.997	446.19
463.217	444.19
463.437	484.19
463.657	437.19
463.876	464.19
464.096	470.19
464.316	462.19
464.536	479.19
464.755	477.19
464.975	476.19
465.195	504.19
465.414	618.19
465.634	524.19
465.854	491.19
466.073	464.19
466.293	443.19
466.512	423.19
466.732	444.19
466.951	432.19
467.171	421.19
467.391	420.19
467.61	426.19
467.829	450.19
468.049	435.19
468.268	420.19
468.488	398.19
468.707	414.19
468.927	406.19
469.146	410.19
469.365	409.19
469.585	405.19
469.804	433.19
470.023	451.19
470.243	441.19
470.462	458.19
470.681	484.19
470.901	456.19
471.12	430.19
471.339	426.19
471.558	445.19
471.777	425.19
471.997	416.19
472.216	425.19
472.435	444.19
472.654	404.19
472.873	441.19
473.092	436.19
473.311	417.19
473.53	420.19
473.749	453.19
473.968	476.19
474.187	598.19
474.406	600.19
474.625	511.19
474.844	456.19
475.063	457.19
475.282	439.19
475.501	432.19
475.72	427.19
475.939	428.19
476.158	458.19
476.377	448.19
476.596	446.19
476.814	456.19
477.033	450.19
477.252	464.19
477.471	488.19
477.69	452.19
477.908	466.19
478.127	478.19
478.346	450.19
478.564	474.19
478.783	479.19
479.002	482.19
479.22	475.19
479.439	504.19
479.658	509.19
479.876	516.19
480.095	516.19
480.313	537.19
480.532	555.19
480.751	517.19
480.969	516.19
481.188	566.19
481.406	543.19
481.624	532.19
481.843	526.19
482.061	506.19
482.28	501.19
482.498	493.19
482.717	500.19
482.935	493.19
483.153	496.19
483.372	520.19
483.59	518.19
483.808	497.19
484.027	496.19
484.245	523.19
484.463	517.19
484.681	494.19
484.9	540.19
485.118	508.19
485.336	522.19
485.554	530.19
485.772	517.19
485.99	522.19
486.209	512.19
486.427	527.19
486.645	557.19
486.863	585.19
487.081	556.19
487.299	543.19
487.517	537.19
487.735	537.19
487.953	552.19
488.171	543.19
488.389	529.19
488.607	527.19
488.825	549.19
489.043	533.19
489.261	556.19
489.479	547.19
489.696	564.19
489.914	568.19
490.132	546.19
490.35	574.19
490.568	564.19
490.786	574.19
491.003	591.19
491.221	622.19
491.439	625.19
491.657	602.19
491.874	638.19
492.092	604.19
492.31	620.19
492.527	641.19
492.745	632.19
492.963	652.19
493.18	637.19
493.398	642.19
493.615	652.19
493.833	649.19
494.05	662.19
494.268	655.19
494.485	647.19
494.703	658.19
494.92	638.19
495.138	652.19
495.355	652.19
495.573	636.19
495.79	663.19
496.008	644.19
496.225	638.19
496.442	631.19
496.66	666.19
496.877	643.19
497.094	651.19
497.312	632.19
497.529	663.19
497.746	670.19
497.963	678.19
498.181	697.19
498.398	709.19
498.615	731.19
498.832	701.19
499.049	730.19
499.267	729.19
499.484	757.19
499.701	788.19
499.918	783.19
500.135	796.19
500.352	832.19
500.569	840.19
500.786	825.19
501.003	852.19
501.22	815.19
501.437	819.19
501.654	788.19
501.871	800.19
