Data from 1989.PennyLincolnUp.Lamp.En5.5.200Scan.071819.P2_HRD10591_17-26-17-974.txt Node
Date: Thu Jul 18 17:26:17 EDT 2019
User: cochatt
Spectrometer: HR+D1059
Trigger mode: 1
Integration Time (sec): 1.000000E-1
Scans to average: 1
Electric dark correction enabled: true
Nonlinearity correction enabled: false
Boxcar width: 0
XAxis mode: Wavelengths
Number of Pixels in Spectrum: 2048
>>>>>Begin Spectral Data<<<<<
223.165	-20.44
223.4	-20.44
223.635	-20.44
223.869	-12.44
224.104	0.56
224.338	-8.44
224.573	-11.44
224.808	-18.44
225.042	-9.44
225.277	-9.44
225.511	-6.44
225.746	0.56
225.98	7.56
226.215	12.56
226.449	9.56
226.683	10.56
226.918	27.56
227.152	27.56
227.387	29.56
227.621	37.56
227.856	56.56
228.09	53.56
228.324	41.56
228.559	57.56
228.793	69.56
229.027	95.56
229.262	124.56
229.496	125.56
229.73	139.56
229.964	179.56
230.199	142.56
230.433	125.56
230.667	128.56
230.901	116.56
231.136	124.56
231.37	120.56
231.604	124.56
231.838	116.56
232.072	118.56
232.306	115.56
232.541	113.56
232.775	118.56
233.009	127.56
233.243	121.56
233.477	128.56
233.711	129.56
233.945	124.56
234.179	123.56
234.413	125.56
234.647	110.56
234.881	122.56
235.115	117.56
235.349	119.56
235.583	132.56
235.817	138.56
236.051	135.56
236.285	131.56
236.519	137.56
236.753	135.56
236.987	161.56
237.221	197.56
237.455	238.56
237.689	197.56
237.922	156.56
238.156	142.56
238.39	129.56
238.624	132.56
238.858	139.56
239.091	136.56
239.325	141.56
239.559	142.56
239.793	136.56
240.027	155.56
240.26	143.56
240.494	183.56
240.728	161.56
240.961	153.56
241.195	159.56
241.429	149.56
241.662	139.56
241.896	143.56
242.13	156.56
242.363	135.56
242.597	151.56
242.83	142.56
243.064	136.56
243.298	149.56
243.531	144.56
243.765	145.56
243.998	139.56
244.232	161.56
244.465	150.56
244.699	172.56
244.932	157.56
245.166	167.56
245.399	141.56
245.633	154.56
245.866	167.56
246.099	163.56
246.333	161.56
246.566	163.56
246.8	155.56
247.033	174.56
247.266	183.56
247.5	172.56
247.733	173.56
247.966	189.56
248.2	185.56
248.433	190.56
248.666	211.56
248.899	217.56
249.133	245.56
249.366	251.56
249.599	240.56
249.832	213.56
250.066	210.56
250.299	214.56
250.532	234.56
250.765	255.56
250.998	267.56
251.231	261.56
251.465	253.56
251.698	248.56
251.931	228.56
252.164	225.56
252.397	219.56
252.63	216.56
252.863	218.56
253.096	256.56
253.329	264.56
253.562	255.56
253.795	250.56
254.028	265.56
254.261	256.56
254.494	253.56
254.727	274.56
254.96	316.56
255.193	302.56
255.426	293.56
255.659	287.56
255.892	292.56
256.124	298.56
256.357	309.56
256.59	288.56
256.823	268.56
257.056	256.56
257.289	261.56
257.521	247.56
257.754	225.56
257.987	243.56
258.22	265.56
258.452	252.56
258.685	238.56
258.918	251.56
259.151	256.56
259.383	259.56
259.616	245.56
259.849	276.56
260.081	266.56
260.314	288.56
260.547	307.56
260.779	277.56
261.012	283.56
261.244	273.56
261.477	252.56
261.71	265.56
261.942	262.56
262.175	283.56
262.407	282.56
262.64	268.56
262.872	253.56
263.105	235.56
263.337	231.56
263.57	254.56
263.802	261.56
264.035	236.56
264.267	249.56
264.499	243.56
264.732	252.56
264.964	259.56
265.197	256.56
265.429	234.56
265.661	237.56
265.894	243.56
266.126	232.56
266.358	244.56
266.591	245.56
266.823	264.56
267.055	246.56
267.287	253.56
267.52	255.56
267.752	252.56
267.984	267.56
268.216	278.56
268.448	267.56
268.681	280.56
268.913	283.56
269.145	292.56
269.377	314.56
269.609	311.56
269.841	315.56
270.073	316.56
270.306	342.56
270.538	355.56
270.77	367.56
271.002	337.56
271.234	338.56
271.466	357.56
271.698	353.56
271.93	372.56
272.162	377.56
272.394	356.56
272.626	373.56
272.858	340.56
273.09	317.56
273.322	320.56
273.553	299.56
273.785	319.56
274.017	300.56
274.249	314.56
274.481	310.56
274.713	315.56
274.945	315.56
275.176	315.56
275.408	314.56
275.64	319.56
275.872	308.56
276.104	315.56
276.335	315.56
276.567	312.56
276.799	342.56
277.031	344.56
277.262	362.56
277.494	373.56
277.726	357.56
277.957	338.56
278.189	318.56
278.421	325.56
278.652	317.56
278.884	311.56
279.115	306.56
279.347	308.56
279.579	301.56
279.81	318.56
280.042	296.56
280.273	323.56
280.505	330.56
280.736	309.56
280.968	313.56
281.199	307.56
281.431	307.56
281.662	318.56
281.894	327.56
282.125	323.56
282.356	330.56
282.588	349.56
282.819	358.56
283.051	328.56
283.282	319.56
283.513	309.56
283.745	329.56
283.976	302.56
284.207	335.56
284.439	309.56
284.67	325.56
284.901	318.56
285.132	312.56
285.364	311.56
285.595	332.56
285.826	308.56
286.057	315.56
286.288	304.56
286.52	331.56
286.751	333.56
286.982	322.56
287.213	304.56
287.444	332.56
287.675	333.56
287.906	340.56
288.138	334.56
288.369	328.56
288.6	334.56
288.831	342.56
289.062	340.56
289.293	328.56
289.524	331.56
289.755	308.56
289.986	310.56
290.217	312.56
290.448	302.56
290.679	314.56
290.91	321.56
291.141	338.56
291.371	318.56
291.602	333.56
291.833	322.56
292.064	324.56
292.295	324.56
292.526	331.56
292.757	325.56
292.987	309.56
293.218	308.56
293.449	333.56
293.68	347.56
293.91	333.56
294.141	329.56
294.372	338.56
294.603	325.56
294.833	323.56
295.064	308.56
295.295	309.56
295.525	304.56
295.756	333.56
295.987	335.56
296.217	369.56
296.448	363.56
296.679	349.56
296.909	327.56
297.14	319.56
297.37	327.56
297.601	330.56
297.831	350.56
298.062	341.56
298.292	325.56
298.523	361.56
298.753	340.56
298.984	338.56
299.214	340.56
299.445	328.56
299.675	352.56
299.905	358.56
300.136	363.56
300.366	336.56
300.597	347.56
300.827	368.56
301.057	357.56
301.288	374.56
301.518	368.56
301.748	357.56
301.979	340.56
302.209	381.56
302.439	360.56
302.669	352.56
302.9	349.56
303.13	361.56
303.36	367.56
303.59	375.56
303.82	379.56
304.051	383.56
304.281	375.56
304.511	380.56
304.741	364.56
304.971	347.56
305.201	357.56
305.431	361.56
305.661	364.56
305.891	372.56
306.121	369.56
306.352	359.56
306.582	385.56
306.812	387.56
307.042	375.56
307.272	363.56
307.502	361.56
307.731	381.56
307.961	366.56
308.191	341.56
308.421	372.56
308.651	386.56
308.881	377.56
309.111	379.56
309.341	409.56
309.571	401.56
309.8	418.56
310.03	427.56
310.26	447.56
310.49	433.56
310.72	436.56
310.949	439.56
311.179	455.56
311.409	438.56
311.639	413.56
311.868	425.56
312.098	417.56
312.328	428.56
312.557	465.56
312.787	455.56
313.017	490.56
313.246	430.56
313.476	454.56
313.706	429.56
313.935	436.56
314.165	451.56
314.394	476.56
314.624	460.56
314.853	454.56
315.083	428.56
315.312	441.56
315.542	421.56
315.771	423.56
316.001	433.56
316.23	430.56
316.46	412.56
316.689	428.56
316.919	438.56
317.148	448.56
317.377	446.56
317.607	427.56
317.836	443.56
318.065	432.56
318.295	435.56
318.524	423.56
318.753	424.56
318.983	415.56
319.212	423.56
319.441	438.56
319.67	460.56
319.9	440.56
320.129	431.56
320.358	423.56
320.587	443.56
320.816	439.56
321.046	454.56
321.275	439.56
321.504	453.56
321.733	467.56
321.962	460.56
322.191	478.56
322.42	496.56
322.649	497.56
322.878	526.56
323.108	545.56
323.337	575.56
323.566	611.56
323.795	621.56
324.024	681.56
324.253	806.56
324.482	1175.56
324.71	1868.56
324.939	2719.56
325.168	2333.56
325.397	1222.56
325.626	806.56
325.855	671.56
326.084	623.56
326.313	593.56
326.542	592.56
326.77	641.56
326.999	760.56
327.228	1085.56
327.457	1652.56
327.686	2031.56
327.914	1368.56
328.143	896.56
328.372	785.56
328.6	721.56
328.829	666.56
329.058	684.56
329.287	695.56
329.515	665.56
329.744	622.56
329.972	627.56
330.201	679.56
330.43	751.56
330.658	719.56
330.887	763.56
331.115	718.56
331.344	619.56
331.572	597.56
331.801	571.56
332.03	572.56
332.258	535.56
332.486	529.56
332.715	519.56
332.943	504.56
333.172	500.56
333.4	507.56
333.629	540.56
333.857	563.56
334.085	612.56
334.314	616.56
334.542	702.56
334.771	701.56
334.999	624.56
335.227	586.56
335.455	534.56
335.684	508.56
335.912	514.56
336.14	513.56
336.369	483.56
336.597	509.56
336.825	511.56
337.053	486.56
337.281	488.56
337.51	484.56
337.738	484.56
337.966	476.56
338.194	508.56
338.422	495.56
338.65	469.56
338.878	450.56
339.106	466.56
339.334	464.56
339.562	486.56
339.79	473.56
340.018	466.56
340.246	477.56
340.474	476.56
340.702	498.56
340.93	457.56
341.158	483.56
341.386	505.56
341.614	470.56
341.842	479.56
342.07	471.56
342.298	462.56
342.526	443.56
342.754	444.56
342.981	460.56
343.209	445.56
343.437	456.56
343.665	444.56
343.893	462.56
344.12	462.56
344.348	464.56
344.576	489.56
344.804	475.56
345.031	480.56
345.259	495.56
345.487	495.56
345.714	479.56
345.942	465.56
346.17	456.56
346.397	460.56
346.625	463.56
346.853	442.56
347.08	446.56
347.308	444.56
347.535	470.56
347.763	449.56
347.99	481.56
348.218	474.56
348.445	464.56
348.673	454.56
348.9	444.56
349.128	467.56
349.355	436.56
349.583	432.56
349.81	432.56
350.037	435.56
350.265	437.56
350.492	446.56
350.72	436.56
350.947	428.56
351.174	448.56
351.402	447.56
351.629	449.56
351.856	466.56
352.083	481.56
352.311	476.56
352.538	487.56
352.765	482.56
352.992	484.56
353.22	472.56
353.447	463.56
353.674	442.56
353.901	426.56
354.128	424.56
354.355	434.56
354.583	425.56
354.81	427.56
355.037	397.56
355.264	407.56
355.491	393.56
355.718	405.56
355.945	404.56
356.172	408.56
356.399	421.56
356.626	432.56
356.853	426.56
357.08	402.56
357.307	425.56
357.534	387.56
357.761	399.56
357.988	425.56
358.215	413.56
358.441	412.56
358.668	395.56
358.895	425.56
359.122	425.56
359.349	426.56
359.576	463.56
359.802	489.56
360.029	509.56
360.256	512.56
360.483	500.56
360.709	455.56
360.936	443.56
361.163	444.56
361.39	443.56
361.616	457.56
361.843	413.56
362.07	432.56
362.296	445.56
362.523	475.56
362.749	426.56
362.976	405.56
363.203	447.56
363.429	405.56
363.656	419.56
363.882	422.56
364.109	407.56
364.335	408.56
364.562	418.56
364.788	427.56
365.015	428.56
365.241	420.56
365.468	432.56
365.694	427.56
365.92	429.56
366.147	423.56
366.373	400.56
366.599	419.56
366.826	403.56
367.052	406.56
367.278	433.56
367.505	430.56
367.731	430.56
367.957	419.56
368.184	424.56
368.41	421.56
368.636	431.56
368.862	429.56
369.089	439.56
369.315	407.56
369.541	419.56
369.767	417.56
369.993	402.56
370.219	406.56
370.445	423.56
370.672	426.56
370.898	403.56
371.124	408.56
371.35	419.56
371.576	401.56
371.802	409.56
372.028	406.56
372.254	400.56
372.48	398.56
372.706	397.56
372.932	428.56
373.158	415.56
373.384	405.56
373.61	383.56
373.835	412.56
374.061	429.56
374.287	402.56
374.513	417.56
374.739	419.56
374.965	423.56
375.191	398.56
375.416	415.56
375.642	407.56
375.868	417.56
376.094	422.56
376.319	375.56
376.545	410.56
376.771	399.56
376.997	385.56
377.222	383.56
377.448	404.56
377.674	399.56
377.899	401.56
378.125	409.56
378.35	389.56
378.576	392.56
378.802	358.56
379.027	399.56
379.253	409.56
379.478	392.56
379.704	400.56
379.929	420.56
380.155	401.56
380.38	402.56
380.606	421.56
380.831	395.56
381.057	404.56
381.282	407.56
381.507	407.56
381.733	396.56
381.958	385.56
382.184	391.56
382.409	405.56
382.634	413.56
382.86	397.56
383.085	385.56
383.31	411.56
383.535	392.56
383.761	406.56
383.986	423.56
384.211	412.56
384.436	423.56
384.662	417.56
384.887	425.56
385.112	416.56
385.337	433.56
385.562	419.56
385.787	413.56
386.013	435.56
386.238	447.56
386.463	434.56
386.688	423.56
386.913	411.56
387.138	423.56
387.363	414.56
387.588	439.56
387.813	422.56
388.038	430.56
388.263	428.56
388.488	420.56
388.713	436.56
388.938	424.56
389.163	416.56
389.387	433.56
389.612	430.56
389.837	417.56
390.062	414.56
390.287	427.56
390.512	402.56
390.736	416.56
390.961	432.56
391.186	421.56
391.411	439.56
391.636	428.56
391.86	452.56
392.085	427.56
392.31	427.56
392.534	440.56
392.759	430.56
392.984	431.56
393.208	438.56
393.433	440.56
393.658	427.56
393.882	435.56
394.107	416.56
394.331	439.56
394.556	429.56
394.78	412.56
395.005	428.56
395.229	443.56
395.454	429.56
395.678	428.56
395.903	441.56
396.127	452.56
396.352	467.56
396.576	442.56
396.801	427.56
397.025	439.56
397.249	435.56
397.474	454.56
397.698	451.56
397.922	471.56
398.147	470.56
398.371	495.56
398.595	483.56
398.82	474.56
399.044	484.56
399.268	468.56
399.492	492.56
399.717	540.56
399.941	547.56
400.165	571.56
400.389	576.56
400.613	528.56
400.837	491.56
401.062	500.56
401.286	501.56
401.51	476.56
401.734	473.56
401.958	463.56
402.182	505.56
402.406	495.56
402.63	475.56
402.854	508.56
403.078	471.56
403.302	491.56
403.526	499.56
403.75	508.56
403.974	499.56
404.198	500.56
404.422	488.56
404.645	499.56
404.869	518.56
405.093	563.56
405.317	608.56
405.541	641.56
405.765	574.56
405.988	547.56
406.212	553.56
406.436	575.56
406.66	602.56
406.883	547.56
407.107	570.56
407.331	589.56
407.555	676.56
407.778	663.56
408.002	615.56
408.226	555.56
408.449	547.56
408.673	541.56
408.896	587.56
409.12	629.56
409.344	591.56
409.567	525.56
409.791	491.56
410.014	507.56
410.238	512.56
410.461	496.56
410.685	492.56
410.908	530.56
411.132	552.56
411.355	577.56
411.578	570.56
411.802	528.56
412.025	521.56
412.249	515.56
412.472	556.56
412.695	605.56
412.919	596.56
413.142	536.56
413.365	513.56
413.589	491.56
413.812	477.56
414.035	487.56
414.258	462.56
414.482	479.56
414.705	474.56
414.928	488.56
415.151	470.56
415.374	474.56
415.597	477.56
415.821	475.56
416.044	441.56
416.267	471.56
416.49	475.56
416.713	461.56
416.936	485.56
417.159	454.56
417.382	473.56
417.605	486.56
417.828	499.56
418.051	505.56
418.274	489.56
418.497	479.56
418.72	488.56
418.943	453.56
419.166	486.56
419.389	504.56
419.611	503.56
419.834	487.56
420.057	523.56
420.28	532.56
420.503	520.56
420.726	500.56
420.948	545.56
421.171	565.56
421.394	600.56
421.617	540.56
421.839	501.56
422.062	481.56
422.285	524.56
422.507	577.56
422.73	640.56
422.953	624.56
423.175	543.56
423.398	504.56
423.621	515.56
423.843	529.56
424.066	539.56
424.288	554.56
424.511	545.56
424.733	606.56
424.956	715.56
425.178	665.56
425.401	645.56
425.623	684.56
425.846	586.56
426.068	525.56
426.291	541.56
426.513	537.56
426.735	559.56
426.958	604.56
427.18	673.56
427.402	799.56
427.625	895.56
427.847	827.56
428.069	713.56
428.292	647.56
428.514	548.56
428.736	533.56
428.958	545.56
429.181	496.56
429.403	504.56
429.625	507.56
429.847	557.56
430.069	602.56
430.292	614.56
430.514	499.56
430.736	515.56
430.958	497.56
431.18	469.56
431.402	458.56
431.624	464.56
431.846	456.56
432.068	467.56
432.29	443.56
432.512	468.56
432.734	479.56
432.956	474.56
433.178	478.56
433.4	496.56
433.622	445.56
433.844	484.56
434.066	452.56
434.287	470.56
434.509	459.56
434.731	490.56
434.953	475.56
435.175	514.56
435.397	523.56
435.618	521.56
435.84	575.56
436.062	686.56
436.284	763.56
436.505	648.56
436.727	537.56
436.949	540.56
437.17	507.56
437.392	501.56
437.614	526.56
437.835	555.56
438.057	644.56
438.278	742.56
438.5	760.56
438.721	819.56
438.943	787.56
439.165	623.56
439.386	549.56
439.608	571.56
439.829	557.56
440.05	587.56
440.272	644.56
440.493	604.56
440.715	536.56
440.936	533.56
441.158	511.56
441.379	492.56
441.6	483.56
441.822	526.56
442.043	568.56
442.264	662.56
442.486	733.56
442.707	613.56
442.928	558.56
443.149	551.56
443.371	590.56
443.592	618.56
443.813	719.56
444.034	799.56
444.255	644.56
444.476	575.56
444.698	540.56
444.919	532.56
445.14	643.56
445.361	616.56
445.582	574.56
445.803	639.56
446.024	759.56
446.245	777.56
446.466	725.56
446.687	615.56
446.908	529.56
447.129	539.56
447.35	519.56
447.571	515.56
447.792	491.56
448.013	489.56
448.234	519.56
448.455	583.56
448.675	675.56
448.896	825.56
449.117	666.56
449.338	645.56
449.559	748.56
449.779	851.56
450	684.56
450.221	578.56
450.442	533.56
450.662	500.56
450.883	510.56
451.104	516.56
451.324	514.56
451.545	493.56
451.766	473.56
451.986	447.56
452.207	441.56
452.428	432.56
452.648	443.56
452.869	451.56
453.089	452.56
453.31	459.56
453.53	455.56
453.751	437.56
453.971	443.56
454.192	456.56
454.412	459.56
454.633	451.56
454.853	441.56
455.073	445.56
455.294	486.56
455.514	541.56
455.734	537.56
455.955	462.56
456.175	427.56
456.395	407.56
456.616	408.56
456.836	394.56
457.056	404.56
457.276	412.56
457.497	412.56
457.717	413.56
457.937	398.56
458.157	427.56
458.377	421.56
458.598	443.56
458.818	515.56
459.038	610.56
459.258	636.56
459.478	526.56
459.698	469.56
459.918	453.56
460.138	445.56
460.358	485.56
460.578	468.56
460.798	462.56
461.018	453.56
461.238	453.56
461.458	445.56
461.678	471.56
461.898	435.56
462.118	456.56
462.338	467.56
462.558	473.56
462.777	474.56
462.997	481.56
463.217	470.56
463.437	480.56
463.657	499.56
463.876	466.56
464.096	486.56
464.316	473.56
464.536	475.56
464.755	474.56
464.975	488.56
465.195	548.56
465.414	626.56
465.634	573.56
465.854	495.56
466.073	483.56
466.293	460.56
466.512	481.56
466.732	444.56
466.951	446.56
467.171	433.56
467.391	457.56
467.61	449.56
467.829	477.56
468.049	465.56
468.268	472.56
468.488	465.56
468.707	435.56
468.927	439.56
469.146	421.56
469.365	445.56
469.585	441.56
469.804	445.56
470.023	476.56
470.243	471.56
470.462	466.56
470.681	485.56
470.901	477.56
471.12	443.56
471.339	475.56
471.558	449.56
471.777	480.56
471.997	462.56
472.216	484.56
472.435	549.56
472.654	503.56
472.873	483.56
473.092	442.56
473.311	480.56
473.53	471.56
473.749	494.56
473.968	547.56
474.187	635.56
474.406	652.56
474.625	528.56
474.844	491.56
475.063	472.56
475.282	467.56
475.501	464.56
475.72	466.56
475.939	475.56
476.158	482.56
476.377	472.56
476.596	454.56
476.814	477.56
477.033	476.56
477.252	484.56
477.471	510.56
477.69	475.56
477.908	481.56
478.127	504.56
478.346	465.56
478.564	487.56
478.783	519.56
479.002	518.56
479.22	522.56
479.439	525.56
479.658	536.56
479.876	545.56
480.095	550.56
480.313	561.56
480.532	577.56
480.751	577.56
480.969	578.56
481.188	734.56
481.406	821.56
481.624	671.56
481.843	603.56
482.061	563.56
482.28	566.56
482.498	558.56
482.717	552.56
482.935	538.56
483.153	565.56
483.372	544.56
483.59	531.56
483.808	564.56
484.027	535.56
484.245	531.56
484.463	553.56
484.681	562.56
484.9	565.56
485.118	542.56
485.336	551.56
485.554	563.56
485.772	543.56
485.99	560.56
486.209	588.56
486.427	570.56
486.645	581.56
486.863	595.56
487.081	581.56
487.299	593.56
487.517	575.56
487.735	603.56
487.953	590.56
488.171	574.56
488.389	587.56
488.607	614.56
488.825	589.56
489.043	593.56
489.261	601.56
489.479	599.56
489.696	598.56
489.914	619.56
490.132	622.56
490.35	602.56
490.568	605.56
490.786	637.56
491.003	628.56
491.221	657.56
491.439	685.56
491.657	672.56
491.874	677.56
492.092	698.56
492.31	693.56
492.527	699.56
492.745	682.56
492.963	698.56
493.18	709.56
493.398	688.56
493.615	708.56
493.833	696.56
494.05	718.56
494.268	718.56
494.485	695.56
494.703	697.56
494.92	698.56
495.138	697.56
495.355	696.56
495.573	715.56
495.79	685.56
496.008	702.56
496.225	679.56
496.442	690.56
496.66	693.56
496.877	701.56
497.094	670.56
497.312	680.56
497.529	697.56
497.746	707.56
497.963	731.56
498.181	748.56
498.398	737.56
498.615	739.56
498.832	771.56
499.049	771.56
499.267	787.56
499.484	797.56
499.701	790.56
499.918	803.56
500.135	867.56
500.352	876.56
500.569	892.56
500.786	893.56
501.003	888.56
501.22	878.56
501.437	868.56
501.654	838.56
501.871	830.56
