Data from 1989.PennyLincolnUp.Lamp.En5.5.200Scan.071819.P2_HRD10591_17-23-23-972.txt Node
Date: Thu Jul 18 17:23:23 EDT 2019
User: cochatt
Spectrometer: HR+D1059
Trigger mode: 1
Integration Time (sec): 1.000000E-1
Scans to average: 1
Electric dark correction enabled: true
Nonlinearity correction enabled: false
Boxcar width: 0
XAxis mode: Wavelengths
Number of Pixels in Spectrum: 2048
>>>>>Begin Spectral Data<<<<<
223.165	-28.12
223.4	-28.12
223.635	-28.12
223.869	1.88
224.104	-24.12
224.338	-19.12
224.573	-21.12
224.808	-12.12
225.042	-0.12
225.277	0.88
225.511	0.88
225.746	-8.12
225.98	8.88
226.215	4.88
226.449	19.88
226.683	29.88
226.918	19.88
227.152	25.88
227.387	31.88
227.621	29.88
227.856	52.88
228.09	57.88
228.324	48.88
228.559	51.88
228.793	67.88
229.027	90.88
229.262	109.88
229.496	105.88
229.73	106.88
229.964	129.88
230.199	116.88
230.433	114.88
230.667	105.88
230.901	94.88
231.136	112.88
231.37	112.88
231.604	101.88
231.838	113.88
232.072	115.88
232.306	96.88
232.541	113.88
232.775	121.88
233.009	105.88
233.243	114.88
233.477	109.88
233.711	130.88
233.945	108.88
234.179	109.88
234.413	114.88
234.647	112.88
234.881	113.88
235.115	110.88
235.349	110.88
235.583	121.88
235.817	118.88
236.051	112.88
236.285	125.88
236.519	117.88
236.753	124.88
236.987	130.88
237.221	156.88
237.455	217.88
237.689	180.88
237.922	120.88
238.156	125.88
238.39	122.88
238.624	110.88
238.858	126.88
239.091	116.88
239.325	130.88
239.559	115.88
239.793	134.88
240.027	117.88
240.26	128.88
240.494	138.88
240.728	140.88
240.961	144.88
241.195	136.88
241.429	134.88
241.662	137.88
241.896	126.88
242.13	139.88
242.363	132.88
242.597	138.88
242.83	154.88
243.064	137.88
243.298	133.88
243.531	135.88
243.765	133.88
243.998	136.88
244.232	144.88
244.465	130.88
244.699	131.88
244.932	153.88
245.166	147.88
245.399	144.88
245.633	137.88
245.866	146.88
246.099	155.88
246.333	160.88
246.566	132.88
246.8	141.88
247.033	159.88
247.266	148.88
247.5	141.88
247.733	160.88
247.966	166.88
248.2	166.88
248.433	165.88
248.666	184.88
248.899	172.88
249.133	196.88
249.366	194.88
249.599	189.88
249.832	180.88
250.066	165.88
250.299	176.88
250.532	169.88
250.765	178.88
250.998	205.88
251.231	216.88
251.465	201.88
251.698	200.88
251.931	190.88
252.164	192.88
252.397	181.88
252.63	183.88
252.863	206.88
253.096	210.88
253.329	212.88
253.562	207.88
253.795	212.88
254.028	224.88
254.261	218.88
254.494	230.88
254.727	241.88
254.96	260.88
255.193	250.88
255.426	246.88
255.659	234.88
255.892	215.88
256.124	228.88
256.357	217.88
256.59	210.88
256.823	217.88
257.056	203.88
257.289	189.88
257.521	207.88
257.754	205.88
257.987	208.88
258.22	212.88
258.452	220.88
258.685	200.88
258.918	204.88
259.151	196.88
259.383	223.88
259.616	210.88
259.849	209.88
260.081	226.88
260.314	236.88
260.547	250.88
260.779	248.88
261.012	242.88
261.244	220.88
261.477	219.88
261.71	219.88
261.942	199.88
262.175	227.88
262.407	212.88
262.64	219.88
262.872	212.88
263.105	195.88
263.337	203.88
263.57	204.88
263.802	205.88
264.035	212.88
264.267	210.88
264.499	213.88
264.732	207.88
264.964	221.88
265.197	208.88
265.429	216.88
265.661	219.88
265.894	215.88
266.126	214.88
266.358	206.88
266.591	212.88
266.823	234.88
267.055	214.88
267.287	234.88
267.52	227.88
267.752	221.88
267.984	222.88
268.216	220.88
268.448	206.88
268.681	227.88
268.913	214.88
269.145	259.88
269.377	278.88
269.609	256.88
269.841	276.88
270.073	269.88
270.306	280.88
270.538	302.88
270.77	295.88
271.002	285.88
271.234	245.88
271.466	269.88
271.698	290.88
271.93	315.88
272.162	294.88
272.394	297.88
272.626	307.88
272.858	284.88
273.09	259.88
273.322	259.88
273.553	257.88
273.785	267.88
274.017	242.88
274.249	241.88
274.481	257.88
274.713	266.88
274.945	263.88
275.176	244.88
275.408	253.88
275.64	249.88
275.872	258.88
276.104	269.88
276.335	251.88
276.567	256.88
276.799	270.88
277.031	281.88
277.262	280.88
277.494	294.88
277.726	300.88
277.957	281.88
278.189	256.88
278.421	266.88
278.652	266.88
278.884	257.88
279.115	257.88
279.347	269.88
279.579	269.88
279.81	262.88
280.042	251.88
280.273	264.88
280.505	246.88
280.736	262.88
280.968	278.88
281.199	277.88
281.431	262.88
281.662	266.88
281.894	257.88
282.125	268.88
282.356	267.88
282.588	278.88
282.819	290.88
283.051	271.88
283.282	270.88
283.513	266.88
283.745	266.88
283.976	262.88
284.207	279.88
284.439	256.88
284.67	271.88
284.901	274.88
285.132	263.88
285.364	263.88
285.595	285.88
285.826	291.88
286.057	270.88
286.288	254.88
286.52	267.88
286.751	278.88
286.982	270.88
287.213	273.88
287.444	274.88
287.675	261.88
287.906	288.88
288.138	280.88
288.369	288.88
288.6	284.88
288.831	277.88
289.062	272.88
289.293	281.88
289.524	277.88
289.755	278.88
289.986	269.88
290.217	288.88
290.448	278.88
290.679	295.88
290.91	280.88
291.141	274.88
291.371	281.88
291.602	276.88
291.833	292.88
292.064	266.88
292.295	284.88
292.526	256.88
292.757	284.88
292.987	259.88
293.218	275.88
293.449	291.88
293.68	279.88
293.91	279.88
294.141	272.88
294.372	282.88
294.603	281.88
294.833	306.88
295.064	287.88
295.295	278.88
295.525	276.88
295.756	275.88
295.987	275.88
296.217	296.88
296.448	312.88
296.679	289.88
296.909	292.88
297.14	291.88
297.37	287.88
297.601	315.88
297.831	280.88
298.062	308.88
298.292	299.88
298.523	311.88
298.753	313.88
298.984	298.88
299.214	278.88
299.445	290.88
299.675	295.88
299.905	290.88
300.136	312.88
300.366	285.88
300.597	293.88
300.827	290.88
301.057	306.88
301.288	304.88
301.518	313.88
301.748	304.88
301.979	292.88
302.209	318.88
302.439	308.88
302.669	321.88
302.9	310.88
303.13	318.88
303.36	330.88
303.59	306.88
303.82	320.88
304.051	328.88
304.281	323.88
304.511	320.88
304.741	340.88
304.971	319.88
305.201	312.88
305.431	306.88
305.661	306.88
305.891	315.88
306.121	315.88
306.352	322.88
306.582	315.88
306.812	311.88
307.042	316.88
307.272	305.88
307.502	327.88
307.731	330.88
307.961	324.88
308.191	309.88
308.421	321.88
308.651	304.88
308.881	331.88
309.111	314.88
309.341	323.88
309.571	306.88
309.8	340.88
310.03	363.88
310.26	345.88
310.49	362.88
310.72	361.88
310.949	381.88
311.179	362.88
311.409	360.88
311.639	346.88
311.868	356.88
312.098	356.88
312.328	336.88
312.557	376.88
312.787	373.88
313.017	380.88
313.246	358.88
313.476	357.88
313.706	354.88
313.935	348.88
314.165	356.88
314.394	374.88
314.624	370.88
314.853	357.88
315.083	354.88
315.312	362.88
315.542	361.88
315.771	344.88
316.001	352.88
316.23	349.88
316.46	341.88
316.689	344.88
316.919	365.88
317.148	370.88
317.377	378.88
317.607	356.88
317.836	340.88
318.065	343.88
318.295	349.88
318.524	353.88
318.753	351.88
318.983	355.88
319.212	358.88
319.441	359.88
319.67	396.88
319.9	360.88
320.129	370.88
320.358	350.88
320.587	374.88
320.816	361.88
321.046	378.88
321.275	396.88
321.504	372.88
321.733	379.88
321.962	392.88
322.191	406.88
322.42	390.88
322.649	421.88
322.878	417.88
323.108	415.88
323.337	433.88
323.566	442.88
323.795	485.88
324.024	516.88
324.253	607.88
324.482	850.88
324.71	1285.88
324.939	1848.88
325.168	1612.88
325.397	838.88
325.626	564.88
325.855	475.88
326.084	468.88
326.313	455.88
326.542	474.88
326.77	517.88
326.999	581.88
327.228	769.88
327.457	1137.88
327.686	1400.88
327.914	941.88
328.143	628.88
328.372	532.88
328.6	499.88
328.829	498.88
329.058	514.88
329.287	519.88
329.515	482.88
329.744	470.88
329.972	443.88
330.201	449.88
330.43	460.88
330.658	463.88
330.887	530.88
331.115	542.88
331.344	473.88
331.572	440.88
331.801	435.88
332.03	429.88
332.258	416.88
332.486	416.88
332.715	404.88
332.943	396.88
333.172	417.88
333.4	402.88
333.629	419.88
333.857	432.88
334.085	425.88
334.314	429.88
334.542	414.88
334.771	409.88
334.999	407.88
335.227	416.88
335.455	411.88
335.684	422.88
335.912	418.88
336.14	417.88
336.369	438.88
336.597	426.88
336.825	406.88
337.053	416.88
337.281	413.88
337.51	407.88
337.738	399.88
337.966	408.88
338.194	414.88
338.422	389.88
338.65	417.88
338.878	398.88
339.106	390.88
339.334	411.88
339.562	394.88
339.79	384.88
340.018	418.88
340.246	397.88
340.474	402.88
340.702	414.88
340.93	411.88
341.158	394.88
341.386	390.88
341.614	395.88
341.842	399.88
342.07	405.88
342.298	387.88
342.526	382.88
342.754	372.88
342.981	389.88
343.209	399.88
343.437	410.88
343.665	395.88
343.893	404.88
344.12	412.88
344.348	407.88
344.576	394.88
344.804	416.88
345.031	412.88
345.259	409.88
345.487	416.88
345.714	404.88
345.942	405.88
346.17	394.88
346.397	375.88
346.625	402.88
346.853	385.88
347.08	391.88
347.308	386.88
347.535	395.88
347.763	394.88
347.99	397.88
348.218	388.88
348.445	391.88
348.673	389.88
348.9	387.88
349.128	366.88
349.355	382.88
349.583	390.88
349.81	374.88
350.037	367.88
350.265	353.88
350.492	378.88
350.72	380.88
350.947	350.88
351.174	391.88
351.402	398.88
351.629	388.88
351.856	413.88
352.083	384.88
352.311	408.88
352.538	397.88
352.765	402.88
352.992	386.88
353.22	377.88
353.447	387.88
353.674	344.88
353.901	378.88
354.128	349.88
354.355	360.88
354.583	364.88
354.81	365.88
355.037	378.88
355.264	360.88
355.491	354.88
355.718	354.88
355.945	345.88
356.172	356.88
356.399	364.88
356.626	362.88
356.853	350.88
357.08	359.88
357.307	355.88
357.534	351.88
357.761	353.88
357.988	361.88
358.215	354.88
358.441	354.88
358.668	338.88
358.895	365.88
359.122	362.88
359.349	360.88
359.576	375.88
359.802	377.88
360.029	395.88
360.256	415.88
360.483	401.88
360.709	371.88
360.936	375.88
361.163	384.88
361.39	368.88
361.616	368.88
361.843	383.88
362.07	376.88
362.296	352.88
362.523	368.88
362.749	354.88
362.976	369.88
363.203	372.88
363.429	358.88
363.656	347.88
363.882	349.88
364.109	373.88
364.335	371.88
364.562	351.88
364.788	363.88
365.015	375.88
365.241	361.88
365.468	369.88
365.694	366.88
365.92	346.88
366.147	355.88
366.373	340.88
366.599	344.88
366.826	354.88
367.052	369.88
367.278	351.88
367.505	348.88
367.731	387.88
367.957	338.88
368.184	366.88
368.41	362.88
368.636	369.88
368.862	374.88
369.089	345.88
369.315	358.88
369.541	372.88
369.767	368.88
369.993	370.88
370.219	344.88
370.445	348.88
370.672	348.88
370.898	358.88
371.124	353.88
371.35	356.88
371.576	370.88
371.802	356.88
372.028	349.88
372.254	338.88
372.48	354.88
372.706	375.88
372.932	344.88
373.158	360.88
373.384	381.88
373.61	371.88
373.835	365.88
374.061	368.88
374.287	386.88
374.513	359.88
374.739	378.88
374.965	370.88
375.191	354.88
375.416	360.88
375.642	377.88
375.868	368.88
376.094	362.88
376.319	368.88
376.545	360.88
376.771	344.88
376.997	350.88
377.222	358.88
377.448	350.88
377.674	368.88
377.899	368.88
378.125	352.88
378.35	348.88
378.576	346.88
378.802	345.88
379.027	353.88
379.253	349.88
379.478	338.88
379.704	362.88
379.929	377.88
380.155	358.88
380.38	339.88
380.606	369.88
380.831	376.88
381.057	368.88
381.282	376.88
381.507	355.88
381.733	344.88
381.958	377.88
382.184	349.88
382.409	390.88
382.634	359.88
382.86	368.88
383.085	353.88
383.31	354.88
383.535	374.88
383.761	376.88
383.986	386.88
384.211	358.88
384.436	379.88
384.662	376.88
384.887	384.88
385.112	382.88
385.337	384.88
385.562	394.88
385.787	380.88
386.013	394.88
386.238	406.88
386.463	404.88
386.688	392.88
386.913	374.88
387.138	368.88
387.363	397.88
387.588	386.88
387.813	398.88
388.038	372.88
388.263	378.88
388.488	411.88
388.713	378.88
388.938	374.88
389.163	376.88
389.387	390.88
389.612	387.88
389.837	379.88
390.062	376.88
390.287	372.88
390.512	368.88
390.736	380.88
390.961	375.88
391.186	378.88
391.411	387.88
391.636	386.88
391.86	382.88
392.085	388.88
392.31	392.88
392.534	390.88
392.759	355.88
392.984	363.88
393.208	368.88
393.433	380.88
393.658	371.88
393.882	387.88
394.107	371.88
394.331	393.88
394.556	384.88
394.78	396.88
395.005	380.88
395.229	370.88
395.454	396.88
395.678	384.88
395.903	385.88
396.127	410.88
396.352	428.88
396.576	416.88
396.801	391.88
397.025	403.88
397.249	384.88
397.474	393.88
397.698	398.88
397.922	420.88
398.147	404.88
398.371	438.88
398.595	419.88
398.82	425.88
399.044	437.88
399.268	448.88
399.492	452.88
399.717	487.88
399.941	504.88
400.165	521.88
400.389	542.88
400.613	502.88
400.837	436.88
401.062	427.88
401.286	441.88
401.51	438.88
401.734	449.88
401.958	417.88
402.182	433.88
402.406	419.88
402.63	417.88
402.854	418.88
403.078	428.88
403.302	440.88
403.526	464.88
403.75	441.88
403.974	454.88
404.198	429.88
404.422	463.88
404.645	453.88
404.869	433.88
405.093	435.88
405.317	468.88
405.541	483.88
405.765	482.88
405.988	475.88
406.212	477.88
406.436	462.88
406.66	480.88
406.883	458.88
407.107	498.88
407.331	532.88
407.555	577.88
407.778	570.88
408.002	525.88
408.226	478.88
408.449	474.88
408.673	479.88
408.896	517.88
409.12	540.88
409.344	500.88
409.567	464.88
409.791	455.88
410.014	446.88
410.238	450.88
410.461	450.88
410.685	458.88
410.908	460.88
411.132	489.88
411.355	509.88
411.578	514.88
411.802	441.88
412.025	454.88
412.249	440.88
412.472	439.88
412.695	443.88
412.919	448.88
413.142	420.88
413.365	422.88
413.589	409.88
413.812	390.88
414.035	421.88
414.258	406.88
414.482	425.88
414.705	402.88
414.928	412.88
415.151	424.88
415.374	414.88
415.597	408.88
415.821	429.88
416.044	438.88
416.267	416.88
416.49	399.88
416.713	409.88
416.936	422.88
417.159	400.88
417.382	424.88
417.605	409.88
417.828	427.88
418.051	466.88
418.274	444.88
418.497	408.88
418.72	409.88
418.943	417.88
419.166	434.88
419.389	442.88
419.611	437.88
419.834	451.88
420.057	442.88
420.28	404.88
420.503	428.88
420.726	420.88
420.948	463.88
421.171	469.88
421.394	481.88
421.617	456.88
421.839	454.88
422.062	426.88
422.285	451.88
422.507	520.88
422.73	566.88
422.953	573.88
423.175	483.88
423.398	472.88
423.621	442.88
423.843	467.88
424.066	474.88
424.288	453.88
424.511	493.88
424.733	540.88
424.956	602.88
425.178	601.88
425.401	578.88
425.623	590.88
425.846	509.88
426.068	483.88
426.291	456.88
426.513	478.88
426.735	460.88
426.958	521.88
427.18	587.88
427.402	709.88
427.625	758.88
427.847	664.88
428.069	530.88
428.292	491.88
428.514	459.88
428.736	452.88
428.958	443.88
429.181	425.88
429.403	436.88
429.625	460.88
429.847	450.88
430.069	554.88
430.292	537.88
430.514	471.88
430.736	420.88
430.958	430.88
431.18	413.88
431.402	411.88
431.624	398.88
431.846	407.88
432.068	420.88
432.29	424.88
432.512	411.88
432.734	414.88
432.956	411.88
433.178	403.88
433.4	425.88
433.622	417.88
433.844	423.88
434.066	403.88
434.287	403.88
434.509	413.88
434.731	403.88
434.953	427.88
435.175	445.88
435.397	458.88
435.618	469.88
435.84	517.88
436.062	590.88
436.284	654.88
436.505	545.88
436.727	477.88
436.949	428.88
437.17	433.88
437.392	429.88
437.614	445.88
437.835	469.88
438.057	570.88
438.278	645.88
438.5	644.88
438.721	737.88
438.943	690.88
439.165	556.88
439.386	501.88
439.608	497.88
439.829	480.88
440.05	512.88
440.272	561.88
440.493	513.88
440.715	459.88
440.936	452.88
441.158	460.88
441.379	436.88
441.6	449.88
441.822	450.88
442.043	507.88
442.264	590.88
442.486	603.88
442.707	544.88
442.928	486.88
443.149	487.88
443.371	508.88
443.592	532.88
443.813	618.88
444.034	660.88
444.255	564.88
444.476	470.88
444.698	481.88
444.919	455.88
445.14	538.88
445.361	530.88
445.582	498.88
445.803	565.88
446.024	647.88
446.245	654.88
446.466	580.88
446.687	521.88
446.908	480.88
447.129	456.88
447.35	449.88
447.571	448.88
447.792	422.88
448.013	441.88
448.234	435.88
448.455	509.88
448.675	585.88
448.896	709.88
449.117	581.88
449.338	564.88
449.559	667.88
449.779	757.88
450	567.88
450.221	473.88
450.442	425.88
450.662	442.88
450.883	440.88
451.104	438.88
451.324	426.88
451.545	400.88
451.766	399.88
451.986	406.88
452.207	403.88
452.428	370.88
452.648	389.88
452.869	391.88
453.089	376.88
453.31	420.88
453.53	392.88
453.751	399.88
453.971	402.88
454.192	378.88
454.412	388.88
454.633	389.88
454.853	375.88
455.073	384.88
455.294	417.88
455.514	442.88
455.734	454.88
455.955	412.88
456.175	364.88
456.395	364.88
456.616	347.88
456.836	368.88
457.056	362.88
457.276	346.88
457.497	369.88
457.717	376.88
457.937	374.88
458.157	389.88
458.377	370.88
458.598	403.88
458.818	452.88
459.038	481.88
459.258	549.88
459.478	466.88
459.698	401.88
459.918	409.88
460.138	394.88
460.358	397.88
460.578	410.88
460.798	392.88
461.018	411.88
461.238	414.88
461.458	397.88
461.678	411.88
461.898	399.88
462.118	417.88
462.338	398.88
462.558	434.88
462.777	420.88
462.997	450.88
463.217	445.88
463.437	436.88
463.657	422.88
463.876	433.88
464.096	446.88
464.316	429.88
464.536	435.88
464.755	457.88
464.975	444.88
465.195	470.88
465.414	499.88
465.634	477.88
465.854	427.88
466.073	411.88
466.293	399.88
466.512	422.88
466.732	420.88
466.951	392.88
467.171	402.88
467.391	386.88
467.61	402.88
467.829	429.88
468.049	400.88
468.268	382.88
468.488	380.88
468.707	368.88
468.927	368.88
469.146	365.88
469.365	399.88
469.585	383.88
469.804	388.88
470.023	387.88
470.243	403.88
470.462	411.88
470.681	418.88
470.901	416.88
471.12	395.88
471.339	406.88
471.558	404.88
471.777	384.88
471.997	404.88
472.216	376.88
472.435	391.88
472.654	392.88
472.873	387.88
473.092	409.88
473.311	394.88
473.53	410.88
473.749	398.88
473.968	450.88
474.187	525.88
474.406	572.88
474.625	450.88
474.844	420.88
475.063	404.88
475.282	395.88
475.501	417.88
475.72	421.88
475.939	417.88
476.158	429.88
476.377	401.88
476.596	414.88
476.814	418.88
477.033	427.88
477.252	422.88
477.471	431.88
477.69	425.88
477.908	442.88
478.127	421.88
478.346	421.88
478.564	425.88
478.783	443.88
479.002	449.88
479.22	436.88
479.439	462.88
479.658	482.88
479.876	468.88
480.095	494.88
480.313	504.88
480.532	491.88
480.751	484.88
480.969	498.88
481.188	490.88
481.406	450.88
481.624	476.88
481.843	477.88
482.061	482.88
482.28	462.88
482.498	455.88
482.717	465.88
482.935	464.88
483.153	459.88
483.372	467.88
483.59	473.88
483.808	483.88
484.027	472.88
484.245	455.88
484.463	450.88
484.681	467.88
484.9	480.88
485.118	454.88
485.336	475.88
485.554	483.88
485.772	483.88
485.99	485.88
486.209	481.88
486.427	487.88
486.645	493.88
486.863	495.88
487.081	502.88
487.299	478.88
487.517	487.88
487.735	501.88
487.953	501.88
488.171	498.88
488.389	497.88
488.607	514.88
488.825	510.88
489.043	491.88
489.261	489.88
489.479	506.88
489.696	511.88
489.914	522.88
490.132	512.88
490.35	505.88
490.568	507.88
490.786	520.88
491.003	542.88
491.221	540.88
491.439	561.88
491.657	555.88
491.874	548.88
492.092	563.88
492.31	554.88
492.527	570.88
492.745	564.88
492.963	566.88
493.18	569.88
493.398	556.88
493.615	580.88
493.833	576.88
494.05	583.88
494.268	579.88
494.485	577.88
494.703	572.88
494.92	574.88
495.138	588.88
495.355	562.88
495.573	568.88
495.79	591.88
496.008	599.88
496.225	590.88
496.442	587.88
496.66	584.88
496.877	595.88
497.094	588.88
497.312	618.88
497.529	624.88
497.746	630.88
497.963	622.88
498.181	636.88
498.398	642.88
498.615	669.88
498.832	634.88
499.049	684.88
499.267	678.88
499.484	698.88
499.701	731.88
499.918	723.88
500.135	758.88
500.352	780.88
500.569	786.88
500.786	777.88
501.003	794.88
501.22	769.88
501.437	752.88
501.654	730.88
501.871	724.88
502.088	715.88
