Data from 1989.PennyLincolnUp.Lamp.En5.5.200Scan.071819.P2_HRD10591_17-24-25-973.txt Node
Date: Thu Jul 18 17:24:25 EDT 2019
User: cochatt
Spectrometer: HR+D1059
Trigger mode: 1
Integration Time (sec): 1.000000E-1
Scans to average: 1
Electric dark correction enabled: true
Nonlinearity correction enabled: false
Boxcar width: 0
XAxis mode: Wavelengths
Number of Pixels in Spectrum: 2048
>>>>>Begin Spectral Data<<<<<
223.165	-22.06
223.4	-22.06
223.635	-22.06
223.869	-26.06
224.104	-24.06
224.338	-11.06
224.573	-6.06
224.808	-8.06
225.042	8.94
225.277	-9.06
225.511	15.94
225.746	-7.06
225.98	-18.06
226.215	19.94
226.449	13.94
226.683	12.94
226.918	23.94
227.152	35.94
227.387	38.94
227.621	29.94
227.856	53.94
228.09	45.94
228.324	54.94
228.559	44.94
228.793	65.94
229.027	93.94
229.262	106.94
229.496	136.94
229.73	140.94
229.964	166.94
230.199	122.94
230.433	125.94
230.667	112.94
230.901	110.94
231.136	99.94
231.37	119.94
231.604	105.94
231.838	117.94
232.072	125.94
232.306	111.94
232.541	119.94
232.775	115.94
233.009	120.94
233.243	117.94
233.477	102.94
233.711	119.94
233.945	121.94
234.179	113.94
234.413	118.94
234.647	117.94
234.881	131.94
235.115	115.94
235.349	123.94
235.583	124.94
235.817	127.94
236.051	134.94
236.285	134.94
236.519	129.94
236.753	133.94
236.987	149.94
237.221	187.94
237.455	242.94
237.689	209.94
237.922	144.94
238.156	139.94
238.39	129.94
238.624	143.94
238.858	137.94
239.091	131.94
239.325	123.94
239.559	136.94
239.793	136.94
240.027	146.94
240.26	150.94
240.494	159.94
240.728	160.94
240.961	148.94
241.195	158.94
241.429	131.94
241.662	143.94
241.896	137.94
242.13	139.94
242.363	127.94
242.597	143.94
242.83	154.94
243.064	142.94
243.298	145.94
243.531	139.94
243.765	149.94
243.998	143.94
244.232	128.94
244.465	150.94
244.699	147.94
244.932	135.94
245.166	143.94
245.399	153.94
245.633	150.94
245.866	147.94
246.099	145.94
246.333	154.94
246.566	165.94
246.8	159.94
247.033	158.94
247.266	158.94
247.5	164.94
247.733	174.94
247.966	176.94
248.2	193.94
248.433	181.94
248.666	205.94
248.899	186.94
249.133	225.94
249.366	220.94
249.599	227.94
249.832	200.94
250.066	203.94
250.299	188.94
250.532	211.94
250.765	203.94
250.998	216.94
251.231	230.94
251.465	223.94
251.698	218.94
251.931	220.94
252.164	210.94
252.397	203.94
252.63	206.94
252.863	227.94
253.096	248.94
253.329	243.94
253.562	249.94
253.795	246.94
254.028	230.94
254.261	224.94
254.494	245.94
254.727	276.94
254.96	289.94
255.193	308.94
255.426	266.94
255.659	259.94
255.892	244.94
256.124	230.94
256.357	241.94
256.59	203.94
256.823	223.94
257.056	223.94
257.289	234.94
257.521	207.94
257.754	219.94
257.987	212.94
258.22	218.94
258.452	229.94
258.685	226.94
258.918	234.94
259.151	240.94
259.383	251.94
259.616	240.94
259.849	241.94
260.081	248.94
260.314	262.94
260.547	287.94
260.779	260.94
261.012	265.94
261.244	242.94
261.477	257.94
261.71	247.94
261.942	245.94
262.175	269.94
262.407	243.94
262.64	212.94
262.872	223.94
263.105	232.94
263.337	227.94
263.57	237.94
263.802	229.94
264.035	220.94
264.267	225.94
264.499	226.94
264.732	210.94
264.964	225.94
265.197	223.94
265.429	232.94
265.661	221.94
265.894	238.94
266.126	238.94
266.358	231.94
266.591	246.94
266.823	244.94
267.055	238.94
267.287	246.94
267.52	234.94
267.752	229.94
267.984	235.94
268.216	234.94
268.448	257.94
268.681	244.94
268.913	259.94
269.145	281.94
269.377	284.94
269.609	283.94
269.841	271.94
270.073	289.94
270.306	297.94
270.538	341.94
270.77	321.94
271.002	340.94
271.234	316.94
271.466	319.94
271.698	345.94
271.93	331.94
272.162	327.94
272.394	342.94
272.626	334.94
272.858	321.94
273.09	301.94
273.322	306.94
273.553	286.94
273.785	288.94
274.017	293.94
274.249	293.94
274.481	276.94
274.713	275.94
274.945	291.94
275.176	298.94
275.408	287.94
275.64	286.94
275.872	277.94
276.104	269.94
276.335	281.94
276.567	296.94
276.799	285.94
277.031	324.94
277.262	332.94
277.494	330.94
277.726	318.94
277.957	313.94
278.189	314.94
278.421	309.94
278.652	273.94
278.884	300.94
279.115	288.94
279.347	286.94
279.579	269.94
279.81	289.94
280.042	282.94
280.273	271.94
280.505	265.94
280.736	275.94
280.968	275.94
281.199	294.94
281.431	273.94
281.662	269.94
281.894	280.94
282.125	279.94
282.356	323.94
282.588	336.94
282.819	339.94
283.051	298.94
283.282	296.94
283.513	266.94
283.745	287.94
283.976	288.94
284.207	289.94
284.439	297.94
284.67	290.94
284.901	287.94
285.132	303.94
285.364	302.94
285.595	297.94
285.826	285.94
286.057	305.94
286.288	294.94
286.52	291.94
286.751	281.94
286.982	298.94
287.213	286.94
287.444	328.94
287.675	305.94
287.906	313.94
288.138	314.94
288.369	331.94
288.6	326.94
288.831	315.94
289.062	299.94
289.293	299.94
289.524	315.94
289.755	304.94
289.986	311.94
290.217	296.94
290.448	282.94
290.679	302.94
290.91	306.94
291.141	305.94
291.371	305.94
291.602	277.94
291.833	300.94
292.064	308.94
292.295	295.94
292.526	290.94
292.757	282.94
292.987	287.94
293.218	293.94
293.449	301.94
293.68	318.94
293.91	303.94
294.141	283.94
294.372	293.94
294.603	311.94
294.833	294.94
295.064	310.94
295.295	300.94
295.525	317.94
295.756	318.94
295.987	322.94
296.217	354.94
296.448	351.94
296.679	311.94
296.909	303.94
297.14	295.94
297.37	305.94
297.601	325.94
297.831	305.94
298.062	331.94
298.292	323.94
298.523	321.94
298.753	315.94
298.984	312.94
299.214	338.94
299.445	313.94
299.675	307.94
299.905	311.94
300.136	324.94
300.366	330.94
300.597	317.94
300.827	315.94
301.057	341.94
301.288	344.94
301.518	339.94
301.748	326.94
301.979	317.94
302.209	339.94
302.439	327.94
302.669	349.94
302.9	339.94
303.13	324.94
303.36	344.94
303.59	344.94
303.82	338.94
304.051	333.94
304.281	325.94
304.511	334.94
304.741	351.94
304.971	341.94
305.201	330.94
305.431	347.94
305.661	337.94
305.891	338.94
306.121	336.94
306.352	347.94
306.582	327.94
306.812	325.94
307.042	354.94
307.272	333.94
307.502	331.94
307.731	323.94
307.961	332.94
308.191	341.94
308.421	350.94
308.651	331.94
308.881	356.94
309.111	371.94
309.341	347.94
309.571	370.94
309.8	358.94
310.03	385.94
310.26	391.94
310.49	398.94
310.72	417.94
310.949	439.94
311.179	425.94
311.409	393.94
311.639	396.94
311.868	393.94
312.098	412.94
312.328	420.94
312.557	416.94
312.787	431.94
313.017	428.94
313.246	403.94
313.476	398.94
313.706	393.94
313.935	396.94
314.165	438.94
314.394	405.94
314.624	428.94
314.853	426.94
315.083	434.94
315.312	410.94
315.542	382.94
315.771	392.94
316.001	394.94
316.23	419.94
316.46	382.94
316.689	367.94
316.919	382.94
317.148	393.94
317.377	421.94
317.607	384.94
317.836	398.94
318.065	391.94
318.295	397.94
318.524	416.94
318.753	406.94
318.983	417.94
319.212	403.94
319.441	410.94
319.67	410.94
319.9	390.94
320.129	396.94
320.358	399.94
320.587	403.94
320.816	409.94
321.046	423.94
321.275	444.94
321.504	398.94
321.733	423.94
321.962	426.94
322.191	450.94
322.42	429.94
322.649	479.94
322.878	487.94
323.108	505.94
323.337	525.94
323.566	551.94
323.795	582.94
324.024	625.94
324.253	769.94
324.482	1097.94
324.71	1671.94
324.939	2381.94
325.168	2092.94
325.397	1074.94
325.626	737.94
325.855	615.94
326.084	557.94
326.313	553.94
326.542	543.94
326.77	622.94
326.999	720.94
327.228	969.94
327.457	1499.94
327.686	1804.94
327.914	1209.94
328.143	801.94
328.372	665.94
328.6	645.94
328.829	591.94
329.058	623.94
329.287	638.94
329.515	573.94
329.744	531.94
329.972	509.94
330.201	513.94
330.43	538.94
330.658	615.94
330.887	633.94
331.115	625.94
331.344	557.94
331.572	514.94
331.801	511.94
332.03	495.94
332.258	492.94
332.486	476.94
332.715	455.94
332.943	463.94
333.172	476.94
333.4	468.94
333.629	463.94
333.857	468.94
334.085	492.94
334.314	463.94
334.542	470.94
334.771	469.94
334.999	462.94
335.227	477.94
335.455	456.94
335.684	455.94
335.912	451.94
336.14	450.94
336.369	457.94
336.597	463.94
336.825	469.94
337.053	442.94
337.281	447.94
337.51	441.94
337.738	451.94
337.966	462.94
338.194	424.94
338.422	460.94
338.65	429.94
338.878	453.94
339.106	434.94
339.334	445.94
339.562	445.94
339.79	442.94
340.018	430.94
340.246	444.94
340.474	441.94
340.702	439.94
340.93	429.94
341.158	426.94
341.386	433.94
341.614	433.94
341.842	429.94
342.07	429.94
342.298	430.94
342.526	434.94
342.754	413.94
342.981	421.94
343.209	408.94
343.437	419.94
343.665	413.94
343.893	429.94
344.12	434.94
344.348	439.94
344.576	428.94
344.804	445.94
345.031	475.94
345.259	484.94
345.487	469.94
345.714	452.94
345.942	429.94
346.17	421.94
346.397	414.94
346.625	433.94
346.853	434.94
347.08	424.94
347.308	421.94
347.535	438.94
347.763	440.94
347.99	438.94
348.218	435.94
348.445	463.94
348.673	443.94
348.9	419.94
349.128	412.94
349.355	407.94
349.583	413.94
349.81	409.94
350.037	396.94
350.265	425.94
350.492	403.94
350.72	395.94
350.947	400.94
351.174	435.94
351.402	441.94
351.629	430.94
351.856	421.94
352.083	437.94
352.311	427.94
352.538	433.94
352.765	449.94
352.992	411.94
353.22	414.94
353.447	394.94
353.674	423.94
353.901	415.94
354.128	404.94
354.355	379.94
354.583	390.94
354.81	385.94
355.037	377.94
355.264	387.94
355.491	387.94
355.718	382.94
355.945	375.94
356.172	381.94
356.399	391.94
356.626	376.94
356.853	385.94
357.08	385.94
357.307	395.94
357.534	392.94
357.761	388.94
357.988	380.94
358.215	400.94
358.441	385.94
358.668	399.94
358.895	385.94
359.122	391.94
359.349	404.94
359.576	429.94
359.802	459.94
360.029	481.94
360.256	492.94
360.483	444.94
360.709	429.94
360.936	410.94
361.163	409.94
361.39	423.94
361.616	411.94
361.843	421.94
362.07	419.94
362.296	420.94
362.523	412.94
362.749	415.94
362.976	393.94
363.203	419.94
363.429	388.94
363.656	396.94
363.882	378.94
364.109	389.94
364.335	394.94
364.562	392.94
364.788	391.94
365.015	386.94
365.241	391.94
365.468	407.94
365.694	386.94
365.92	399.94
366.147	393.94
366.373	395.94
366.599	371.94
366.826	377.94
367.052	385.94
367.278	412.94
367.505	380.94
367.731	384.94
367.957	399.94
368.184	377.94
368.41	381.94
368.636	409.94
368.862	394.94
369.089	381.94
369.315	375.94
369.541	373.94
369.767	392.94
369.993	384.94
370.219	367.94
370.445	381.94
370.672	381.94
370.898	379.94
371.124	382.94
371.35	408.94
371.576	391.94
371.802	385.94
372.028	385.94
372.254	396.94
372.48	373.94
372.706	375.94
372.932	385.94
373.158	353.94
373.384	374.94
373.61	395.94
373.835	399.94
374.061	369.94
374.287	386.94
374.513	385.94
374.739	384.94
374.965	370.94
375.191	386.94
375.416	369.94
375.642	395.94
375.868	400.94
376.094	363.94
376.319	367.94
376.545	398.94
376.771	375.94
376.997	390.94
377.222	376.94
377.448	377.94
377.674	394.94
377.899	348.94
378.125	373.94
378.35	384.94
378.576	360.94
378.802	389.94
379.027	381.94
379.253	365.94
379.478	373.94
379.704	371.94
379.929	371.94
380.155	371.94
380.38	379.94
380.606	379.94
380.831	383.94
381.057	379.94
381.282	374.94
381.507	376.94
381.733	363.94
381.958	375.94
382.184	385.94
382.409	395.94
382.634	397.94
382.86	390.94
383.085	379.94
383.31	382.94
383.535	384.94
383.761	378.94
383.986	382.94
384.211	381.94
384.436	389.94
384.662	388.94
384.887	387.94
385.112	402.94
385.337	397.94
385.562	387.94
385.787	407.94
386.013	435.94
386.238	420.94
386.463	408.94
386.688	419.94
386.913	408.94
387.138	403.94
387.363	414.94
387.588	384.94
387.813	405.94
388.038	401.94
388.263	383.94
388.488	391.94
388.713	402.94
388.938	392.94
389.163	408.94
389.387	396.94
389.612	394.94
389.837	414.94
390.062	407.94
390.287	416.94
390.512	396.94
390.736	399.94
390.961	397.94
391.186	399.94
391.411	427.94
391.636	389.94
391.86	413.94
392.085	406.94
392.31	401.94
392.534	399.94
392.759	403.94
392.984	397.94
393.208	408.94
393.433	387.94
393.658	397.94
393.882	400.94
394.107	403.94
394.331	399.94
394.556	393.94
394.78	386.94
395.005	407.94
395.229	379.94
395.454	412.94
395.678	407.94
395.903	422.94
396.127	427.94
396.352	444.94
396.576	419.94
396.801	409.94
397.025	424.94
397.249	406.94
397.474	435.94
397.698	431.94
397.922	433.94
398.147	449.94
398.371	442.94
398.595	429.94
398.82	428.94
399.044	437.94
399.268	455.94
399.492	470.94
399.717	481.94
399.941	519.94
400.165	558.94
400.389	567.94
400.613	521.94
400.837	481.94
401.062	454.94
401.286	459.94
401.51	456.94
401.734	461.94
401.958	419.94
402.182	447.94
402.406	474.94
402.63	469.94
402.854	446.94
403.078	443.94
403.302	464.94
403.526	457.94
403.75	447.94
403.974	476.94
404.198	447.94
404.422	468.94
404.645	445.94
404.869	470.94
405.093	462.94
405.317	502.94
405.541	538.94
405.765	513.94
405.988	473.94
406.212	505.94
406.436	526.94
406.66	542.94
406.883	498.94
407.107	541.94
407.331	561.94
407.555	645.94
407.778	610.94
408.002	575.94
408.226	513.94
408.449	532.94
408.673	545.94
408.896	550.94
409.12	591.94
409.344	559.94
409.567	513.94
409.791	481.94
410.014	478.94
410.238	459.94
410.461	451.94
410.685	468.94
410.908	484.94
411.132	532.94
411.355	557.94
411.578	504.94
411.802	462.94
412.025	446.94
412.249	451.94
412.472	461.94
412.695	478.94
412.919	473.94
413.142	435.94
413.365	462.94
413.589	440.94
413.812	440.94
414.035	429.94
414.258	405.94
414.482	433.94
414.705	441.94
414.928	462.94
415.151	425.94
415.374	427.94
415.597	431.94
415.821	419.94
416.044	423.94
416.267	434.94
416.49	433.94
416.713	453.94
416.936	437.94
417.159	426.94
417.382	445.94
417.605	432.94
417.828	454.94
418.051	460.94
418.274	457.94
418.497	443.94
418.72	455.94
418.943	438.94
419.166	465.94
419.389	469.94
419.611	477.94
419.834	472.94
420.057	438.94
420.28	444.94
420.503	445.94
420.726	452.94
420.948	458.94
421.171	530.94
421.394	547.94
421.617	491.94
421.839	476.94
422.062	465.94
422.285	484.94
422.507	544.94
422.73	595.94
422.953	588.94
423.175	492.94
423.398	491.94
423.621	476.94
423.843	492.94
424.066	484.94
424.288	515.94
424.511	523.94
424.733	589.94
424.956	634.94
425.178	622.94
425.401	633.94
425.623	648.94
425.846	572.94
426.068	515.94
426.291	497.94
426.513	532.94
426.735	509.94
426.958	552.94
427.18	621.94
427.402	732.94
427.625	836.94
427.847	718.94
428.069	619.94
428.292	554.94
428.514	505.94
428.736	499.94
428.958	476.94
429.181	467.94
429.403	474.94
429.625	454.94
429.847	525.94
430.069	575.94
430.292	565.94
430.514	474.94
430.736	484.94
430.958	469.94
431.18	465.94
431.402	427.94
431.624	422.94
431.846	449.94
432.068	445.94
432.29	439.94
432.512	436.94
432.734	453.94
432.956	459.94
433.178	436.94
433.4	459.94
433.622	446.94
433.844	443.94
434.066	426.94
434.287	445.94
434.509	419.94
434.731	423.94
434.953	469.94
435.175	476.94
435.397	478.94
435.618	500.94
435.84	524.94
436.062	622.94
436.284	690.94
436.505	570.94
436.727	531.94
436.949	497.94
437.17	479.94
437.392	476.94
437.614	479.94
437.835	525.94
438.057	636.94
438.278	719.94
438.5	690.94
438.721	777.94
438.943	734.94
439.165	579.94
439.386	541.94
439.608	513.94
439.829	521.94
440.05	560.94
440.272	602.94
440.493	547.94
440.715	516.94
440.936	486.94
441.158	495.94
441.379	469.94
441.6	488.94
441.822	519.94
442.043	523.94
442.264	633.94
442.486	640.94
442.707	551.94
442.928	526.94
443.149	538.94
443.371	538.94
443.592	556.94
443.813	674.94
444.034	736.94
444.255	590.94
444.476	536.94
444.698	505.94
444.919	502.94
445.14	598.94
445.361	577.94
445.582	556.94
445.803	610.94
446.024	715.94
446.245	712.94
446.466	669.94
446.687	590.94
446.908	516.94
447.129	498.94
447.35	475.94
447.571	491.94
447.792	473.94
448.013	492.94
448.234	500.94
448.455	536.94
448.675	637.94
448.896	779.94
449.117	655.94
449.338	606.94
449.559	710.94
449.779	792.94
450	645.94
450.221	525.94
450.442	482.94
450.662	447.94
450.883	514.94
451.104	513.94
451.324	479.94
451.545	482.94
451.766	460.94
451.986	423.94
452.207	426.94
452.428	410.94
452.648	423.94
452.869	407.94
453.089	437.94
453.31	448.94
453.53	419.94
453.751	418.94
453.971	427.94
454.192	458.94
454.412	449.94
454.633	436.94
454.853	427.94
455.073	421.94
455.294	465.94
455.514	502.94
455.734	497.94
455.955	429.94
456.175	419.94
456.395	390.94
456.616	381.94
456.836	400.94
457.056	403.94
457.276	363.94
457.497	397.94
457.717	403.94
457.937	403.94
458.157	398.94
458.377	421.94
458.598	435.94
458.818	490.94
459.038	576.94
459.258	598.94
459.478	503.94
459.698	437.94
459.918	419.94
460.138	404.94
460.358	414.94
460.578	441.94
460.798	453.94
461.018	447.94
461.238	426.94
461.458	445.94
461.678	417.94
461.898	442.94
462.118	427.94
462.338	435.94
462.558	446.94
462.777	440.94
462.997	438.94
463.217	469.94
463.437	443.94
463.657	456.94
463.876	470.94
464.096	438.94
464.316	459.94
464.536	450.94
464.755	461.94
464.975	460.94
465.195	540.94
465.414	586.94
465.634	518.94
465.854	479.94
466.073	457.94
466.293	444.94
466.512	438.94
466.732	408.94
466.951	435.94
467.171	437.94
467.391	422.94
467.61	426.94
467.829	469.94
468.049	437.94
468.268	396.94
468.488	414.94
468.707	401.94
468.927	397.94
469.146	411.94
469.365	409.94
469.585	431.94
469.804	423.94
470.023	418.94
470.243	410.94
470.462	435.94
470.681	435.94
470.901	452.94
471.12	436.94
471.339	412.94
471.558	435.94
471.777	429.94
471.997	423.94
472.216	418.94
472.435	443.94
472.654	411.94
472.873	422.94
473.092	415.94
473.311	425.94
473.53	441.94
473.749	437.94
473.968	467.94
474.187	600.94
474.406	600.94
474.625	489.94
474.844	447.94
475.063	440.94
475.282	430.94
475.501	459.94
475.72	429.94
475.939	436.94
476.158	436.94
476.377	448.94
476.596	443.94
476.814	461.94
477.033	453.94
477.252	454.94
477.471	424.94
477.69	445.94
477.908	461.94
478.127	460.94
478.346	471.94
478.564	462.94
478.783	465.94
479.002	467.94
479.22	485.94
479.439	474.94
479.658	511.94
479.876	514.94
480.095	517.94
480.313	566.94
480.532	531.94
480.751	499.94
480.969	508.94
481.188	523.94
481.406	540.94
481.624	513.94
481.843	484.94
482.061	497.94
482.28	503.94
482.498	475.94
482.717	506.94
482.935	491.94
483.153	513.94
483.372	515.94
483.59	531.94
483.808	489.94
484.027	491.94
484.245	510.94
484.463	495.94
484.681	524.94
484.9	533.94
485.118	506.94
485.336	515.94
485.554	530.94
485.772	492.94
485.99	501.94
486.209	508.94
486.427	545.94
486.645	524.94
486.863	551.94
487.081	550.94
487.299	539.94
487.517	528.94
487.735	547.94
487.953	533.94
488.171	516.94
488.389	529.94
488.607	546.94
488.825	536.94
489.043	527.94
489.261	538.94
489.479	559.94
489.696	549.94
489.914	553.94
490.132	557.94
490.35	544.94
490.568	546.94
490.786	581.94
491.003	569.94
491.221	580.94
491.439	602.94
491.657	599.94
491.874	609.94
492.092	589.94
492.31	632.94
492.527	600.94
492.745	611.94
492.963	611.94
493.18	607.94
493.398	623.94
493.615	645.94
493.833	654.94
494.05	622.94
494.268	640.94
494.485	619.94
494.703	639.94
494.92	643.94
495.138	654.94
495.355	647.94
495.573	641.94
495.79	631.94
496.008	663.94
496.225	626.94
496.442	643.94
496.66	650.94
496.877	641.94
497.094	648.94
497.312	642.94
497.529	649.94
497.746	659.94
497.963	663.94
498.181	702.94
498.398	701.94
498.615	691.94
498.832	690.94
499.049	708.94
499.267	710.94
499.484	737.94
499.701	779.94
499.918	761.94
500.135	799.94
500.352	811.94
500.569	804.94
500.786	821.94
501.003	841.94
501.22	809.94
501.437	804.94
501.654	805.94
501.871	779.94
