Data from 1989.PennyLincolnUp.Lamp.En5.5.200Scan.071819.P2_HRD10591_17-24-22-973.txt Node
Date: Thu Jul 18 17:24:22 EDT 2019
User: cochatt
Spectrometer: HR+D1059
Trigger mode: 1
Integration Time (sec): 1.000000E-1
Scans to average: 1
Electric dark correction enabled: true
Nonlinearity correction enabled: false
Boxcar width: 0
XAxis mode: Wavelengths
Number of Pixels in Spectrum: 2048
>>>>>Begin Spectral Data<<<<<
223.165	-5.38
223.4	-5.38
223.635	-5.38
223.869	-27.38
224.104	-13.38
224.338	-11.38
224.573	-14.38
224.808	-5.38
225.042	-0.38
225.277	-11.38
225.511	12.62
225.746	9.62
225.98	-6.38
226.215	1.62
226.449	5.62
226.683	10.62
226.918	28.62
227.152	26.62
227.387	25.62
227.621	28.62
227.856	33.62
228.09	31.62
228.324	56.62
228.559	48.62
228.793	67.62
229.027	99.62
229.262	110.62
229.496	115.62
229.73	147.62
229.964	156.62
230.199	137.62
230.433	118.62
230.667	114.62
230.901	122.62
231.136	122.62
231.37	112.62
231.604	122.62
231.838	109.62
232.072	109.62
232.306	96.62
232.541	111.62
232.775	122.62
233.009	111.62
233.243	111.62
233.477	112.62
233.711	130.62
233.945	108.62
234.179	126.62
234.413	116.62
234.647	117.62
234.881	110.62
235.115	118.62
235.349	113.62
235.583	126.62
235.817	123.62
236.051	134.62
236.285	124.62
236.519	127.62
236.753	137.62
236.987	162.62
237.221	198.62
237.455	254.62
237.689	213.62
237.922	156.62
238.156	145.62
238.39	131.62
238.624	133.62
238.858	131.62
239.091	130.62
239.325	133.62
239.559	134.62
239.793	130.62
240.027	125.62
240.26	135.62
240.494	155.62
240.728	174.62
240.961	160.62
241.195	138.62
241.429	153.62
241.662	141.62
241.896	157.62
242.13	143.62
242.363	137.62
242.597	148.62
242.83	145.62
243.064	159.62
243.298	147.62
243.531	128.62
243.765	136.62
243.998	130.62
244.232	135.62
244.465	154.62
244.699	137.62
244.932	156.62
245.166	142.62
245.399	151.62
245.633	148.62
245.866	139.62
246.099	158.62
246.333	150.62
246.566	156.62
246.8	152.62
247.033	162.62
247.266	165.62
247.5	188.62
247.733	178.62
247.966	177.62
248.2	173.62
248.433	190.62
248.666	186.62
248.899	196.62
249.133	200.62
249.366	228.62
249.599	214.62
249.832	194.62
250.066	189.62
250.299	190.62
250.532	200.62
250.765	213.62
250.998	240.62
251.231	229.62
251.465	258.62
251.698	211.62
251.931	243.62
252.164	222.62
252.397	223.62
252.63	225.62
252.863	228.62
253.096	229.62
253.329	260.62
253.562	256.62
253.795	248.62
254.028	236.62
254.261	238.62
254.494	241.62
254.727	283.62
254.96	301.62
255.193	292.62
255.426	271.62
255.659	258.62
255.892	240.62
256.124	239.62
256.357	234.62
256.59	234.62
256.823	225.62
257.056	217.62
257.289	222.62
257.521	225.62
257.754	243.62
257.987	228.62
258.22	239.62
258.452	224.62
258.685	232.62
258.918	219.62
259.151	233.62
259.383	230.62
259.616	257.62
259.849	248.62
260.081	260.62
260.314	272.62
260.547	271.62
260.779	278.62
261.012	256.62
261.244	248.62
261.477	222.62
261.71	229.62
261.942	245.62
262.175	261.62
262.407	252.62
262.64	238.62
262.872	248.62
263.105	243.62
263.337	246.62
263.57	238.62
263.802	241.62
264.035	233.62
264.267	232.62
264.499	218.62
264.732	237.62
264.964	230.62
265.197	236.62
265.429	227.62
265.661	221.62
265.894	226.62
266.126	242.62
266.358	239.62
266.591	243.62
266.823	231.62
267.055	261.62
267.287	256.62
267.52	242.62
267.752	261.62
267.984	242.62
268.216	252.62
268.448	263.62
268.681	281.62
268.913	273.62
269.145	285.62
269.377	294.62
269.609	286.62
269.841	291.62
270.073	303.62
270.306	325.62
270.538	345.62
270.77	338.62
271.002	315.62
271.234	305.62
271.466	338.62
271.698	349.62
271.93	364.62
272.162	343.62
272.394	348.62
272.626	338.62
272.858	310.62
273.09	320.62
273.322	312.62
273.553	292.62
273.785	308.62
274.017	279.62
274.249	280.62
274.481	306.62
274.713	290.62
274.945	313.62
275.176	310.62
275.408	293.62
275.64	298.62
275.872	281.62
276.104	301.62
276.335	288.62
276.567	287.62
276.799	329.62
277.031	345.62
277.262	339.62
277.494	345.62
277.726	324.62
277.957	326.62
278.189	311.62
278.421	315.62
278.652	308.62
278.884	284.62
279.115	301.62
279.347	296.62
279.579	306.62
279.81	288.62
280.042	268.62
280.273	270.62
280.505	280.62
280.736	284.62
280.968	279.62
281.199	276.62
281.431	285.62
281.662	287.62
281.894	278.62
282.125	286.62
282.356	318.62
282.588	332.62
282.819	338.62
283.051	306.62
283.282	285.62
283.513	301.62
283.745	288.62
283.976	302.62
284.207	290.62
284.439	305.62
284.67	308.62
284.901	300.62
285.132	284.62
285.364	289.62
285.595	289.62
285.826	300.62
286.057	287.62
286.288	306.62
286.52	310.62
286.751	288.62
286.982	306.62
287.213	316.62
287.444	317.62
287.675	323.62
287.906	329.62
288.138	302.62
288.369	322.62
288.6	317.62
288.831	320.62
289.062	317.62
289.293	309.62
289.524	313.62
289.755	303.62
289.986	307.62
290.217	300.62
290.448	302.62
290.679	305.62
290.91	305.62
291.141	294.62
291.371	290.62
291.602	300.62
291.833	288.62
292.064	313.62
292.295	310.62
292.526	300.62
292.757	322.62
292.987	311.62
293.218	323.62
293.449	315.62
293.68	310.62
293.91	313.62
294.141	304.62
294.372	321.62
294.603	310.62
294.833	317.62
295.064	289.62
295.295	313.62
295.525	315.62
295.756	306.62
295.987	318.62
296.217	364.62
296.448	367.62
296.679	333.62
296.909	311.62
297.14	321.62
297.37	307.62
297.601	325.62
297.831	321.62
298.062	323.62
298.292	329.62
298.523	343.62
298.753	307.62
298.984	322.62
299.214	333.62
299.445	329.62
299.675	338.62
299.905	342.62
300.136	357.62
300.366	333.62
300.597	329.62
300.827	336.62
301.057	338.62
301.288	338.62
301.518	342.62
301.748	366.62
301.979	328.62
302.209	336.62
302.439	344.62
302.669	371.62
302.9	380.62
303.13	358.62
303.36	348.62
303.59	355.62
303.82	346.62
304.051	345.62
304.281	345.62
304.511	358.62
304.741	349.62
304.971	350.62
305.201	356.62
305.431	338.62
305.661	377.62
305.891	355.62
306.121	361.62
306.352	360.62
306.582	364.62
306.812	336.62
307.042	371.62
307.272	360.62
307.502	374.62
307.731	340.62
307.961	374.62
308.191	373.62
308.421	360.62
308.651	355.62
308.881	363.62
309.111	372.62
309.341	374.62
309.571	373.62
309.8	398.62
310.03	398.62
310.26	397.62
310.49	391.62
310.72	422.62
310.949	414.62
311.179	414.62
311.409	406.62
311.639	400.62
311.868	410.62
312.098	409.62
312.328	421.62
312.557	444.62
312.787	461.62
313.017	445.62
313.246	412.62
313.476	401.62
313.706	398.62
313.935	401.62
314.165	426.62
314.394	433.62
314.624	454.62
314.853	415.62
315.083	418.62
315.312	422.62
315.542	381.62
315.771	384.62
316.001	393.62
316.23	404.62
316.46	403.62
316.689	404.62
316.919	449.62
317.148	432.62
317.377	409.62
317.607	402.62
317.836	406.62
318.065	384.62
318.295	404.62
318.524	412.62
318.753	410.62
318.983	397.62
319.212	408.62
319.441	433.62
319.67	410.62
319.9	393.62
320.129	395.62
320.358	404.62
320.587	397.62
320.816	424.62
321.046	417.62
321.275	432.62
321.504	455.62
321.733	434.62
321.962	438.62
322.191	456.62
322.42	465.62
322.649	495.62
322.878	502.62
323.108	508.62
323.337	552.62
323.566	565.62
323.795	602.62
324.024	631.62
324.253	807.62
324.482	1108.62
324.71	1774.62
324.939	2455.62
325.168	2150.62
325.397	1126.62
325.626	750.62
325.855	624.62
326.084	574.62
326.313	548.62
326.542	577.62
326.77	638.62
326.999	742.62
327.228	1014.62
327.457	1558.62
327.686	1856.62
327.914	1230.62
328.143	809.62
328.372	708.62
328.6	642.62
328.829	632.62
329.058	637.62
329.287	648.62
329.515	594.62
329.744	543.62
329.972	516.62
330.201	544.62
330.43	556.62
330.658	599.62
330.887	652.62
331.115	640.62
331.344	546.62
331.572	528.62
331.801	522.62
332.03	520.62
332.258	527.62
332.486	489.62
332.715	469.62
332.943	473.62
333.172	478.62
333.4	481.62
333.629	458.62
333.857	484.62
334.085	496.62
334.314	476.62
334.542	469.62
334.771	497.62
334.999	505.62
335.227	481.62
335.455	476.62
335.684	473.62
335.912	470.62
336.14	468.62
336.369	465.62
336.597	486.62
336.825	476.62
337.053	476.62
337.281	456.62
337.51	470.62
337.738	473.62
337.966	462.62
338.194	455.62
338.422	465.62
338.65	463.62
338.878	456.62
339.106	441.62
339.334	445.62
339.562	453.62
339.79	433.62
340.018	457.62
340.246	446.62
340.474	470.62
340.702	448.62
340.93	451.62
341.158	434.62
341.386	434.62
341.614	442.62
341.842	468.62
342.07	451.62
342.298	432.62
342.526	421.62
342.754	433.62
342.981	431.62
343.209	446.62
343.437	445.62
343.665	430.62
343.893	461.62
344.12	464.62
344.348	457.62
344.576	464.62
344.804	476.62
345.031	481.62
345.259	480.62
345.487	469.62
345.714	449.62
345.942	446.62
346.17	437.62
346.397	432.62
346.625	431.62
346.853	438.62
347.08	424.62
347.308	445.62
347.535	455.62
347.763	450.62
347.99	444.62
348.218	446.62
348.445	472.62
348.673	434.62
348.9	434.62
349.128	432.62
349.355	406.62
349.583	424.62
349.81	409.62
350.037	405.62
350.265	417.62
350.492	430.62
350.72	406.62
350.947	445.62
351.174	430.62
351.402	442.62
351.629	453.62
351.856	440.62
352.083	468.62
352.311	435.62
352.538	459.62
352.765	459.62
352.992	454.62
353.22	417.62
353.447	413.62
353.674	432.62
353.901	417.62
354.128	404.62
354.355	407.62
354.583	401.62
354.81	403.62
355.037	393.62
355.264	395.62
355.491	397.62
355.718	389.62
355.945	361.62
356.172	380.62
356.399	366.62
356.626	388.62
356.853	392.62
357.08	405.62
357.307	395.62
357.534	405.62
357.761	409.62
357.988	398.62
358.215	398.62
358.441	397.62
358.668	400.62
358.895	400.62
359.122	401.62
359.349	407.62
359.576	417.62
359.802	455.62
360.029	447.62
360.256	488.62
360.483	454.62
360.709	437.62
360.936	447.62
361.163	417.62
361.39	419.62
361.616	439.62
361.843	444.62
362.07	422.62
362.296	434.62
362.523	440.62
362.749	412.62
362.976	431.62
363.203	418.62
363.429	386.62
363.656	410.62
363.882	406.62
364.109	406.62
364.335	395.62
364.562	415.62
364.788	413.62
365.015	410.62
365.241	399.62
365.468	421.62
365.694	403.62
365.92	428.62
366.147	430.62
366.373	418.62
366.599	397.62
366.826	405.62
367.052	399.62
367.278	406.62
367.505	391.62
367.731	422.62
367.957	402.62
368.184	413.62
368.41	403.62
368.636	416.62
368.862	419.62
369.089	414.62
369.315	386.62
369.541	381.62
369.767	413.62
369.993	391.62
370.219	400.62
370.445	394.62
370.672	409.62
370.898	385.62
371.124	384.62
371.35	386.62
371.576	387.62
371.802	398.62
372.028	398.62
372.254	387.62
372.48	382.62
372.706	386.62
372.932	398.62
373.158	390.62
373.384	387.62
373.61	402.62
373.835	390.62
374.061	399.62
374.287	383.62
374.513	387.62
374.739	390.62
374.965	397.62
375.191	390.62
375.416	409.62
375.642	407.62
375.868	400.62
376.094	402.62
376.319	401.62
376.545	393.62
376.771	376.62
376.997	388.62
377.222	398.62
377.448	370.62
377.674	383.62
377.899	376.62
378.125	390.62
378.35	378.62
378.576	371.62
378.802	386.62
379.027	389.62
379.253	393.62
379.478	408.62
379.704	375.62
379.929	393.62
380.155	386.62
380.38	410.62
380.606	384.62
380.831	390.62
381.057	408.62
381.282	375.62
381.507	395.62
381.733	387.62
381.958	397.62
382.184	400.62
382.409	406.62
382.634	408.62
382.86	388.62
383.085	406.62
383.31	385.62
383.535	398.62
383.761	402.62
383.986	386.62
384.211	401.62
384.436	403.62
384.662	395.62
384.887	406.62
385.112	403.62
385.337	426.62
385.562	404.62
385.787	402.62
386.013	425.62
386.238	439.62
386.463	437.62
386.688	441.62
386.913	406.62
387.138	418.62
387.363	406.62
387.588	411.62
387.813	400.62
388.038	416.62
388.263	418.62
388.488	409.62
388.713	396.62
388.938	423.62
389.163	405.62
389.387	429.62
389.612	392.62
389.837	400.62
390.062	400.62
390.287	407.62
390.512	426.62
390.736	412.62
390.961	402.62
391.186	423.62
391.411	406.62
391.636	425.62
391.86	425.62
392.085	407.62
392.31	399.62
392.534	411.62
392.759	430.62
392.984	420.62
393.208	409.62
393.433	432.62
393.658	416.62
393.882	414.62
394.107	404.62
394.331	418.62
394.556	397.62
394.78	414.62
395.005	430.62
395.229	418.62
395.454	419.62
395.678	429.62
395.903	432.62
396.127	456.62
396.352	482.62
396.576	436.62
396.801	428.62
397.025	433.62
397.249	439.62
397.474	430.62
397.698	446.62
397.922	448.62
398.147	464.62
398.371	459.62
398.595	452.62
398.82	476.62
399.044	484.62
399.268	468.62
399.492	520.62
399.717	526.62
399.941	560.62
400.165	548.62
400.389	595.62
400.613	557.62
400.837	504.62
401.062	487.62
401.286	483.62
401.51	476.62
401.734	472.62
401.958	461.62
402.182	474.62
402.406	493.62
402.63	504.62
402.854	471.62
403.078	460.62
403.302	465.62
403.526	477.62
403.75	496.62
403.974	512.62
404.198	466.62
404.422	489.62
404.645	510.62
404.869	492.62
405.093	505.62
405.317	541.62
405.541	564.62
405.765	517.62
405.988	521.62
406.212	520.62
406.436	547.62
406.66	550.62
406.883	542.62
407.107	547.62
407.331	588.62
407.555	654.62
407.778	657.62
408.002	578.62
408.226	562.62
408.449	548.62
408.673	520.62
408.896	562.62
409.12	611.62
409.344	573.62
409.567	502.62
409.791	508.62
410.014	487.62
410.238	492.62
410.461	472.62
410.685	481.62
410.908	519.62
411.132	548.62
411.355	566.62
411.578	536.62
411.802	485.62
412.025	458.62
412.249	473.62
412.472	495.62
412.695	490.62
412.919	492.62
413.142	470.62
413.365	445.62
413.589	471.62
413.812	450.62
414.035	457.62
414.258	475.62
414.482	449.62
414.705	447.62
414.928	450.62
415.151	464.62
415.374	453.62
415.597	449.62
415.821	452.62
416.044	465.62
416.267	456.62
416.49	442.62
416.713	453.62
416.936	449.62
417.159	447.62
417.382	451.62
417.605	459.62
417.828	477.62
418.051	487.62
418.274	506.62
418.497	456.62
418.72	450.62
418.943	464.62
419.166	476.62
419.389	474.62
419.611	480.62
419.834	483.62
420.057	470.62
420.28	483.62
420.503	460.62
420.726	461.62
420.948	498.62
421.171	543.62
421.394	568.62
421.617	510.62
421.839	493.62
422.062	471.62
422.285	466.62
422.507	539.62
422.73	638.62
422.953	615.62
423.175	522.62
423.398	495.62
423.621	512.62
423.843	522.62
424.066	529.62
424.288	523.62
424.511	536.62
424.733	589.62
424.956	666.62
425.178	660.62
425.401	641.62
425.623	677.62
425.846	549.62
426.068	536.62
426.291	535.62
426.513	541.62
426.735	534.62
426.958	589.62
427.18	665.62
427.402	807.62
427.625	864.62
427.847	791.62
428.069	633.62
428.292	557.62
428.514	518.62
428.736	494.62
428.958	511.62
429.181	496.62
429.403	472.62
429.625	505.62
429.847	533.62
430.069	602.62
430.292	609.62
430.514	495.62
430.736	486.62
430.958	445.62
431.18	482.62
431.402	460.62
431.624	449.62
431.846	441.62
432.068	452.62
432.29	458.62
432.512	449.62
432.734	449.62
432.956	476.62
433.178	478.62
433.4	467.62
433.622	463.62
433.844	447.62
434.066	456.62
434.287	458.62
434.509	468.62
434.731	467.62
434.953	467.62
435.175	507.62
435.397	517.62
435.618	539.62
435.84	563.62
436.062	672.62
436.284	741.62
436.505	603.62
436.727	556.62
436.949	527.62
437.17	495.62
437.392	507.62
437.614	513.62
437.835	523.62
438.057	628.62
438.278	738.62
438.5	735.62
438.721	788.62
438.943	748.62
439.165	591.62
439.386	560.62
439.608	565.62
439.829	538.62
440.05	574.62
440.272	601.62
440.493	581.62
440.715	534.62
440.936	519.62
441.158	472.62
441.379	477.62
441.6	516.62
441.822	528.62
442.043	568.62
442.264	636.62
442.486	689.62
442.707	588.62
442.928	532.62
443.149	572.62
443.371	566.62
443.592	622.62
443.813	714.62
444.034	768.62
444.255	622.62
444.476	538.62
444.698	548.62
444.919	544.62
445.14	632.62
445.361	580.62
445.582	580.62
445.803	635.62
446.024	741.62
446.245	749.62
446.466	698.62
446.687	593.62
446.908	537.62
447.129	499.62
447.35	493.62
447.571	492.62
447.792	499.62
448.013	492.62
448.234	522.62
448.455	582.62
448.675	671.62
448.896	782.62
449.117	666.62
449.338	622.62
449.559	751.62
449.779	850.62
450	666.62
450.221	568.62
450.442	504.62
450.662	502.62
450.883	513.62
451.104	516.62
451.324	482.62
451.545	480.62
451.766	453.62
451.986	437.62
452.207	420.62
452.428	434.62
452.648	431.62
452.869	441.62
453.089	462.62
453.31	459.62
453.53	447.62
453.751	443.62
453.971	448.62
454.192	477.62
454.412	436.62
454.633	428.62
454.853	420.62
455.073	424.62
455.294	476.62
455.514	518.62
455.734	538.62
455.955	449.62
456.175	420.62
456.395	423.62
456.616	402.62
456.836	408.62
457.056	417.62
457.276	401.62
457.497	396.62
457.717	411.62
457.937	418.62
458.157	424.62
458.377	432.62
458.598	454.62
458.818	509.62
459.038	605.62
459.258	627.62
459.478	519.62
459.698	455.62
459.918	468.62
460.138	459.62
460.358	436.62
460.578	417.62
460.798	478.62
461.018	457.62
461.238	442.62
461.458	465.62
461.678	445.62
461.898	438.62
462.118	451.62
462.338	461.62
462.558	451.62
462.777	464.62
462.997	476.62
463.217	464.62
463.437	479.62
463.657	472.62
463.876	463.62
464.096	484.62
464.316	474.62
464.536	491.62
464.755	464.62
464.975	496.62
465.195	516.62
465.414	640.62
465.634	537.62
465.854	502.62
466.073	477.62
466.293	450.62
466.512	437.62
466.732	433.62
466.951	442.62
467.171	422.62
467.391	437.62
467.61	465.62
467.829	468.62
468.049	438.62
468.268	431.62
468.488	432.62
468.707	417.62
468.927	436.62
469.146	406.62
469.365	423.62
469.585	413.62
469.804	452.62
470.023	445.62
470.243	435.62
470.462	452.62
470.681	451.62
470.901	441.62
471.12	417.62
471.339	436.62
471.558	444.62
471.777	435.62
471.997	437.62
472.216	444.62
472.435	429.62
472.654	436.62
472.873	404.62
473.092	421.62
473.311	438.62
473.53	417.62
473.749	446.62
473.968	510.62
474.187	623.62
474.406	630.62
474.625	522.62
474.844	460.62
475.063	448.62
475.282	450.62
475.501	439.62
475.72	450.62
475.939	431.62
476.158	439.62
476.377	464.62
476.596	460.62
476.814	458.62
477.033	465.62
477.252	468.62
477.471	454.62
477.69	468.62
477.908	476.62
478.127	485.62
478.346	485.62
478.564	485.62
478.783	499.62
479.002	473.62
479.22	503.62
479.439	511.62
479.658	509.62
479.876	543.62
480.095	530.62
480.313	542.62
480.532	558.62
480.751	536.62
480.969	550.62
481.188	536.62
481.406	552.62
481.624	514.62
481.843	517.62
482.061	513.62
482.28	516.62
482.498	518.62
482.717	508.62
482.935	526.62
483.153	516.62
483.372	533.62
483.59	541.62
483.808	488.62
484.027	519.62
484.245	533.62
484.463	533.62
484.681	535.62
484.9	539.62
485.118	553.62
485.336	507.62
485.554	544.62
485.772	534.62
485.99	527.62
486.209	526.62
486.427	552.62
486.645	539.62
486.863	567.62
487.081	574.62
487.299	567.62
487.517	558.62
487.735	530.62
487.953	586.62
488.171	578.62
488.389	562.62
488.607	542.62
488.825	548.62
489.043	576.62
489.261	556.62
489.479	583.62
489.696	579.62
489.914	569.62
490.132	577.62
490.35	581.62
490.568	586.62
490.786	580.62
491.003	584.62
491.221	624.62
491.439	628.62
491.657	638.62
491.874	668.62
492.092	617.62
492.31	639.62
492.527	660.62
492.745	625.62
492.963	645.62
493.18	644.62
493.398	650.62
493.615	654.62
493.833	656.62
494.05	664.62
494.268	649.62
494.485	632.62
494.703	665.62
494.92	658.62
495.138	672.62
495.355	652.62
495.573	671.62
495.79	661.62
496.008	694.62
496.225	643.62
496.442	674.62
496.66	658.62
496.877	662.62
497.094	666.62
497.312	680.62
497.529	669.62
497.746	666.62
497.963	696.62
498.181	711.62
498.398	712.62
498.615	722.62
498.832	717.62
499.049	722.62
499.267	753.62
499.484	793.62
499.701	774.62
499.918	804.62
500.135	840.62
500.352	861.62
500.569	874.62
500.786	865.62
501.003	860.62
501.22	864.62
501.437	833.62
501.654	823.62
501.871	832.62
