Data from 1989.PennyLincolnUp.Lamp.En5.5.200Scan.071819.P2_HRD10591_17-26-02-974.txt Node
Date: Thu Jul 18 17:26:02 EDT 2019
User: cochatt
Spectrometer: HR+D1059
Trigger mode: 1
Integration Time (sec): 1.000000E-1
Scans to average: 1
Electric dark correction enabled: true
Nonlinearity correction enabled: false
Boxcar width: 0
XAxis mode: Wavelengths
Number of Pixels in Spectrum: 2048
>>>>>Begin Spectral Data<<<<<
223.165	-20.69
223.4	-20.69
223.635	-20.69
223.869	-19.69
224.104	-20.69
224.338	-20.69
224.573	-18.69
224.808	-13.69
225.042	-9.69
225.277	-4.69
225.511	-9.69
225.746	-0.69
225.98	15.31
226.215	10.31
226.449	15.31
226.683	30.31
226.918	27.31
227.152	40.31
227.387	37.31
227.621	39.31
227.856	45.31
228.09	39.31
228.324	56.31
228.559	59.31
228.793	73.31
229.027	117.31
229.262	105.31
229.496	123.31
229.73	152.31
229.964	163.31
230.199	147.31
230.433	121.31
230.667	111.31
230.901	121.31
231.136	121.31
231.37	130.31
231.604	110.31
231.838	115.31
232.072	102.31
232.306	110.31
232.541	131.31
232.775	125.31
233.009	141.31
233.243	114.31
233.477	109.31
233.711	124.31
233.945	126.31
234.179	113.31
234.413	123.31
234.647	134.31
234.881	130.31
235.115	116.31
235.349	121.31
235.583	121.31
235.817	129.31
236.051	127.31
236.285	129.31
236.519	133.31
236.753	136.31
236.987	168.31
237.221	207.31
237.455	252.31
237.689	190.31
237.922	154.31
238.156	129.31
238.39	149.31
238.624	131.31
238.858	126.31
239.091	127.31
239.325	126.31
239.559	131.31
239.793	140.31
240.027	139.31
240.26	143.31
240.494	171.31
240.728	170.31
240.961	173.31
241.195	146.31
241.429	153.31
241.662	132.31
241.896	151.31
242.13	137.31
242.363	133.31
242.597	150.31
242.83	149.31
243.064	136.31
243.298	143.31
243.531	167.31
243.765	151.31
243.998	135.31
244.232	155.31
244.465	169.31
244.699	165.31
244.932	142.31
245.166	159.31
245.399	159.31
245.633	152.31
245.866	161.31
246.099	164.31
246.333	142.31
246.566	181.31
246.8	151.31
247.033	171.31
247.266	176.31
247.5	173.31
247.733	188.31
247.966	181.31
248.2	185.31
248.433	196.31
248.666	208.31
248.899	215.31
249.133	229.31
249.366	234.31
249.599	231.31
249.832	207.31
250.066	215.31
250.299	204.31
250.532	236.31
250.765	227.31
250.998	258.31
251.231	256.31
251.465	251.31
251.698	244.31
251.931	219.31
252.164	233.31
252.397	226.31
252.63	214.31
252.863	217.31
253.096	258.31
253.329	253.31
253.562	249.31
253.795	247.31
254.028	248.31
254.261	247.31
254.494	263.31
254.727	307.31
254.96	325.31
255.193	305.31
255.426	277.31
255.659	288.31
255.892	286.31
256.124	289.31
256.357	294.31
256.59	279.31
256.823	261.31
257.056	258.31
257.289	254.31
257.521	239.31
257.754	254.31
257.987	241.31
258.22	237.31
258.452	238.31
258.685	231.31
258.918	230.31
259.151	255.31
259.383	238.31
259.616	252.31
259.849	265.31
260.081	271.31
260.314	313.31
260.547	278.31
260.779	286.31
261.012	267.31
261.244	255.31
261.477	253.31
261.71	247.31
261.942	268.31
262.175	258.31
262.407	245.31
262.64	261.31
262.872	248.31
263.105	234.31
263.337	235.31
263.57	230.31
263.802	248.31
264.035	229.31
264.267	245.31
264.499	230.31
264.732	238.31
264.964	248.31
265.197	235.31
265.429	229.31
265.661	247.31
265.894	226.31
266.126	249.31
266.358	245.31
266.591	244.31
266.823	242.31
267.055	225.31
267.287	259.31
267.52	246.31
267.752	245.31
267.984	254.31
268.216	243.31
268.448	255.31
268.681	269.31
268.913	299.31
269.145	306.31
269.377	294.31
269.609	292.31
269.841	300.31
270.073	301.31
270.306	343.31
270.538	375.31
270.77	361.31
271.002	358.31
271.234	348.31
271.466	368.31
271.698	362.31
271.93	367.31
272.162	362.31
272.394	362.31
272.626	348.31
272.858	325.31
273.09	331.31
273.322	307.31
273.553	305.31
273.785	292.31
274.017	277.31
274.249	305.31
274.481	301.31
274.713	291.31
274.945	298.31
275.176	307.31
275.408	288.31
275.64	308.31
275.872	298.31
276.104	300.31
276.335	287.31
276.567	311.31
276.799	308.31
277.031	333.31
277.262	371.31
277.494	353.31
277.726	343.31
277.957	320.31
278.189	316.31
278.421	311.31
278.652	320.31
278.884	303.31
279.115	307.31
279.347	291.31
279.579	309.31
279.81	308.31
280.042	319.31
280.273	309.31
280.505	294.31
280.736	310.31
280.968	284.31
281.199	284.31
281.431	305.31
281.662	322.31
281.894	317.31
282.125	305.31
282.356	323.31
282.588	347.31
282.819	350.31
283.051	325.31
283.282	305.31
283.513	313.31
283.745	316.31
283.976	330.31
284.207	321.31
284.439	312.31
284.67	293.31
284.901	292.31
285.132	311.31
285.364	321.31
285.595	312.31
285.826	317.31
286.057	318.31
286.288	303.31
286.52	313.31
286.751	309.31
286.982	319.31
287.213	319.31
287.444	325.31
287.675	344.31
287.906	330.31
288.138	315.31
288.369	332.31
288.6	333.31
288.831	340.31
289.062	333.31
289.293	311.31
289.524	331.31
289.755	325.31
289.986	311.31
290.217	319.31
290.448	306.31
290.679	317.31
290.91	310.31
291.141	315.31
291.371	317.31
291.602	319.31
291.833	322.31
292.064	326.31
292.295	332.31
292.526	330.31
292.757	311.31
292.987	302.31
293.218	325.31
293.449	312.31
293.68	316.31
293.91	316.31
294.141	327.31
294.372	313.31
294.603	324.31
294.833	317.31
295.064	316.31
295.295	335.31
295.525	336.31
295.756	337.31
295.987	354.31
296.217	361.31
296.448	378.31
296.679	357.31
296.909	337.31
297.14	338.31
297.37	321.31
297.601	325.31
297.831	317.31
298.062	321.31
298.292	341.31
298.523	363.31
298.753	341.31
298.984	346.31
299.214	337.31
299.445	343.31
299.675	340.31
299.905	354.31
300.136	355.31
300.366	353.31
300.597	351.31
300.827	355.31
301.057	361.31
301.288	370.31
301.518	351.31
301.748	345.31
301.979	356.31
302.209	353.31
302.439	366.31
302.669	352.31
302.9	375.31
303.13	353.31
303.36	353.31
303.59	366.31
303.82	387.31
304.051	381.31
304.281	354.31
304.511	368.31
304.741	361.31
304.971	369.31
305.201	357.31
305.431	355.31
305.661	364.31
305.891	348.31
306.121	359.31
306.352	375.31
306.582	359.31
306.812	377.31
307.042	364.31
307.272	350.31
307.502	378.31
307.731	369.31
307.961	364.31
308.191	367.31
308.421	364.31
308.651	381.31
308.881	367.31
309.111	371.31
309.341	401.31
309.571	387.31
309.8	404.31
310.03	418.31
310.26	429.31
310.49	397.31
310.72	409.31
310.949	441.31
311.179	422.31
311.409	437.31
311.639	423.31
311.868	414.31
312.098	440.31
312.328	418.31
312.557	452.31
312.787	484.31
313.017	458.31
313.246	447.31
313.476	433.31
313.706	429.31
313.935	417.31
314.165	456.31
314.394	482.31
314.624	455.31
314.853	441.31
315.083	417.31
315.312	407.31
315.542	409.31
315.771	399.31
316.001	400.31
316.23	417.31
316.46	427.31
316.689	428.31
316.919	422.31
317.148	455.31
317.377	430.31
317.607	444.31
317.836	432.31
318.065	408.31
318.295	429.31
318.524	426.31
318.753	412.31
318.983	425.31
319.212	409.31
319.441	442.31
319.67	426.31
319.9	411.31
320.129	411.31
320.358	422.31
320.587	432.31
320.816	425.31
321.046	448.31
321.275	461.31
321.504	445.31
321.733	463.31
321.962	455.31
322.191	451.31
322.42	493.31
322.649	529.31
322.878	521.31
323.108	561.31
323.337	563.31
323.566	574.31
323.795	629.31
324.024	680.31
324.253	831.31
324.482	1173.31
324.71	1817.31
324.939	2692.31
325.168	2285.31
325.397	1189.31
325.626	787.31
325.855	639.31
326.084	583.31
326.313	582.31
326.542	598.31
326.77	653.31
326.999	786.31
327.228	1065.31
327.457	1633.31
327.686	1951.31
327.914	1309.31
328.143	869.31
328.372	773.31
328.6	717.31
328.829	658.31
329.058	673.31
329.287	687.31
329.515	637.31
329.744	628.31
329.972	625.31
330.201	659.31
330.43	714.31
330.658	739.31
330.887	733.31
331.115	713.31
331.344	620.31
331.572	551.31
331.801	555.31
332.03	547.31
332.258	515.31
332.486	503.31
332.715	492.31
332.943	509.31
333.172	531.31
333.4	515.31
333.629	547.31
333.857	546.31
334.085	558.31
334.314	610.31
334.542	686.31
334.771	697.31
334.999	610.31
335.227	519.31
335.455	503.31
335.684	535.31
335.912	491.31
336.14	464.31
336.369	483.31
336.597	502.31
336.825	487.31
337.053	502.31
337.281	487.31
337.51	484.31
337.738	473.31
337.966	478.31
338.194	471.31
338.422	473.31
338.65	496.31
338.878	492.31
339.106	463.31
339.334	477.31
339.562	456.31
339.79	454.31
340.018	467.31
340.246	477.31
340.474	492.31
340.702	474.31
340.93	470.31
341.158	469.31
341.386	471.31
341.614	458.31
341.842	468.31
342.07	445.31
342.298	470.31
342.526	429.31
342.754	439.31
342.981	426.31
343.209	446.31
343.437	437.31
343.665	464.31
343.893	459.31
344.12	475.31
344.348	471.31
344.576	453.31
344.804	472.31
345.031	490.31
345.259	504.31
345.487	482.31
345.714	463.31
345.942	462.31
346.17	470.31
346.397	451.31
346.625	461.31
346.853	456.31
347.08	431.31
347.308	471.31
347.535	466.31
347.763	466.31
347.99	451.31
348.218	456.31
348.445	446.31
348.673	446.31
348.9	442.31
349.128	462.31
349.355	457.31
349.583	437.31
349.81	418.31
350.037	437.31
350.265	429.31
350.492	429.31
350.72	451.31
350.947	453.31
351.174	436.31
351.402	475.31
351.629	461.31
351.856	451.31
352.083	458.31
352.311	463.31
352.538	467.31
352.765	461.31
352.992	464.31
353.22	451.31
353.447	464.31
353.674	451.31
353.901	422.31
354.128	427.31
354.355	409.31
354.583	409.31
354.81	406.31
355.037	408.31
355.264	409.31
355.491	396.31
355.718	416.31
355.945	405.31
356.172	413.31
356.399	398.31
356.626	402.31
356.853	404.31
357.08	400.31
357.307	398.31
357.534	423.31
357.761	414.31
357.988	405.31
358.215	408.31
358.441	410.31
358.668	406.31
358.895	420.31
359.122	426.31
359.349	418.31
359.576	437.31
359.802	451.31
360.029	502.31
360.256	484.31
360.483	490.31
360.709	452.31
360.936	444.31
361.163	437.31
361.39	459.31
361.616	445.31
361.843	442.31
362.07	435.31
362.296	439.31
362.523	442.31
362.749	421.31
362.976	435.31
363.203	430.31
363.429	405.31
363.656	426.31
363.882	422.31
364.109	416.31
364.335	402.31
364.562	441.31
364.788	410.31
365.015	414.31
365.241	408.31
365.468	415.31
365.694	445.31
365.92	421.31
366.147	419.31
366.373	412.31
366.599	411.31
366.826	414.31
367.052	404.31
367.278	404.31
367.505	407.31
367.731	426.31
367.957	423.31
368.184	398.31
368.41	411.31
368.636	418.31
368.862	420.31
369.089	423.31
369.315	400.31
369.541	399.31
369.767	394.31
369.993	409.31
370.219	397.31
370.445	414.31
370.672	401.31
370.898	387.31
371.124	398.31
371.35	395.31
371.576	408.31
371.802	413.31
372.028	418.31
372.254	415.31
372.48	405.31
372.706	386.31
372.932	403.31
373.158	404.31
373.384	401.31
373.61	396.31
373.835	421.31
374.061	409.31
374.287	415.31
374.513	400.31
374.739	387.31
374.965	415.31
375.191	377.31
375.416	403.31
375.642	390.31
375.868	422.31
376.094	397.31
376.319	414.31
376.545	402.31
376.771	385.31
376.997	405.31
377.222	379.31
377.448	397.31
377.674	384.31
377.899	401.31
378.125	376.31
378.35	402.31
378.576	388.31
378.802	415.31
379.027	415.31
379.253	416.31
379.478	398.31
379.704	382.31
379.929	397.31
380.155	401.31
380.38	397.31
380.606	396.31
380.831	395.31
381.057	391.31
381.282	401.31
381.507	385.31
381.733	383.31
381.958	393.31
382.184	401.31
382.409	401.31
382.634	398.31
382.86	392.31
383.085	395.31
383.31	406.31
383.535	423.31
383.761	407.31
383.986	418.31
384.211	404.31
384.436	426.31
384.662	426.31
384.887	402.31
385.112	407.31
385.337	424.31
385.562	422.31
385.787	438.31
386.013	431.31
386.238	436.31
386.463	435.31
386.688	430.31
386.913	416.31
387.138	421.31
387.363	428.31
387.588	438.31
387.813	433.31
388.038	405.31
388.263	428.31
388.488	404.31
388.713	426.31
388.938	431.31
389.163	425.31
389.387	410.31
389.612	413.31
389.837	407.31
390.062	411.31
390.287	418.31
390.512	419.31
390.736	416.31
390.961	423.31
391.186	425.31
391.411	430.31
391.636	449.31
391.86	417.31
392.085	420.31
392.31	423.31
392.534	426.31
392.759	428.31
392.984	429.31
393.208	418.31
393.433	430.31
393.658	400.31
393.882	409.31
394.107	420.31
394.331	425.31
394.556	432.31
394.78	414.31
395.005	409.31
395.229	421.31
395.454	444.31
395.678	444.31
395.903	445.31
396.127	477.31
396.352	470.31
396.576	421.31
396.801	441.31
397.025	429.31
397.249	457.31
397.474	467.31
397.698	449.31
397.922	465.31
398.147	460.31
398.371	455.31
398.595	452.31
398.82	461.31
399.044	459.31
399.268	493.31
399.492	500.31
399.717	537.31
399.941	569.31
400.165	593.31
400.389	589.31
400.613	536.31
400.837	509.31
401.062	479.31
401.286	473.31
401.51	484.31
401.734	472.31
401.958	469.31
402.182	482.31
402.406	483.31
402.63	514.31
402.854	466.31
403.078	478.31
403.302	499.31
403.526	491.31
403.75	499.31
403.974	498.31
404.198	473.31
404.422	497.31
404.645	519.31
404.869	508.31
405.093	533.31
405.317	569.31
405.541	652.31
405.765	571.31
405.988	563.31
406.212	555.31
406.436	563.31
406.66	575.31
406.883	526.31
407.107	556.31
407.331	613.31
407.555	656.31
407.778	651.31
408.002	609.31
408.226	556.31
408.449	550.31
408.673	549.31
408.896	601.31
409.12	608.31
409.344	585.31
409.567	526.31
409.791	514.31
410.014	477.31
410.238	495.31
410.461	524.31
410.685	513.31
410.908	503.31
411.132	557.31
411.355	584.31
411.578	570.31
411.802	505.31
412.025	486.31
412.249	517.31
412.472	539.31
412.695	591.31
412.919	586.31
413.142	557.31
413.365	507.31
413.589	491.31
413.812	501.31
414.035	466.31
414.258	475.31
414.482	446.31
414.705	465.31
414.928	459.31
415.151	459.31
415.374	447.31
415.597	492.31
415.821	466.31
416.044	480.31
416.267	458.31
416.49	448.31
416.713	471.31
416.936	445.31
417.159	466.31
417.382	475.31
417.605	490.31
417.828	501.31
418.051	513.31
418.274	470.31
418.497	463.31
418.72	491.31
418.943	449.31
419.166	485.31
419.389	529.31
419.611	488.31
419.834	490.31
420.057	523.31
420.28	527.31
420.503	517.31
420.726	515.31
420.948	531.31
421.171	567.31
421.394	583.31
421.617	518.31
421.839	505.31
422.062	519.31
422.285	533.31
422.507	581.31
422.73	631.31
422.953	610.31
423.175	550.31
423.398	533.31
423.621	501.31
423.843	546.31
424.066	546.31
424.288	534.31
424.511	543.31
424.733	614.31
424.956	695.31
425.178	678.31
425.401	652.31
425.623	680.31
425.846	582.31
426.068	535.31
426.291	550.31
426.513	541.31
426.735	571.31
426.958	596.31
427.18	679.31
427.402	821.31
427.625	915.31
427.847	833.31
428.069	717.31
428.292	614.31
428.514	556.31
428.736	511.31
428.958	535.31
429.181	506.31
429.403	501.31
429.625	498.31
429.847	521.31
430.069	624.31
430.292	586.31
430.514	504.31
430.736	514.31
430.958	500.31
431.18	473.31
431.402	476.31
431.624	443.31
431.846	459.31
432.068	448.31
432.29	462.31
432.512	470.31
432.734	473.31
432.956	444.31
433.178	467.31
433.4	497.31
433.622	459.31
433.844	467.31
434.066	449.31
434.287	460.31
434.509	473.31
434.731	488.31
434.953	469.31
435.175	482.31
435.397	515.31
435.618	552.31
435.84	582.31
436.062	651.31
436.284	723.31
436.505	627.31
436.727	548.31
436.949	519.31
437.17	493.31
437.392	482.31
437.614	511.31
437.835	554.31
438.057	651.31
438.278	723.31
438.5	748.31
438.721	829.31
438.943	789.31
439.165	628.31
439.386	554.31
439.608	548.31
439.829	554.31
440.05	582.31
440.272	629.31
440.493	589.31
440.715	531.31
440.936	509.31
441.158	493.31
441.379	487.31
441.6	538.31
441.822	527.31
442.043	578.31
442.264	643.31
442.486	719.31
442.707	607.31
442.928	577.31
443.149	565.31
443.371	596.31
443.592	627.31
443.813	705.31
444.034	757.31
444.255	650.31
444.476	553.31
444.698	539.31
444.919	522.31
445.14	645.31
445.361	597.31
445.582	593.31
445.803	663.31
446.024	756.31
446.245	767.31
446.466	703.31
446.687	625.31
446.908	543.31
447.129	517.31
447.35	504.31
447.571	489.31
447.792	490.31
448.013	499.31
448.234	513.31
448.455	577.31
448.675	694.31
448.896	774.31
449.117	680.31
449.338	631.31
449.559	753.31
449.779	847.31
450	671.31
450.221	549.31
450.442	538.31
450.662	499.31
450.883	515.31
451.104	525.31
451.324	479.31
451.545	496.31
451.766	469.31
451.986	446.31
452.207	444.31
452.428	445.31
452.648	421.31
452.869	435.31
453.089	455.31
453.31	466.31
453.53	454.31
453.751	454.31
453.971	446.31
454.192	474.31
454.412	459.31
454.633	452.31
454.853	420.31
455.073	463.31
455.294	476.31
455.514	571.31
455.734	542.31
455.955	450.31
456.175	405.31
456.395	390.31
456.616	406.31
456.836	411.31
457.056	414.31
457.276	389.31
457.497	421.31
457.717	418.31
457.937	412.31
458.157	426.31
458.377	438.31
458.598	455.31
458.818	518.31
459.038	607.31
459.258	607.31
459.478	532.31
459.698	494.31
459.918	442.31
460.138	450.31
460.358	458.31
460.578	454.31
460.798	456.31
461.018	469.31
461.238	463.31
461.458	458.31
461.678	438.31
461.898	461.31
462.118	460.31
462.338	462.31
462.558	462.31
462.777	458.31
462.997	464.31
463.217	474.31
463.437	480.31
463.657	485.31
463.876	470.31
464.096	481.31
464.316	478.31
464.536	489.31
464.755	493.31
464.975	504.31
465.195	567.31
465.414	602.31
465.634	571.31
465.854	510.31
466.073	501.31
466.293	463.31
466.512	451.31
466.732	446.31
466.951	439.31
467.171	438.31
467.391	450.31
467.61	478.31
467.829	460.31
468.049	458.31
468.268	462.31
468.488	440.31
468.707	430.31
468.927	451.31
469.146	417.31
469.365	431.31
469.585	407.31
469.804	445.31
470.023	455.31
470.243	459.31
470.462	460.31
470.681	493.31
470.901	471.31
471.12	460.31
471.339	459.31
471.558	452.31
471.777	460.31
471.997	462.31
472.216	471.31
472.435	546.31
472.654	523.31
472.873	473.31
473.092	445.31
473.311	455.31
473.53	471.31
473.749	460.31
473.968	521.31
474.187	600.31
474.406	665.31
474.625	528.31
474.844	475.31
475.063	469.31
475.282	442.31
475.501	470.31
475.72	463.31
475.939	489.31
476.158	459.31
476.377	469.31
476.596	471.31
476.814	457.31
477.033	470.31
477.252	463.31
477.471	476.31
477.69	482.31
477.908	493.31
478.127	488.31
478.346	511.31
478.564	526.31
478.783	500.31
479.002	507.31
479.22	494.31
479.439	529.31
479.658	542.31
479.876	549.31
480.095	555.31
480.313	577.31
480.532	571.31
480.751	564.31
480.969	587.31
481.188	696.31
481.406	790.31
481.624	633.31
481.843	601.31
482.061	551.31
482.28	574.31
482.498	547.31
482.717	541.31
482.935	548.31
483.153	533.31
483.372	545.31
483.59	527.31
483.808	545.31
484.027	548.31
484.245	536.31
484.463	537.31
484.681	521.31
484.9	551.31
485.118	549.31
485.336	555.31
485.554	569.31
485.772	549.31
485.99	541.31
486.209	543.31
486.427	566.31
486.645	569.31
486.863	586.31
487.081	589.31
487.299	562.31
487.517	578.31
487.735	557.31
487.953	574.31
488.171	600.31
488.389	575.31
488.607	588.31
488.825	568.31
489.043	590.31
489.261	596.31
489.479	588.31
489.696	591.31
489.914	588.31
490.132	584.31
490.35	592.31
490.568	611.31
490.786	625.31
491.003	622.31
491.221	641.31
491.439	665.31
491.657	659.31
491.874	659.31
492.092	678.31
492.31	669.31
492.527	697.31
492.745	685.31
492.963	703.31
493.18	714.31
493.398	666.31
493.615	679.31
493.833	711.31
494.05	701.31
494.268	712.31
494.485	706.31
494.703	689.31
494.92	671.31
495.138	683.31
495.355	681.31
495.573	675.31
495.79	702.31
496.008	679.31
496.225	687.31
496.442	694.31
496.66	697.31
496.877	707.31
497.094	677.31
497.312	673.31
497.529	696.31
497.746	691.31
497.963	711.31
498.181	742.31
498.398	729.31
498.615	748.31
498.832	769.31
499.049	739.31
499.267	773.31
499.484	798.31
499.701	804.31
499.918	830.31
500.135	859.31
500.352	865.31
500.569	860.31
500.786	899.31
501.003	889.31
501.22	874.31
501.437	836.31
501.654	854.31
501.871	860.31
