Data from 1989.PennyLincolnUp.Lamp.En5.5.200Scan.071819.P2_HRD10591_17-23-15-992.txt Node
Date: Thu Jul 18 17:23:15 EDT 2019
User: cochatt
Spectrometer: HR+D1059
Trigger mode: 1
Integration Time (sec): 1.000000E-1
Scans to average: 1
Electric dark correction enabled: true
Nonlinearity correction enabled: false
Boxcar width: 0
XAxis mode: Wavelengths
Number of Pixels in Spectrum: 2048
>>>>>Begin Spectral Data<<<<<
223.165	-8.94
223.4	-8.94
223.635	-8.94
223.869	-11.94
224.104	-12.94
224.338	-7.94
224.573	-13.94
224.808	-25.94
225.042	-1.94
225.277	-12.94
225.511	10.06
225.746	11.06
225.98	-7.94
226.215	10.06
226.449	10.06
226.683	18.06
226.918	20.06
227.152	25.06
227.387	23.06
227.621	20.06
227.856	57.06
228.09	49.06
228.324	51.06
228.559	47.06
228.793	64.06
229.027	88.06
229.262	87.06
229.496	95.06
229.73	104.06
229.964	119.06
230.199	106.06
230.433	92.06
230.667	115.06
230.901	112.06
231.136	119.06
231.37	97.06
231.604	100.06
231.838	114.06
232.072	99.06
232.306	103.06
232.541	116.06
232.775	96.06
233.009	96.06
233.243	86.06
233.477	92.06
233.711	115.06
233.945	114.06
234.179	112.06
234.413	103.06
234.647	106.06
234.881	116.06
235.115	112.06
235.349	110.06
235.583	113.06
235.817	106.06
236.051	98.06
236.285	105.06
236.519	104.06
236.753	114.06
236.987	129.06
237.221	158.06
237.455	182.06
237.689	147.06
237.922	131.06
238.156	112.06
238.39	121.06
238.624	99.06
238.858	122.06
239.091	114.06
239.325	105.06
239.559	111.06
239.793	101.06
240.027	126.06
240.26	123.06
240.494	135.06
240.728	134.06
240.961	126.06
241.195	124.06
241.429	126.06
241.662	124.06
241.896	144.06
242.13	107.06
242.363	120.06
242.597	101.06
242.83	128.06
243.064	126.06
243.298	117.06
243.531	116.06
243.765	134.06
243.998	122.06
244.232	132.06
244.465	132.06
244.699	140.06
244.932	132.06
245.166	130.06
245.399	134.06
245.633	130.06
245.866	130.06
246.099	122.06
246.333	128.06
246.566	158.06
246.8	149.06
247.033	139.06
247.266	148.06
247.5	143.06
247.733	136.06
247.966	154.06
248.2	158.06
248.433	146.06
248.666	170.06
248.899	159.06
249.133	184.06
249.366	176.06
249.599	168.06
249.832	178.06
250.066	167.06
250.299	139.06
250.532	172.06
250.765	171.06
250.998	186.06
251.231	192.06
251.465	195.06
251.698	185.06
251.931	170.06
252.164	176.06
252.397	188.06
252.63	184.06
252.863	171.06
253.096	180.06
253.329	201.06
253.562	209.06
253.795	190.06
254.028	200.06
254.261	190.06
254.494	199.06
254.727	220.06
254.96	230.06
255.193	212.06
255.426	214.06
255.659	193.06
255.892	210.06
256.124	183.06
256.357	198.06
256.59	202.06
256.823	180.06
257.056	202.06
257.289	186.06
257.521	187.06
257.754	187.06
257.987	195.06
258.22	174.06
258.452	184.06
258.685	173.06
258.918	179.06
259.151	183.06
259.383	187.06
259.616	197.06
259.849	184.06
260.081	200.06
260.314	236.06
260.547	228.06
260.779	211.06
261.012	216.06
261.244	212.06
261.477	213.06
261.71	207.06
261.942	198.06
262.175	200.06
262.407	196.06
262.64	185.06
262.872	197.06
263.105	198.06
263.337	184.06
263.57	200.06
263.802	204.06
264.035	203.06
264.267	190.06
264.499	189.06
264.732	185.06
264.964	181.06
265.197	195.06
265.429	205.06
265.661	197.06
265.894	202.06
266.126	206.06
266.358	194.06
266.591	192.06
266.823	191.06
267.055	194.06
267.287	193.06
267.52	196.06
267.752	200.06
267.984	202.06
268.216	209.06
268.448	220.06
268.681	222.06
268.913	212.06
269.145	226.06
269.377	235.06
269.609	224.06
269.841	229.06
270.073	252.06
270.306	237.06
270.538	265.06
270.77	266.06
271.002	252.06
271.234	249.06
271.466	247.06
271.698	261.06
271.93	259.06
272.162	260.06
272.394	277.06
272.626	272.06
272.858	244.06
273.09	230.06
273.322	225.06
273.553	231.06
273.785	241.06
274.017	228.06
274.249	230.06
274.481	233.06
274.713	220.06
274.945	231.06
275.176	254.06
275.408	241.06
275.64	250.06
275.872	234.06
276.104	204.06
276.335	232.06
276.567	249.06
276.799	247.06
277.031	259.06
277.262	263.06
277.494	261.06
277.726	260.06
277.957	254.06
278.189	236.06
278.421	233.06
278.652	236.06
278.884	246.06
279.115	237.06
279.347	227.06
279.579	247.06
279.81	241.06
280.042	247.06
280.273	231.06
280.505	251.06
280.736	225.06
280.968	234.06
281.199	229.06
281.431	223.06
281.662	240.06
281.894	240.06
282.125	228.06
282.356	245.06
282.588	239.06
282.819	240.06
283.051	252.06
283.282	239.06
283.513	228.06
283.745	224.06
283.976	243.06
284.207	256.06
284.439	256.06
284.67	264.06
284.901	236.06
285.132	252.06
285.364	243.06
285.595	244.06
285.826	235.06
286.057	252.06
286.288	240.06
286.52	254.06
286.751	255.06
286.982	242.06
287.213	248.06
287.444	246.06
287.675	264.06
287.906	262.06
288.138	259.06
288.369	260.06
288.6	268.06
288.831	255.06
289.062	260.06
289.293	255.06
289.524	243.06
289.755	268.06
289.986	263.06
290.217	251.06
290.448	245.06
290.679	255.06
290.91	263.06
291.141	260.06
291.371	251.06
291.602	241.06
291.833	258.06
292.064	255.06
292.295	256.06
292.526	257.06
292.757	254.06
292.987	266.06
293.218	250.06
293.449	263.06
293.68	253.06
293.91	271.06
294.141	268.06
294.372	262.06
294.603	244.06
294.833	261.06
295.064	258.06
295.295	261.06
295.525	262.06
295.756	259.06
295.987	261.06
296.217	281.06
296.448	280.06
296.679	276.06
296.909	259.06
297.14	253.06
297.37	265.06
297.601	266.06
297.831	264.06
298.062	266.06
298.292	273.06
298.523	255.06
298.753	279.06
298.984	280.06
299.214	277.06
299.445	269.06
299.675	281.06
299.905	268.06
300.136	289.06
300.366	273.06
300.597	261.06
300.827	281.06
301.057	281.06
301.288	289.06
301.518	281.06
301.748	288.06
301.979	276.06
302.209	290.06
302.439	290.06
302.669	273.06
302.9	277.06
303.13	306.06
303.36	282.06
303.59	271.06
303.82	285.06
304.051	299.06
304.281	266.06
304.511	291.06
304.741	283.06
304.971	282.06
305.201	279.06
305.431	294.06
305.661	299.06
305.891	290.06
306.121	273.06
306.352	301.06
306.582	296.06
306.812	287.06
307.042	291.06
307.272	295.06
307.502	287.06
307.731	281.06
307.961	302.06
308.191	302.06
308.421	284.06
308.651	285.06
308.881	309.06
309.111	316.06
309.341	290.06
309.571	299.06
309.8	302.06
310.03	285.06
310.26	313.06
310.49	305.06
310.72	320.06
310.949	328.06
311.179	336.06
311.409	309.06
311.639	331.06
311.868	318.06
312.098	310.06
312.328	329.06
312.557	322.06
312.787	354.06
313.017	322.06
313.246	303.06
313.476	322.06
313.706	324.06
313.935	316.06
314.165	322.06
314.394	337.06
314.624	346.06
314.853	327.06
315.083	332.06
315.312	315.06
315.542	320.06
315.771	313.06
316.001	315.06
316.23	310.06
316.46	338.06
316.689	310.06
316.919	330.06
317.148	322.06
317.377	337.06
317.607	310.06
317.836	336.06
318.065	322.06
318.295	324.06
318.524	317.06
318.753	334.06
318.983	329.06
319.212	309.06
319.441	316.06
319.67	352.06
319.9	314.06
320.129	329.06
320.358	342.06
320.587	314.06
320.816	325.06
321.046	338.06
321.275	320.06
321.504	338.06
321.733	344.06
321.962	326.06
322.191	354.06
322.42	346.06
322.649	373.06
322.878	368.06
323.108	380.06
323.337	369.06
323.566	378.06
323.795	400.06
324.024	430.06
324.253	491.06
324.482	661.06
324.71	937.06
324.939	1319.06
325.168	1158.06
325.397	657.06
325.626	477.06
325.855	387.06
326.084	384.06
326.313	385.06
326.542	390.06
326.77	430.06
326.999	475.06
327.228	609.06
327.457	859.06
327.686	1027.06
327.914	720.06
328.143	505.06
328.372	446.06
328.6	442.06
328.829	437.06
329.058	424.06
329.287	447.06
329.515	425.06
329.744	399.06
329.972	411.06
330.201	396.06
330.43	405.06
330.658	417.06
330.887	444.06
331.115	432.06
331.344	405.06
331.572	384.06
331.801	404.06
332.03	382.06
332.258	373.06
332.486	355.06
332.715	380.06
332.943	364.06
333.172	372.06
333.4	360.06
333.629	363.06
333.857	378.06
334.085	387.06
334.314	410.06
334.542	389.06
334.771	366.06
334.999	362.06
335.227	374.06
335.455	378.06
335.684	378.06
335.912	364.06
336.14	378.06
336.369	359.06
336.597	387.06
336.825	380.06
337.053	374.06
337.281	380.06
337.51	372.06
337.738	377.06
337.966	379.06
338.194	361.06
338.422	362.06
338.65	358.06
338.878	371.06
339.106	370.06
339.334	360.06
339.562	358.06
339.79	362.06
340.018	372.06
340.246	363.06
340.474	361.06
340.702	340.06
340.93	358.06
341.158	336.06
341.386	356.06
341.614	363.06
341.842	354.06
342.07	352.06
342.298	361.06
342.526	363.06
342.754	352.06
342.981	343.06
343.209	347.06
343.437	373.06
343.665	360.06
343.893	352.06
344.12	351.06
344.348	359.06
344.576	377.06
344.804	377.06
345.031	358.06
345.259	375.06
345.487	360.06
345.714	359.06
345.942	355.06
346.17	354.06
346.397	362.06
346.625	347.06
346.853	328.06
347.08	339.06
347.308	334.06
347.535	355.06
347.763	367.06
347.99	355.06
348.218	361.06
348.445	344.06
348.673	343.06
348.9	352.06
349.128	332.06
349.355	337.06
349.583	331.06
349.81	326.06
350.037	331.06
350.265	337.06
350.492	345.06
350.72	341.06
350.947	326.06
351.174	350.06
351.402	344.06
351.629	366.06
351.856	348.06
352.083	324.06
352.311	346.06
352.538	319.06
352.765	352.06
352.992	344.06
353.22	323.06
353.447	353.06
353.674	334.06
353.901	325.06
354.128	342.06
354.355	323.06
354.583	341.06
354.81	330.06
355.037	326.06
355.264	330.06
355.491	309.06
355.718	326.06
355.945	307.06
356.172	325.06
356.399	330.06
356.626	341.06
356.853	346.06
357.08	323.06
357.307	330.06
357.534	314.06
357.761	324.06
357.988	331.06
358.215	328.06
358.441	317.06
358.668	332.06
358.895	326.06
359.122	337.06
359.349	345.06
359.576	331.06
359.802	358.06
360.029	361.06
360.256	391.06
360.483	361.06
360.709	337.06
360.936	348.06
361.163	358.06
361.39	351.06
361.616	370.06
361.843	347.06
362.07	348.06
362.296	352.06
362.523	351.06
362.749	338.06
362.976	334.06
363.203	335.06
363.429	344.06
363.656	344.06
363.882	330.06
364.109	334.06
364.335	316.06
364.562	329.06
364.788	330.06
365.015	338.06
365.241	329.06
365.468	327.06
365.694	331.06
365.92	306.06
366.147	320.06
366.373	337.06
366.599	324.06
366.826	339.06
367.052	308.06
367.278	321.06
367.505	322.06
367.731	336.06
367.957	323.06
368.184	319.06
368.41	322.06
368.636	331.06
368.862	338.06
369.089	347.06
369.315	323.06
369.541	330.06
369.767	354.06
369.993	307.06
370.219	337.06
370.445	315.06
370.672	336.06
370.898	328.06
371.124	330.06
371.35	329.06
371.576	350.06
371.802	316.06
372.028	336.06
372.254	329.06
372.48	335.06
372.706	319.06
372.932	337.06
373.158	322.06
373.384	322.06
373.61	334.06
373.835	328.06
374.061	311.06
374.287	351.06
374.513	340.06
374.739	344.06
374.965	318.06
375.191	342.06
375.416	329.06
375.642	330.06
375.868	321.06
376.094	323.06
376.319	332.06
376.545	334.06
376.771	321.06
376.997	334.06
377.222	326.06
377.448	326.06
377.674	341.06
377.899	340.06
378.125	325.06
378.35	328.06
378.576	328.06
378.802	317.06
379.027	334.06
379.253	326.06
379.478	323.06
379.704	339.06
379.929	334.06
380.155	333.06
380.38	342.06
380.606	337.06
380.831	327.06
381.057	342.06
381.282	338.06
381.507	332.06
381.733	353.06
381.958	348.06
382.184	346.06
382.409	351.06
382.634	340.06
382.86	322.06
383.085	358.06
383.31	361.06
383.535	349.06
383.761	348.06
383.986	356.06
384.211	353.06
384.436	351.06
384.662	355.06
384.887	367.06
385.112	358.06
385.337	352.06
385.562	356.06
385.787	357.06
386.013	384.06
386.238	371.06
386.463	367.06
386.688	361.06
386.913	356.06
387.138	366.06
387.363	353.06
387.588	368.06
387.813	364.06
388.038	340.06
388.263	351.06
388.488	364.06
388.713	350.06
388.938	359.06
389.163	352.06
389.387	339.06
389.612	351.06
389.837	369.06
390.062	360.06
390.287	357.06
390.512	359.06
390.736	350.06
390.961	350.06
391.186	354.06
391.411	363.06
391.636	356.06
391.86	372.06
392.085	387.06
392.31	360.06
392.534	374.06
392.759	365.06
392.984	339.06
393.208	377.06
393.433	384.06
393.658	396.06
393.882	376.06
394.107	362.06
394.331	351.06
394.556	344.06
394.78	342.06
395.005	368.06
395.229	351.06
395.454	356.06
395.678	364.06
395.903	384.06
396.127	366.06
396.352	383.06
396.576	376.06
396.801	382.06
397.025	389.06
397.249	374.06
397.474	366.06
397.698	362.06
397.922	404.06
398.147	385.06
398.371	397.06
398.595	389.06
398.82	385.06
399.044	384.06
399.268	411.06
399.492	420.06
399.717	440.06
399.941	459.06
400.165	495.06
400.389	498.06
400.613	456.06
400.837	402.06
401.062	400.06
401.286	411.06
401.51	370.06
401.734	410.06
401.958	396.06
402.182	400.06
402.406	405.06
402.63	405.06
402.854	393.06
403.078	422.06
403.302	416.06
403.526	408.06
403.75	402.06
403.974	396.06
404.198	398.06
404.422	387.06
404.645	402.06
404.869	406.06
405.093	433.06
405.317	434.06
405.541	447.06
405.765	425.06
405.988	410.06
406.212	414.06
406.436	431.06
406.66	448.06
406.883	452.06
407.107	454.06
407.331	483.06
407.555	522.06
407.778	521.06
408.002	492.06
408.226	451.06
408.449	453.06
408.673	442.06
408.896	446.06
409.12	492.06
409.344	483.06
409.567	419.06
409.791	414.06
410.014	400.06
410.238	400.06
410.461	397.06
410.685	404.06
410.908	406.06
411.132	452.06
411.355	465.06
411.578	444.06
411.802	416.06
412.025	409.06
412.249	407.06
412.472	402.06
412.695	405.06
412.919	408.06
413.142	395.06
413.365	400.06
413.589	386.06
413.812	391.06
414.035	379.06
414.258	399.06
414.482	382.06
414.705	380.06
414.928	374.06
415.151	374.06
415.374	370.06
415.597	376.06
415.821	372.06
416.044	386.06
416.267	382.06
416.49	375.06
416.713	395.06
416.936	377.06
417.159	395.06
417.382	408.06
417.605	376.06
417.828	407.06
418.051	387.06
418.274	400.06
418.497	390.06
418.72	392.06
418.943	372.06
419.166	382.06
419.389	406.06
419.611	402.06
419.834	394.06
420.057	419.06
420.28	405.06
420.503	394.06
420.726	400.06
420.948	404.06
421.171	445.06
421.394	446.06
421.617	395.06
421.839	382.06
422.062	417.06
422.285	418.06
422.507	464.06
422.73	485.06
422.953	499.06
423.175	413.06
423.398	419.06
423.621	420.06
423.843	433.06
424.066	443.06
424.288	410.06
424.511	429.06
424.733	500.06
424.956	552.06
425.178	519.06
425.401	521.06
425.623	516.06
425.846	441.06
426.068	444.06
426.291	423.06
426.513	412.06
426.735	432.06
426.958	481.06
427.18	528.06
427.402	610.06
427.625	675.06
427.847	601.06
428.069	494.06
428.292	446.06
428.514	416.06
428.736	425.06
428.958	407.06
429.181	405.06
429.403	383.06
429.625	394.06
429.847	419.06
430.069	483.06
430.292	456.06
430.514	414.06
430.736	386.06
430.958	382.06
431.18	360.06
431.402	374.06
431.624	378.06
431.846	354.06
432.068	363.06
432.29	387.06
432.512	392.06
432.734	384.06
432.956	386.06
433.178	376.06
433.4	394.06
433.622	396.06
433.844	374.06
434.066	390.06
434.287	376.06
434.509	384.06
434.731	375.06
434.953	396.06
435.175	408.06
435.397	404.06
435.618	432.06
435.84	437.06
436.062	514.06
436.284	562.06
436.505	510.06
436.727	446.06
436.949	399.06
437.17	420.06
437.392	376.06
437.614	384.06
437.835	430.06
438.057	473.06
438.278	560.06
438.5	586.06
438.721	608.06
438.943	621.06
439.165	488.06
439.386	435.06
439.608	434.06
439.829	427.06
440.05	441.06
440.272	469.06
440.493	431.06
440.715	412.06
440.936	394.06
441.158	375.06
441.379	396.06
441.6	392.06
441.822	419.06
442.043	418.06
442.264	505.06
442.486	551.06
442.707	449.06
442.928	438.06
443.149	420.06
443.371	446.06
443.592	474.06
443.813	556.06
444.034	595.06
444.255	500.06
444.476	451.06
444.698	410.06
444.919	446.06
445.14	522.06
445.361	472.06
445.582	453.06
445.803	488.06
446.024	548.06
446.245	606.06
446.466	553.06
446.687	455.06
446.908	427.06
447.129	384.06
447.35	407.06
447.571	384.06
447.792	401.06
448.013	406.06
448.234	416.06
448.455	427.06
448.675	545.06
448.896	619.06
449.117	535.06
449.338	507.06
449.559	580.06
449.779	666.06
450	548.06
450.221	438.06
450.442	414.06
450.662	394.06
450.883	392.06
451.104	392.06
451.324	385.06
451.545	386.06
451.766	363.06
451.986	340.06
452.207	359.06
452.428	349.06
452.648	335.06
452.869	339.06
453.089	374.06
453.31	376.06
453.53	343.06
453.751	363.06
453.971	353.06
454.192	362.06
454.412	354.06
454.633	335.06
454.853	330.06
455.073	353.06
455.294	365.06
455.514	426.06
455.734	406.06
455.955	347.06
456.175	330.06
456.395	331.06
456.616	347.06
456.836	340.06
457.056	337.06
457.276	306.06
457.497	327.06
457.717	324.06
457.937	351.06
458.157	351.06
458.377	355.06
458.598	364.06
458.818	377.06
459.038	448.06
459.258	440.06
459.478	401.06
459.698	384.06
459.918	368.06
460.138	368.06
460.358	373.06
460.578	372.06
460.798	394.06
461.018	380.06
461.238	376.06
461.458	369.06
461.678	376.06
461.898	381.06
462.118	391.06
462.338	386.06
462.558	378.06
462.777	382.06
462.997	397.06
463.217	417.06
463.437	414.06
463.657	404.06
463.876	406.06
464.096	418.06
464.316	403.06
464.536	410.06
464.755	382.06
464.975	390.06
465.195	446.06
465.414	474.06
465.634	404.06
465.854	382.06
466.073	356.06
466.293	382.06
466.512	352.06
466.732	368.06
466.951	376.06
467.171	340.06
467.391	355.06
467.61	368.06
467.829	373.06
468.049	360.06
468.268	349.06
468.488	372.06
468.707	366.06
468.927	370.06
469.146	347.06
469.365	346.06
469.585	345.06
469.804	347.06
470.023	358.06
470.243	369.06
470.462	352.06
470.681	384.06
470.901	392.06
471.12	376.06
471.339	374.06
471.558	393.06
471.777	378.06
471.997	362.06
472.216	357.06
472.435	359.06
472.654	350.06
472.873	336.06
473.092	359.06
473.311	354.06
473.53	360.06
473.749	359.06
473.968	391.06
474.187	452.06
474.406	480.06
474.625	430.06
474.844	385.06
475.063	367.06
475.282	391.06
475.501	363.06
475.72	386.06
475.939	366.06
476.158	374.06
476.377	380.06
476.596	390.06
476.814	384.06
477.033	379.06
477.252	395.06
477.471	389.06
477.69	381.06
477.908	382.06
478.127	404.06
478.346	396.06
478.564	411.06
478.783	420.06
479.002	419.06
479.22	429.06
479.439	438.06
479.658	430.06
479.876	421.06
480.095	427.06
480.313	448.06
480.532	422.06
480.751	434.06
480.969	426.06
481.188	459.06
481.406	440.06
481.624	441.06
481.843	429.06
482.061	436.06
482.28	420.06
482.498	432.06
482.717	423.06
482.935	426.06
483.153	427.06
483.372	419.06
483.59	418.06
483.808	423.06
484.027	443.06
484.245	427.06
484.463	427.06
484.681	439.06
484.9	440.06
485.118	417.06
485.336	411.06
485.554	435.06
485.772	451.06
485.99	451.06
486.209	443.06
486.427	451.06
486.645	442.06
486.863	464.06
487.081	458.06
487.299	444.06
487.517	439.06
487.735	491.06
487.953	486.06
488.171	464.06
488.389	454.06
488.607	439.06
488.825	467.06
489.043	468.06
489.261	467.06
489.479	473.06
489.696	450.06
489.914	467.06
490.132	473.06
490.35	493.06
490.568	502.06
490.786	499.06
491.003	486.06
491.221	484.06
491.439	493.06
491.657	496.06
491.874	531.06
492.092	520.06
492.31	512.06
492.527	524.06
492.745	546.06
492.963	518.06
493.18	537.06
493.398	515.06
493.615	543.06
493.833	546.06
494.05	527.06
494.268	538.06
494.485	525.06
494.703	521.06
494.92	529.06
495.138	523.06
495.355	516.06
495.573	530.06
495.79	528.06
496.008	538.06
496.225	527.06
496.442	528.06
496.66	523.06
496.877	554.06
497.094	525.06
497.312	544.06
497.529	539.06
497.746	581.06
497.963	591.06
498.181	570.06
498.398	578.06
498.615	610.06
498.832	608.06
499.049	625.06
499.267	631.06
499.484	641.06
499.701	660.06
499.918	677.06
500.135	681.06
500.352	723.06
500.569	696.06
500.786	716.06
501.003	714.06
501.22	695.06
501.437	696.06
501.654	663.06
501.871	654.06
502.088	642.06
