Data from 1989.PennyLincolnUp.Lamp.En5.5.200Scan.071819.P2_HRD10591_17-25-42-974.txt Node
Date: Thu Jul 18 17:25:42 EDT 2019
User: cochatt
Spectrometer: HR+D1059
Trigger mode: 1
Integration Time (sec): 1.000000E-1
Scans to average: 1
Electric dark correction enabled: true
Nonlinearity correction enabled: false
Boxcar width: 0
XAxis mode: Wavelengths
Number of Pixels in Spectrum: 2048
>>>>>Begin Spectral Data<<<<<
223.165	-22.81
223.4	-22.81
223.635	-22.81
223.869	-21.81
224.104	-20.81
224.338	-33.81
224.573	-5.81
224.808	-16.81
225.042	-7.81
225.277	-3.81
225.511	5.19
225.746	-2.81
225.98	3.19
226.215	10.19
226.449	32.19
226.683	24.19
226.918	30.19
227.152	31.19
227.387	42.19
227.621	29.19
227.856	51.19
228.09	42.19
228.324	57.19
228.559	63.19
228.793	70.19
229.027	103.19
229.262	110.19
229.496	126.19
229.73	146.19
229.964	158.19
230.199	143.19
230.433	128.19
230.667	124.19
230.901	124.19
231.136	109.19
231.37	128.19
231.604	116.19
231.838	122.19
232.072	118.19
232.306	128.19
232.541	111.19
232.775	109.19
233.009	116.19
233.243	119.19
233.477	128.19
233.711	122.19
233.945	112.19
234.179	123.19
234.413	120.19
234.647	125.19
234.881	126.19
235.115	127.19
235.349	126.19
235.583	126.19
235.817	123.19
236.051	136.19
236.285	142.19
236.519	138.19
236.753	121.19
236.987	158.19
237.221	203.19
237.455	255.19
237.689	198.19
237.922	158.19
238.156	149.19
238.39	137.19
238.624	142.19
238.858	125.19
239.091	125.19
239.325	141.19
239.559	138.19
239.793	123.19
240.027	144.19
240.26	150.19
240.494	158.19
240.728	175.19
240.961	166.19
241.195	154.19
241.429	150.19
241.662	146.19
241.896	134.19
242.13	126.19
242.363	139.19
242.597	140.19
242.83	143.19
243.064	146.19
243.298	144.19
243.531	143.19
243.765	147.19
243.998	158.19
244.232	143.19
244.465	150.19
244.699	152.19
244.932	154.19
245.166	166.19
245.399	156.19
245.633	154.19
245.866	149.19
246.099	152.19
246.333	142.19
246.566	176.19
246.8	182.19
247.033	178.19
247.266	168.19
247.5	198.19
247.733	188.19
247.966	170.19
248.2	180.19
248.433	200.19
248.666	178.19
248.899	202.19
249.133	214.19
249.366	238.19
249.599	231.19
249.832	218.19
250.066	209.19
250.299	201.19
250.532	211.19
250.765	210.19
250.998	246.19
251.231	248.19
251.465	246.19
251.698	231.19
251.931	230.19
252.164	206.19
252.397	217.19
252.63	231.19
252.863	244.19
253.096	225.19
253.329	255.19
253.562	245.19
253.795	255.19
254.028	247.19
254.261	253.19
254.494	254.19
254.727	303.19
254.96	316.19
255.193	321.19
255.426	290.19
255.659	266.19
255.892	267.19
256.124	275.19
256.357	278.19
256.59	263.19
256.823	250.19
257.056	251.19
257.289	252.19
257.521	242.19
257.754	223.19
257.987	224.19
258.22	231.19
258.452	230.19
258.685	223.19
258.918	252.19
259.151	228.19
259.383	240.19
259.616	252.19
259.849	248.19
260.081	254.19
260.314	284.19
260.547	295.19
260.779	279.19
261.012	278.19
261.244	252.19
261.477	271.19
261.71	263.19
261.942	264.19
262.175	259.19
262.407	258.19
262.64	235.19
262.872	233.19
263.105	216.19
263.337	231.19
263.57	231.19
263.802	262.19
264.035	230.19
264.267	238.19
264.499	234.19
264.732	220.19
264.964	236.19
265.197	219.19
265.429	230.19
265.661	240.19
265.894	255.19
266.126	249.19
266.358	235.19
266.591	262.19
266.823	256.19
267.055	251.19
267.287	256.19
267.52	257.19
267.752	250.19
267.984	247.19
268.216	263.19
268.448	258.19
268.681	267.19
268.913	264.19
269.145	290.19
269.377	319.19
269.609	318.19
269.841	299.19
270.073	292.19
270.306	320.19
270.538	355.19
270.77	373.19
271.002	349.19
271.234	306.19
271.466	331.19
271.698	347.19
271.93	353.19
272.162	354.19
272.394	348.19
272.626	357.19
272.858	333.19
273.09	324.19
273.322	322.19
273.553	299.19
273.785	301.19
274.017	296.19
274.249	293.19
274.481	292.19
274.713	293.19
274.945	282.19
275.176	317.19
275.408	281.19
275.64	293.19
275.872	311.19
276.104	297.19
276.335	288.19
276.567	311.19
276.799	310.19
277.031	363.19
277.262	379.19
277.494	349.19
277.726	346.19
277.957	341.19
278.189	318.19
278.421	316.19
278.652	294.19
278.884	304.19
279.115	299.19
279.347	297.19
279.579	285.19
279.81	302.19
280.042	289.19
280.273	300.19
280.505	300.19
280.736	268.19
280.968	284.19
281.199	300.19
281.431	288.19
281.662	311.19
281.894	309.19
282.125	314.19
282.356	317.19
282.588	339.19
282.819	344.19
283.051	329.19
283.282	313.19
283.513	295.19
283.745	317.19
283.976	294.19
284.207	299.19
284.439	306.19
284.67	309.19
284.901	295.19
285.132	297.19
285.364	301.19
285.595	323.19
285.826	311.19
286.057	302.19
286.288	308.19
286.52	316.19
286.751	303.19
286.982	304.19
287.213	317.19
287.444	315.19
287.675	319.19
287.906	333.19
288.138	328.19
288.369	323.19
288.6	311.19
288.831	318.19
289.062	313.19
289.293	323.19
289.524	313.19
289.755	329.19
289.986	310.19
290.217	302.19
290.448	304.19
290.679	323.19
290.91	315.19
291.141	311.19
291.371	334.19
291.602	310.19
291.833	303.19
292.064	324.19
292.295	304.19
292.526	319.19
292.757	320.19
292.987	304.19
293.218	315.19
293.449	325.19
293.68	328.19
293.91	301.19
294.141	316.19
294.372	302.19
294.603	306.19
294.833	308.19
295.064	315.19
295.295	315.19
295.525	301.19
295.756	346.19
295.987	320.19
296.217	333.19
296.448	365.19
296.679	335.19
296.909	310.19
297.14	317.19
297.37	314.19
297.601	330.19
297.831	322.19
298.062	316.19
298.292	320.19
298.523	328.19
298.753	340.19
298.984	347.19
299.214	322.19
299.445	330.19
299.675	336.19
299.905	336.19
300.136	320.19
300.366	330.19
300.597	331.19
300.827	343.19
301.057	362.19
301.288	342.19
301.518	367.19
301.748	348.19
301.979	358.19
302.209	346.19
302.439	363.19
302.669	356.19
302.9	347.19
303.13	346.19
303.36	365.19
303.59	342.19
303.82	362.19
304.051	378.19
304.281	378.19
304.511	350.19
304.741	346.19
304.971	350.19
305.201	355.19
305.431	338.19
305.661	347.19
305.891	355.19
306.121	358.19
306.352	359.19
306.582	366.19
306.812	356.19
307.042	357.19
307.272	349.19
307.502	335.19
307.731	370.19
307.961	363.19
308.191	345.19
308.421	357.19
308.651	384.19
308.881	343.19
309.111	376.19
309.341	382.19
309.571	386.19
309.8	395.19
310.03	406.19
310.26	400.19
310.49	414.19
310.72	416.19
310.949	412.19
311.179	407.19
311.409	434.19
311.639	409.19
311.868	422.19
312.098	425.19
312.328	422.19
312.557	442.19
312.787	442.19
313.017	429.19
313.246	441.19
313.476	421.19
313.706	399.19
313.935	418.19
314.165	412.19
314.394	457.19
314.624	436.19
314.853	416.19
315.083	422.19
315.312	398.19
315.542	395.19
315.771	407.19
316.001	406.19
316.23	425.19
316.46	410.19
316.689	383.19
316.919	405.19
317.148	410.19
317.377	443.19
317.607	402.19
317.836	424.19
318.065	414.19
318.295	404.19
318.524	405.19
318.753	407.19
318.983	392.19
319.212	401.19
319.441	424.19
319.67	421.19
319.9	414.19
320.129	422.19
320.358	415.19
320.587	422.19
320.816	440.19
321.046	437.19
321.275	450.19
321.504	433.19
321.733	444.19
321.962	450.19
322.191	462.19
322.42	463.19
322.649	492.19
322.878	492.19
323.108	523.19
323.337	539.19
323.566	544.19
323.795	587.19
324.024	650.19
324.253	810.19
324.482	1157.19
324.71	1801.19
324.939	2591.19
325.168	2207.19
325.397	1109.19
325.626	748.19
325.855	622.19
326.084	572.19
326.313	581.19
326.542	576.19
326.77	635.19
326.999	738.19
327.228	1006.19
327.457	1539.19
327.686	1942.19
327.914	1274.19
328.143	822.19
328.372	723.19
328.6	688.19
328.829	649.19
329.058	676.19
329.287	644.19
329.515	628.19
329.744	583.19
329.972	592.19
330.201	623.19
330.43	673.19
330.658	694.19
330.887	669.19
331.115	688.19
331.344	585.19
331.572	546.19
331.801	539.19
332.03	532.19
332.258	528.19
332.486	488.19
332.715	495.19
332.943	499.19
333.172	488.19
333.4	516.19
333.629	506.19
333.857	515.19
334.085	565.19
334.314	570.19
334.542	618.19
334.771	628.19
334.999	575.19
335.227	521.19
335.455	519.19
335.684	501.19
335.912	489.19
336.14	476.19
336.369	463.19
336.597	480.19
336.825	494.19
337.053	472.19
337.281	485.19
337.51	447.19
337.738	476.19
337.966	462.19
338.194	484.19
338.422	463.19
338.65	471.19
338.878	454.19
339.106	462.19
339.334	442.19
339.562	450.19
339.79	459.19
340.018	470.19
340.246	442.19
340.474	474.19
340.702	468.19
340.93	474.19
341.158	443.19
341.386	448.19
341.614	466.19
341.842	470.19
342.07	469.19
342.298	452.19
342.526	444.19
342.754	439.19
342.981	440.19
343.209	430.19
343.437	440.19
343.665	462.19
343.893	457.19
344.12	449.19
344.348	430.19
344.576	434.19
344.804	457.19
345.031	472.19
345.259	455.19
345.487	457.19
345.714	450.19
345.942	453.19
346.17	428.19
346.397	447.19
346.625	421.19
346.853	448.19
347.08	435.19
347.308	455.19
347.535	443.19
347.763	463.19
347.99	439.19
348.218	479.19
348.445	461.19
348.673	432.19
348.9	457.19
349.128	425.19
349.355	428.19
349.583	443.19
349.81	420.19
350.037	434.19
350.265	400.19
350.492	411.19
350.72	415.19
350.947	409.19
351.174	421.19
351.402	449.19
351.629	462.19
351.856	437.19
352.083	439.19
352.311	450.19
352.538	446.19
352.765	450.19
352.992	444.19
353.22	434.19
353.447	456.19
353.674	440.19
353.901	414.19
354.128	410.19
354.355	395.19
354.583	406.19
354.81	436.19
355.037	394.19
355.264	405.19
355.491	398.19
355.718	400.19
355.945	427.19
356.172	396.19
356.399	407.19
356.626	386.19
356.853	408.19
357.08	397.19
357.307	390.19
357.534	400.19
357.761	390.19
357.988	411.19
358.215	400.19
358.441	415.19
358.668	402.19
358.895	423.19
359.122	392.19
359.349	424.19
359.576	437.19
359.802	453.19
360.029	487.19
360.256	501.19
360.483	474.19
360.709	430.19
360.936	430.19
361.163	436.19
361.39	448.19
361.616	439.19
361.843	437.19
362.07	426.19
362.296	434.19
362.523	427.19
362.749	427.19
362.976	415.19
363.203	442.19
363.429	412.19
363.656	409.19
363.882	390.19
364.109	407.19
364.335	410.19
364.562	395.19
364.788	412.19
365.015	417.19
365.241	398.19
365.468	426.19
365.694	416.19
365.92	421.19
366.147	406.19
366.373	383.19
366.599	412.19
366.826	386.19
367.052	402.19
367.278	399.19
367.505	407.19
367.731	384.19
367.957	413.19
368.184	416.19
368.41	412.19
368.636	404.19
368.862	418.19
369.089	423.19
369.315	398.19
369.541	404.19
369.767	397.19
369.993	404.19
370.219	401.19
370.445	420.19
370.672	407.19
370.898	404.19
371.124	409.19
371.35	390.19
371.576	391.19
371.802	386.19
372.028	395.19
372.254	394.19
372.48	382.19
372.706	410.19
372.932	396.19
373.158	408.19
373.384	393.19
373.61	402.19
373.835	399.19
374.061	414.19
374.287	380.19
374.513	398.19
374.739	395.19
374.965	408.19
375.191	386.19
375.416	395.19
375.642	415.19
375.868	388.19
376.094	390.19
376.319	372.19
376.545	393.19
376.771	399.19
376.997	398.19
377.222	417.19
377.448	386.19
377.674	374.19
377.899	376.19
378.125	378.19
378.35	390.19
378.576	382.19
378.802	378.19
379.027	404.19
379.253	398.19
379.478	380.19
379.704	402.19
379.929	388.19
380.155	386.19
380.38	376.19
380.606	376.19
380.831	412.19
381.057	412.19
381.282	391.19
381.507	381.19
381.733	392.19
381.958	404.19
382.184	378.19
382.409	388.19
382.634	390.19
382.86	399.19
383.085	386.19
383.31	403.19
383.535	398.19
383.761	411.19
383.986	401.19
384.211	393.19
384.436	389.19
384.662	404.19
384.887	383.19
385.112	415.19
385.337	406.19
385.562	405.19
385.787	412.19
386.013	427.19
386.238	425.19
386.463	452.19
386.688	428.19
386.913	418.19
387.138	384.19
387.363	414.19
387.588	424.19
387.813	416.19
388.038	421.19
388.263	398.19
388.488	413.19
388.713	428.19
388.938	413.19
389.163	410.19
389.387	419.19
389.612	421.19
389.837	406.19
390.062	390.19
390.287	418.19
390.512	416.19
390.736	405.19
390.961	413.19
391.186	412.19
391.411	409.19
391.636	426.19
391.86	428.19
392.085	429.19
392.31	395.19
392.534	424.19
392.759	414.19
392.984	422.19
393.208	400.19
393.433	409.19
393.658	412.19
393.882	388.19
394.107	412.19
394.331	410.19
394.556	431.19
394.78	409.19
395.005	415.19
395.229	399.19
395.454	425.19
395.678	423.19
395.903	448.19
396.127	449.19
396.352	461.19
396.576	443.19
396.801	444.19
397.025	442.19
397.249	432.19
397.474	419.19
397.698	438.19
397.922	453.19
398.147	462.19
398.371	474.19
398.595	454.19
398.82	455.19
399.044	459.19
399.268	488.19
399.492	492.19
399.717	518.19
399.941	528.19
400.165	576.19
400.389	578.19
400.613	542.19
400.837	497.19
401.062	476.19
401.286	466.19
401.51	478.19
401.734	456.19
401.958	476.19
402.182	450.19
402.406	474.19
402.63	483.19
402.854	479.19
403.078	471.19
403.302	486.19
403.526	502.19
403.75	480.19
403.974	478.19
404.198	491.19
404.422	494.19
404.645	523.19
404.869	509.19
405.093	538.19
405.317	586.19
405.541	624.19
405.765	554.19
405.988	534.19
406.212	531.19
406.436	536.19
406.66	564.19
406.883	531.19
407.107	576.19
407.331	599.19
407.555	640.19
407.778	646.19
408.002	581.19
408.226	536.19
408.449	549.19
408.673	556.19
408.896	544.19
409.12	606.19
409.344	578.19
409.567	506.19
409.791	514.19
410.014	492.19
410.238	493.19
410.461	486.19
410.685	481.19
410.908	500.19
411.132	526.19
411.355	566.19
411.578	564.19
411.802	516.19
412.025	479.19
412.249	510.19
412.472	528.19
412.695	586.19
412.919	575.19
413.142	508.19
413.365	473.19
413.589	483.19
413.812	466.19
414.035	480.19
414.258	465.19
414.482	468.19
414.705	471.19
414.928	463.19
415.151	440.19
415.374	431.19
415.597	450.19
415.821	435.19
416.044	446.19
416.267	466.19
416.49	454.19
416.713	468.19
416.936	469.19
417.159	446.19
417.382	466.19
417.605	463.19
417.828	446.19
418.051	485.19
418.274	472.19
418.497	467.19
418.72	464.19
418.943	448.19
419.166	471.19
419.389	484.19
419.611	503.19
419.834	502.19
420.057	515.19
420.28	494.19
420.503	489.19
420.726	486.19
420.948	519.19
421.171	553.19
421.394	591.19
421.617	513.19
421.839	484.19
422.062	491.19
422.285	485.19
422.507	555.19
422.73	629.19
422.953	598.19
423.175	546.19
423.398	495.19
423.621	515.19
423.843	524.19
424.066	539.19
424.288	520.19
424.511	537.19
424.733	583.19
424.956	661.19
425.178	653.19
425.401	651.19
425.623	686.19
425.846	562.19
426.068	538.19
426.291	518.19
426.513	521.19
426.735	541.19
426.958	584.19
427.18	682.19
427.402	804.19
427.625	888.19
427.847	782.19
428.069	678.19
428.292	595.19
428.514	557.19
428.736	516.19
428.958	508.19
429.181	475.19
429.403	487.19
429.625	468.19
429.847	514.19
430.069	587.19
430.292	613.19
430.514	500.19
430.736	495.19
430.958	476.19
431.18	480.19
431.402	462.19
431.624	440.19
431.846	445.19
432.068	449.19
432.29	463.19
432.512	461.19
432.734	479.19
432.956	452.19
433.178	476.19
433.4	495.19
433.622	455.19
433.844	449.19
434.066	458.19
434.287	454.19
434.509	454.19
434.731	453.19
434.953	463.19
435.175	485.19
435.397	537.19
435.618	538.19
435.84	575.19
436.062	648.19
436.284	742.19
436.505	623.19
436.727	554.19
436.949	516.19
437.17	501.19
437.392	492.19
437.614	513.19
437.835	540.19
438.057	676.19
438.278	714.19
438.5	743.19
438.721	818.19
438.943	785.19
439.165	618.19
439.386	548.19
439.608	566.19
439.829	550.19
440.05	584.19
440.272	610.19
440.493	579.19
440.715	516.19
440.936	505.19
441.158	491.19
441.379	490.19
441.6	491.19
441.822	548.19
442.043	580.19
442.264	628.19
442.486	709.19
442.707	599.19
442.928	541.19
443.149	550.19
443.371	571.19
443.592	622.19
443.813	674.19
444.034	776.19
444.255	619.19
444.476	534.19
444.698	530.19
444.919	513.19
445.14	662.19
445.361	595.19
445.582	570.19
445.803	633.19
446.024	748.19
446.245	754.19
446.466	701.19
446.687	594.19
446.908	541.19
447.129	518.19
447.35	504.19
447.571	501.19
447.792	478.19
448.013	516.19
448.234	518.19
448.455	569.19
448.675	663.19
448.896	777.19
449.117	700.19
449.338	619.19
449.559	736.19
449.779	818.19
450	693.19
450.221	580.19
450.442	511.19
450.662	503.19
450.883	513.19
451.104	523.19
451.324	481.19
451.545	482.19
451.766	447.19
451.986	452.19
452.207	439.19
452.428	448.19
452.648	440.19
452.869	446.19
453.089	467.19
453.31	450.19
453.53	442.19
453.751	454.19
453.971	450.19
454.192	460.19
454.412	449.19
454.633	437.19
454.853	434.19
455.073	421.19
455.294	460.19
455.514	543.19
455.734	523.19
455.955	446.19
456.175	418.19
456.395	422.19
456.616	406.19
456.836	406.19
457.056	396.19
457.276	400.19
457.497	397.19
457.717	417.19
457.937	435.19
458.157	428.19
458.377	419.19
458.598	434.19
458.818	506.19
459.038	581.19
459.258	596.19
459.478	504.19
459.698	472.19
459.918	442.19
460.138	453.19
460.358	449.19
460.578	455.19
460.798	456.19
461.018	459.19
461.238	458.19
461.458	445.19
461.678	436.19
461.898	426.19
462.118	438.19
462.338	470.19
462.558	447.19
462.777	462.19
462.997	471.19
463.217	477.19
463.437	470.19
463.657	488.19
463.876	488.19
464.096	475.19
464.316	468.19
464.536	484.19
464.755	466.19
464.975	501.19
465.195	533.19
465.414	626.19
465.634	528.19
465.854	475.19
466.073	475.19
466.293	449.19
466.512	439.19
466.732	417.19
466.951	439.19
467.171	426.19
467.391	427.19
467.61	452.19
467.829	461.19
468.049	452.19
468.268	462.19
468.488	442.19
468.707	425.19
468.927	426.19
469.146	424.19
469.365	432.19
469.585	422.19
469.804	427.19
470.023	446.19
470.243	439.19
470.462	443.19
470.681	467.19
470.901	452.19
471.12	477.19
471.339	446.19
471.558	456.19
471.777	466.19
471.997	426.19
472.216	441.19
472.435	502.19
472.654	506.19
472.873	460.19
473.092	455.19
473.311	443.19
473.53	444.19
473.749	469.19
473.968	507.19
474.187	596.19
474.406	656.19
474.625	520.19
474.844	464.19
475.063	442.19
475.282	457.19
475.501	453.19
475.72	454.19
475.939	451.19
476.158	450.19
476.377	450.19
476.596	451.19
476.814	453.19
477.033	474.19
477.252	471.19
477.471	462.19
477.69	488.19
477.908	465.19
478.127	488.19
478.346	468.19
478.564	481.19
478.783	464.19
479.002	502.19
479.22	510.19
479.439	528.19
479.658	534.19
479.876	529.19
480.095	529.19
480.313	565.19
480.532	556.19
480.751	551.19
480.969	542.19
481.188	633.19
481.406	732.19
481.624	612.19
481.843	550.19
482.061	538.19
482.28	535.19
482.498	514.19
482.717	530.19
482.935	532.19
483.153	531.19
483.372	532.19
483.59	515.19
483.808	518.19
484.027	481.19
484.245	524.19
484.463	521.19
484.681	550.19
484.9	530.19
485.118	524.19
485.336	526.19
485.554	555.19
485.772	526.19
485.99	548.19
486.209	545.19
486.427	550.19
486.645	557.19
486.863	582.19
487.081	581.19
487.299	566.19
487.517	551.19
487.735	554.19
487.953	579.19
488.171	555.19
488.389	583.19
488.607	586.19
488.825	565.19
489.043	564.19
489.261	587.19
489.479	594.19
489.696	564.19
489.914	564.19
490.132	568.19
490.35	600.19
490.568	601.19
490.786	576.19
491.003	628.19
491.221	617.19
491.439	644.19
491.657	637.19
491.874	652.19
492.092	667.19
492.31	670.19
492.527	682.19
492.745	668.19
492.963	667.19
493.18	670.19
493.398	673.19
493.615	678.19
493.833	677.19
494.05	688.19
494.268	673.19
494.485	670.19
494.703	673.19
494.92	673.19
495.138	700.19
495.355	673.19
495.573	690.19
495.79	671.19
496.008	680.19
496.225	679.19
496.442	657.19
496.66	665.19
496.877	674.19
497.094	684.19
497.312	683.19
497.529	678.19
497.746	707.19
497.963	692.19
498.181	740.19
498.398	725.19
498.615	724.19
498.832	726.19
499.049	726.19
499.267	756.19
499.484	771.19
499.701	778.19
499.918	813.19
500.135	816.19
500.352	846.19
500.569	866.19
500.786	861.19
501.003	852.19
501.22	834.19
501.437	836.19
501.654	819.19
501.871	805.19
