Data from 1989.PennyLincolnUp.Lamp.En5.5.200Scan.071819.P2_HRD10591_17-24-36-973.txt Node
Date: Thu Jul 18 17:24:36 EDT 2019
User: cochatt
Spectrometer: HR+D1059
Trigger mode: 1
Integration Time (sec): 1.000000E-1
Scans to average: 1
Electric dark correction enabled: true
Nonlinearity correction enabled: false
Boxcar width: 0
XAxis mode: Wavelengths
Number of Pixels in Spectrum: 2048
>>>>>Begin Spectral Data<<<<<
223.165	-14.56
223.4	-14.56
223.635	-14.56
223.869	-23.56
224.104	1.44
224.338	-17.56
224.573	-14.56
224.808	-35.56
225.042	-7.56
225.277	5.44
225.511	4.44
225.746	-2.56
225.98	4.44
226.215	27.44
226.449	16.44
226.683	11.44
226.918	20.44
227.152	24.44
227.387	30.44
227.621	23.44
227.856	40.44
228.09	33.44
228.324	41.44
228.559	42.44
228.793	81.44
229.027	103.44
229.262	121.44
229.496	115.44
229.73	131.44
229.964	168.44
230.199	128.44
230.433	120.44
230.667	119.44
230.901	120.44
231.136	98.44
231.37	103.44
231.604	109.44
231.838	118.44
232.072	117.44
232.306	112.44
232.541	122.44
232.775	118.44
233.009	110.44
233.243	109.44
233.477	121.44
233.711	115.44
233.945	102.44
234.179	117.44
234.413	101.44
234.647	123.44
234.881	105.44
235.115	117.44
235.349	126.44
235.583	125.44
235.817	120.44
236.051	123.44
236.285	115.44
236.519	120.44
236.753	143.44
236.987	148.44
237.221	199.44
237.455	260.44
237.689	199.44
237.922	152.44
238.156	133.44
238.39	149.44
238.624	102.44
238.858	112.44
239.091	114.44
239.325	130.44
239.559	108.44
239.793	139.44
240.027	142.44
240.26	151.44
240.494	154.44
240.728	157.44
240.961	153.44
241.195	146.44
241.429	147.44
241.662	139.44
241.896	127.44
242.13	122.44
242.363	139.44
242.597	129.44
242.83	148.44
243.064	155.44
243.298	137.44
243.531	125.44
243.765	129.44
243.998	131.44
244.232	147.44
244.465	145.44
244.699	135.44
244.932	160.44
245.166	150.44
245.399	158.44
245.633	141.44
245.866	147.44
246.099	156.44
246.333	163.44
246.566	153.44
246.8	153.44
247.033	146.44
247.266	158.44
247.5	167.44
247.733	177.44
247.966	174.44
248.2	191.44
248.433	179.44
248.666	171.44
248.899	205.44
249.133	209.44
249.366	225.44
249.599	203.44
249.832	191.44
250.066	202.44
250.299	199.44
250.532	194.44
250.765	208.44
250.998	255.44
251.231	253.44
251.465	230.44
251.698	222.44
251.931	232.44
252.164	205.44
252.397	211.44
252.63	213.44
252.863	215.44
253.096	222.44
253.329	233.44
253.562	243.44
253.795	231.44
254.028	232.44
254.261	241.44
254.494	258.44
254.727	272.44
254.96	322.44
255.193	285.44
255.426	249.44
255.659	242.44
255.892	243.44
256.124	232.44
256.357	261.44
256.59	261.44
256.823	225.44
257.056	224.44
257.289	207.44
257.521	237.44
257.754	222.44
257.987	210.44
258.22	225.44
258.452	230.44
258.685	225.44
258.918	239.44
259.151	237.44
259.383	233.44
259.616	227.44
259.849	249.44
260.081	239.44
260.314	269.44
260.547	272.44
260.779	263.44
261.012	262.44
261.244	239.44
261.477	230.44
261.71	249.44
261.942	226.44
262.175	266.44
262.407	248.44
262.64	238.44
262.872	229.44
263.105	239.44
263.337	224.44
263.57	229.44
263.802	235.44
264.035	217.44
264.267	222.44
264.499	245.44
264.732	225.44
264.964	243.44
265.197	240.44
265.429	232.44
265.661	235.44
265.894	238.44
266.126	228.44
266.358	235.44
266.591	232.44
266.823	248.44
267.055	243.44
267.287	238.44
267.52	222.44
267.752	227.44
267.984	260.44
268.216	245.44
268.448	231.44
268.681	229.44
268.913	240.44
269.145	278.44
269.377	307.44
269.609	311.44
269.841	293.44
270.073	289.44
270.306	331.44
270.538	366.44
270.77	350.44
271.002	325.44
271.234	298.44
271.466	323.44
271.698	337.44
271.93	337.44
272.162	326.44
272.394	334.44
272.626	330.44
272.858	311.44
273.09	309.44
273.322	286.44
273.553	294.44
273.785	289.44
274.017	303.44
274.249	280.44
274.481	290.44
274.713	287.44
274.945	285.44
275.176	285.44
275.408	281.44
275.64	306.44
275.872	283.44
276.104	310.44
276.335	295.44
276.567	306.44
276.799	311.44
277.031	327.44
277.262	346.44
277.494	335.44
277.726	319.44
277.957	315.44
278.189	309.44
278.421	294.44
278.652	298.44
278.884	281.44
279.115	295.44
279.347	282.44
279.579	274.44
279.81	274.44
280.042	263.44
280.273	274.44
280.505	269.44
280.736	299.44
280.968	287.44
281.199	272.44
281.431	288.44
281.662	289.44
281.894	264.44
282.125	302.44
282.356	320.44
282.588	340.44
282.819	324.44
283.051	293.44
283.282	288.44
283.513	298.44
283.745	310.44
283.976	287.44
284.207	286.44
284.439	283.44
284.67	281.44
284.901	274.44
285.132	281.44
285.364	307.44
285.595	311.44
285.826	282.44
286.057	294.44
286.288	317.44
286.52	294.44
286.751	287.44
286.982	299.44
287.213	307.44
287.444	288.44
287.675	315.44
287.906	307.44
288.138	323.44
288.369	325.44
288.6	306.44
288.831	318.44
289.062	337.44
289.293	309.44
289.524	305.44
289.755	306.44
289.986	323.44
290.217	294.44
290.448	299.44
290.679	296.44
290.91	321.44
291.141	285.44
291.371	296.44
291.602	312.44
291.833	297.44
292.064	305.44
292.295	319.44
292.526	307.44
292.757	298.44
292.987	297.44
293.218	303.44
293.449	303.44
293.68	293.44
293.91	291.44
294.141	271.44
294.372	280.44
294.603	310.44
294.833	299.44
295.064	306.44
295.295	304.44
295.525	329.44
295.756	319.44
295.987	333.44
296.217	336.44
296.448	349.44
296.679	341.44
296.909	320.44
297.14	338.44
297.37	304.44
297.601	312.44
297.831	313.44
298.062	329.44
298.292	305.44
298.523	314.44
298.753	338.44
298.984	330.44
299.214	320.44
299.445	311.44
299.675	323.44
299.905	325.44
300.136	312.44
300.366	323.44
300.597	310.44
300.827	338.44
301.057	321.44
301.288	344.44
301.518	355.44
301.748	349.44
301.979	346.44
302.209	353.44
302.439	345.44
302.669	330.44
302.9	349.44
303.13	331.44
303.36	341.44
303.59	328.44
303.82	359.44
304.051	355.44
304.281	340.44
304.511	349.44
304.741	351.44
304.971	333.44
305.201	330.44
305.431	345.44
305.661	323.44
305.891	329.44
306.121	347.44
306.352	326.44
306.582	353.44
306.812	358.44
307.042	358.44
307.272	358.44
307.502	349.44
307.731	349.44
307.961	339.44
308.191	347.44
308.421	346.44
308.651	367.44
308.881	373.44
309.111	367.44
309.341	366.44
309.571	370.44
309.8	383.44
310.03	383.44
310.26	409.44
310.49	409.44
310.72	409.44
310.949	423.44
311.179	431.44
311.409	421.44
311.639	389.44
311.868	392.44
312.098	401.44
312.328	423.44
312.557	439.44
312.787	441.44
313.017	433.44
313.246	415.44
313.476	387.44
313.706	401.44
313.935	415.44
314.165	435.44
314.394	424.44
314.624	431.44
314.853	413.44
315.083	403.44
315.312	421.44
315.542	391.44
315.771	391.44
316.001	399.44
316.23	384.44
316.46	407.44
316.689	390.44
316.919	408.44
317.148	415.44
317.377	433.44
317.607	418.44
317.836	401.44
318.065	407.44
318.295	413.44
318.524	410.44
318.753	397.44
318.983	407.44
319.212	395.44
319.441	400.44
319.67	413.44
319.9	420.44
320.129	415.44
320.358	416.44
320.587	425.44
320.816	396.44
321.046	429.44
321.275	431.44
321.504	439.44
321.733	432.44
321.962	440.44
322.191	449.44
322.42	463.44
322.649	448.44
322.878	485.44
323.108	501.44
323.337	541.44
323.566	537.44
323.795	594.44
324.024	631.44
324.253	783.44
324.482	1137.44
324.71	1734.44
324.939	2533.44
325.168	2212.44
325.397	1145.44
325.626	737.44
325.855	618.44
326.084	551.44
326.313	549.44
326.542	563.44
326.77	610.44
326.999	753.44
327.228	1025.44
327.457	1538.44
327.686	1922.44
327.914	1286.44
328.143	792.44
328.372	715.44
328.6	647.44
328.829	610.44
329.058	623.44
329.287	641.44
329.515	603.44
329.744	543.44
329.972	525.44
330.201	527.44
330.43	560.44
330.658	618.44
330.887	661.44
331.115	651.44
331.344	554.44
331.572	541.44
331.801	554.44
332.03	526.44
332.258	517.44
332.486	473.44
332.715	465.44
332.943	467.44
333.172	463.44
333.4	463.44
333.629	464.44
333.857	474.44
334.085	474.44
334.314	476.44
334.542	500.44
334.771	475.44
334.999	482.44
335.227	475.44
335.455	499.44
335.684	464.44
335.912	435.44
336.14	466.44
336.369	457.44
336.597	472.44
336.825	457.44
337.053	467.44
337.281	448.44
337.51	441.44
337.738	445.44
337.966	450.44
338.194	470.44
338.422	462.44
338.65	430.44
338.878	454.44
339.106	447.44
339.334	430.44
339.562	451.44
339.79	446.44
340.018	449.44
340.246	452.44
340.474	458.44
340.702	462.44
340.93	449.44
341.158	448.44
341.386	453.44
341.614	451.44
341.842	450.44
342.07	441.44
342.298	407.44
342.526	425.44
342.754	422.44
342.981	423.44
343.209	422.44
343.437	441.44
343.665	437.44
343.893	439.44
344.12	450.44
344.348	421.44
344.576	457.44
344.804	447.44
345.031	458.44
345.259	456.44
345.487	465.44
345.714	458.44
345.942	418.44
346.17	425.44
346.397	440.44
346.625	436.44
346.853	443.44
347.08	427.44
347.308	440.44
347.535	469.44
347.763	449.44
347.99	429.44
348.218	445.44
348.445	440.44
348.673	464.44
348.9	434.44
349.128	432.44
349.355	417.44
349.583	415.44
349.81	418.44
350.037	416.44
350.265	416.44
350.492	424.44
350.72	422.44
350.947	421.44
351.174	423.44
351.402	430.44
351.629	430.44
351.856	436.44
352.083	459.44
352.311	474.44
352.538	462.44
352.765	438.44
352.992	413.44
353.22	447.44
353.447	439.44
353.674	429.44
353.901	406.44
354.128	380.44
354.355	392.44
354.583	399.44
354.81	396.44
355.037	401.44
355.264	413.44
355.491	391.44
355.718	382.44
355.945	383.44
356.172	386.44
356.399	399.44
356.626	383.44
356.853	407.44
357.08	389.44
357.307	384.44
357.534	374.44
357.761	393.44
357.988	394.44
358.215	374.44
358.441	398.44
358.668	386.44
358.895	415.44
359.122	391.44
359.349	406.44
359.576	420.44
359.802	446.44
360.029	472.44
360.256	483.44
360.483	467.44
360.709	419.44
360.936	424.44
361.163	433.44
361.39	418.44
361.616	447.44
361.843	422.44
362.07	413.44
362.296	405.44
362.523	442.44
362.749	428.44
362.976	398.44
363.203	423.44
363.429	393.44
363.656	390.44
363.882	381.44
364.109	389.44
364.335	394.44
364.562	399.44
364.788	397.44
365.015	410.44
365.241	392.44
365.468	420.44
365.694	411.44
365.92	413.44
366.147	413.44
366.373	399.44
366.599	404.44
366.826	385.44
367.052	379.44
367.278	385.44
367.505	383.44
367.731	414.44
367.957	406.44
368.184	379.44
368.41	405.44
368.636	405.44
368.862	415.44
369.089	393.44
369.315	406.44
369.541	373.44
369.767	386.44
369.993	411.44
370.219	390.44
370.445	377.44
370.672	390.44
370.898	396.44
371.124	383.44
371.35	388.44
371.576	414.44
371.802	412.44
372.028	377.44
372.254	414.44
372.48	389.44
372.706	384.44
372.932	391.44
373.158	376.44
373.384	409.44
373.61	391.44
373.835	381.44
374.061	384.44
374.287	387.44
374.513	400.44
374.739	376.44
374.965	397.44
375.191	377.44
375.416	386.44
375.642	396.44
375.868	409.44
376.094	389.44
376.319	377.44
376.545	396.44
376.771	389.44
376.997	399.44
377.222	385.44
377.448	393.44
377.674	391.44
377.899	363.44
378.125	367.44
378.35	377.44
378.576	380.44
378.802	382.44
379.027	385.44
379.253	377.44
379.478	378.44
379.704	351.44
379.929	387.44
380.155	384.44
380.38	390.44
380.606	381.44
380.831	391.44
381.057	379.44
381.282	386.44
381.507	378.44
381.733	402.44
381.958	394.44
382.184	386.44
382.409	386.44
382.634	381.44
382.86	393.44
383.085	378.44
383.31	393.44
383.535	403.44
383.761	418.44
383.986	411.44
384.211	386.44
384.436	402.44
384.662	402.44
384.887	399.44
385.112	389.44
385.337	407.44
385.562	401.44
385.787	386.44
386.013	420.44
386.238	411.44
386.463	420.44
386.688	410.44
386.913	392.44
387.138	416.44
387.363	416.44
387.588	398.44
387.813	411.44
388.038	387.44
388.263	414.44
388.488	430.44
388.713	422.44
388.938	399.44
389.163	418.44
389.387	415.44
389.612	391.44
389.837	401.44
390.062	411.44
390.287	402.44
390.512	402.44
390.736	401.44
390.961	396.44
391.186	419.44
391.411	421.44
391.636	410.44
391.86	427.44
392.085	408.44
392.31	429.44
392.534	426.44
392.759	434.44
392.984	422.44
393.208	415.44
393.433	401.44
393.658	405.44
393.882	395.44
394.107	396.44
394.331	391.44
394.556	397.44
394.78	396.44
395.005	399.44
395.229	398.44
395.454	413.44
395.678	412.44
395.903	415.44
396.127	445.44
396.352	450.44
396.576	423.44
396.801	429.44
397.025	425.44
397.249	430.44
397.474	411.44
397.698	424.44
397.922	440.44
398.147	456.44
398.371	451.44
398.595	453.44
398.82	435.44
399.044	467.44
399.268	466.44
399.492	493.44
399.717	501.44
399.941	530.44
400.165	566.44
400.389	581.44
400.613	499.44
400.837	471.44
401.062	478.44
401.286	462.44
401.51	465.44
401.734	457.44
401.958	460.44
402.182	468.44
402.406	485.44
402.63	472.44
402.854	446.44
403.078	467.44
403.302	470.44
403.526	460.44
403.75	467.44
403.974	454.44
404.198	477.44
404.422	477.44
404.645	488.44
404.869	481.44
405.093	483.44
405.317	521.44
405.541	549.44
405.765	527.44
405.988	498.44
406.212	500.44
406.436	558.44
406.66	516.44
406.883	524.44
407.107	542.44
407.331	572.44
407.555	635.44
407.778	623.44
408.002	599.44
408.226	566.44
408.449	527.44
408.673	512.44
408.896	551.44
409.12	594.44
409.344	555.44
409.567	506.44
409.791	481.44
410.014	469.44
410.238	484.44
410.461	470.44
410.685	474.44
410.908	489.44
411.132	530.44
411.355	571.44
411.578	515.44
411.802	472.44
412.025	454.44
412.249	458.44
412.472	476.44
412.695	499.44
412.919	492.44
413.142	474.44
413.365	457.44
413.589	435.44
413.812	430.44
414.035	437.44
414.258	451.44
414.482	455.44
414.705	445.44
414.928	425.44
415.151	447.44
415.374	431.44
415.597	449.44
415.821	437.44
416.044	418.44
416.267	449.44
416.49	442.44
416.713	453.44
416.936	426.44
417.159	426.44
417.382	464.44
417.605	429.44
417.828	452.44
418.051	462.44
418.274	473.44
418.497	446.44
418.72	448.44
418.943	417.44
419.166	446.44
419.389	472.44
419.611	470.44
419.834	463.44
420.057	466.44
420.28	463.44
420.503	433.44
420.726	454.44
420.948	474.44
421.171	545.44
421.394	552.44
421.617	485.44
421.839	479.44
422.062	479.44
422.285	489.44
422.507	548.44
422.73	611.44
422.953	587.44
423.175	520.44
423.398	506.44
423.621	487.44
423.843	517.44
424.066	536.44
424.288	514.44
424.511	517.44
424.733	597.44
424.956	657.44
425.178	634.44
425.401	625.44
425.623	650.44
425.846	563.44
426.068	521.44
426.291	519.44
426.513	519.44
426.735	541.44
426.958	579.44
427.18	666.44
427.402	784.44
427.625	859.44
427.847	742.44
428.069	643.44
428.292	572.44
428.514	532.44
428.736	505.44
428.958	506.44
429.181	464.44
429.403	478.44
429.625	494.44
429.847	532.44
430.069	617.44
430.292	578.44
430.514	512.44
430.736	485.44
430.958	458.44
431.18	454.44
431.402	456.44
431.624	421.44
431.846	424.44
432.068	437.44
432.29	452.44
432.512	427.44
432.734	447.44
432.956	456.44
433.178	471.44
433.4	492.44
433.622	447.44
433.844	470.44
434.066	431.44
434.287	440.44
434.509	454.44
434.731	448.44
434.953	459.44
435.175	467.44
435.397	532.44
435.618	511.44
435.84	557.44
436.062	647.44
436.284	742.44
436.505	608.44
436.727	532.44
436.949	502.44
437.17	487.44
437.392	495.44
437.614	513.44
437.835	535.44
438.057	646.44
438.278	750.44
438.5	732.44
438.721	790.44
438.943	755.44
439.165	601.44
439.386	561.44
439.608	537.44
439.829	534.44
440.05	567.44
440.272	610.44
440.493	570.44
440.715	526.44
440.936	494.44
441.158	489.44
441.379	485.44
441.6	492.44
441.822	517.44
442.043	555.44
442.264	632.44
442.486	689.44
442.707	595.44
442.928	551.44
443.149	562.44
443.371	577.44
443.592	602.44
443.813	701.44
444.034	751.44
444.255	602.44
444.476	543.44
444.698	536.44
444.919	513.44
445.14	630.44
445.361	575.44
445.582	571.44
445.803	631.44
446.024	729.44
446.245	733.44
446.466	701.44
446.687	603.44
446.908	533.44
447.129	494.44
447.35	481.44
447.571	485.44
447.792	490.44
448.013	477.44
448.234	503.44
448.455	543.44
448.675	665.44
448.896	789.44
449.117	657.44
449.338	611.44
449.559	735.44
449.779	821.44
450	653.44
450.221	538.44
450.442	501.44
450.662	476.44
450.883	481.44
451.104	513.44
451.324	498.44
451.545	467.44
451.766	435.44
451.986	440.44
452.207	443.44
452.428	426.44
452.648	435.44
452.869	433.44
453.089	446.44
453.31	464.44
453.53	432.44
453.751	447.44
453.971	444.44
454.192	465.44
454.412	458.44
454.633	426.44
454.853	409.44
455.073	435.44
455.294	452.44
455.514	529.44
455.734	507.44
455.955	415.44
456.175	406.44
456.395	384.44
456.616	385.44
456.836	404.44
457.056	385.44
457.276	382.44
457.497	393.44
457.717	408.44
457.937	401.44
458.157	388.44
458.377	413.44
458.598	424.44
458.818	514.44
459.038	596.44
459.258	600.44
459.478	514.44
459.698	468.44
459.918	447.44
460.138	434.44
460.358	438.44
460.578	444.44
460.798	436.44
461.018	455.44
461.238	448.44
461.458	449.44
461.678	426.44
461.898	462.44
462.118	460.44
462.338	447.44
462.558	430.44
462.777	465.44
462.997	464.44
463.217	468.44
463.437	468.44
463.657	466.44
463.876	442.44
464.096	464.44
464.316	472.44
464.536	478.44
464.755	451.44
464.975	481.44
465.195	525.44
465.414	607.44
465.634	551.44
465.854	471.44
466.073	463.44
466.293	451.44
466.512	424.44
466.732	439.44
466.951	419.44
467.171	420.44
467.391	453.44
467.61	448.44
467.829	446.44
468.049	447.44
468.268	446.44
468.488	425.44
468.707	425.44
468.927	391.44
469.146	403.44
469.365	415.44
469.585	423.44
469.804	435.44
470.023	444.44
470.243	431.44
470.462	446.44
470.681	447.44
470.901	473.44
471.12	449.44
471.339	415.44
471.558	445.44
471.777	425.44
471.997	444.44
472.216	411.44
472.435	442.44
472.654	430.44
472.873	409.44
473.092	407.44
473.311	422.44
473.53	425.44
473.749	444.44
473.968	478.44
474.187	587.44
474.406	621.44
474.625	513.44
474.844	460.44
475.063	431.44
475.282	449.44
475.501	433.44
475.72	460.44
475.939	450.44
476.158	463.44
476.377	451.44
476.596	449.44
476.814	453.44
477.033	469.44
477.252	443.44
477.471	452.44
477.69	440.44
477.908	475.44
478.127	447.44
478.346	461.44
478.564	497.44
478.783	487.44
479.002	467.44
479.22	484.44
479.439	497.44
479.658	529.44
479.876	531.44
480.095	527.44
480.313	539.44
480.532	551.44
480.751	525.44
480.969	536.44
481.188	554.44
481.406	570.44
481.624	528.44
481.843	491.44
482.061	519.44
482.28	506.44
482.498	507.44
482.717	498.44
482.935	488.44
483.153	507.44
483.372	505.44
483.59	510.44
483.808	492.44
484.027	512.44
484.245	522.44
484.463	508.44
484.681	523.44
484.9	502.44
485.118	521.44
485.336	501.44
485.554	542.44
485.772	544.44
485.99	544.44
486.209	523.44
486.427	514.44
486.645	542.44
486.863	565.44
487.081	576.44
487.299	549.44
487.517	553.44
487.735	549.44
487.953	552.44
488.171	549.44
488.389	560.44
488.607	543.44
488.825	570.44
489.043	540.44
489.261	567.44
489.479	552.44
489.696	563.44
489.914	561.44
490.132	592.44
490.35	572.44
490.568	580.44
490.786	593.44
491.003	597.44
491.221	598.44
491.439	603.44
491.657	606.44
491.874	624.44
492.092	619.44
492.31	627.44
492.527	627.44
492.745	630.44
492.963	630.44
493.18	649.44
493.398	642.44
493.615	631.44
493.833	656.44
494.05	663.44
494.268	640.44
494.485	625.44
494.703	631.44
494.92	642.44
495.138	651.44
495.355	657.44
495.573	665.44
495.79	677.44
496.008	628.44
496.225	646.44
496.442	651.44
496.66	662.44
496.877	663.44
497.094	645.44
497.312	658.44
497.529	669.44
497.746	685.44
497.963	657.44
498.181	708.44
498.398	703.44
498.615	715.44
498.832	739.44
499.049	750.44
499.267	735.44
499.484	765.44
499.701	765.44
499.918	805.44
500.135	799.44
500.352	831.44
500.569	857.44
500.786	841.44
501.003	850.44
501.22	817.44
501.437	827.44
501.654	798.44
501.871	802.44
