Data from 1989.PennyLincolnUp.Lamp.En5.5.200Scan.071819.P2_HRD10591_17-24-50-973.txt Node
Date: Thu Jul 18 17:24:50 EDT 2019
User: cochatt
Spectrometer: HR+D1059
Trigger mode: 1
Integration Time (sec): 1.000000E-1
Scans to average: 1
Electric dark correction enabled: true
Nonlinearity correction enabled: false
Boxcar width: 0
XAxis mode: Wavelengths
Number of Pixels in Spectrum: 2048
>>>>>Begin Spectral Data<<<<<
223.165	-6.06
223.4	-6.06
223.635	-6.06
223.869	-19.06
224.104	-22.06
224.338	-2.06
224.573	-19.06
224.808	-23.06
225.042	0.94
225.277	1.94
225.511	8.94
225.746	-2.06
225.98	-10.06
226.215	10.94
226.449	13.94
226.683	14.94
226.918	22.94
227.152	28.94
227.387	32.94
227.621	32.94
227.856	42.94
228.09	38.94
228.324	59.94
228.559	63.94
228.793	80.94
229.027	102.94
229.262	105.94
229.496	136.94
229.73	135.94
229.964	168.94
230.199	128.94
230.433	128.94
230.667	109.94
230.901	98.94
231.136	122.94
231.37	101.94
231.604	121.94
231.838	107.94
232.072	105.94
232.306	125.94
232.541	127.94
232.775	115.94
233.009	122.94
233.243	117.94
233.477	118.94
233.711	119.94
233.945	119.94
234.179	115.94
234.413	131.94
234.647	123.94
234.881	122.94
235.115	132.94
235.349	127.94
235.583	130.94
235.817	136.94
236.051	126.94
236.285	136.94
236.519	136.94
236.753	135.94
236.987	146.94
237.221	178.94
237.455	248.94
237.689	202.94
237.922	152.94
238.156	138.94
238.39	143.94
238.624	131.94
238.858	119.94
239.091	121.94
239.325	119.94
239.559	128.94
239.793	106.94
240.027	137.94
240.26	145.94
240.494	177.94
240.728	171.94
240.961	152.94
241.195	149.94
241.429	154.94
241.662	140.94
241.896	124.94
242.13	142.94
242.363	142.94
242.597	117.94
242.83	151.94
243.064	144.94
243.298	131.94
243.531	136.94
243.765	140.94
243.998	153.94
244.232	142.94
244.465	136.94
244.699	141.94
244.932	142.94
245.166	157.94
245.399	145.94
245.633	161.94
245.866	155.94
246.099	148.94
246.333	171.94
246.566	158.94
246.8	163.94
247.033	164.94
247.266	176.94
247.5	155.94
247.733	169.94
247.966	190.94
248.2	184.94
248.433	172.94
248.666	184.94
248.899	190.94
249.133	194.94
249.366	225.94
249.599	208.94
249.832	197.94
250.066	194.94
250.299	208.94
250.532	208.94
250.765	193.94
250.998	223.94
251.231	229.94
251.465	228.94
251.698	211.94
251.931	222.94
252.164	199.94
252.397	215.94
252.63	206.94
252.863	226.94
253.096	246.94
253.329	247.94
253.562	242.94
253.795	237.94
254.028	225.94
254.261	219.94
254.494	239.94
254.727	262.94
254.96	308.94
255.193	297.94
255.426	269.94
255.659	256.94
255.892	256.94
256.124	245.94
256.357	244.94
256.59	233.94
256.823	246.94
257.056	235.94
257.289	235.94
257.521	225.94
257.754	229.94
257.987	215.94
258.22	229.94
258.452	231.94
258.685	226.94
258.918	217.94
259.151	218.94
259.383	233.94
259.616	218.94
259.849	259.94
260.081	249.94
260.314	258.94
260.547	290.94
260.779	273.94
261.012	263.94
261.244	263.94
261.477	230.94
261.71	232.94
261.942	260.94
262.175	250.94
262.407	240.94
262.64	250.94
262.872	233.94
263.105	217.94
263.337	222.94
263.57	236.94
263.802	228.94
264.035	227.94
264.267	221.94
264.499	231.94
264.732	233.94
264.964	236.94
265.197	235.94
265.429	219.94
265.661	227.94
265.894	219.94
266.126	221.94
266.358	214.94
266.591	234.94
266.823	237.94
267.055	227.94
267.287	252.94
267.52	238.94
267.752	229.94
267.984	243.94
268.216	250.94
268.448	260.94
268.681	253.94
268.913	282.94
269.145	278.94
269.377	302.94
269.609	290.94
269.841	317.94
270.073	283.94
270.306	325.94
270.538	346.94
270.77	330.94
271.002	338.94
271.234	312.94
271.466	324.94
271.698	339.94
271.93	340.94
272.162	342.94
272.394	337.94
272.626	334.94
272.858	304.94
273.09	297.94
273.322	299.94
273.553	300.94
273.785	308.94
274.017	273.94
274.249	269.94
274.481	281.94
274.713	310.94
274.945	273.94
275.176	285.94
275.408	291.94
275.64	267.94
275.872	263.94
276.104	292.94
276.335	283.94
276.567	296.94
276.799	310.94
277.031	314.94
277.262	346.94
277.494	339.94
277.726	328.94
277.957	305.94
278.189	314.94
278.421	287.94
278.652	296.94
278.884	285.94
279.115	278.94
279.347	285.94
279.579	286.94
279.81	286.94
280.042	292.94
280.273	283.94
280.505	264.94
280.736	285.94
280.968	293.94
281.199	271.94
281.431	282.94
281.662	280.94
281.894	297.94
282.125	290.94
282.356	296.94
282.588	324.94
282.819	334.94
283.051	306.94
283.282	287.94
283.513	271.94
283.745	296.94
283.976	290.94
284.207	303.94
284.439	296.94
284.67	306.94
284.901	293.94
285.132	290.94
285.364	284.94
285.595	295.94
285.826	290.94
286.057	307.94
286.288	304.94
286.52	279.94
286.751	301.94
286.982	298.94
287.213	291.94
287.444	286.94
287.675	313.94
287.906	296.94
288.138	308.94
288.369	312.94
288.6	315.94
288.831	325.94
289.062	324.94
289.293	305.94
289.524	320.94
289.755	302.94
289.986	301.94
290.217	289.94
290.448	298.94
290.679	297.94
290.91	278.94
291.141	283.94
291.371	317.94
291.602	302.94
291.833	297.94
292.064	283.94
292.295	300.94
292.526	302.94
292.757	303.94
292.987	314.94
293.218	305.94
293.449	309.94
293.68	306.94
293.91	298.94
294.141	293.94
294.372	296.94
294.603	310.94
294.833	293.94
295.064	304.94
295.295	291.94
295.525	306.94
295.756	323.94
295.987	323.94
296.217	361.94
296.448	347.94
296.679	304.94
296.909	298.94
297.14	323.94
297.37	316.94
297.601	302.94
297.831	318.94
298.062	309.94
298.292	310.94
298.523	308.94
298.753	304.94
298.984	334.94
299.214	325.94
299.445	316.94
299.675	305.94
299.905	323.94
300.136	324.94
300.366	329.94
300.597	324.94
300.827	323.94
301.057	337.94
301.288	346.94
301.518	343.94
301.748	325.94
301.979	333.94
302.209	331.94
302.439	337.94
302.669	341.94
302.9	344.94
303.13	331.94
303.36	354.94
303.59	358.94
303.82	351.94
304.051	365.94
304.281	337.94
304.511	337.94
304.741	324.94
304.971	344.94
305.201	339.94
305.431	342.94
305.661	355.94
305.891	347.94
306.121	327.94
306.352	347.94
306.582	355.94
306.812	357.94
307.042	349.94
307.272	353.94
307.502	342.94
307.731	369.94
307.961	354.94
308.191	342.94
308.421	346.94
308.651	359.94
308.881	370.94
309.111	346.94
309.341	358.94
309.571	368.94
309.8	384.94
310.03	377.94
310.26	389.94
310.49	398.94
310.72	392.94
310.949	401.94
311.179	427.94
311.409	392.94
311.639	393.94
311.868	408.94
312.098	412.94
312.328	398.94
312.557	424.94
312.787	425.94
313.017	441.94
313.246	398.94
313.476	388.94
313.706	410.94
313.935	410.94
314.165	417.94
314.394	427.94
314.624	417.94
314.853	410.94
315.083	365.94
315.312	406.94
315.542	397.94
315.771	363.94
316.001	385.94
316.23	393.94
316.46	387.94
316.689	382.94
316.919	379.94
317.148	404.94
317.377	403.94
317.607	400.94
317.836	385.94
318.065	397.94
318.295	400.94
318.524	388.94
318.753	391.94
318.983	393.94
319.212	390.94
319.441	422.94
319.67	414.94
319.9	403.94
320.129	403.94
320.358	408.94
320.587	411.94
320.816	420.94
321.046	434.94
321.275	429.94
321.504	402.94
321.733	414.94
321.962	416.94
322.191	458.94
322.42	458.94
322.649	505.94
322.878	491.94
323.108	493.94
323.337	502.94
323.566	546.94
323.795	599.94
324.024	632.94
324.253	761.94
324.482	1096.94
324.71	1682.94
324.939	2406.94
325.168	2095.94
325.397	1082.94
325.626	737.94
325.855	594.94
326.084	553.94
326.313	541.94
326.542	541.94
326.77	598.94
326.999	686.94
327.228	980.94
327.457	1479.94
327.686	1819.94
327.914	1220.94
328.143	788.94
328.372	672.94
328.6	634.94
328.829	605.94
329.058	616.94
329.287	626.94
329.515	588.94
329.744	525.94
329.972	510.94
330.201	535.94
330.43	561.94
330.658	637.94
330.887	646.94
331.115	635.94
331.344	556.94
331.572	518.94
331.801	523.94
332.03	498.94
332.258	482.94
332.486	459.94
332.715	466.94
332.943	465.94
333.172	462.94
333.4	457.94
333.629	460.94
333.857	484.94
334.085	480.94
334.314	487.94
334.542	483.94
334.771	525.94
334.999	496.94
335.227	494.94
335.455	454.94
335.684	441.94
335.912	457.94
336.14	442.94
336.369	449.94
336.597	472.94
336.825	483.94
337.053	473.94
337.281	420.94
337.51	448.94
337.738	442.94
337.966	445.94
338.194	450.94
338.422	475.94
338.65	440.94
338.878	428.94
339.106	448.94
339.334	436.94
339.562	458.94
339.79	442.94
340.018	434.94
340.246	449.94
340.474	434.94
340.702	438.94
340.93	430.94
341.158	429.94
341.386	431.94
341.614	438.94
341.842	412.94
342.07	408.94
342.298	435.94
342.526	403.94
342.754	408.94
342.981	396.94
343.209	424.94
343.437	429.94
343.665	445.94
343.893	423.94
344.12	440.94
344.348	450.94
344.576	434.94
344.804	462.94
345.031	452.94
345.259	473.94
345.487	449.94
345.714	444.94
345.942	429.94
346.17	423.94
346.397	430.94
346.625	411.94
346.853	416.94
347.08	423.94
347.308	412.94
347.535	438.94
347.763	448.94
347.99	438.94
348.218	411.94
348.445	452.94
348.673	447.94
348.9	445.94
349.128	400.94
349.355	386.94
349.583	407.94
349.81	411.94
350.037	394.94
350.265	404.94
350.492	392.94
350.72	401.94
350.947	409.94
351.174	437.94
351.402	443.94
351.629	448.94
351.856	420.94
352.083	429.94
352.311	429.94
352.538	433.94
352.765	435.94
352.992	413.94
353.22	417.94
353.447	407.94
353.674	414.94
353.901	388.94
354.128	394.94
354.355	384.94
354.583	394.94
354.81	380.94
355.037	384.94
355.264	383.94
355.491	388.94
355.718	371.94
355.945	361.94
356.172	380.94
356.399	375.94
356.626	385.94
356.853	380.94
357.08	386.94
357.307	392.94
357.534	386.94
357.761	386.94
357.988	399.94
358.215	372.94
358.441	388.94
358.668	406.94
358.895	383.94
359.122	405.94
359.349	396.94
359.576	421.94
359.802	442.94
360.029	466.94
360.256	482.94
360.483	474.94
360.709	413.94
360.936	393.94
361.163	414.94
361.39	427.94
361.616	419.94
361.843	416.94
362.07	438.94
362.296	417.94
362.523	429.94
362.749	411.94
362.976	391.94
363.203	394.94
363.429	416.94
363.656	396.94
363.882	411.94
364.109	397.94
364.335	385.94
364.562	390.94
364.788	382.94
365.015	394.94
365.241	404.94
365.468	390.94
365.694	412.94
365.92	396.94
366.147	418.94
366.373	381.94
366.599	392.94
366.826	394.94
367.052	383.94
367.278	381.94
367.505	391.94
367.731	396.94
367.957	373.94
368.184	400.94
368.41	397.94
368.636	409.94
368.862	404.94
369.089	417.94
369.315	395.94
369.541	368.94
369.767	367.94
369.993	392.94
370.219	376.94
370.445	389.94
370.672	382.94
370.898	373.94
371.124	374.94
371.35	391.94
371.576	369.94
371.802	388.94
372.028	377.94
372.254	404.94
372.48	380.94
372.706	402.94
372.932	364.94
373.158	368.94
373.384	382.94
373.61	363.94
373.835	408.94
374.061	396.94
374.287	389.94
374.513	408.94
374.739	389.94
374.965	393.94
375.191	385.94
375.416	379.94
375.642	382.94
375.868	373.94
376.094	409.94
376.319	404.94
376.545	377.94
376.771	379.94
376.997	377.94
377.222	369.94
377.448	373.94
377.674	388.94
377.899	380.94
378.125	376.94
378.35	397.94
378.576	384.94
378.802	383.94
379.027	376.94
379.253	367.94
379.478	387.94
379.704	382.94
379.929	368.94
380.155	372.94
380.38	369.94
380.606	386.94
380.831	386.94
381.057	374.94
381.282	387.94
381.507	383.94
381.733	387.94
381.958	390.94
382.184	368.94
382.409	380.94
382.634	384.94
382.86	381.94
383.085	389.94
383.31	383.94
383.535	395.94
383.761	372.94
383.986	384.94
384.211	380.94
384.436	398.94
384.662	389.94
384.887	395.94
385.112	405.94
385.337	417.94
385.562	405.94
385.787	404.94
386.013	403.94
386.238	412.94
386.463	414.94
386.688	419.94
386.913	390.94
387.138	421.94
387.363	394.94
387.588	399.94
387.813	392.94
388.038	390.94
388.263	398.94
388.488	394.94
388.713	413.94
388.938	408.94
389.163	401.94
389.387	396.94
389.612	394.94
389.837	394.94
390.062	393.94
390.287	410.94
390.512	410.94
390.736	398.94
390.961	385.94
391.186	397.94
391.411	398.94
391.636	403.94
391.86	413.94
392.085	393.94
392.31	402.94
392.534	419.94
392.759	398.94
392.984	380.94
393.208	403.94
393.433	378.94
393.658	398.94
393.882	389.94
394.107	389.94
394.331	405.94
394.556	402.94
394.78	416.94
395.005	408.94
395.229	411.94
395.454	418.94
395.678	418.94
395.903	446.94
396.127	449.94
396.352	439.94
396.576	434.94
396.801	420.94
397.025	419.94
397.249	410.94
397.474	440.94
397.698	435.94
397.922	438.94
398.147	451.94
398.371	432.94
398.595	450.94
398.82	452.94
399.044	439.94
399.268	469.94
399.492	476.94
399.717	474.94
399.941	510.94
400.165	547.94
400.389	548.94
400.613	529.94
400.837	483.94
401.062	457.94
401.286	457.94
401.51	459.94
401.734	430.94
401.958	467.94
402.182	456.94
402.406	478.94
402.63	450.94
402.854	452.94
403.078	459.94
403.302	477.94
403.526	465.94
403.75	472.94
403.974	457.94
404.198	445.94
404.422	479.94
404.645	467.94
404.869	458.94
405.093	507.94
405.317	536.94
405.541	536.94
405.765	525.94
405.988	489.94
406.212	523.94
406.436	522.94
406.66	552.94
406.883	499.94
407.107	540.94
407.331	564.94
407.555	634.94
407.778	618.94
408.002	557.94
408.226	562.94
408.449	531.94
408.673	522.94
408.896	530.94
409.12	587.94
409.344	556.94
409.567	497.94
409.791	486.94
410.014	471.94
410.238	458.94
410.461	475.94
410.685	485.94
410.908	499.94
411.132	504.94
411.355	543.94
411.578	535.94
411.802	502.94
412.025	464.94
412.249	441.94
412.472	480.94
412.695	504.94
412.919	506.94
413.142	465.94
413.365	441.94
413.589	451.94
413.812	437.94
414.035	432.94
414.258	436.94
414.482	436.94
414.705	449.94
414.928	446.94
415.151	437.94
415.374	441.94
415.597	427.94
415.821	429.94
416.044	436.94
416.267	447.94
416.49	428.94
416.713	433.94
416.936	434.94
417.159	436.94
417.382	460.94
417.605	439.94
417.828	446.94
418.051	454.94
418.274	467.94
418.497	449.94
418.72	437.94
418.943	433.94
419.166	450.94
419.389	458.94
419.611	462.94
419.834	456.94
420.057	472.94
420.28	456.94
420.503	450.94
420.726	480.94
420.948	485.94
421.171	499.94
421.394	556.94
421.617	484.94
421.839	466.94
422.062	462.94
422.285	471.94
422.507	532.94
422.73	580.94
422.953	577.94
423.175	512.94
423.398	496.94
423.621	491.94
423.843	492.94
424.066	510.94
424.288	496.94
424.511	538.94
424.733	577.94
424.956	650.94
425.178	648.94
425.401	610.94
425.623	651.94
425.846	554.94
426.068	520.94
426.291	520.94
426.513	501.94
426.735	520.94
426.958	560.94
427.18	642.94
427.402	773.94
427.625	830.94
427.847	757.94
428.069	632.94
428.292	543.94
428.514	489.94
428.736	485.94
428.958	476.94
429.181	477.94
429.403	464.94
429.625	490.94
429.847	516.94
430.069	570.94
430.292	564.94
430.514	494.94
430.736	474.94
430.958	459.94
431.18	425.94
431.402	466.94
431.624	450.94
431.846	421.94
432.068	442.94
432.29	446.94
432.512	457.94
432.734	459.94
432.956	455.94
433.178	458.94
433.4	462.94
433.622	459.94
433.844	443.94
434.066	462.94
434.287	436.94
434.509	466.94
434.731	428.94
434.953	458.94
435.175	465.94
435.397	500.94
435.618	508.94
435.84	565.94
436.062	644.94
436.284	703.94
436.505	598.94
436.727	544.94
436.949	467.94
437.17	491.94
437.392	469.94
437.614	480.94
437.835	534.94
438.057	627.94
438.278	706.94
438.5	696.94
438.721	766.94
438.943	760.94
439.165	611.94
439.386	548.94
439.608	516.94
439.829	505.94
440.05	552.94
440.272	594.94
440.493	571.94
440.715	501.94
440.936	472.94
441.158	474.94
441.379	463.94
441.6	496.94
441.822	501.94
442.043	526.94
442.264	635.94
442.486	703.94
442.707	553.94
442.928	533.94
443.149	548.94
443.371	564.94
443.592	582.94
443.813	655.94
444.034	722.94
444.255	625.94
444.476	570.94
444.698	516.94
444.919	513.94
445.14	592.94
445.361	583.94
445.582	556.94
445.803	640.94
446.024	727.94
446.245	740.94
446.466	649.94
446.687	570.94
446.908	510.94
447.129	474.94
447.35	469.94
447.571	455.94
447.792	472.94
448.013	484.94
448.234	492.94
448.455	549.94
448.675	653.94
448.896	754.94
449.117	640.94
449.338	608.94
449.559	693.94
449.779	807.94
450	627.94
450.221	543.94
450.442	492.94
450.662	458.94
450.883	469.94
451.104	488.94
451.324	461.94
451.545	462.94
451.766	416.94
451.986	405.94
452.207	402.94
452.428	420.94
452.648	420.94
452.869	420.94
453.089	438.94
453.31	444.94
453.53	436.94
453.751	421.94
453.971	419.94
454.192	441.94
454.412	430.94
454.633	409.94
454.853	426.94
455.073	394.94
455.294	450.94
455.514	504.94
455.734	508.94
455.955	429.94
456.175	412.94
456.395	397.94
456.616	386.94
456.836	395.94
457.056	380.94
457.276	385.94
457.497	399.94
457.717	394.94
457.937	384.94
458.157	411.94
458.377	409.94
458.598	457.94
458.818	502.94
459.038	564.94
459.258	588.94
459.478	499.94
459.698	470.94
459.918	429.94
460.138	443.94
460.358	411.94
460.578	417.94
460.798	438.94
461.018	419.94
461.238	427.94
461.458	433.94
461.678	444.94
461.898	449.94
462.118	434.94
462.338	456.94
462.558	453.94
462.777	465.94
462.997	452.94
463.217	443.94
463.437	456.94
463.657	460.94
463.876	456.94
464.096	475.94
464.316	437.94
464.536	470.94
464.755	477.94
464.975	473.94
465.195	525.94
465.414	598.94
465.634	513.94
465.854	481.94
466.073	447.94
466.293	433.94
466.512	438.94
466.732	405.94
466.951	415.94
467.171	423.94
467.391	423.94
467.61	435.94
467.829	442.94
468.049	434.94
468.268	436.94
468.488	442.94
468.707	413.94
468.927	393.94
469.146	408.94
469.365	424.94
469.585	435.94
469.804	438.94
470.023	442.94
470.243	434.94
470.462	439.94
470.681	460.94
470.901	446.94
471.12	421.94
471.339	424.94
471.558	413.94
471.777	425.94
471.997	432.94
472.216	440.94
472.435	429.94
472.654	449.94
472.873	444.94
473.092	423.94
473.311	426.94
473.53	424.94
473.749	433.94
473.968	503.94
474.187	597.94
474.406	608.94
474.625	517.94
474.844	461.94
475.063	436.94
475.282	446.94
475.501	441.94
475.72	440.94
475.939	444.94
476.158	457.94
476.377	452.94
476.596	460.94
476.814	448.94
477.033	461.94
477.252	458.94
477.471	456.94
477.69	473.94
477.908	465.94
478.127	477.94
478.346	458.94
478.564	461.94
478.783	466.94
479.002	489.94
479.22	470.94
479.439	475.94
479.658	501.94
479.876	527.94
480.095	523.94
480.313	527.94
480.532	547.94
480.751	532.94
480.969	527.94
481.188	550.94
481.406	552.94
481.624	533.94
481.843	504.94
482.061	504.94
482.28	494.94
482.498	518.94
482.717	509.94
482.935	508.94
483.153	490.94
483.372	491.94
483.59	488.94
483.808	498.94
484.027	484.94
484.245	476.94
484.463	498.94
484.681	510.94
484.9	526.94
485.118	518.94
485.336	509.94
485.554	516.94
485.772	511.94
485.99	532.94
486.209	516.94
486.427	532.94
486.645	537.94
486.863	549.94
487.081	566.94
487.299	536.94
487.517	521.94
487.735	563.94
487.953	553.94
488.171	540.94
488.389	520.94
488.607	538.94
488.825	534.94
489.043	566.94
489.261	565.94
489.479	526.94
489.696	556.94
489.914	557.94
490.132	556.94
490.35	557.94
490.568	566.94
490.786	556.94
491.003	582.94
491.221	613.94
491.439	633.94
491.657	626.94
491.874	639.94
492.092	621.94
492.31	627.94
492.527	614.94
492.745	624.94
492.963	602.94
493.18	625.94
493.398	631.94
493.615	652.94
493.833	644.94
494.05	646.94
494.268	631.94
494.485	649.94
494.703	631.94
494.92	630.94
495.138	662.94
495.355	632.94
495.573	654.94
495.79	665.94
496.008	654.94
496.225	644.94
496.442	629.94
496.66	654.94
496.877	663.94
497.094	635.94
497.312	627.94
497.529	690.94
497.746	657.94
497.963	684.94
498.181	665.94
498.398	717.94
498.615	695.94
498.832	701.94
499.049	702.94
499.267	722.94
499.484	734.94
499.701	757.94
499.918	781.94
500.135	808.94
500.352	845.94
500.569	838.94
500.786	826.94
501.003	824.94
501.22	826.94
501.437	769.94
501.654	798.94
501.871	793.94
