Data from 1989.PennyLincolnUp.Lamp.En5.5.200Scan.071819.P2_HRD10591_17-26-00-974.txt Node
Date: Thu Jul 18 17:26:00 EDT 2019
User: cochatt
Spectrometer: HR+D1059
Trigger mode: 1
Integration Time (sec): 1.000000E-1
Scans to average: 1
Electric dark correction enabled: true
Nonlinearity correction enabled: false
Boxcar width: 0
XAxis mode: Wavelengths
Number of Pixels in Spectrum: 2048
>>>>>Begin Spectral Data<<<<<
223.165	-15.06
223.4	-15.06
223.635	-15.06
223.869	-11.06
224.104	-26.06
224.338	-10.06
224.573	-3.06
224.808	-14.06
225.042	4.94
225.277	-9.06
225.511	-11.06
225.746	-8.06
225.98	9.94
226.215	10.94
226.449	-0.06
226.683	22.94
226.918	28.94
227.152	29.94
227.387	29.94
227.621	43.94
227.856	52.94
228.09	31.94
228.324	51.94
228.559	47.94
228.793	60.94
229.027	101.94
229.262	109.94
229.496	108.94
229.73	145.94
229.964	162.94
230.199	127.94
230.433	118.94
230.667	116.94
230.901	120.94
231.136	105.94
231.37	110.94
231.604	124.94
231.838	108.94
232.072	130.94
232.306	120.94
232.541	104.94
232.775	110.94
233.009	110.94
233.243	114.94
233.477	122.94
233.711	108.94
233.945	114.94
234.179	109.94
234.413	117.94
234.647	108.94
234.881	119.94
235.115	127.94
235.349	115.94
235.583	116.94
235.817	128.94
236.051	135.94
236.285	125.94
236.519	124.94
236.753	151.94
236.987	156.94
237.221	170.94
237.455	249.94
237.689	190.94
237.922	152.94
238.156	139.94
238.39	145.94
238.624	125.94
238.858	136.94
239.091	132.94
239.325	132.94
239.559	123.94
239.793	123.94
240.027	155.94
240.26	146.94
240.494	178.94
240.728	157.94
240.961	159.94
241.195	157.94
241.429	137.94
241.662	155.94
241.896	136.94
242.13	131.94
242.363	149.94
242.597	138.94
242.83	137.94
243.064	135.94
243.298	135.94
243.531	149.94
243.765	137.94
243.998	137.94
244.232	151.94
244.465	154.94
244.699	146.94
244.932	136.94
245.166	135.94
245.399	157.94
245.633	150.94
245.866	167.94
246.099	155.94
246.333	164.94
246.566	161.94
246.8	152.94
247.033	173.94
247.266	154.94
247.5	167.94
247.733	185.94
247.966	191.94
248.2	186.94
248.433	189.94
248.666	184.94
248.899	212.94
249.133	218.94
249.366	227.94
249.599	221.94
249.832	195.94
250.066	210.94
250.299	210.94
250.532	213.94
250.765	247.94
250.998	239.94
251.231	243.94
251.465	235.94
251.698	232.94
251.931	226.94
252.164	211.94
252.397	206.94
252.63	233.94
252.863	211.94
253.096	242.94
253.329	248.94
253.562	221.94
253.795	230.94
254.028	231.94
254.261	245.94
254.494	257.94
254.727	270.94
254.96	305.94
255.193	307.94
255.426	283.94
255.659	264.94
255.892	271.94
256.124	281.94
256.357	291.94
256.59	281.94
256.823	222.94
257.056	263.94
257.289	228.94
257.521	251.94
257.754	230.94
257.987	238.94
258.22	239.94
258.452	231.94
258.685	231.94
258.918	233.94
259.151	252.94
259.383	234.94
259.616	245.94
259.849	247.94
260.081	261.94
260.314	292.94
260.547	295.94
260.779	277.94
261.012	250.94
261.244	245.94
261.477	242.94
261.71	259.94
261.942	255.94
262.175	258.94
262.407	271.94
262.64	251.94
262.872	243.94
263.105	249.94
263.337	236.94
263.57	227.94
263.802	231.94
264.035	245.94
264.267	247.94
264.499	229.94
264.732	235.94
264.964	226.94
265.197	226.94
265.429	223.94
265.661	222.94
265.894	220.94
266.126	238.94
266.358	247.94
266.591	242.94
266.823	243.94
267.055	240.94
267.287	226.94
267.52	239.94
267.752	257.94
267.984	239.94
268.216	241.94
268.448	236.94
268.681	243.94
268.913	261.94
269.145	289.94
269.377	319.94
269.609	296.94
269.841	298.94
270.073	304.94
270.306	315.94
270.538	351.94
270.77	349.94
271.002	335.94
271.234	325.94
271.466	324.94
271.698	345.94
271.93	357.94
272.162	354.94
272.394	351.94
272.626	340.94
272.858	331.94
273.09	315.94
273.322	311.94
273.553	299.94
273.785	279.94
274.017	290.94
274.249	303.94
274.481	291.94
274.713	289.94
274.945	288.94
275.176	300.94
275.408	276.94
275.64	297.94
275.872	263.94
276.104	299.94
276.335	280.94
276.567	289.94
276.799	315.94
277.031	325.94
277.262	348.94
277.494	350.94
277.726	345.94
277.957	305.94
278.189	309.94
278.421	288.94
278.652	331.94
278.884	298.94
279.115	287.94
279.347	279.94
279.579	291.94
279.81	295.94
280.042	310.94
280.273	288.94
280.505	276.94
280.736	287.94
280.968	272.94
281.199	285.94
281.431	298.94
281.662	283.94
281.894	306.94
282.125	303.94
282.356	317.94
282.588	327.94
282.819	338.94
283.051	309.94
283.282	287.94
283.513	305.94
283.745	293.94
283.976	317.94
284.207	298.94
284.439	289.94
284.67	300.94
284.901	308.94
285.132	297.94
285.364	291.94
285.595	305.94
285.826	311.94
286.057	283.94
286.288	309.94
286.52	313.94
286.751	299.94
286.982	309.94
287.213	296.94
287.444	317.94
287.675	315.94
287.906	319.94
288.138	331.94
288.369	313.94
288.6	324.94
288.831	337.94
289.062	296.94
289.293	320.94
289.524	305.94
289.755	299.94
289.986	313.94
290.217	288.94
290.448	325.94
290.679	322.94
290.91	314.94
291.141	313.94
291.371	306.94
291.602	296.94
291.833	314.94
292.064	300.94
292.295	300.94
292.526	299.94
292.757	316.94
292.987	311.94
293.218	287.94
293.449	316.94
293.68	300.94
293.91	290.94
294.141	304.94
294.372	318.94
294.603	320.94
294.833	314.94
295.064	325.94
295.295	307.94
295.525	308.94
295.756	310.94
295.987	327.94
296.217	345.94
296.448	349.94
296.679	344.94
296.909	331.94
297.14	327.94
297.37	328.94
297.601	309.94
297.831	313.94
298.062	328.94
298.292	320.94
298.523	325.94
298.753	328.94
298.984	305.94
299.214	331.94
299.445	327.94
299.675	330.94
299.905	324.94
300.136	329.94
300.366	333.94
300.597	333.94
300.827	345.94
301.057	353.94
301.288	340.94
301.518	345.94
301.748	320.94
301.979	352.94
302.209	344.94
302.439	333.94
302.669	367.94
302.9	349.94
303.13	350.94
303.36	348.94
303.59	364.94
303.82	353.94
304.051	360.94
304.281	323.94
304.511	348.94
304.741	336.94
304.971	346.94
305.201	342.94
305.431	349.94
305.661	339.94
305.891	336.94
306.121	353.94
306.352	343.94
306.582	350.94
306.812	346.94
307.042	351.94
307.272	353.94
307.502	364.94
307.731	367.94
307.961	367.94
308.191	357.94
308.421	355.94
308.651	360.94
308.881	354.94
309.111	369.94
309.341	373.94
309.571	383.94
309.8	391.94
310.03	388.94
310.26	411.94
310.49	399.94
310.72	419.94
310.949	423.94
311.179	414.94
311.409	422.94
311.639	388.94
311.868	419.94
312.098	406.94
312.328	386.94
312.557	438.94
312.787	456.94
313.017	459.94
313.246	418.94
313.476	391.94
313.706	409.94
313.935	402.94
314.165	435.94
314.394	445.94
314.624	421.94
314.853	412.94
315.083	415.94
315.312	409.94
315.542	393.94
315.771	403.94
316.001	393.94
316.23	399.94
316.46	403.94
316.689	402.94
316.919	416.94
317.148	407.94
317.377	417.94
317.607	408.94
317.836	412.94
318.065	407.94
318.295	408.94
318.524	400.94
318.753	397.94
318.983	411.94
319.212	394.94
319.441	418.94
319.67	420.94
319.9	404.94
320.129	406.94
320.358	409.94
320.587	426.94
320.816	419.94
321.046	422.94
321.275	425.94
321.504	421.94
321.733	434.94
321.962	463.94
322.191	431.94
322.42	472.94
322.649	503.94
322.878	497.94
323.108	512.94
323.337	544.94
323.566	547.94
323.795	625.94
324.024	651.94
324.253	843.94
324.482	1140.94
324.71	1803.94
324.939	2565.94
325.168	2275.94
325.397	1151.94
325.626	743.94
325.855	621.94
326.084	573.94
326.313	578.94
326.542	579.94
326.77	646.94
326.999	742.94
327.228	1020.94
327.457	1566.94
327.686	1955.94
327.914	1329.94
328.143	862.94
328.372	732.94
328.6	700.94
328.829	671.94
329.058	661.94
329.287	668.94
329.515	647.94
329.744	588.94
329.972	602.94
330.201	653.94
330.43	683.94
330.658	690.94
330.887	735.94
331.115	676.94
331.344	584.94
331.572	554.94
331.801	536.94
332.03	547.94
332.258	511.94
332.486	487.94
332.715	498.94
332.943	478.94
333.172	507.94
333.4	502.94
333.629	514.94
333.857	546.94
334.085	561.94
334.314	583.94
334.542	649.94
334.771	676.94
334.999	588.94
335.227	517.94
335.455	506.94
335.684	461.94
335.912	467.94
336.14	487.94
336.369	465.94
336.597	498.94
336.825	472.94
337.053	455.94
337.281	453.94
337.51	466.94
337.738	450.94
337.966	472.94
338.194	459.94
338.422	472.94
338.65	461.94
338.878	431.94
339.106	456.94
339.334	456.94
339.562	474.94
339.79	449.94
340.018	453.94
340.246	440.94
340.474	455.94
340.702	453.94
340.93	448.94
341.158	443.94
341.386	456.94
341.614	437.94
341.842	442.94
342.07	442.94
342.298	443.94
342.526	439.94
342.754	427.94
342.981	428.94
343.209	433.94
343.437	427.94
343.665	442.94
343.893	437.94
344.12	437.94
344.348	445.94
344.576	421.94
344.804	440.94
345.031	479.94
345.259	464.94
345.487	472.94
345.714	442.94
345.942	450.94
346.17	443.94
346.397	438.94
346.625	449.94
346.853	435.94
347.08	443.94
347.308	445.94
347.535	438.94
347.763	448.94
347.99	479.94
348.218	449.94
348.445	471.94
348.673	457.94
348.9	441.94
349.128	429.94
349.355	436.94
349.583	400.94
349.81	398.94
350.037	429.94
350.265	397.94
350.492	415.94
350.72	419.94
350.947	421.94
351.174	455.94
351.402	451.94
351.629	444.94
351.856	454.94
352.083	442.94
352.311	458.94
352.538	427.94
352.765	436.94
352.992	435.94
353.22	437.94
353.447	404.94
353.674	410.94
353.901	407.94
354.128	386.94
354.355	396.94
354.583	397.94
354.81	402.94
355.037	395.94
355.264	394.94
355.491	388.94
355.718	393.94
355.945	407.94
356.172	395.94
356.399	388.94
356.626	394.94
356.853	392.94
357.08	385.94
357.307	389.94
357.534	372.94
357.761	387.94
357.988	389.94
358.215	402.94
358.441	388.94
358.668	409.94
358.895	389.94
359.122	405.94
359.349	415.94
359.576	431.94
359.802	460.94
360.029	468.94
360.256	492.94
360.483	464.94
360.709	416.94
360.936	423.94
361.163	424.94
361.39	425.94
361.616	425.94
361.843	425.94
362.07	419.94
362.296	413.94
362.523	423.94
362.749	410.94
362.976	434.94
363.203	401.94
363.429	404.94
363.656	418.94
363.882	410.94
364.109	395.94
364.335	396.94
364.562	395.94
364.788	407.94
365.015	399.94
365.241	409.94
365.468	428.94
365.694	423.94
365.92	382.94
366.147	386.94
366.373	386.94
366.599	385.94
366.826	384.94
367.052	370.94
367.278	407.94
367.505	393.94
367.731	388.94
367.957	389.94
368.184	377.94
368.41	395.94
368.636	406.94
368.862	412.94
369.089	398.94
369.315	385.94
369.541	398.94
369.767	387.94
369.993	404.94
370.219	385.94
370.445	409.94
370.672	387.94
370.898	383.94
371.124	401.94
371.35	379.94
371.576	391.94
371.802	397.94
372.028	379.94
372.254	378.94
372.48	392.94
372.706	395.94
372.932	393.94
373.158	387.94
373.384	387.94
373.61	388.94
373.835	387.94
374.061	396.94
374.287	394.94
374.513	386.94
374.739	387.94
374.965	394.94
375.191	397.94
375.416	397.94
375.642	391.94
375.868	404.94
376.094	394.94
376.319	392.94
376.545	364.94
376.771	383.94
376.997	392.94
377.222	383.94
377.448	386.94
377.674	380.94
377.899	386.94
378.125	389.94
378.35	371.94
378.576	374.94
378.802	369.94
379.027	367.94
379.253	349.94
379.478	359.94
379.704	392.94
379.929	384.94
380.155	378.94
380.38	387.94
380.606	385.94
380.831	369.94
381.057	390.94
381.282	388.94
381.507	381.94
381.733	383.94
381.958	370.94
382.184	398.94
382.409	388.94
382.634	384.94
382.86	380.94
383.085	399.94
383.31	387.94
383.535	380.94
383.761	379.94
383.986	379.94
384.211	392.94
384.436	395.94
384.662	407.94
384.887	396.94
385.112	391.94
385.337	382.94
385.562	409.94
385.787	396.94
386.013	426.94
386.238	421.94
386.463	408.94
386.688	406.94
386.913	399.94
387.138	389.94
387.363	397.94
387.588	402.94
387.813	405.94
388.038	419.94
388.263	408.94
388.488	390.94
388.713	404.94
388.938	386.94
389.163	412.94
389.387	415.94
389.612	401.94
389.837	398.94
390.062	377.94
390.287	392.94
390.512	404.94
390.736	428.94
390.961	405.94
391.186	395.94
391.411	395.94
391.636	403.94
391.86	387.94
392.085	407.94
392.31	396.94
392.534	411.94
392.759	411.94
392.984	396.94
393.208	421.94
393.433	419.94
393.658	420.94
393.882	399.94
394.107	402.94
394.331	400.94
394.556	389.94
394.78	416.94
395.005	401.94
395.229	397.94
395.454	410.94
395.678	404.94
395.903	408.94
396.127	445.94
396.352	441.94
396.576	432.94
396.801	402.94
397.025	403.94
397.249	422.94
397.474	412.94
397.698	428.94
397.922	444.94
398.147	452.94
398.371	433.94
398.595	433.94
398.82	448.94
399.044	467.94
399.268	471.94
399.492	476.94
399.717	502.94
399.941	539.94
400.165	551.94
400.389	592.94
400.613	518.94
400.837	487.94
401.062	482.94
401.286	461.94
401.51	453.94
401.734	457.94
401.958	456.94
402.182	460.94
402.406	474.94
402.63	471.94
402.854	453.94
403.078	461.94
403.302	450.94
403.526	471.94
403.75	447.94
403.974	482.94
404.198	456.94
404.422	474.94
404.645	501.94
404.869	486.94
405.093	549.94
405.317	573.94
405.541	607.94
405.765	571.94
405.988	513.94
406.212	507.94
406.436	518.94
406.66	536.94
406.883	522.94
407.107	542.94
407.331	568.94
407.555	657.94
407.778	632.94
408.002	593.94
408.226	537.94
408.449	511.94
408.673	524.94
408.896	570.94
409.12	576.94
409.344	544.94
409.567	487.94
409.791	471.94
410.014	465.94
410.238	471.94
410.461	466.94
410.685	487.94
410.908	510.94
411.132	517.94
411.355	572.94
411.578	539.94
411.802	496.94
412.025	481.94
412.249	505.94
412.472	514.94
412.695	553.94
412.919	588.94
413.142	522.94
413.365	477.94
413.589	475.94
413.812	463.94
414.035	459.94
414.258	445.94
414.482	464.94
414.705	462.94
414.928	458.94
415.151	454.94
415.374	448.94
415.597	440.94
415.821	446.94
416.044	424.94
416.267	444.94
416.49	450.94
416.713	429.94
416.936	432.94
417.159	444.94
417.382	441.94
417.605	465.94
417.828	483.94
418.051	490.94
418.274	459.94
418.497	460.94
418.72	436.94
418.943	433.94
419.166	439.94
419.389	475.94
419.611	491.94
419.834	483.94
420.057	505.94
420.28	459.94
420.503	503.94
420.726	475.94
420.948	511.94
421.171	529.94
421.394	556.94
421.617	484.94
421.839	468.94
422.062	464.94
422.285	492.94
422.507	539.94
422.73	608.94
422.953	601.94
423.175	525.94
423.398	511.94
423.621	501.94
423.843	516.94
424.066	539.94
424.288	511.94
424.511	542.94
424.733	600.94
424.956	666.94
425.178	631.94
425.401	639.94
425.623	667.94
425.846	560.94
426.068	523.94
426.291	511.94
426.513	516.94
426.735	547.94
426.958	583.94
427.18	643.94
427.402	796.94
427.625	871.94
427.847	769.94
428.069	684.94
428.292	603.94
428.514	503.94
428.736	513.94
428.958	473.94
429.181	475.94
429.403	465.94
429.625	460.94
429.847	531.94
430.069	592.94
430.292	599.94
430.514	514.94
430.736	471.94
430.958	483.94
431.18	452.94
431.402	447.94
431.624	420.94
431.846	452.94
432.068	456.94
432.29	453.94
432.512	451.94
432.734	461.94
432.956	468.94
433.178	471.94
433.4	467.94
433.622	474.94
433.844	443.94
434.066	450.94
434.287	432.94
434.509	420.94
434.731	447.94
434.953	450.94
435.175	480.94
435.397	496.94
435.618	525.94
435.84	588.94
436.062	651.94
436.284	735.94
436.505	591.94
436.727	533.94
436.949	485.94
437.17	511.94
437.392	490.94
437.614	495.94
437.835	535.94
438.057	612.94
438.278	719.94
438.5	714.94
438.721	801.94
438.943	739.94
439.165	601.94
439.386	575.94
439.608	555.94
439.829	545.94
440.05	580.94
440.272	590.94
440.493	577.94
440.715	527.94
440.936	494.94
441.158	484.94
441.379	485.94
441.6	486.94
441.822	501.94
442.043	563.94
442.264	644.94
442.486	696.94
442.707	583.94
442.928	524.94
443.149	540.94
443.371	544.94
443.592	600.94
443.813	675.94
444.034	728.94
444.255	629.94
444.476	540.94
444.698	535.94
444.919	511.94
445.14	657.94
445.361	588.94
445.582	551.94
445.803	631.94
446.024	743.94
446.245	748.94
446.466	689.94
446.687	585.94
446.908	532.94
447.129	517.94
447.35	484.94
447.571	484.94
447.792	458.94
448.013	467.94
448.234	529.94
448.455	572.94
448.675	664.94
448.896	790.94
449.117	648.94
449.338	623.94
449.559	736.94
449.779	845.94
450	657.94
450.221	543.94
450.442	501.94
450.662	475.94
450.883	475.94
451.104	472.94
451.324	479.94
451.545	440.94
451.766	443.94
451.986	447.94
452.207	405.94
452.428	415.94
452.648	420.94
452.869	434.94
453.089	420.94
453.31	450.94
453.53	435.94
453.751	419.94
453.971	426.94
454.192	431.94
454.412	455.94
454.633	418.94
454.853	424.94
455.073	437.94
455.294	453.94
455.514	510.94
455.734	509.94
455.955	427.94
456.175	411.94
456.395	404.94
456.616	399.94
456.836	388.94
457.056	404.94
457.276	389.94
457.497	396.94
457.717	385.94
457.937	385.94
458.157	411.94
458.377	419.94
458.598	432.94
458.818	489.94
459.038	586.94
459.258	608.94
459.478	493.94
459.698	449.94
459.918	443.94
460.138	432.94
460.358	442.94
460.578	433.94
460.798	445.94
461.018	442.94
461.238	449.94
461.458	448.94
461.678	436.94
461.898	424.94
462.118	403.94
462.338	445.94
462.558	437.94
462.777	440.94
462.997	448.94
463.217	451.94
463.437	459.94
463.657	484.94
463.876	456.94
464.096	470.94
464.316	445.94
464.536	465.94
464.755	456.94
464.975	463.94
465.195	524.94
465.414	593.94
465.634	529.94
465.854	488.94
466.073	454.94
466.293	445.94
466.512	424.94
466.732	430.94
466.951	406.94
467.171	414.94
467.391	413.94
467.61	467.94
467.829	440.94
468.049	441.94
468.268	464.94
468.488	431.94
468.707	435.94
468.927	423.94
469.146	409.94
469.365	429.94
469.585	409.94
469.804	432.94
470.023	435.94
470.243	462.94
470.462	447.94
470.681	461.94
470.901	442.94
471.12	438.94
471.339	437.94
471.558	439.94
471.777	426.94
471.997	436.94
472.216	438.94
472.435	495.94
472.654	500.94
472.873	460.94
473.092	451.94
473.311	438.94
473.53	440.94
473.749	452.94
473.968	496.94
474.187	608.94
474.406	632.94
474.625	490.94
474.844	475.94
475.063	423.94
475.282	457.94
475.501	456.94
475.72	445.94
475.939	450.94
476.158	459.94
476.377	474.94
476.596	456.94
476.814	454.94
477.033	461.94
477.252	453.94
477.471	460.94
477.69	456.94
477.908	472.94
478.127	465.94
478.346	490.94
478.564	475.94
478.783	473.94
479.002	480.94
479.22	499.94
479.439	509.94
479.658	500.94
479.876	522.94
480.095	529.94
480.313	575.94
480.532	559.94
480.751	551.94
480.969	554.94
481.188	673.94
481.406	744.94
481.624	608.94
481.843	556.94
482.061	533.94
482.28	518.94
482.498	532.94
482.717	528.94
482.935	542.94
483.153	497.94
483.372	516.94
483.59	551.94
483.808	535.94
484.027	531.94
484.245	519.94
484.463	507.94
484.681	514.94
484.9	504.94
485.118	511.94
485.336	513.94
485.554	524.94
485.772	509.94
485.99	526.94
486.209	516.94
486.427	535.94
486.645	565.94
486.863	577.94
487.081	561.94
487.299	571.94
487.517	563.94
487.735	557.94
487.953	564.94
488.171	563.94
488.389	555.94
488.607	565.94
488.825	557.94
489.043	568.94
489.261	578.94
489.479	572.94
489.696	571.94
489.914	591.94
490.132	592.94
490.35	607.94
490.568	559.94
490.786	597.94
491.003	618.94
491.221	620.94
491.439	610.94
491.657	633.94
491.874	637.94
492.092	631.94
492.31	653.94
492.527	676.94
492.745	665.94
492.963	657.94
493.18	683.94
493.398	688.94
493.615	693.94
493.833	681.94
494.05	679.94
494.268	678.94
494.485	657.94
494.703	672.94
494.92	661.94
495.138	667.94
495.355	675.94
495.573	670.94
495.79	664.94
496.008	687.94
496.225	700.94
496.442	660.94
496.66	703.94
496.877	699.94
497.094	670.94
497.312	668.94
497.529	670.94
497.746	687.94
497.963	683.94
498.181	724.94
498.398	716.94
498.615	728.94
498.832	716.94
499.049	716.94
499.267	745.94
499.484	798.94
499.701	762.94
499.918	747.94
500.135	801.94
500.352	820.94
500.569	833.94
500.786	859.94
501.003	849.94
501.22	840.94
501.437	815.94
501.654	815.94
501.871	802.94
