Data from 1989.PennyLincolnUp.Lamp.En5.5.200Scan.071819.P2_HRD10591_17-23-39-973.txt Node
Date: Thu Jul 18 17:23:39 EDT 2019
User: cochatt
Spectrometer: HR+D1059
Trigger mode: 1
Integration Time (sec): 1.000000E-1
Scans to average: 1
Electric dark correction enabled: true
Nonlinearity correction enabled: false
Boxcar width: 0
XAxis mode: Wavelengths
Number of Pixels in Spectrum: 2048
>>>>>Begin Spectral Data<<<<<
223.165	-12.69
223.4	-12.69
223.635	-12.69
223.869	-17.69
224.104	-36.69
224.338	-0.69
224.573	-10.69
224.808	-26.69
225.042	-11.69
225.277	-4.69
225.511	-6.69
225.746	14.31
225.98	5.31
226.215	14.31
226.449	14.31
226.683	13.31
226.918	28.31
227.152	38.31
227.387	34.31
227.621	34.31
227.856	48.31
228.09	52.31
228.324	55.31
228.559	67.31
228.793	73.31
229.027	88.31
229.262	101.31
229.496	129.31
229.73	121.31
229.964	154.31
230.199	137.31
230.433	122.31
230.667	123.31
230.901	103.31
231.136	121.31
231.37	111.31
231.604	122.31
231.838	119.31
232.072	114.31
232.306	103.31
232.541	117.31
232.775	99.31
233.009	114.31
233.243	109.31
233.477	108.31
233.711	117.31
233.945	127.31
234.179	122.31
234.413	100.31
234.647	125.31
234.881	125.31
235.115	119.31
235.349	141.31
235.583	132.31
235.817	135.31
236.051	124.31
236.285	123.31
236.519	123.31
236.753	130.31
236.987	147.31
237.221	205.31
237.455	229.31
237.689	177.31
237.922	133.31
238.156	146.31
238.39	135.31
238.624	131.31
238.858	141.31
239.091	131.31
239.325	126.31
239.559	125.31
239.793	132.31
240.027	147.31
240.26	153.31
240.494	183.31
240.728	149.31
240.961	157.31
241.195	137.31
241.429	136.31
241.662	138.31
241.896	133.31
242.13	135.31
242.363	142.31
242.597	140.31
242.83	162.31
243.064	143.31
243.298	134.31
243.531	132.31
243.765	137.31
243.998	127.31
244.232	161.31
244.465	149.31
244.699	155.31
244.932	148.31
245.166	150.31
245.399	159.31
245.633	153.31
245.866	158.31
246.099	146.31
246.333	144.31
246.566	149.31
246.8	154.31
247.033	155.31
247.266	163.31
247.5	179.31
247.733	184.31
247.966	183.31
248.2	182.31
248.433	181.31
248.666	180.31
248.899	202.31
249.133	203.31
249.366	225.31
249.599	206.31
249.832	187.31
250.066	198.31
250.299	199.31
250.532	194.31
250.765	207.31
250.998	234.31
251.231	245.31
251.465	236.31
251.698	218.31
251.931	221.31
252.164	191.31
252.397	214.31
252.63	211.31
252.863	221.31
253.096	229.31
253.329	232.31
253.562	237.31
253.795	228.31
254.028	225.31
254.261	235.31
254.494	250.31
254.727	285.31
254.96	283.31
255.193	292.31
255.426	254.31
255.659	226.31
255.892	231.31
256.124	244.31
256.357	241.31
256.59	234.31
256.823	219.31
257.056	243.31
257.289	225.31
257.521	220.31
257.754	222.31
257.987	222.31
258.22	213.31
258.452	236.31
258.685	205.31
258.918	215.31
259.151	217.31
259.383	246.31
259.616	234.31
259.849	218.31
260.081	242.31
260.314	263.31
260.547	267.31
260.779	270.31
261.012	249.31
261.244	235.31
261.477	254.31
261.71	216.31
261.942	237.31
262.175	263.31
262.407	234.31
262.64	242.31
262.872	239.31
263.105	211.31
263.337	215.31
263.57	233.31
263.802	219.31
264.035	215.31
264.267	215.31
264.499	215.31
264.732	212.31
264.964	237.31
265.197	207.31
265.429	216.31
265.661	230.31
265.894	235.31
266.126	218.31
266.358	223.31
266.591	204.31
266.823	237.31
267.055	231.31
267.287	234.31
267.52	229.31
267.752	238.31
267.984	237.31
268.216	241.31
268.448	257.31
268.681	233.31
268.913	272.31
269.145	267.31
269.377	276.31
269.609	296.31
269.841	298.31
270.073	311.31
270.306	332.31
270.538	327.31
270.77	322.31
271.002	325.31
271.234	305.31
271.466	311.31
271.698	333.31
271.93	331.31
272.162	345.31
272.394	336.31
272.626	306.31
272.858	312.31
273.09	275.31
273.322	286.31
273.553	274.31
273.785	294.31
274.017	279.31
274.249	269.31
274.481	261.31
274.713	275.31
274.945	301.31
275.176	289.31
275.408	265.31
275.64	272.31
275.872	267.31
276.104	270.31
276.335	294.31
276.567	286.31
276.799	292.31
277.031	335.31
277.262	325.31
277.494	366.31
277.726	318.31
277.957	321.31
278.189	279.31
278.421	270.31
278.652	292.31
278.884	296.31
279.115	276.31
279.347	279.31
279.579	280.31
279.81	272.31
280.042	271.31
280.273	293.31
280.505	276.31
280.736	277.31
280.968	262.31
281.199	278.31
281.431	282.31
281.662	292.31
281.894	282.31
282.125	285.31
282.356	291.31
282.588	314.31
282.819	307.31
283.051	293.31
283.282	285.31
283.513	293.31
283.745	286.31
283.976	281.31
284.207	289.31
284.439	294.31
284.67	297.31
284.901	265.31
285.132	283.31
285.364	280.31
285.595	293.31
285.826	306.31
286.057	295.31
286.288	282.31
286.52	282.31
286.751	290.31
286.982	289.31
287.213	299.31
287.444	283.31
287.675	299.31
287.906	306.31
288.138	319.31
288.369	328.31
288.6	318.31
288.831	311.31
289.062	308.31
289.293	302.31
289.524	317.31
289.755	295.31
289.986	306.31
290.217	299.31
290.448	283.31
290.679	297.31
290.91	298.31
291.141	300.31
291.371	307.31
291.602	286.31
291.833	281.31
292.064	313.31
292.295	305.31
292.526	322.31
292.757	298.31
292.987	290.31
293.218	285.31
293.449	313.31
293.68	285.31
293.91	281.31
294.141	294.31
294.372	279.31
294.603	311.31
294.833	308.31
295.064	300.31
295.295	295.31
295.525	310.31
295.756	309.31
295.987	308.31
296.217	345.31
296.448	334.31
296.679	324.31
296.909	306.31
297.14	312.31
297.37	300.31
297.601	321.31
297.831	307.31
298.062	302.31
298.292	303.31
298.523	306.31
298.753	317.31
298.984	311.31
299.214	305.31
299.445	308.31
299.675	319.31
299.905	345.31
300.136	322.31
300.366	314.31
300.597	325.31
300.827	315.31
301.057	309.31
301.288	316.31
301.518	324.31
301.748	323.31
301.979	318.31
302.209	339.31
302.439	334.31
302.669	340.31
302.9	318.31
303.13	331.31
303.36	321.31
303.59	348.31
303.82	331.31
304.051	323.31
304.281	313.31
304.511	332.31
304.741	357.31
304.971	332.31
305.201	326.31
305.431	332.31
305.661	338.31
305.891	343.31
306.121	338.31
306.352	331.31
306.582	360.31
306.812	345.31
307.042	360.31
307.272	328.31
307.502	342.31
307.731	331.31
307.961	354.31
308.191	343.31
308.421	346.31
308.651	368.31
308.881	346.31
309.111	342.31
309.341	354.31
309.571	356.31
309.8	360.31
310.03	378.31
310.26	383.31
310.49	371.31
310.72	408.31
310.949	407.31
311.179	423.31
311.409	406.31
311.639	385.31
311.868	383.31
312.098	397.31
312.328	407.31
312.557	427.31
312.787	414.31
313.017	433.31
313.246	401.31
313.476	392.31
313.706	379.31
313.935	416.31
314.165	391.31
314.394	407.31
314.624	399.31
314.853	387.31
315.083	371.31
315.312	372.31
315.542	382.31
315.771	382.31
316.001	387.31
316.23	396.31
316.46	369.31
316.689	371.31
316.919	367.31
317.148	398.31
317.377	392.31
317.607	381.31
317.836	395.31
318.065	389.31
318.295	377.31
318.524	363.31
318.753	369.31
318.983	371.31
319.212	398.31
319.441	388.31
319.67	419.31
319.9	400.31
320.129	394.31
320.358	396.31
320.587	389.31
320.816	384.31
321.046	413.31
321.275	413.31
321.504	424.31
321.733	403.31
321.962	423.31
322.191	445.31
322.42	458.31
322.649	459.31
322.878	453.31
323.108	478.31
323.337	514.31
323.566	532.31
323.795	544.31
324.024	579.31
324.253	683.31
324.482	994.31
324.71	1536.31
324.939	2236.31
325.168	1927.31
325.397	976.31
325.626	697.31
325.855	545.31
326.084	521.31
326.313	490.31
326.542	515.31
326.77	574.31
326.999	672.31
327.228	908.31
327.457	1350.31
327.686	1658.31
327.914	1119.31
328.143	693.31
328.372	606.31
328.6	595.31
328.829	555.31
329.058	606.31
329.287	594.31
329.515	549.31
329.744	494.31
329.972	504.31
330.201	505.31
330.43	532.31
330.658	563.31
330.887	598.31
331.115	576.31
331.344	526.31
331.572	489.31
331.801	510.31
332.03	477.31
332.258	461.31
332.486	450.31
332.715	421.31
332.943	450.31
333.172	424.31
333.4	451.31
333.629	455.31
333.857	463.31
334.085	464.31
334.314	459.31
334.542	463.31
334.771	468.31
334.999	464.31
335.227	455.31
335.455	451.31
335.684	441.31
335.912	450.31
336.14	458.31
336.369	458.31
336.597	453.31
336.825	469.31
337.053	461.31
337.281	437.31
337.51	445.31
337.738	436.31
337.966	447.31
338.194	442.31
338.422	425.31
338.65	428.31
338.878	439.31
339.106	457.31
339.334	442.31
339.562	427.31
339.79	413.31
340.018	402.31
340.246	435.31
340.474	420.31
340.702	425.31
340.93	429.31
341.158	419.31
341.386	452.31
341.614	419.31
341.842	438.31
342.07	419.31
342.298	419.31
342.526	425.31
342.754	411.31
342.981	413.31
343.209	418.31
343.437	434.31
343.665	426.31
343.893	429.31
344.12	434.31
344.348	433.31
344.576	428.31
344.804	435.31
345.031	457.31
345.259	454.31
345.487	454.31
345.714	419.31
345.942	398.31
346.17	425.31
346.397	410.31
346.625	417.31
346.853	421.31
347.08	412.31
347.308	406.31
347.535	425.31
347.763	429.31
347.99	413.31
348.218	430.31
348.445	412.31
348.673	409.31
348.9	405.31
349.128	425.31
349.355	397.31
349.583	402.31
349.81	404.31
350.037	407.31
350.265	424.31
350.492	418.31
350.72	405.31
350.947	411.31
351.174	403.31
351.402	430.31
351.629	417.31
351.856	401.31
352.083	432.31
352.311	437.31
352.538	426.31
352.765	427.31
352.992	433.31
353.22	418.31
353.447	415.31
353.674	383.31
353.901	384.31
354.128	387.31
354.355	408.31
354.583	399.31
354.81	385.31
355.037	388.31
355.264	370.31
355.491	392.31
355.718	382.31
355.945	383.31
356.172	363.31
356.399	345.31
356.626	402.31
356.853	371.31
357.08	394.31
357.307	392.31
357.534	367.31
357.761	389.31
357.988	365.31
358.215	371.31
358.441	381.31
358.668	369.31
358.895	359.31
359.122	398.31
359.349	381.31
359.576	400.31
359.802	430.31
360.029	446.31
360.256	461.31
360.483	438.31
360.709	391.31
360.936	408.31
361.163	407.31
361.39	411.31
361.616	391.31
361.843	428.31
362.07	412.31
362.296	398.31
362.523	415.31
362.749	421.31
362.976	411.31
363.203	403.31
363.429	388.31
363.656	387.31
363.882	380.31
364.109	387.31
364.335	399.31
364.562	381.31
364.788	378.31
365.015	375.31
365.241	389.31
365.468	374.31
365.694	383.31
365.92	394.31
366.147	380.31
366.373	381.31
366.599	385.31
366.826	353.31
367.052	362.31
367.278	381.31
367.505	373.31
367.731	384.31
367.957	399.31
368.184	384.31
368.41	387.31
368.636	398.31
368.862	396.31
369.089	384.31
369.315	368.31
369.541	387.31
369.767	403.31
369.993	381.31
370.219	378.31
370.445	386.31
370.672	378.31
370.898	382.31
371.124	378.31
371.35	385.31
371.576	374.31
371.802	361.31
372.028	377.31
372.254	384.31
372.48	364.31
372.706	391.31
372.932	389.31
373.158	369.31
373.384	395.31
373.61	392.31
373.835	383.31
374.061	385.31
374.287	380.31
374.513	391.31
374.739	379.31
374.965	395.31
375.191	390.31
375.416	383.31
375.642	379.31
375.868	385.31
376.094	376.31
376.319	373.31
376.545	397.31
376.771	377.31
376.997	371.31
377.222	354.31
377.448	365.31
377.674	353.31
377.899	364.31
378.125	364.31
378.35	353.31
378.576	363.31
378.802	365.31
379.027	365.31
379.253	378.31
379.478	367.31
379.704	350.31
379.929	370.31
380.155	377.31
380.38	395.31
380.606	370.31
380.831	351.31
381.057	376.31
381.282	376.31
381.507	373.31
381.733	381.31
381.958	394.31
382.184	399.31
382.409	401.31
382.634	383.31
382.86	385.31
383.085	385.31
383.31	381.31
383.535	374.31
383.761	396.31
383.986	381.31
384.211	396.31
384.436	395.31
384.662	391.31
384.887	393.31
385.112	416.31
385.337	403.31
385.562	403.31
385.787	407.31
386.013	406.31
386.238	399.31
386.463	397.31
386.688	420.31
386.913	405.31
387.138	402.31
387.363	415.31
387.588	399.31
387.813	390.31
388.038	396.31
388.263	383.31
388.488	404.31
388.713	393.31
388.938	386.31
389.163	402.31
389.387	384.31
389.612	397.31
389.837	393.31
390.062	372.31
390.287	393.31
390.512	403.31
390.736	397.31
390.961	403.31
391.186	408.31
391.411	395.31
391.636	382.31
391.86	414.31
392.085	377.31
392.31	413.31
392.534	407.31
392.759	390.31
392.984	404.31
393.208	388.31
393.433	382.31
393.658	411.31
393.882	397.31
394.107	405.31
394.331	394.31
394.556	413.31
394.78	378.31
395.005	421.31
395.229	385.31
395.454	407.31
395.678	429.31
395.903	408.31
396.127	431.31
396.352	439.31
396.576	425.31
396.801	409.31
397.025	411.31
397.249	409.31
397.474	400.31
397.698	417.31
397.922	459.31
398.147	446.31
398.371	436.31
398.595	429.31
398.82	430.31
399.044	441.31
399.268	462.31
399.492	483.31
399.717	502.31
399.941	521.31
400.165	572.31
400.389	563.31
400.613	514.31
400.837	507.31
401.062	474.31
401.286	453.31
401.51	443.31
401.734	425.31
401.958	460.31
402.182	456.31
402.406	466.31
402.63	473.31
402.854	449.31
403.078	440.31
403.302	472.31
403.526	494.31
403.75	474.31
403.974	473.31
404.198	468.31
404.422	477.31
404.645	474.31
404.869	466.31
405.093	479.31
405.317	518.31
405.541	525.31
405.765	487.31
405.988	487.31
406.212	495.31
406.436	512.31
406.66	521.31
406.883	507.31
407.107	531.31
407.331	559.31
407.555	629.31
407.778	643.31
408.002	572.31
408.226	529.31
408.449	514.31
408.673	503.31
408.896	550.31
409.12	589.31
409.344	554.31
409.567	497.31
409.791	470.31
410.014	456.31
410.238	459.31
410.461	471.31
410.685	489.31
410.908	499.31
411.132	506.31
411.355	553.31
411.578	507.31
411.802	479.31
412.025	441.31
412.249	452.31
412.472	463.31
412.695	493.31
412.919	474.31
413.142	441.31
413.365	431.31
413.589	469.31
413.812	450.31
414.035	418.31
414.258	429.31
414.482	439.31
414.705	446.31
414.928	444.31
415.151	436.31
415.374	417.31
415.597	437.31
415.821	418.31
416.044	445.31
416.267	450.31
416.49	453.31
416.713	419.31
416.936	429.31
417.159	415.31
417.382	430.31
417.605	424.31
417.828	459.31
418.051	469.31
418.274	449.31
418.497	435.31
418.72	433.31
418.943	417.31
419.166	451.31
419.389	471.31
419.611	445.31
419.834	436.31
420.057	427.31
420.28	450.31
420.503	440.31
420.726	447.31
420.948	446.31
421.171	516.31
421.394	542.31
421.617	488.31
421.839	447.31
422.062	451.31
422.285	488.31
422.507	543.31
422.73	619.31
422.953	577.31
423.175	523.31
423.398	495.31
423.621	469.31
423.843	490.31
424.066	503.31
424.288	497.31
424.511	535.31
424.733	573.31
424.956	650.31
425.178	622.31
425.401	620.31
425.623	663.31
425.846	550.31
426.068	509.31
426.291	507.31
426.513	519.31
426.735	526.31
426.958	534.31
427.18	645.31
427.402	764.31
427.625	849.31
427.847	707.31
428.069	610.31
428.292	516.31
428.514	501.31
428.736	486.31
428.958	470.31
429.181	462.31
429.403	472.31
429.625	492.31
429.847	515.31
430.069	590.31
430.292	555.31
430.514	488.31
430.736	487.31
430.958	470.31
431.18	462.31
431.402	422.31
431.624	420.31
431.846	420.31
432.068	430.31
432.29	431.31
432.512	431.31
432.734	434.31
432.956	451.31
433.178	453.31
433.4	455.31
433.622	441.31
433.844	430.31
434.066	452.31
434.287	454.31
434.509	443.31
434.731	438.31
434.953	451.31
435.175	461.31
435.397	483.31
435.618	503.31
435.84	556.31
436.062	669.31
436.284	695.31
436.505	609.31
436.727	521.31
436.949	475.31
437.17	471.31
437.392	474.31
437.614	492.31
437.835	514.31
438.057	607.31
438.278	717.31
438.5	691.31
438.721	746.31
438.943	739.31
439.165	598.31
439.386	517.31
439.608	532.31
439.829	506.31
440.05	551.31
440.272	599.31
440.493	548.31
440.715	515.31
440.936	489.31
441.158	472.31
441.379	465.31
441.6	454.31
441.822	504.31
442.043	544.31
442.264	614.31
442.486	645.31
442.707	553.31
442.928	541.31
443.149	526.31
443.371	555.31
443.592	607.31
443.813	652.31
444.034	729.31
444.255	604.31
444.476	518.31
444.698	497.31
444.919	460.31
445.14	578.31
445.361	556.31
445.582	577.31
445.803	608.31
446.024	698.31
446.245	713.31
446.466	662.31
446.687	555.31
446.908	494.31
447.129	477.31
447.35	483.31
447.571	472.31
447.792	453.31
448.013	476.31
448.234	492.31
448.455	522.31
448.675	641.31
448.896	751.31
449.117	641.31
449.338	618.31
449.559	726.31
449.779	809.31
450	645.31
450.221	542.31
450.442	484.31
450.662	484.31
450.883	462.31
451.104	499.31
451.324	469.31
451.545	421.31
451.766	434.31
451.986	412.31
452.207	425.31
452.428	420.31
452.648	393.31
452.869	414.31
453.089	430.31
453.31	437.31
453.53	433.31
453.751	423.31
453.971	419.31
454.192	458.31
454.412	418.31
454.633	413.31
454.853	421.31
455.073	429.31
455.294	442.31
455.514	486.31
455.734	498.31
455.955	447.31
456.175	419.31
456.395	398.31
456.616	377.31
456.836	401.31
457.056	393.31
457.276	365.31
457.497	371.31
457.717	391.31
457.937	395.31
458.157	422.31
458.377	397.31
458.598	413.31
458.818	469.31
459.038	561.31
459.258	595.31
459.478	506.31
459.698	445.31
459.918	428.31
460.138	407.31
460.358	431.31
460.578	442.31
460.798	437.31
461.018	428.31
461.238	425.31
461.458	427.31
461.678	428.31
461.898	447.31
462.118	435.31
462.338	427.31
462.558	445.31
462.777	430.31
462.997	465.31
463.217	455.31
463.437	454.31
463.657	446.31
463.876	443.31
464.096	455.31
464.316	447.31
464.536	454.31
464.755	458.31
464.975	477.31
465.195	493.31
465.414	567.31
465.634	509.31
465.854	474.31
466.073	462.31
466.293	452.31
466.512	411.31
466.732	403.31
466.951	425.31
467.171	416.31
467.391	409.31
467.61	431.31
467.829	428.31
468.049	437.31
468.268	410.31
468.488	412.31
468.707	396.31
468.927	417.31
469.146	380.31
469.365	413.31
469.585	404.31
469.804	400.31
470.023	454.31
470.243	399.31
470.462	430.31
470.681	449.31
470.901	444.31
471.12	427.31
471.339	420.31
471.558	427.31
471.777	413.31
471.997	419.31
472.216	417.31
472.435	410.31
472.654	419.31
472.873	403.31
473.092	433.31
473.311	419.31
473.53	424.31
473.749	421.31
473.968	479.31
474.187	559.31
474.406	618.31
474.625	494.31
474.844	443.31
475.063	421.31
475.282	428.31
475.501	449.31
475.72	445.31
475.939	434.31
476.158	417.31
476.377	435.31
476.596	445.31
476.814	452.31
477.033	450.31
477.252	450.31
477.471	442.31
477.69	448.31
477.908	446.31
478.127	463.31
478.346	454.31
478.564	477.31
478.783	465.31
479.002	493.31
479.22	494.31
479.439	500.31
479.658	503.31
479.876	507.31
480.095	511.31
480.313	514.31
480.532	538.31
480.751	499.31
480.969	500.31
481.188	508.31
481.406	515.31
481.624	506.31
481.843	500.31
482.061	493.31
482.28	504.31
482.498	511.31
482.717	510.31
482.935	505.31
483.153	511.31
483.372	508.31
483.59	489.31
483.808	499.31
484.027	497.31
484.245	491.31
484.463	483.31
484.681	514.31
484.9	522.31
485.118	494.31
485.336	519.31
485.554	520.31
485.772	525.31
485.99	506.31
486.209	530.31
486.427	537.31
486.645	514.31
486.863	534.31
487.081	531.31
487.299	548.31
487.517	542.31
487.735	533.31
487.953	538.31
488.171	543.31
488.389	553.31
488.607	566.31
488.825	542.31
489.043	541.31
489.261	526.31
489.479	534.31
489.696	528.31
489.914	540.31
490.132	563.31
490.35	549.31
490.568	573.31
490.786	580.31
491.003	590.31
491.221	583.31
491.439	585.31
491.657	574.31
491.874	593.31
492.092	577.31
492.31	595.31
492.527	610.31
492.745	607.31
492.963	615.31
493.18	631.31
493.398	641.31
493.615	661.31
493.833	615.31
494.05	626.31
494.268	593.31
494.485	617.31
494.703	612.31
494.92	630.31
495.138	617.31
495.355	637.31
495.573	636.31
495.79	647.31
496.008	628.31
496.225	633.31
496.442	643.31
496.66	643.31
496.877	615.31
497.094	636.31
497.312	643.31
497.529	650.31
497.746	648.31
497.963	672.31
498.181	681.31
498.398	680.31
498.615	689.31
498.832	734.31
499.049	681.31
499.267	703.31
499.484	733.31
499.701	753.31
499.918	765.31
500.135	790.31
500.352	812.31
500.569	831.31
500.786	805.31
501.003	805.31
501.22	808.31
501.437	792.31
501.654	762.31
501.871	773.31
