Data from 1989.PennyLincolnUp.Lamp.En5.5.200Scan.071819.P2_HRD10591_17-23-49-973.txt Node
Date: Thu Jul 18 17:23:49 EDT 2019
User: cochatt
Spectrometer: HR+D1059
Trigger mode: 1
Integration Time (sec): 1.000000E-1
Scans to average: 1
Electric dark correction enabled: true
Nonlinearity correction enabled: false
Boxcar width: 0
XAxis mode: Wavelengths
Number of Pixels in Spectrum: 2048
>>>>>Begin Spectral Data<<<<<
223.165	-6.88
223.4	-6.88
223.635	-6.88
223.869	-16.88
224.104	1.12
224.338	-13.88
224.573	-25.88
224.808	-13.88
225.042	-9.88
225.277	1.12
225.511	7.12
225.746	2.12
225.98	11.12
226.215	8.12
226.449	7.12
226.683	3.12
226.918	20.12
227.152	26.12
227.387	37.12
227.621	41.12
227.856	44.12
228.09	43.12
228.324	55.12
228.559	47.12
228.793	48.12
229.027	97.12
229.262	117.12
229.496	113.12
229.73	141.12
229.964	160.12
230.199	142.12
230.433	119.12
230.667	119.12
230.901	107.12
231.136	107.12
231.37	101.12
231.604	98.12
231.838	111.12
232.072	100.12
232.306	114.12
232.541	119.12
232.775	108.12
233.009	118.12
233.243	114.12
233.477	105.12
233.711	93.12
233.945	117.12
234.179	123.12
234.413	115.12
234.647	118.12
234.881	121.12
235.115	120.12
235.349	118.12
235.583	113.12
235.817	106.12
236.051	143.12
236.285	121.12
236.519	136.12
236.753	148.12
236.987	140.12
237.221	168.12
237.455	242.12
237.689	215.12
237.922	147.12
238.156	138.12
238.39	124.12
238.624	130.12
238.858	135.12
239.091	129.12
239.325	125.12
239.559	128.12
239.793	137.12
240.027	154.12
240.26	155.12
240.494	167.12
240.728	154.12
240.961	165.12
241.195	161.12
241.429	139.12
241.662	151.12
241.896	151.12
242.13	142.12
242.363	148.12
242.597	132.12
242.83	131.12
243.064	155.12
243.298	147.12
243.531	138.12
243.765	148.12
243.998	135.12
244.232	132.12
244.465	152.12
244.699	147.12
244.932	142.12
245.166	161.12
245.399	149.12
245.633	148.12
245.866	149.12
246.099	147.12
246.333	162.12
246.566	167.12
246.8	157.12
247.033	166.12
247.266	157.12
247.5	175.12
247.733	189.12
247.966	181.12
248.2	161.12
248.433	177.12
248.666	151.12
248.899	183.12
249.133	215.12
249.366	207.12
249.599	197.12
249.832	182.12
250.066	187.12
250.299	191.12
250.532	194.12
250.765	192.12
250.998	218.12
251.231	228.12
251.465	241.12
251.698	207.12
251.931	207.12
252.164	201.12
252.397	211.12
252.63	203.12
252.863	205.12
253.096	234.12
253.329	231.12
253.562	208.12
253.795	226.12
254.028	238.12
254.261	234.12
254.494	242.12
254.727	276.12
254.96	293.12
255.193	291.12
255.426	289.12
255.659	250.12
255.892	236.12
256.124	230.12
256.357	234.12
256.59	210.12
256.823	225.12
257.056	232.12
257.289	211.12
257.521	227.12
257.754	218.12
257.987	221.12
258.22	211.12
258.452	231.12
258.685	198.12
258.918	216.12
259.151	206.12
259.383	233.12
259.616	222.12
259.849	228.12
260.081	251.12
260.314	259.12
260.547	267.12
260.779	258.12
261.012	260.12
261.244	236.12
261.477	238.12
261.71	226.12
261.942	241.12
262.175	263.12
262.407	231.12
262.64	229.12
262.872	227.12
263.105	213.12
263.337	221.12
263.57	215.12
263.802	216.12
264.035	225.12
264.267	235.12
264.499	230.12
264.732	231.12
264.964	227.12
265.197	229.12
265.429	214.12
265.661	232.12
265.894	232.12
266.126	234.12
266.358	217.12
266.591	222.12
266.823	248.12
267.055	238.12
267.287	242.12
267.52	244.12
267.752	235.12
267.984	234.12
268.216	238.12
268.448	246.12
268.681	244.12
268.913	241.12
269.145	269.12
269.377	282.12
269.609	266.12
269.841	290.12
270.073	285.12
270.306	303.12
270.538	329.12
270.77	318.12
271.002	315.12
271.234	307.12
271.466	320.12
271.698	321.12
271.93	349.12
272.162	339.12
272.394	322.12
272.626	300.12
272.858	311.12
273.09	297.12
273.322	298.12
273.553	290.12
273.785	300.12
274.017	268.12
274.249	283.12
274.481	285.12
274.713	262.12
274.945	268.12
275.176	288.12
275.408	270.12
275.64	278.12
275.872	284.12
276.104	277.12
276.335	271.12
276.567	289.12
276.799	305.12
277.031	296.12
277.262	317.12
277.494	332.12
277.726	317.12
277.957	318.12
278.189	289.12
278.421	289.12
278.652	269.12
278.884	279.12
279.115	274.12
279.347	281.12
279.579	264.12
279.81	281.12
280.042	284.12
280.273	279.12
280.505	285.12
280.736	281.12
280.968	275.12
281.199	271.12
281.431	263.12
281.662	266.12
281.894	269.12
282.125	247.12
282.356	305.12
282.588	301.12
282.819	323.12
283.051	294.12
283.282	275.12
283.513	289.12
283.745	280.12
283.976	300.12
284.207	304.12
284.439	281.12
284.67	293.12
284.901	289.12
285.132	282.12
285.364	281.12
285.595	276.12
285.826	293.12
286.057	306.12
286.288	296.12
286.52	296.12
286.751	291.12
286.982	289.12
287.213	275.12
287.444	281.12
287.675	303.12
287.906	308.12
288.138	312.12
288.369	293.12
288.6	331.12
288.831	301.12
289.062	311.12
289.293	310.12
289.524	294.12
289.755	285.12
289.986	285.12
290.217	294.12
290.448	311.12
290.679	307.12
290.91	294.12
291.141	292.12
291.371	288.12
291.602	279.12
291.833	284.12
292.064	294.12
292.295	309.12
292.526	308.12
292.757	312.12
292.987	310.12
293.218	294.12
293.449	289.12
293.68	295.12
293.91	286.12
294.141	298.12
294.372	299.12
294.603	299.12
294.833	303.12
295.064	306.12
295.295	299.12
295.525	292.12
295.756	310.12
295.987	309.12
296.217	307.12
296.448	348.12
296.679	316.12
296.909	317.12
297.14	281.12
297.37	292.12
297.601	303.12
297.831	285.12
298.062	297.12
298.292	308.12
298.523	300.12
298.753	285.12
298.984	313.12
299.214	295.12
299.445	319.12
299.675	338.12
299.905	302.12
300.136	308.12
300.366	317.12
300.597	309.12
300.827	325.12
301.057	324.12
301.288	341.12
301.518	326.12
301.748	325.12
301.979	330.12
302.209	316.12
302.439	317.12
302.669	322.12
302.9	334.12
303.13	326.12
303.36	340.12
303.59	334.12
303.82	339.12
304.051	341.12
304.281	330.12
304.511	349.12
304.741	316.12
304.971	346.12
305.201	342.12
305.431	318.12
305.661	316.12
305.891	329.12
306.121	342.12
306.352	345.12
306.582	317.12
306.812	329.12
307.042	317.12
307.272	339.12
307.502	332.12
307.731	329.12
307.961	329.12
308.191	332.12
308.421	343.12
308.651	341.12
308.881	349.12
309.111	327.12
309.341	341.12
309.571	353.12
309.8	360.12
310.03	378.12
310.26	373.12
310.49	377.12
310.72	389.12
310.949	411.12
311.179	423.12
311.409	393.12
311.639	394.12
311.868	378.12
312.098	385.12
312.328	389.12
312.557	406.12
312.787	443.12
313.017	417.12
313.246	387.12
313.476	390.12
313.706	381.12
313.935	378.12
314.165	408.12
314.394	407.12
314.624	410.12
314.853	405.12
315.083	385.12
315.312	385.12
315.542	364.12
315.771	380.12
316.001	380.12
316.23	371.12
316.46	378.12
316.689	373.12
316.919	400.12
317.148	399.12
317.377	405.12
317.607	384.12
317.836	389.12
318.065	385.12
318.295	374.12
318.524	375.12
318.753	383.12
318.983	391.12
319.212	395.12
319.441	386.12
319.67	411.12
319.9	390.12
320.129	395.12
320.358	403.12
320.587	396.12
320.816	412.12
321.046	420.12
321.275	414.12
321.504	431.12
321.733	410.12
321.962	429.12
322.191	425.12
322.42	448.12
322.649	483.12
322.878	470.12
323.108	478.12
323.337	490.12
323.566	512.12
323.795	584.12
324.024	591.12
324.253	742.12
324.482	1044.12
324.71	1585.12
324.939	2247.12
325.168	2012.12
325.397	1023.12
325.626	684.12
325.855	581.12
326.084	506.12
326.313	521.12
326.542	546.12
326.77	582.12
326.999	694.12
327.228	936.12
327.457	1435.12
327.686	1692.12
327.914	1131.12
328.143	736.12
328.372	651.12
328.6	593.12
328.829	555.12
329.058	567.12
329.287	606.12
329.515	533.12
329.744	518.12
329.972	517.12
330.201	520.12
330.43	530.12
330.658	587.12
330.887	611.12
331.115	598.12
331.344	534.12
331.572	501.12
331.801	487.12
332.03	495.12
332.258	462.12
332.486	452.12
332.715	450.12
332.943	467.12
333.172	444.12
333.4	459.12
333.629	461.12
333.857	454.12
334.085	441.12
334.314	452.12
334.542	470.12
334.771	468.12
334.999	450.12
335.227	439.12
335.455	437.12
335.684	440.12
335.912	429.12
336.14	424.12
336.369	423.12
336.597	462.12
336.825	444.12
337.053	441.12
337.281	438.12
337.51	453.12
337.738	426.12
337.966	438.12
338.194	435.12
338.422	447.12
338.65	420.12
338.878	413.12
339.106	411.12
339.334	412.12
339.562	417.12
339.79	440.12
340.018	417.12
340.246	447.12
340.474	430.12
340.702	430.12
340.93	444.12
341.158	424.12
341.386	419.12
341.614	443.12
341.842	423.12
342.07	430.12
342.298	427.12
342.526	429.12
342.754	430.12
342.981	390.12
343.209	407.12
343.437	419.12
343.665	395.12
343.893	434.12
344.12	433.12
344.348	417.12
344.576	436.12
344.804	434.12
345.031	437.12
345.259	453.12
345.487	432.12
345.714	453.12
345.942	415.12
346.17	431.12
346.397	408.12
346.625	419.12
346.853	422.12
347.08	415.12
347.308	415.12
347.535	424.12
347.763	427.12
347.99	430.12
348.218	410.12
348.445	426.12
348.673	422.12
348.9	422.12
349.128	392.12
349.355	398.12
349.583	406.12
349.81	407.12
350.037	404.12
350.265	391.12
350.492	394.12
350.72	398.12
350.947	414.12
351.174	410.12
351.402	419.12
351.629	396.12
351.856	419.12
352.083	414.12
352.311	425.12
352.538	423.12
352.765	425.12
352.992	417.12
353.22	405.12
353.447	403.12
353.674	390.12
353.901	376.12
354.128	397.12
354.355	389.12
354.583	384.12
354.81	359.12
355.037	373.12
355.264	377.12
355.491	409.12
355.718	365.12
355.945	385.12
356.172	390.12
356.399	382.12
356.626	375.12
356.853	391.12
357.08	356.12
357.307	381.12
357.534	389.12
357.761	383.12
357.988	382.12
358.215	393.12
358.441	387.12
358.668	389.12
358.895	397.12
359.122	368.12
359.349	398.12
359.576	393.12
359.802	426.12
360.029	461.12
360.256	477.12
360.483	431.12
360.709	417.12
360.936	414.12
361.163	395.12
361.39	417.12
361.616	427.12
361.843	417.12
362.07	396.12
362.296	405.12
362.523	409.12
362.749	391.12
362.976	397.12
363.203	375.12
363.429	363.12
363.656	385.12
363.882	382.12
364.109	383.12
364.335	391.12
364.562	395.12
364.788	383.12
365.015	374.12
365.241	389.12
365.468	389.12
365.694	396.12
365.92	382.12
366.147	376.12
366.373	363.12
366.599	367.12
366.826	372.12
367.052	369.12
367.278	392.12
367.505	380.12
367.731	395.12
367.957	382.12
368.184	379.12
368.41	384.12
368.636	393.12
368.862	404.12
369.089	385.12
369.315	378.12
369.541	372.12
369.767	376.12
369.993	372.12
370.219	361.12
370.445	391.12
370.672	367.12
370.898	384.12
371.124	377.12
371.35	393.12
371.576	373.12
371.802	398.12
372.028	372.12
372.254	377.12
372.48	366.12
372.706	382.12
372.932	386.12
373.158	384.12
373.384	397.12
373.61	374.12
373.835	370.12
374.061	378.12
374.287	390.12
374.513	373.12
374.739	350.12
374.965	373.12
375.191	382.12
375.416	387.12
375.642	379.12
375.868	387.12
376.094	362.12
376.319	374.12
376.545	371.12
376.771	357.12
376.997	371.12
377.222	377.12
377.448	367.12
377.674	369.12
377.899	394.12
378.125	365.12
378.35	353.12
378.576	373.12
378.802	371.12
379.027	359.12
379.253	342.12
379.478	362.12
379.704	388.12
379.929	369.12
380.155	379.12
380.38	377.12
380.606	351.12
380.831	384.12
381.057	383.12
381.282	364.12
381.507	376.12
381.733	390.12
381.958	382.12
382.184	386.12
382.409	366.12
382.634	385.12
382.86	381.12
383.085	396.12
383.31	394.12
383.535	386.12
383.761	391.12
383.986	392.12
384.211	382.12
384.436	389.12
384.662	387.12
384.887	393.12
385.112	379.12
385.337	401.12
385.562	373.12
385.787	372.12
386.013	411.12
386.238	419.12
386.463	399.12
386.688	399.12
386.913	383.12
387.138	381.12
387.363	390.12
387.588	381.12
387.813	381.12
388.038	392.12
388.263	393.12
388.488	388.12
388.713	401.12
388.938	395.12
389.163	390.12
389.387	413.12
389.612	373.12
389.837	359.12
390.062	397.12
390.287	389.12
390.512	387.12
390.736	389.12
390.961	389.12
391.186	398.12
391.411	389.12
391.636	395.12
391.86	388.12
392.085	399.12
392.31	393.12
392.534	388.12
392.759	399.12
392.984	403.12
393.208	403.12
393.433	407.12
393.658	393.12
393.882	399.12
394.107	399.12
394.331	382.12
394.556	416.12
394.78	399.12
395.005	391.12
395.229	399.12
395.454	411.12
395.678	410.12
395.903	420.12
396.127	442.12
396.352	449.12
396.576	418.12
396.801	410.12
397.025	447.12
397.249	427.12
397.474	423.12
397.698	414.12
397.922	416.12
398.147	443.12
398.371	453.12
398.595	423.12
398.82	415.12
399.044	443.12
399.268	458.12
399.492	478.12
399.717	463.12
399.941	528.12
400.165	557.12
400.389	557.12
400.613	517.12
400.837	457.12
401.062	480.12
401.286	467.12
401.51	457.12
401.734	455.12
401.958	461.12
402.182	437.12
402.406	455.12
402.63	476.12
402.854	454.12
403.078	441.12
403.302	459.12
403.526	471.12
403.75	469.12
403.974	450.12
404.198	459.12
404.422	443.12
404.645	470.12
404.869	476.12
405.093	477.12
405.317	500.12
405.541	538.12
405.765	491.12
405.988	469.12
406.212	482.12
406.436	507.12
406.66	520.12
406.883	503.12
407.107	543.12
407.331	572.12
407.555	605.12
407.778	636.12
408.002	581.12
408.226	522.12
408.449	509.12
408.673	498.12
408.896	552.12
409.12	563.12
409.344	554.12
409.567	503.12
409.791	476.12
410.014	456.12
410.238	475.12
410.461	471.12
410.685	454.12
410.908	474.12
411.132	519.12
411.355	541.12
411.578	529.12
411.802	482.12
412.025	462.12
412.249	447.12
412.472	458.12
412.695	462.12
412.919	453.12
413.142	454.12
413.365	441.12
413.589	460.12
413.812	408.12
414.035	439.12
414.258	431.12
414.482	427.12
414.705	422.12
414.928	443.12
415.151	433.12
415.374	424.12
415.597	422.12
415.821	428.12
416.044	441.12
416.267	450.12
416.49	445.12
416.713	422.12
416.936	425.12
417.159	418.12
417.382	430.12
417.605	439.12
417.828	451.12
418.051	462.12
418.274	457.12
418.497	433.12
418.72	430.12
418.943	441.12
419.166	452.12
419.389	478.12
419.611	469.12
419.834	479.12
420.057	468.12
420.28	438.12
420.503	449.12
420.726	469.12
420.948	470.12
421.171	510.12
421.394	533.12
421.617	481.12
421.839	458.12
422.062	462.12
422.285	478.12
422.507	541.12
422.73	607.12
422.953	592.12
423.175	515.12
423.398	491.12
423.621	490.12
423.843	484.12
424.066	503.12
424.288	485.12
424.511	527.12
424.733	567.12
424.956	634.12
425.178	586.12
425.401	620.12
425.623	628.12
425.846	569.12
426.068	500.12
426.291	486.12
426.513	523.12
426.735	510.12
426.958	541.12
427.18	604.12
427.402	757.12
427.625	838.12
427.847	729.12
428.069	589.12
428.292	549.12
428.514	507.12
428.736	482.12
428.958	483.12
429.181	475.12
429.403	473.12
429.625	462.12
429.847	501.12
430.069	563.12
430.292	570.12
430.514	471.12
430.736	463.12
430.958	441.12
431.18	435.12
431.402	433.12
431.624	428.12
431.846	422.12
432.068	437.12
432.29	410.12
432.512	437.12
432.734	428.12
432.956	417.12
433.178	439.12
433.4	436.12
433.622	449.12
433.844	442.12
434.066	422.12
434.287	430.12
434.509	445.12
434.731	432.12
434.953	468.12
435.175	462.12
435.397	508.12
435.618	523.12
435.84	550.12
436.062	619.12
436.284	686.12
436.505	597.12
436.727	499.12
436.949	454.12
437.17	489.12
437.392	474.12
437.614	467.12
437.835	495.12
438.057	591.12
438.278	716.12
438.5	703.12
438.721	741.12
438.943	739.12
439.165	604.12
439.386	534.12
439.608	504.12
439.829	527.12
440.05	553.12
440.272	592.12
440.493	552.12
440.715	498.12
440.936	469.12
441.158	465.12
441.379	453.12
441.6	467.12
441.822	489.12
442.043	534.12
442.264	620.12
442.486	677.12
442.707	570.12
442.928	515.12
443.149	529.12
443.371	546.12
443.592	581.12
443.813	673.12
444.034	727.12
444.255	609.12
444.476	534.12
444.698	528.12
444.919	502.12
445.14	571.12
445.361	540.12
445.582	552.12
445.803	609.12
446.024	713.12
446.245	711.12
446.466	636.12
446.687	550.12
446.908	514.12
447.129	479.12
447.35	476.12
447.571	469.12
447.792	452.12
448.013	485.12
448.234	489.12
448.455	537.12
448.675	651.12
448.896	780.12
449.117	654.12
449.338	606.12
449.559	700.12
449.779	783.12
450	648.12
450.221	529.12
450.442	497.12
450.662	445.12
450.883	464.12
451.104	473.12
451.324	457.12
451.545	449.12
451.766	429.12
451.986	424.12
452.207	402.12
452.428	410.12
452.648	403.12
452.869	404.12
453.089	421.12
453.31	444.12
453.53	433.12
453.751	417.12
453.971	427.12
454.192	410.12
454.412	403.12
454.633	414.12
454.853	409.12
455.073	417.12
455.294	427.12
455.514	498.12
455.734	481.12
455.955	448.12
456.175	384.12
456.395	410.12
456.616	401.12
456.836	394.12
457.056	374.12
457.276	367.12
457.497	377.12
457.717	372.12
457.937	395.12
458.157	399.12
458.377	396.12
458.598	441.12
458.818	475.12
459.038	580.12
459.258	553.12
459.478	475.12
459.698	427.12
459.918	435.12
460.138	416.12
460.358	433.12
460.578	423.12
460.798	436.12
461.018	431.12
461.238	440.12
461.458	431.12
461.678	416.12
461.898	406.12
462.118	424.12
462.338	418.12
462.558	440.12
462.777	445.12
462.997	452.12
463.217	456.12
463.437	485.12
463.657	430.12
463.876	433.12
464.096	441.12
464.316	451.12
464.536	452.12
464.755	466.12
464.975	455.12
465.195	511.12
465.414	595.12
465.634	519.12
465.854	458.12
466.073	440.12
466.293	430.12
466.512	429.12
466.732	406.12
466.951	415.12
467.171	393.12
467.391	411.12
467.61	420.12
467.829	429.12
468.049	439.12
468.268	415.12
468.488	396.12
468.707	429.12
468.927	400.12
469.146	417.12
469.365	403.12
469.585	419.12
469.804	408.12
470.023	444.12
470.243	425.12
470.462	428.12
470.681	439.12
470.901	448.12
471.12	414.12
471.339	421.12
471.558	424.12
471.777	410.12
471.997	428.12
472.216	432.12
472.435	412.12
472.654	426.12
472.873	403.12
473.092	411.12
473.311	431.12
473.53	411.12
473.749	435.12
473.968	462.12
474.187	566.12
474.406	643.12
474.625	489.12
474.844	439.12
475.063	420.12
475.282	430.12
475.501	427.12
475.72	430.12
475.939	437.12
476.158	437.12
476.377	428.12
476.596	443.12
476.814	409.12
477.033	449.12
477.252	459.12
477.471	460.12
477.69	463.12
477.908	435.12
478.127	462.12
478.346	443.12
478.564	438.12
478.783	449.12
479.002	483.12
479.22	456.12
479.439	487.12
479.658	480.12
479.876	501.12
480.095	531.12
480.313	539.12
480.532	511.12
480.751	501.12
480.969	499.12
481.188	508.12
481.406	517.12
481.624	485.12
481.843	500.12
482.061	475.12
482.28	490.12
482.498	501.12
482.717	505.12
482.935	485.12
483.153	486.12
483.372	488.12
483.59	485.12
483.808	499.12
484.027	487.12
484.245	511.12
484.463	493.12
484.681	507.12
484.9	491.12
485.118	501.12
485.336	523.12
485.554	513.12
485.772	534.12
485.99	513.12
486.209	506.12
486.427	507.12
486.645	526.12
486.863	523.12
487.081	553.12
487.299	523.12
487.517	513.12
487.735	528.12
487.953	533.12
488.171	525.12
488.389	536.12
488.607	515.12
488.825	531.12
489.043	528.12
489.261	530.12
489.479	563.12
489.696	561.12
489.914	547.12
490.132	548.12
490.35	539.12
490.568	553.12
490.786	567.12
491.003	569.12
491.221	561.12
491.439	594.12
491.657	620.12
491.874	606.12
492.092	618.12
492.31	635.12
492.527	598.12
492.745	579.12
492.963	598.12
493.18	607.12
493.398	615.12
493.615	638.12
493.833	615.12
494.05	625.12
494.268	594.12
494.485	622.12
494.703	637.12
494.92	637.12
495.138	627.12
495.355	645.12
495.573	645.12
495.79	631.12
496.008	628.12
496.225	624.12
496.442	628.12
496.66	648.12
496.877	629.12
497.094	639.12
497.312	632.12
497.529	673.12
497.746	674.12
497.963	662.12
498.181	698.12
498.398	673.12
498.615	701.12
498.832	721.12
499.049	698.12
499.267	691.12
499.484	725.12
499.701	745.12
499.918	758.12
500.135	796.12
500.352	803.12
500.569	824.12
500.786	835.12
501.003	818.12
501.22	799.12
501.437	788.12
501.654	782.12
501.871	772.12
502.088	751.12
