Data from 1989.PennyLincolnUp.Lamp.En5.5.200Scan.071819.P2_HRD10591_17-26-16-973.txt Node
Date: Thu Jul 18 17:26:16 EDT 2019
User: cochatt
Spectrometer: HR+D1059
Trigger mode: 1
Integration Time (sec): 1.000000E-1
Scans to average: 1
Electric dark correction enabled: true
Nonlinearity correction enabled: false
Boxcar width: 0
XAxis mode: Wavelengths
Number of Pixels in Spectrum: 2048
>>>>>Begin Spectral Data<<<<<
223.165	-5.44
223.4	-5.44
223.635	-5.44
223.869	-20.44
224.104	-26.44
224.338	-14.44
224.573	-4.44
224.808	-5.44
225.042	-21.44
225.277	-5.44
225.511	1.56
225.746	10.56
225.98	-0.44
226.215	16.56
226.449	4.56
226.683	22.56
226.918	22.56
227.152	25.56
227.387	27.56
227.621	32.56
227.856	35.56
228.09	46.56
228.324	51.56
228.559	52.56
228.793	78.56
229.027	111.56
229.262	111.56
229.496	134.56
229.73	119.56
229.964	158.56
230.199	163.56
230.433	120.56
230.667	121.56
230.901	112.56
231.136	112.56
231.37	131.56
231.604	119.56
231.838	123.56
232.072	115.56
232.306	125.56
232.541	115.56
232.775	120.56
233.009	122.56
233.243	124.56
233.477	126.56
233.711	124.56
233.945	123.56
234.179	101.56
234.413	115.56
234.647	123.56
234.881	136.56
235.115	140.56
235.349	119.56
235.583	120.56
235.817	120.56
236.051	138.56
236.285	123.56
236.519	128.56
236.753	135.56
236.987	149.56
237.221	187.56
237.455	258.56
237.689	211.56
237.922	155.56
238.156	138.56
238.39	132.56
238.624	128.56
238.858	155.56
239.091	127.56
239.325	140.56
239.559	153.56
239.793	138.56
240.027	150.56
240.26	160.56
240.494	185.56
240.728	152.56
240.961	173.56
241.195	154.56
241.429	167.56
241.662	159.56
241.896	142.56
242.13	145.56
242.363	148.56
242.597	129.56
242.83	144.56
243.064	160.56
243.298	147.56
243.531	140.56
243.765	147.56
243.998	149.56
244.232	159.56
244.465	165.56
244.699	145.56
244.932	151.56
245.166	153.56
245.399	148.56
245.633	177.56
245.866	156.56
246.099	152.56
246.333	163.56
246.566	160.56
246.8	173.56
247.033	154.56
247.266	160.56
247.5	190.56
247.733	180.56
247.966	205.56
248.2	196.56
248.433	183.56
248.666	194.56
248.899	204.56
249.133	208.56
249.366	239.56
249.599	244.56
249.832	202.56
250.066	207.56
250.299	229.56
250.532	226.56
250.765	251.56
250.998	263.56
251.231	263.56
251.465	240.56
251.698	240.56
251.931	239.56
252.164	218.56
252.397	214.56
252.63	210.56
252.863	236.56
253.096	245.56
253.329	259.56
253.562	250.56
253.795	251.56
254.028	242.56
254.261	249.56
254.494	265.56
254.727	285.56
254.96	335.56
255.193	320.56
255.426	303.56
255.659	251.56
255.892	275.56
256.124	285.56
256.357	322.56
256.59	287.56
256.823	284.56
257.056	256.56
257.289	258.56
257.521	250.56
257.754	252.56
257.987	225.56
258.22	252.56
258.452	239.56
258.685	228.56
258.918	226.56
259.151	245.56
259.383	246.56
259.616	246.56
259.849	250.56
260.081	272.56
260.314	298.56
260.547	281.56
260.779	293.56
261.012	268.56
261.244	275.56
261.477	257.56
261.71	252.56
261.942	248.56
262.175	275.56
262.407	270.56
262.64	263.56
262.872	247.56
263.105	242.56
263.337	257.56
263.57	232.56
263.802	258.56
264.035	244.56
264.267	244.56
264.499	228.56
264.732	243.56
264.964	240.56
265.197	226.56
265.429	225.56
265.661	247.56
265.894	246.56
266.126	243.56
266.358	246.56
266.591	266.56
266.823	269.56
267.055	264.56
267.287	253.56
267.52	235.56
267.752	263.56
267.984	258.56
268.216	263.56
268.448	252.56
268.681	265.56
268.913	269.56
269.145	286.56
269.377	324.56
269.609	337.56
269.841	327.56
270.073	299.56
270.306	333.56
270.538	375.56
270.77	364.56
271.002	359.56
271.234	341.56
271.466	348.56
271.698	365.56
271.93	375.56
272.162	372.56
272.394	370.56
272.626	362.56
272.858	350.56
273.09	329.56
273.322	313.56
273.553	278.56
273.785	309.56
274.017	291.56
274.249	300.56
274.481	296.56
274.713	299.56
274.945	312.56
275.176	297.56
275.408	325.56
275.64	296.56
275.872	317.56
276.104	330.56
276.335	315.56
276.567	318.56
276.799	335.56
277.031	356.56
277.262	351.56
277.494	372.56
277.726	341.56
277.957	330.56
278.189	326.56
278.421	320.56
278.652	313.56
278.884	309.56
279.115	328.56
279.347	299.56
279.579	314.56
279.81	300.56
280.042	295.56
280.273	291.56
280.505	318.56
280.736	294.56
280.968	294.56
281.199	307.56
281.431	326.56
281.662	303.56
281.894	297.56
282.125	323.56
282.356	335.56
282.588	357.56
282.819	349.56
283.051	320.56
283.282	297.56
283.513	299.56
283.745	316.56
283.976	300.56
284.207	325.56
284.439	324.56
284.67	315.56
284.901	306.56
285.132	319.56
285.364	319.56
285.595	320.56
285.826	304.56
286.057	310.56
286.288	334.56
286.52	304.56
286.751	304.56
286.982	319.56
287.213	293.56
287.444	313.56
287.675	331.56
287.906	340.56
288.138	335.56
288.369	327.56
288.6	348.56
288.831	341.56
289.062	336.56
289.293	324.56
289.524	324.56
289.755	337.56
289.986	343.56
290.217	336.56
290.448	319.56
290.679	327.56
290.91	323.56
291.141	320.56
291.371	321.56
291.602	315.56
291.833	311.56
292.064	317.56
292.295	341.56
292.526	337.56
292.757	330.56
292.987	316.56
293.218	333.56
293.449	322.56
293.68	319.56
293.91	321.56
294.141	309.56
294.372	333.56
294.603	324.56
294.833	319.56
295.064	320.56
295.295	309.56
295.525	325.56
295.756	348.56
295.987	356.56
296.217	373.56
296.448	391.56
296.679	334.56
296.909	325.56
297.14	322.56
297.37	322.56
297.601	333.56
297.831	330.56
298.062	325.56
298.292	315.56
298.523	331.56
298.753	324.56
298.984	317.56
299.214	334.56
299.445	329.56
299.675	353.56
299.905	351.56
300.136	346.56
300.366	341.56
300.597	332.56
300.827	348.56
301.057	345.56
301.288	376.56
301.518	353.56
301.748	337.56
301.979	368.56
302.209	364.56
302.439	367.56
302.669	352.56
302.9	363.56
303.13	360.56
303.36	372.56
303.59	379.56
303.82	376.56
304.051	370.56
304.281	380.56
304.511	361.56
304.741	361.56
304.971	354.56
305.201	367.56
305.431	359.56
305.661	369.56
305.891	346.56
306.121	377.56
306.352	362.56
306.582	363.56
306.812	357.56
307.042	375.56
307.272	353.56
307.502	355.56
307.731	381.56
307.961	360.56
308.191	378.56
308.421	348.56
308.651	369.56
308.881	377.56
309.111	398.56
309.341	381.56
309.571	389.56
309.8	402.56
310.03	396.56
310.26	421.56
310.49	436.56
310.72	445.56
310.949	447.56
311.179	436.56
311.409	437.56
311.639	431.56
311.868	431.56
312.098	417.56
312.328	429.56
312.557	464.56
312.787	465.56
313.017	454.56
313.246	431.56
313.476	412.56
313.706	422.56
313.935	443.56
314.165	447.56
314.394	451.56
314.624	449.56
314.853	438.56
315.083	440.56
315.312	412.56
315.542	423.56
315.771	407.56
316.001	419.56
316.23	416.56
316.46	420.56
316.689	426.56
316.919	443.56
317.148	438.56
317.377	449.56
317.607	417.56
317.836	443.56
318.065	413.56
318.295	407.56
318.524	423.56
318.753	441.56
318.983	415.56
319.212	421.56
319.441	433.56
319.67	451.56
319.9	415.56
320.129	419.56
320.358	416.56
320.587	447.56
320.816	431.56
321.046	454.56
321.275	438.56
321.504	464.56
321.733	468.56
321.962	467.56
322.191	460.56
322.42	502.56
322.649	516.56
322.878	501.56
323.108	524.56
323.337	561.56
323.566	594.56
323.795	623.56
324.024	673.56
324.253	827.56
324.482	1189.56
324.71	1865.56
324.939	2685.56
325.168	2305.56
325.397	1189.56
325.626	779.56
325.855	630.56
326.084	611.56
326.313	602.56
326.542	594.56
326.77	651.56
326.999	755.56
327.228	1087.56
327.457	1655.56
327.686	2000.56
327.914	1321.56
328.143	872.56
328.372	786.56
328.6	724.56
328.829	637.56
329.058	669.56
329.287	713.56
329.515	664.56
329.744	643.56
329.972	652.56
330.201	664.56
330.43	739.56
330.658	743.56
330.887	746.56
331.115	709.56
331.344	610.56
331.572	574.56
331.801	587.56
332.03	572.56
332.258	529.56
332.486	537.56
332.715	488.56
332.943	518.56
333.172	528.56
333.4	517.56
333.629	578.56
333.857	566.56
334.085	591.56
334.314	620.56
334.542	699.56
334.771	728.56
334.999	639.56
335.227	540.56
335.455	545.56
335.684	523.56
335.912	500.56
336.14	490.56
336.369	490.56
336.597	505.56
336.825	502.56
337.053	474.56
337.281	452.56
337.51	479.56
337.738	490.56
337.966	478.56
338.194	482.56
338.422	468.56
338.65	472.56
338.878	485.56
339.106	481.56
339.334	470.56
339.562	467.56
339.79	488.56
340.018	472.56
340.246	473.56
340.474	490.56
340.702	475.56
340.93	467.56
341.158	484.56
341.386	474.56
341.614	482.56
341.842	467.56
342.07	464.56
342.298	467.56
342.526	462.56
342.754	445.56
342.981	429.56
343.209	452.56
343.437	450.56
343.665	451.56
343.893	440.56
344.12	456.56
344.348	445.56
344.576	458.56
344.804	461.56
345.031	487.56
345.259	469.56
345.487	481.56
345.714	474.56
345.942	440.56
346.17	427.56
346.397	473.56
346.625	453.56
346.853	425.56
347.08	449.56
347.308	457.56
347.535	429.56
347.763	453.56
347.99	453.56
348.218	491.56
348.445	469.56
348.673	461.56
348.9	462.56
349.128	443.56
349.355	454.56
349.583	422.56
349.81	410.56
350.037	427.56
350.265	443.56
350.492	425.56
350.72	458.56
350.947	439.56
351.174	445.56
351.402	439.56
351.629	458.56
351.856	448.56
352.083	471.56
352.311	465.56
352.538	453.56
352.765	467.56
352.992	465.56
353.22	458.56
353.447	431.56
353.674	440.56
353.901	421.56
354.128	421.56
354.355	439.56
354.583	417.56
354.81	413.56
355.037	408.56
355.264	408.56
355.491	423.56
355.718	406.56
355.945	406.56
356.172	407.56
356.399	407.56
356.626	400.56
356.853	390.56
357.08	395.56
357.307	419.56
357.534	424.56
357.761	437.56
357.988	429.56
358.215	405.56
358.441	404.56
358.668	404.56
358.895	409.56
359.122	444.56
359.349	431.56
359.576	433.56
359.802	447.56
360.029	496.56
360.256	512.56
360.483	484.56
360.709	452.56
360.936	437.56
361.163	428.56
361.39	433.56
361.616	449.56
361.843	450.56
362.07	458.56
362.296	449.56
362.523	427.56
362.749	453.56
362.976	435.56
363.203	425.56
363.429	419.56
363.656	420.56
363.882	428.56
364.109	412.56
364.335	428.56
364.562	446.56
364.788	415.56
365.015	411.56
365.241	404.56
365.468	415.56
365.694	429.56
365.92	436.56
366.147	428.56
366.373	416.56
366.599	407.56
366.826	424.56
367.052	419.56
367.278	411.56
367.505	426.56
367.731	420.56
367.957	394.56
368.184	404.56
368.41	439.56
368.636	428.56
368.862	424.56
369.089	416.56
369.315	400.56
369.541	421.56
369.767	420.56
369.993	399.56
370.219	401.56
370.445	401.56
370.672	410.56
370.898	417.56
371.124	409.56
371.35	403.56
371.576	383.56
371.802	412.56
372.028	397.56
372.254	383.56
372.48	384.56
372.706	400.56
372.932	420.56
373.158	420.56
373.384	403.56
373.61	418.56
373.835	432.56
374.061	405.56
374.287	403.56
374.513	400.56
374.739	398.56
374.965	392.56
375.191	401.56
375.416	404.56
375.642	395.56
375.868	423.56
376.094	410.56
376.319	391.56
376.545	379.56
376.771	390.56
376.997	395.56
377.222	422.56
377.448	395.56
377.674	383.56
377.899	395.56
378.125	392.56
378.35	404.56
378.576	383.56
378.802	399.56
379.027	406.56
379.253	403.56
379.478	391.56
379.704	382.56
379.929	394.56
380.155	396.56
380.38	403.56
380.606	401.56
380.831	378.56
381.057	383.56
381.282	401.56
381.507	397.56
381.733	406.56
381.958	417.56
382.184	396.56
382.409	420.56
382.634	396.56
382.86	398.56
383.085	403.56
383.31	401.56
383.535	399.56
383.761	402.56
383.986	432.56
384.211	412.56
384.436	411.56
384.662	402.56
384.887	391.56
385.112	410.56
385.337	417.56
385.562	429.56
385.787	413.56
386.013	433.56
386.238	436.56
386.463	419.56
386.688	429.56
386.913	420.56
387.138	424.56
387.363	415.56
387.588	451.56
387.813	419.56
388.038	438.56
388.263	405.56
388.488	436.56
388.713	418.56
388.938	426.56
389.163	426.56
389.387	438.56
389.612	415.56
389.837	414.56
390.062	402.56
390.287	405.56
390.512	401.56
390.736	405.56
390.961	421.56
391.186	431.56
391.411	417.56
391.636	432.56
391.86	408.56
392.085	435.56
392.31	420.56
392.534	409.56
392.759	428.56
392.984	431.56
393.208	428.56
393.433	425.56
393.658	411.56
393.882	420.56
394.107	415.56
394.331	417.56
394.556	401.56
394.78	425.56
395.005	417.56
395.229	402.56
395.454	438.56
395.678	431.56
395.903	426.56
396.127	453.56
396.352	460.56
396.576	440.56
396.801	437.56
397.025	440.56
397.249	447.56
397.474	442.56
397.698	452.56
397.922	464.56
398.147	507.56
398.371	460.56
398.595	470.56
398.82	461.56
399.044	489.56
399.268	486.56
399.492	521.56
399.717	535.56
399.941	552.56
400.165	577.56
400.389	590.56
400.613	535.56
400.837	519.56
401.062	498.56
401.286	469.56
401.51	480.56
401.734	461.56
401.958	477.56
402.182	488.56
402.406	498.56
402.63	478.56
402.854	495.56
403.078	485.56
403.302	494.56
403.526	492.56
403.75	502.56
403.974	488.56
404.198	479.56
404.422	500.56
404.645	498.56
404.869	520.56
405.093	572.56
405.317	611.56
405.541	649.56
405.765	595.56
405.988	541.56
406.212	547.56
406.436	561.56
406.66	566.56
406.883	566.56
407.107	535.56
407.331	612.56
407.555	672.56
407.778	661.56
408.002	636.56
408.226	569.56
408.449	567.56
408.673	553.56
408.896	561.56
409.12	633.56
409.344	588.56
409.567	524.56
409.791	504.56
410.014	532.56
410.238	495.56
410.461	513.56
410.685	512.56
410.908	499.56
411.132	561.56
411.355	588.56
411.578	561.56
411.802	507.56
412.025	509.56
412.249	532.56
412.472	572.56
412.695	598.56
412.919	605.56
413.142	565.56
413.365	508.56
413.589	512.56
413.812	458.56
414.035	472.56
414.258	475.56
414.482	457.56
414.705	445.56
414.928	469.56
415.151	443.56
415.374	467.56
415.597	467.56
415.821	466.56
416.044	451.56
416.267	464.56
416.49	459.56
416.713	443.56
416.936	465.56
417.159	451.56
417.382	478.56
417.605	499.56
417.828	482.56
418.051	515.56
418.274	492.56
418.497	469.56
418.72	445.56
418.943	473.56
419.166	483.56
419.389	529.56
419.611	506.56
419.834	513.56
420.057	515.56
420.28	513.56
420.503	540.56
420.726	495.56
420.948	520.56
421.171	570.56
421.394	610.56
421.617	534.56
421.839	504.56
422.062	505.56
422.285	512.56
422.507	576.56
422.73	661.56
422.953	623.56
423.175	555.56
423.398	494.56
423.621	540.56
423.843	538.56
424.066	541.56
424.288	534.56
424.511	546.56
424.733	613.56
424.956	683.56
425.178	690.56
425.401	677.56
425.623	696.56
425.846	575.56
426.068	562.56
426.291	538.56
426.513	532.56
426.735	561.56
426.958	589.56
427.18	666.56
427.402	821.56
427.625	893.56
427.847	837.56
428.069	711.56
428.292	600.56
428.514	556.56
428.736	548.56
428.958	512.56
429.181	525.56
429.403	470.56
429.625	495.56
429.847	540.56
430.069	623.56
430.292	610.56
430.514	520.56
430.736	489.56
430.958	505.56
431.18	464.56
431.402	465.56
431.624	450.56
431.846	439.56
432.068	468.56
432.29	470.56
432.512	466.56
432.734	460.56
432.956	464.56
433.178	491.56
433.4	481.56
433.622	472.56
433.844	460.56
434.066	453.56
434.287	485.56
434.509	466.56
434.731	461.56
434.953	484.56
435.175	509.56
435.397	532.56
435.618	532.56
435.84	581.56
436.062	681.56
436.284	741.56
436.505	605.56
436.727	567.56
436.949	529.56
437.17	514.56
437.392	521.56
437.614	516.56
437.835	571.56
438.057	675.56
438.278	743.56
438.5	744.56
438.721	825.56
438.943	790.56
439.165	625.56
439.386	582.56
439.608	519.56
439.829	563.56
440.05	583.56
440.272	644.56
440.493	612.56
440.715	515.56
440.936	504.56
441.158	492.56
441.379	507.56
441.6	525.56
441.822	526.56
442.043	556.56
442.264	660.56
442.486	714.56
442.707	633.56
442.928	566.56
443.149	565.56
443.371	583.56
443.592	636.56
443.813	732.56
444.034	786.56
444.255	634.56
444.476	585.56
444.698	529.56
444.919	543.56
445.14	660.56
445.361	621.56
445.582	586.56
445.803	679.56
446.024	776.56
446.245	805.56
446.466	725.56
446.687	588.56
446.908	548.56
447.129	513.56
447.35	505.56
447.571	519.56
447.792	460.56
448.013	490.56
448.234	496.56
448.455	577.56
448.675	706.56
448.896	789.56
449.117	696.56
449.338	635.56
449.559	749.56
449.779	849.56
450	694.56
450.221	555.56
450.442	539.56
450.662	491.56
450.883	512.56
451.104	543.56
451.324	493.56
451.545	472.56
451.766	485.56
451.986	447.56
452.207	447.56
452.428	424.56
452.648	415.56
452.869	451.56
453.089	453.56
453.31	439.56
453.53	458.56
453.751	460.56
453.971	457.56
454.192	473.56
454.412	460.56
454.633	465.56
454.853	435.56
455.073	433.56
455.294	468.56
455.514	554.56
455.734	547.56
455.955	465.56
456.175	439.56
456.395	420.56
456.616	409.56
456.836	399.56
457.056	407.56
457.276	409.56
457.497	407.56
457.717	410.56
457.937	422.56
458.157	420.56
458.377	416.56
458.598	443.56
458.818	514.56
459.038	581.56
459.258	616.56
459.478	531.56
459.698	490.56
459.918	458.56
460.138	460.56
460.358	460.56
460.578	457.56
460.798	441.56
461.018	452.56
461.238	429.56
461.458	461.56
461.678	423.56
461.898	464.56
462.118	433.56
462.338	459.56
462.558	460.56
462.777	458.56
462.997	484.56
463.217	475.56
463.437	488.56
463.657	468.56
463.876	475.56
464.096	498.56
464.316	490.56
464.536	462.56
464.755	481.56
464.975	502.56
465.195	563.56
465.414	624.56
465.634	567.56
465.854	479.56
466.073	479.56
466.293	460.56
466.512	456.56
466.732	455.56
466.951	438.56
467.171	443.56
467.391	441.56
467.61	439.56
467.829	440.56
468.049	459.56
468.268	466.56
468.488	458.56
468.707	449.56
468.927	446.56
469.146	436.56
469.365	412.56
469.585	422.56
469.804	432.56
470.023	472.56
470.243	467.56
470.462	460.56
470.681	475.56
470.901	473.56
471.12	457.56
471.339	447.56
471.558	462.56
471.777	451.56
471.997	475.56
472.216	461.56
472.435	567.56
472.654	509.56
472.873	475.56
473.092	447.56
473.311	456.56
473.53	472.56
473.749	485.56
473.968	506.56
474.187	621.56
474.406	668.56
474.625	520.56
474.844	485.56
475.063	460.56
475.282	454.56
475.501	463.56
475.72	466.56
475.939	464.56
476.158	475.56
476.377	473.56
476.596	471.56
476.814	468.56
477.033	480.56
477.252	478.56
477.471	488.56
477.69	456.56
477.908	486.56
478.127	495.56
478.346	507.56
478.564	488.56
478.783	509.56
479.002	525.56
479.22	503.56
479.439	517.56
479.658	565.56
479.876	544.56
480.095	538.56
480.313	583.56
480.532	571.56
480.751	561.56
480.969	591.56
481.188	726.56
481.406	780.56
481.624	632.56
481.843	599.56
482.061	551.56
482.28	534.56
482.498	564.56
482.717	556.56
482.935	545.56
483.153	552.56
483.372	531.56
483.59	543.56
483.808	541.56
484.027	541.56
484.245	548.56
484.463	550.56
484.681	540.56
484.9	537.56
485.118	525.56
485.336	556.56
485.554	552.56
485.772	571.56
485.99	537.56
486.209	537.56
486.427	579.56
486.645	573.56
486.863	595.56
487.081	601.56
487.299	595.56
487.517	571.56
487.735	578.56
487.953	595.56
488.171	600.56
488.389	586.56
488.607	593.56
488.825	603.56
489.043	583.56
489.261	573.56
489.479	593.56
489.696	614.56
489.914	624.56
490.132	591.56
490.35	622.56
490.568	607.56
490.786	639.56
491.003	648.56
491.221	635.56
491.439	669.56
491.657	675.56
491.874	681.56
492.092	668.56
492.31	679.56
492.527	700.56
492.745	678.56
492.963	697.56
493.18	714.56
493.398	706.56
493.615	701.56
493.833	717.56
494.05	704.56
494.268	698.56
494.485	713.56
494.703	687.56
494.92	689.56
495.138	694.56
495.355	716.56
495.573	697.56
495.79	718.56
496.008	706.56
496.225	700.56
496.442	693.56
496.66	675.56
496.877	689.56
497.094	705.56
497.312	688.56
497.529	708.56
497.746	691.56
497.963	723.56
498.181	753.56
498.398	745.56
498.615	773.56
498.832	765.56
499.049	775.56
499.267	773.56
499.484	787.56
499.701	799.56
499.918	853.56
500.135	865.56
500.352	890.56
500.569	894.56
500.786	908.56
501.003	884.56
501.22	844.56
501.437	827.56
501.654	847.56
501.871	842.56
