Data from 1989.PennyLincolnUp.Lamp.En5.5.200Scan.071819.P2_HRD10591_17-25-28-973.txt Node
Date: Thu Jul 18 17:25:28 EDT 2019
User: cochatt
Spectrometer: HR+D1059
Trigger mode: 1
Integration Time (sec): 1.000000E-1
Scans to average: 1
Electric dark correction enabled: true
Nonlinearity correction enabled: false
Boxcar width: 0
XAxis mode: Wavelengths
Number of Pixels in Spectrum: 2048
>>>>>Begin Spectral Data<<<<<
223.165	-20.94
223.4	-20.94
223.635	-20.94
223.869	-12.94
224.104	-22.94
224.338	-15.94
224.573	-0.94
224.808	-11.94
225.042	-5.94
225.277	-3.94
225.511	-6.94
225.746	-7.94
225.98	11.06
226.215	15.06
226.449	1.06
226.683	22.06
226.918	28.06
227.152	33.06
227.387	27.06
227.621	37.06
227.856	31.06
228.09	47.06
228.324	47.06
228.559	54.06
228.793	81.06
229.027	108.06
229.262	115.06
229.496	121.06
229.73	137.06
229.964	158.06
230.199	132.06
230.433	119.06
230.667	121.06
230.901	101.06
231.136	129.06
231.37	118.06
231.604	127.06
231.838	122.06
232.072	122.06
232.306	121.06
232.541	115.06
232.775	114.06
233.009	119.06
233.243	117.06
233.477	105.06
233.711	121.06
233.945	111.06
234.179	111.06
234.413	108.06
234.647	107.06
234.881	119.06
235.115	135.06
235.349	116.06
235.583	125.06
235.817	137.06
236.051	138.06
236.285	131.06
236.519	133.06
236.753	136.06
236.987	155.06
237.221	188.06
237.455	227.06
237.689	193.06
237.922	147.06
238.156	143.06
238.39	136.06
238.624	125.06
238.858	119.06
239.091	135.06
239.325	145.06
239.559	127.06
239.793	136.06
240.027	138.06
240.26	153.06
240.494	183.06
240.728	169.06
240.961	156.06
241.195	162.06
241.429	140.06
241.662	137.06
241.896	147.06
242.13	133.06
242.363	138.06
242.597	156.06
242.83	135.06
243.064	151.06
243.298	151.06
243.531	149.06
243.765	141.06
243.998	155.06
244.232	142.06
244.465	161.06
244.699	153.06
244.932	152.06
245.166	146.06
245.399	150.06
245.633	170.06
245.866	165.06
246.099	166.06
246.333	162.06
246.566	148.06
246.8	168.06
247.033	172.06
247.266	174.06
247.5	175.06
247.733	177.06
247.966	185.06
248.2	171.06
248.433	182.06
248.666	191.06
248.899	197.06
249.133	219.06
249.366	229.06
249.599	211.06
249.832	196.06
250.066	188.06
250.299	196.06
250.532	223.06
250.765	235.06
250.998	233.06
251.231	245.06
251.465	239.06
251.698	233.06
251.931	228.06
252.164	234.06
252.397	229.06
252.63	213.06
252.863	228.06
253.096	224.06
253.329	268.06
253.562	248.06
253.795	252.06
254.028	235.06
254.261	260.06
254.494	268.06
254.727	312.06
254.96	327.06
255.193	297.06
255.426	281.06
255.659	282.06
255.892	295.06
256.124	263.06
256.357	267.06
256.59	266.06
256.823	249.06
257.056	261.06
257.289	244.06
257.521	242.06
257.754	241.06
257.987	224.06
258.22	235.06
258.452	239.06
258.685	254.06
258.918	237.06
259.151	251.06
259.383	249.06
259.616	243.06
259.849	261.06
260.081	268.06
260.314	287.06
260.547	305.06
260.779	269.06
261.012	276.06
261.244	263.06
261.477	241.06
261.71	238.06
261.942	259.06
262.175	271.06
262.407	275.06
262.64	243.06
262.872	235.06
263.105	237.06
263.337	224.06
263.57	237.06
263.802	233.06
264.035	230.06
264.267	247.06
264.499	249.06
264.732	250.06
264.964	255.06
265.197	250.06
265.429	230.06
265.661	249.06
265.894	230.06
266.126	225.06
266.358	233.06
266.591	245.06
266.823	245.06
267.055	232.06
267.287	270.06
267.52	246.06
267.752	235.06
267.984	255.06
268.216	255.06
268.448	258.06
268.681	255.06
268.913	273.06
269.145	298.06
269.377	289.06
269.609	305.06
269.841	309.06
270.073	322.06
270.306	325.06
270.538	349.06
270.77	359.06
271.002	325.06
271.234	323.06
271.466	349.06
271.698	352.06
271.93	379.06
272.162	364.06
272.394	341.06
272.626	337.06
272.858	354.06
273.09	324.06
273.322	283.06
273.553	293.06
273.785	301.06
274.017	308.06
274.249	312.06
274.481	308.06
274.713	309.06
274.945	292.06
275.176	280.06
275.408	290.06
275.64	303.06
275.872	294.06
276.104	292.06
276.335	303.06
276.567	313.06
276.799	325.06
277.031	345.06
277.262	351.06
277.494	356.06
277.726	343.06
277.957	327.06
278.189	332.06
278.421	298.06
278.652	305.06
278.884	300.06
279.115	317.06
279.347	305.06
279.579	312.06
279.81	318.06
280.042	277.06
280.273	291.06
280.505	303.06
280.736	309.06
280.968	289.06
281.199	303.06
281.431	316.06
281.662	276.06
281.894	309.06
282.125	303.06
282.356	315.06
282.588	347.06
282.819	349.06
283.051	305.06
283.282	312.06
283.513	304.06
283.745	299.06
283.976	294.06
284.207	300.06
284.439	300.06
284.67	307.06
284.901	317.06
285.132	301.06
285.364	320.06
285.595	307.06
285.826	309.06
286.057	315.06
286.288	318.06
286.52	305.06
286.751	323.06
286.982	302.06
287.213	295.06
287.444	301.06
287.675	324.06
287.906	310.06
288.138	316.06
288.369	344.06
288.6	340.06
288.831	328.06
289.062	344.06
289.293	317.06
289.524	309.06
289.755	322.06
289.986	307.06
290.217	313.06
290.448	296.06
290.679	308.06
290.91	323.06
291.141	326.06
291.371	297.06
291.602	310.06
291.833	298.06
292.064	323.06
292.295	311.06
292.526	327.06
292.757	329.06
292.987	317.06
293.218	305.06
293.449	333.06
293.68	330.06
293.91	311.06
294.141	326.06
294.372	333.06
294.603	316.06
294.833	305.06
295.064	328.06
295.295	336.06
295.525	320.06
295.756	324.06
295.987	329.06
296.217	370.06
296.448	360.06
296.679	343.06
296.909	314.06
297.14	295.06
297.37	326.06
297.601	346.06
297.831	330.06
298.062	329.06
298.292	321.06
298.523	344.06
298.753	333.06
298.984	339.06
299.214	332.06
299.445	332.06
299.675	354.06
299.905	353.06
300.136	336.06
300.366	335.06
300.597	319.06
300.827	347.06
301.057	359.06
301.288	360.06
301.518	336.06
301.748	338.06
301.979	348.06
302.209	353.06
302.439	348.06
302.669	341.06
302.9	348.06
303.13	364.06
303.36	354.06
303.59	369.06
303.82	364.06
304.051	330.06
304.281	364.06
304.511	345.06
304.741	346.06
304.971	335.06
305.201	346.06
305.431	348.06
305.661	361.06
305.891	352.06
306.121	359.06
306.352	371.06
306.582	378.06
306.812	365.06
307.042	362.06
307.272	357.06
307.502	368.06
307.731	381.06
307.961	345.06
308.191	372.06
308.421	351.06
308.651	362.06
308.881	363.06
309.111	381.06
309.341	371.06
309.571	376.06
309.8	398.06
310.03	405.06
310.26	385.06
310.49	402.06
310.72	429.06
310.949	440.06
311.179	456.06
311.409	428.06
311.639	426.06
311.868	407.06
312.098	437.06
312.328	421.06
312.557	439.06
312.787	474.06
313.017	445.06
313.246	437.06
313.476	431.06
313.706	407.06
313.935	443.06
314.165	424.06
314.394	440.06
314.624	443.06
314.853	436.06
315.083	421.06
315.312	422.06
315.542	407.06
315.771	424.06
316.001	403.06
316.23	424.06
316.46	404.06
316.689	415.06
316.919	446.06
317.148	424.06
317.377	436.06
317.607	421.06
317.836	411.06
318.065	397.06
318.295	399.06
318.524	411.06
318.753	415.06
318.983	420.06
319.212	419.06
319.441	425.06
319.67	429.06
319.9	409.06
320.129	408.06
320.358	417.06
320.587	434.06
320.816	441.06
321.046	438.06
321.275	433.06
321.504	428.06
321.733	419.06
321.962	453.06
322.191	465.06
322.42	481.06
322.649	499.06
322.878	505.06
323.108	510.06
323.337	534.06
323.566	579.06
323.795	579.06
324.024	665.06
324.253	822.06
324.482	1208.06
324.71	1849.06
324.939	2615.06
325.168	2295.06
325.397	1185.06
325.626	776.06
325.855	661.06
326.084	586.06
326.313	565.06
326.542	591.06
326.77	652.06
326.999	788.06
327.228	1062.06
327.457	1621.06
327.686	1988.06
327.914	1344.06
328.143	869.06
328.372	725.06
328.6	684.06
328.829	674.06
329.058	658.06
329.287	692.06
329.515	633.06
329.744	584.06
329.972	594.06
330.201	612.06
330.43	662.06
330.658	671.06
330.887	693.06
331.115	690.06
331.344	594.06
331.572	555.06
331.801	557.06
332.03	542.06
332.258	537.06
332.486	500.06
332.715	480.06
332.943	487.06
333.172	479.06
333.4	498.06
333.629	508.06
333.857	529.06
334.085	539.06
334.314	539.06
334.542	572.06
334.771	599.06
334.999	526.06
335.227	508.06
335.455	497.06
335.684	472.06
335.912	490.06
336.14	497.06
336.369	461.06
336.597	495.06
336.825	497.06
337.053	467.06
337.281	480.06
337.51	472.06
337.738	481.06
337.966	469.06
338.194	494.06
338.422	477.06
338.65	449.06
338.878	474.06
339.106	492.06
339.334	472.06
339.562	447.06
339.79	459.06
340.018	449.06
340.246	460.06
340.474	476.06
340.702	480.06
340.93	463.06
341.158	468.06
341.386	465.06
341.614	486.06
341.842	473.06
342.07	469.06
342.298	447.06
342.526	452.06
342.754	452.06
342.981	438.06
343.209	437.06
343.437	444.06
343.665	465.06
343.893	457.06
344.12	459.06
344.348	446.06
344.576	475.06
344.804	469.06
345.031	475.06
345.259	482.06
345.487	476.06
345.714	456.06
345.942	462.06
346.17	440.06
346.397	430.06
346.625	426.06
346.853	433.06
347.08	462.06
347.308	457.06
347.535	472.06
347.763	457.06
347.99	453.06
348.218	479.06
348.445	478.06
348.673	453.06
348.9	463.06
349.128	431.06
349.355	409.06
349.583	422.06
349.81	415.06
350.037	423.06
350.265	431.06
350.492	449.06
350.72	428.06
350.947	438.06
351.174	447.06
351.402	462.06
351.629	441.06
351.856	454.06
352.083	447.06
352.311	464.06
352.538	469.06
352.765	467.06
352.992	472.06
353.22	457.06
353.447	437.06
353.674	428.06
353.901	428.06
354.128	403.06
354.355	418.06
354.583	425.06
354.81	402.06
355.037	398.06
355.264	416.06
355.491	404.06
355.718	407.06
355.945	398.06
356.172	392.06
356.399	407.06
356.626	403.06
356.853	392.06
357.08	391.06
357.307	384.06
357.534	413.06
357.761	409.06
357.988	412.06
358.215	420.06
358.441	431.06
358.668	407.06
358.895	425.06
359.122	428.06
359.349	435.06
359.576	452.06
359.802	469.06
360.029	492.06
360.256	513.06
360.483	477.06
360.709	453.06
360.936	442.06
361.163	427.06
361.39	445.06
361.616	459.06
361.843	423.06
362.07	432.06
362.296	439.06
362.523	426.06
362.749	424.06
362.976	437.06
363.203	420.06
363.429	385.06
363.656	411.06
363.882	431.06
364.109	404.06
364.335	404.06
364.562	406.06
364.788	404.06
365.015	403.06
365.241	415.06
365.468	427.06
365.694	412.06
365.92	403.06
366.147	405.06
366.373	433.06
366.599	383.06
366.826	384.06
367.052	386.06
367.278	388.06
367.505	407.06
367.731	401.06
367.957	417.06
368.184	400.06
368.41	412.06
368.636	420.06
368.862	422.06
369.089	409.06
369.315	397.06
369.541	405.06
369.767	392.06
369.993	413.06
370.219	416.06
370.445	390.06
370.672	402.06
370.898	400.06
371.124	402.06
371.35	385.06
371.576	415.06
371.802	417.06
372.028	402.06
372.254	411.06
372.48	410.06
372.706	413.06
372.932	408.06
373.158	406.06
373.384	399.06
373.61	405.06
373.835	392.06
374.061	405.06
374.287	409.06
374.513	385.06
374.739	425.06
374.965	396.06
375.191	411.06
375.416	403.06
375.642	407.06
375.868	405.06
376.094	384.06
376.319	401.06
376.545	402.06
376.771	408.06
376.997	398.06
377.222	390.06
377.448	392.06
377.674	393.06
377.899	374.06
378.125	389.06
378.35	391.06
378.576	391.06
378.802	404.06
379.027	398.06
379.253	392.06
379.478	399.06
379.704	383.06
379.929	399.06
380.155	385.06
380.38	403.06
380.606	392.06
380.831	395.06
381.057	391.06
381.282	398.06
381.507	393.06
381.733	403.06
381.958	389.06
382.184	403.06
382.409	420.06
382.634	407.06
382.86	413.06
383.085	403.06
383.31	424.06
383.535	411.06
383.761	403.06
383.986	405.06
384.211	417.06
384.436	399.06
384.662	411.06
384.887	423.06
385.112	398.06
385.337	416.06
385.562	404.06
385.787	426.06
386.013	426.06
386.238	413.06
386.463	423.06
386.688	418.06
386.913	444.06
387.138	420.06
387.363	427.06
387.588	416.06
387.813	412.06
388.038	411.06
388.263	420.06
388.488	417.06
388.713	444.06
388.938	409.06
389.163	426.06
389.387	414.06
389.612	409.06
389.837	411.06
390.062	413.06
390.287	425.06
390.512	426.06
390.736	425.06
390.961	436.06
391.186	425.06
391.411	419.06
391.636	412.06
391.86	430.06
392.085	424.06
392.31	416.06
392.534	426.06
392.759	427.06
392.984	431.06
393.208	403.06
393.433	412.06
393.658	405.06
393.882	422.06
394.107	399.06
394.331	420.06
394.556	416.06
394.78	410.06
395.005	447.06
395.229	426.06
395.454	428.06
395.678	429.06
395.903	458.06
396.127	479.06
396.352	462.06
396.576	461.06
396.801	442.06
397.025	385.06
397.249	446.06
397.474	452.06
397.698	437.06
397.922	464.06
398.147	485.06
398.371	465.06
398.595	481.06
398.82	467.06
399.044	459.06
399.268	500.06
399.492	513.06
399.717	531.06
399.941	560.06
400.165	568.06
400.389	568.06
400.613	542.06
400.837	515.06
401.062	499.06
401.286	480.06
401.51	463.06
401.734	470.06
401.958	484.06
402.182	489.06
402.406	498.06
402.63	481.06
402.854	479.06
403.078	468.06
403.302	488.06
403.526	510.06
403.75	499.06
403.974	499.06
404.198	484.06
404.422	473.06
404.645	505.06
404.869	502.06
405.093	537.06
405.317	561.06
405.541	607.06
405.765	543.06
405.988	539.06
406.212	525.06
406.436	541.06
406.66	584.06
406.883	560.06
407.107	558.06
407.331	615.06
407.555	675.06
407.778	661.06
408.002	598.06
408.226	573.06
408.449	547.06
408.673	561.06
408.896	571.06
409.12	627.06
409.344	589.06
409.567	544.06
409.791	512.06
410.014	492.06
410.238	496.06
410.461	492.06
410.685	489.06
410.908	540.06
411.132	551.06
411.355	589.06
411.578	559.06
411.802	527.06
412.025	508.06
412.249	492.06
412.472	520.06
412.695	569.06
412.919	552.06
413.142	531.06
413.365	485.06
413.589	490.06
413.812	489.06
414.035	475.06
414.258	483.06
414.482	478.06
414.705	458.06
414.928	465.06
415.151	451.06
415.374	467.06
415.597	458.06
415.821	461.06
416.044	433.06
416.267	457.06
416.49	447.06
416.713	448.06
416.936	484.06
417.159	438.06
417.382	456.06
417.605	488.06
417.828	485.06
418.051	487.06
418.274	465.06
418.497	461.06
418.72	465.06
418.943	455.06
419.166	464.06
419.389	491.06
419.611	523.06
419.834	474.06
420.057	485.06
420.28	490.06
420.503	495.06
420.726	492.06
420.948	501.06
421.171	561.06
421.394	577.06
421.617	509.06
421.839	483.06
422.062	511.06
422.285	507.06
422.507	569.06
422.73	648.06
422.953	624.06
423.175	532.06
423.398	520.06
423.621	519.06
423.843	524.06
424.066	542.06
424.288	548.06
424.511	544.06
424.733	592.06
424.956	693.06
425.178	655.06
425.401	660.06
425.623	690.06
425.846	598.06
426.068	552.06
426.291	541.06
426.513	521.06
426.735	532.06
426.958	588.06
427.18	654.06
427.402	807.06
427.625	904.06
427.847	802.06
428.069	716.06
428.292	610.06
428.514	551.06
428.736	503.06
428.958	493.06
429.181	480.06
429.403	519.06
429.625	515.06
429.847	555.06
430.069	617.06
430.292	610.06
430.514	525.06
430.736	502.06
430.958	506.06
431.18	472.06
431.402	439.06
431.624	458.06
431.846	469.06
432.068	470.06
432.29	467.06
432.512	452.06
432.734	475.06
432.956	459.06
433.178	474.06
433.4	463.06
433.622	456.06
433.844	463.06
434.066	445.06
434.287	471.06
434.509	464.06
434.731	485.06
434.953	492.06
435.175	495.06
435.397	509.06
435.618	525.06
435.84	579.06
436.062	690.06
436.284	723.06
436.505	617.06
436.727	570.06
436.949	530.06
437.17	500.06
437.392	476.06
437.614	509.06
437.835	556.06
438.057	646.06
438.278	769.06
438.5	736.06
438.721	807.06
438.943	794.06
439.165	613.06
439.386	563.06
439.608	586.06
439.829	580.06
440.05	569.06
440.272	629.06
440.493	586.06
440.715	535.06
440.936	520.06
441.158	476.06
441.379	499.06
441.6	496.06
441.822	507.06
442.043	569.06
442.264	663.06
442.486	699.06
442.707	606.06
442.928	568.06
443.149	547.06
443.371	595.06
443.592	621.06
443.813	741.06
444.034	773.06
444.255	637.06
444.476	560.06
444.698	538.06
444.919	539.06
445.14	647.06
445.361	604.06
445.582	588.06
445.803	671.06
446.024	746.06
446.245	767.06
446.466	707.06
446.687	608.06
446.908	556.06
447.129	525.06
447.35	504.06
447.571	468.06
447.792	496.06
448.013	502.06
448.234	501.06
448.455	549.06
448.675	674.06
448.896	786.06
449.117	694.06
449.338	631.06
449.559	748.06
449.779	824.06
450	679.06
450.221	567.06
450.442	515.06
450.662	493.06
450.883	507.06
451.104	507.06
451.324	512.06
451.545	488.06
451.766	443.06
451.986	456.06
452.207	455.06
452.428	450.06
452.648	446.06
452.869	439.06
453.089	457.06
453.31	464.06
453.53	434.06
453.751	449.06
453.971	439.06
454.192	482.06
454.412	459.06
454.633	461.06
454.853	434.06
455.073	429.06
455.294	448.06
455.514	553.06
455.734	529.06
455.955	443.06
456.175	435.06
456.395	441.06
456.616	406.06
456.836	421.06
457.056	421.06
457.276	401.06
457.497	400.06
457.717	415.06
457.937	426.06
458.157	402.06
458.377	422.06
458.598	440.06
458.818	515.06
459.038	592.06
459.258	597.06
459.478	519.06
459.698	476.06
459.918	443.06
460.138	452.06
460.358	447.06
460.578	437.06
460.798	451.06
461.018	469.06
461.238	475.06
461.458	452.06
461.678	443.06
461.898	446.06
462.118	448.06
462.338	452.06
462.558	476.06
462.777	490.06
462.997	478.06
463.217	509.06
463.437	490.06
463.657	482.06
463.876	467.06
464.096	485.06
464.316	456.06
464.536	473.06
464.755	475.06
464.975	493.06
465.195	570.06
465.414	611.06
465.634	537.06
465.854	487.06
466.073	460.06
466.293	478.06
466.512	440.06
466.732	443.06
466.951	437.06
467.171	415.06
467.391	445.06
467.61	450.06
467.829	463.06
468.049	459.06
468.268	466.06
468.488	452.06
468.707	434.06
468.927	444.06
469.146	429.06
469.365	452.06
469.585	431.06
469.804	432.06
470.023	426.06
470.243	453.06
470.462	459.06
470.681	473.06
470.901	473.06
471.12	455.06
471.339	453.06
471.558	444.06
471.777	469.06
471.997	445.06
472.216	448.06
472.435	492.06
472.654	471.06
472.873	457.06
473.092	457.06
473.311	443.06
473.53	436.06
473.749	464.06
473.968	518.06
474.187	598.06
474.406	666.06
474.625	524.06
474.844	465.06
475.063	453.06
475.282	460.06
475.501	454.06
475.72	461.06
475.939	469.06
476.158	470.06
476.377	459.06
476.596	466.06
476.814	487.06
477.033	481.06
477.252	480.06
477.471	476.06
477.69	483.06
477.908	491.06
478.127	483.06
478.346	494.06
478.564	511.06
478.783	487.06
479.002	478.06
479.22	509.06
479.439	517.06
479.658	550.06
479.876	561.06
480.095	571.06
480.313	550.06
480.532	563.06
480.751	558.06
480.969	576.06
481.188	648.06
481.406	701.06
481.624	591.06
481.843	561.06
482.061	560.06
482.28	518.06
482.498	539.06
482.717	533.06
482.935	530.06
483.153	519.06
483.372	532.06
483.59	533.06
483.808	539.06
484.027	514.06
484.245	511.06
484.463	561.06
484.681	540.06
484.9	519.06
485.118	541.06
485.336	535.06
485.554	540.06
485.772	546.06
485.99	566.06
486.209	555.06
486.427	571.06
486.645	587.06
486.863	595.06
487.081	590.06
487.299	571.06
487.517	559.06
487.735	570.06
487.953	579.06
488.171	573.06
488.389	571.06
488.607	584.06
488.825	589.06
489.043	571.06
489.261	591.06
489.479	588.06
489.696	569.06
489.914	588.06
490.132	604.06
490.35	588.06
490.568	631.06
490.786	627.06
491.003	625.06
491.221	632.06
491.439	637.06
491.657	639.06
491.874	653.06
492.092	668.06
492.31	687.06
492.527	641.06
492.745	670.06
492.963	668.06
493.18	668.06
493.398	701.06
493.615	679.06
493.833	693.06
494.05	666.06
494.268	679.06
494.485	687.06
494.703	671.06
494.92	676.06
495.138	676.06
495.355	689.06
495.573	689.06
495.79	700.06
496.008	682.06
496.225	683.06
496.442	682.06
496.66	695.06
496.877	695.06
497.094	683.06
497.312	675.06
497.529	677.06
497.746	689.06
497.963	685.06
498.181	735.06
498.398	740.06
498.615	741.06
498.832	773.06
499.049	737.06
499.267	745.06
499.484	786.06
499.701	787.06
499.918	836.06
500.135	885.06
500.352	881.06
500.569	855.06
500.786	893.06
501.003	877.06
501.22	882.06
501.437	853.06
501.654	844.06
501.871	839.06
