Data from 1989.PennyLincolnUp.Lamp.En5.5.200Scan.071819.P2_HRD10591_17-24-11-973.txt Node
Date: Thu Jul 18 17:24:11 EDT 2019
User: cochatt
Spectrometer: HR+D1059
Trigger mode: 1
Integration Time (sec): 1.000000E-1
Scans to average: 1
Electric dark correction enabled: true
Nonlinearity correction enabled: false
Boxcar width: 0
XAxis mode: Wavelengths
Number of Pixels in Spectrum: 2048
>>>>>Begin Spectral Data<<<<<
223.165	-24.88
223.4	-24.88
223.635	-24.88
223.869	-13.88
224.104	-29.88
224.338	-4.88
224.573	-10.88
224.808	-9.88
225.042	0.12
225.277	-12.88
225.511	-6.88
225.746	-4.88
225.98	-1.88
226.215	13.12
226.449	17.12
226.683	21.12
226.918	32.12
227.152	37.12
227.387	37.12
227.621	24.12
227.856	39.12
228.09	49.12
228.324	48.12
228.559	43.12
228.793	55.12
229.027	90.12
229.262	101.12
229.496	106.12
229.73	137.12
229.964	158.12
230.199	140.12
230.433	124.12
230.667	108.12
230.901	119.12
231.136	105.12
231.37	106.12
231.604	117.12
231.838	117.12
232.072	104.12
232.306	117.12
232.541	121.12
232.775	116.12
233.009	102.12
233.243	122.12
233.477	112.12
233.711	110.12
233.945	110.12
234.179	113.12
234.413	110.12
234.647	117.12
234.881	112.12
235.115	112.12
235.349	106.12
235.583	125.12
235.817	127.12
236.051	130.12
236.285	125.12
236.519	122.12
236.753	120.12
236.987	149.12
237.221	196.12
237.455	241.12
237.689	196.12
237.922	127.12
238.156	143.12
238.39	127.12
238.624	122.12
238.858	124.12
239.091	128.12
239.325	141.12
239.559	134.12
239.793	123.12
240.027	131.12
240.26	147.12
240.494	166.12
240.728	133.12
240.961	128.12
241.195	137.12
241.429	151.12
241.662	136.12
241.896	143.12
242.13	141.12
242.363	139.12
242.597	134.12
242.83	151.12
243.064	155.12
243.298	125.12
243.531	145.12
243.765	132.12
243.998	156.12
244.232	133.12
244.465	144.12
244.699	137.12
244.932	143.12
245.166	143.12
245.399	142.12
245.633	147.12
245.866	144.12
246.099	144.12
246.333	150.12
246.566	156.12
246.8	154.12
247.033	166.12
247.266	157.12
247.5	156.12
247.733	175.12
247.966	179.12
248.2	165.12
248.433	183.12
248.666	189.12
248.899	193.12
249.133	197.12
249.366	221.12
249.599	205.12
249.832	193.12
250.066	189.12
250.299	190.12
250.532	202.12
250.765	214.12
250.998	228.12
251.231	225.12
251.465	223.12
251.698	213.12
251.931	220.12
252.164	199.12
252.397	205.12
252.63	233.12
252.863	200.12
253.096	222.12
253.329	246.12
253.562	247.12
253.795	230.12
254.028	246.12
254.261	247.12
254.494	229.12
254.727	273.12
254.96	285.12
255.193	294.12
255.426	263.12
255.659	261.12
255.892	244.12
256.124	215.12
256.357	239.12
256.59	218.12
256.823	223.12
257.056	225.12
257.289	233.12
257.521	211.12
257.754	220.12
257.987	232.12
258.22	224.12
258.452	214.12
258.685	224.12
258.918	227.12
259.151	228.12
259.383	241.12
259.616	239.12
259.849	253.12
260.081	247.12
260.314	261.12
260.547	275.12
260.779	249.12
261.012	262.12
261.244	256.12
261.477	244.12
261.71	248.12
261.942	251.12
262.175	247.12
262.407	259.12
262.64	229.12
262.872	225.12
263.105	231.12
263.337	228.12
263.57	221.12
263.802	229.12
264.035	227.12
264.267	244.12
264.499	220.12
264.732	212.12
264.964	229.12
265.197	220.12
265.429	231.12
265.661	214.12
265.894	223.12
266.126	231.12
266.358	222.12
266.591	233.12
266.823	231.12
267.055	256.12
267.287	253.12
267.52	247.12
267.752	233.12
267.984	248.12
268.216	247.12
268.448	239.12
268.681	251.12
268.913	237.12
269.145	256.12
269.377	306.12
269.609	271.12
269.841	282.12
270.073	294.12
270.306	319.12
270.538	345.12
270.77	351.12
271.002	312.12
271.234	308.12
271.466	314.12
271.698	356.12
271.93	316.12
272.162	344.12
272.394	351.12
272.626	332.12
272.858	312.12
273.09	302.12
273.322	308.12
273.553	281.12
273.785	282.12
274.017	288.12
274.249	290.12
274.481	281.12
274.713	270.12
274.945	294.12
275.176	295.12
275.408	290.12
275.64	271.12
275.872	288.12
276.104	303.12
276.335	289.12
276.567	289.12
276.799	282.12
277.031	323.12
277.262	339.12
277.494	335.12
277.726	329.12
277.957	315.12
278.189	302.12
278.421	285.12
278.652	296.12
278.884	275.12
279.115	278.12
279.347	304.12
279.579	271.12
279.81	289.12
280.042	259.12
280.273	275.12
280.505	268.12
280.736	270.12
280.968	285.12
281.199	282.12
281.431	285.12
281.662	286.12
281.894	270.12
282.125	302.12
282.356	299.12
282.588	303.12
282.819	341.12
283.051	290.12
283.282	270.12
283.513	281.12
283.745	290.12
283.976	303.12
284.207	294.12
284.439	292.12
284.67	293.12
284.901	312.12
285.132	291.12
285.364	287.12
285.595	287.12
285.826	287.12
286.057	293.12
286.288	294.12
286.52	302.12
286.751	291.12
286.982	307.12
287.213	287.12
287.444	289.12
287.675	291.12
287.906	310.12
288.138	314.12
288.369	319.12
288.6	329.12
288.831	313.12
289.062	325.12
289.293	308.12
289.524	298.12
289.755	305.12
289.986	311.12
290.217	307.12
290.448	297.12
290.679	307.12
290.91	318.12
291.141	296.12
291.371	295.12
291.602	299.12
291.833	301.12
292.064	306.12
292.295	303.12
292.526	311.12
292.757	281.12
292.987	285.12
293.218	317.12
293.449	317.12
293.68	291.12
293.91	297.12
294.141	295.12
294.372	303.12
294.603	307.12
294.833	314.12
295.064	288.12
295.295	319.12
295.525	307.12
295.756	299.12
295.987	335.12
296.217	336.12
296.448	359.12
296.679	332.12
296.909	324.12
297.14	311.12
297.37	294.12
297.601	319.12
297.831	313.12
298.062	291.12
298.292	311.12
298.523	315.12
298.753	325.12
298.984	303.12
299.214	321.12
299.445	313.12
299.675	321.12
299.905	302.12
300.136	319.12
300.366	319.12
300.597	300.12
300.827	311.12
301.057	318.12
301.288	341.12
301.518	342.12
301.748	336.12
301.979	343.12
302.209	336.12
302.439	357.12
302.669	334.12
302.9	336.12
303.13	335.12
303.36	325.12
303.59	336.12
303.82	367.12
304.051	347.12
304.281	322.12
304.511	344.12
304.741	317.12
304.971	322.12
305.201	335.12
305.431	334.12
305.661	342.12
305.891	357.12
306.121	346.12
306.352	345.12
306.582	349.12
306.812	339.12
307.042	336.12
307.272	375.12
307.502	345.12
307.731	352.12
307.961	355.12
308.191	332.12
308.421	361.12
308.651	355.12
308.881	364.12
309.111	362.12
309.341	353.12
309.571	354.12
309.8	374.12
310.03	388.12
310.26	411.12
310.49	391.12
310.72	399.12
310.949	425.12
311.179	408.12
311.409	418.12
311.639	387.12
311.868	389.12
312.098	405.12
312.328	392.12
312.557	429.12
312.787	440.12
313.017	447.12
313.246	412.12
313.476	391.12
313.706	405.12
313.935	401.12
314.165	420.12
314.394	407.12
314.624	420.12
314.853	402.12
315.083	408.12
315.312	398.12
315.542	359.12
315.771	376.12
316.001	383.12
316.23	374.12
316.46	392.12
316.689	403.12
316.919	403.12
317.148	407.12
317.377	397.12
317.607	381.12
317.836	398.12
318.065	382.12
318.295	395.12
318.524	398.12
318.753	379.12
318.983	399.12
319.212	386.12
319.441	411.12
319.67	410.12
319.9	402.12
320.129	410.12
320.358	409.12
320.587	403.12
320.816	395.12
321.046	426.12
321.275	410.12
321.504	427.12
321.733	415.12
321.962	434.12
322.191	461.12
322.42	454.12
322.649	457.12
322.878	484.12
323.108	474.12
323.337	515.12
323.566	538.12
323.795	564.12
324.024	637.12
324.253	775.12
324.482	1113.12
324.71	1669.12
324.939	2444.12
325.168	2057.12
325.397	1085.12
325.626	719.12
325.855	604.12
326.084	536.12
326.313	545.12
326.542	544.12
326.77	605.12
326.999	716.12
327.228	976.12
327.457	1509.12
327.686	1797.12
327.914	1230.12
328.143	790.12
328.372	679.12
328.6	626.12
328.829	606.12
329.058	615.12
329.287	630.12
329.515	586.12
329.744	533.12
329.972	506.12
330.201	515.12
330.43	554.12
330.658	606.12
330.887	636.12
331.115	626.12
331.344	554.12
331.572	520.12
331.801	498.12
332.03	512.12
332.258	474.12
332.486	473.12
332.715	469.12
332.943	462.12
333.172	462.12
333.4	473.12
333.629	452.12
333.857	469.12
334.085	480.12
334.314	489.12
334.542	471.12
334.771	479.12
334.999	467.12
335.227	483.12
335.455	472.12
335.684	469.12
335.912	439.12
336.14	433.12
336.369	446.12
336.597	452.12
336.825	445.12
337.053	449.12
337.281	453.12
337.51	442.12
337.738	456.12
337.966	463.12
338.194	456.12
338.422	471.12
338.65	450.12
338.878	443.12
339.106	455.12
339.334	415.12
339.562	442.12
339.79	431.12
340.018	464.12
340.246	449.12
340.474	435.12
340.702	428.12
340.93	426.12
341.158	410.12
341.386	435.12
341.614	439.12
341.842	442.12
342.07	436.12
342.298	423.12
342.526	422.12
342.754	424.12
342.981	406.12
343.209	412.12
343.437	422.12
343.665	441.12
343.893	462.12
344.12	449.12
344.348	423.12
344.576	430.12
344.804	459.12
345.031	448.12
345.259	477.12
345.487	438.12
345.714	426.12
345.942	406.12
346.17	415.12
346.397	426.12
346.625	413.12
346.853	429.12
347.08	430.12
347.308	428.12
347.535	433.12
347.763	435.12
347.99	441.12
348.218	441.12
348.445	422.12
348.673	455.12
348.9	423.12
349.128	413.12
349.355	410.12
349.583	401.12
349.81	411.12
350.037	404.12
350.265	385.12
350.492	401.12
350.72	415.12
350.947	410.12
351.174	439.12
351.402	458.12
351.629	418.12
351.856	430.12
352.083	427.12
352.311	457.12
352.538	429.12
352.765	448.12
352.992	433.12
353.22	419.12
353.447	424.12
353.674	421.12
353.901	396.12
354.128	383.12
354.355	402.12
354.583	381.12
354.81	397.12
355.037	393.12
355.264	387.12
355.491	388.12
355.718	401.12
355.945	380.12
356.172	381.12
356.399	383.12
356.626	390.12
356.853	393.12
357.08	377.12
357.307	393.12
357.534	391.12
357.761	393.12
357.988	405.12
358.215	394.12
358.441	381.12
358.668	406.12
358.895	396.12
359.122	406.12
359.349	398.12
359.576	401.12
359.802	463.12
360.029	466.12
360.256	480.12
360.483	433.12
360.709	418.12
360.936	416.12
361.163	399.12
361.39	424.12
361.616	421.12
361.843	413.12
362.07	404.12
362.296	418.12
362.523	431.12
362.749	391.12
362.976	425.12
363.203	422.12
363.429	397.12
363.656	390.12
363.882	411.12
364.109	400.12
364.335	388.12
364.562	378.12
364.788	399.12
365.015	395.12
365.241	383.12
365.468	399.12
365.694	385.12
365.92	397.12
366.147	402.12
366.373	392.12
366.599	392.12
366.826	384.12
367.052	385.12
367.278	390.12
367.505	379.12
367.731	396.12
367.957	383.12
368.184	389.12
368.41	369.12
368.636	409.12
368.862	408.12
369.089	401.12
369.315	390.12
369.541	375.12
369.767	381.12
369.993	387.12
370.219	395.12
370.445	389.12
370.672	391.12
370.898	389.12
371.124	372.12
371.35	395.12
371.576	378.12
371.802	374.12
372.028	364.12
372.254	393.12
372.48	415.12
372.706	395.12
372.932	372.12
373.158	378.12
373.384	407.12
373.61	392.12
373.835	385.12
374.061	379.12
374.287	389.12
374.513	394.12
374.739	390.12
374.965	389.12
375.191	390.12
375.416	402.12
375.642	407.12
375.868	407.12
376.094	387.12
376.319	378.12
376.545	383.12
376.771	371.12
376.997	385.12
377.222	374.12
377.448	382.12
377.674	366.12
377.899	379.12
378.125	390.12
378.35	394.12
378.576	376.12
378.802	360.12
379.027	369.12
379.253	393.12
379.478	389.12
379.704	358.12
379.929	373.12
380.155	387.12
380.38	371.12
380.606	395.12
380.831	366.12
381.057	383.12
381.282	390.12
381.507	377.12
381.733	384.12
381.958	397.12
382.184	401.12
382.409	370.12
382.634	403.12
382.86	373.12
383.085	391.12
383.31	384.12
383.535	395.12
383.761	396.12
383.986	393.12
384.211	383.12
384.436	380.12
384.662	399.12
384.887	394.12
385.112	402.12
385.337	400.12
385.562	393.12
385.787	402.12
386.013	420.12
386.238	405.12
386.463	423.12
386.688	385.12
386.913	385.12
387.138	393.12
387.363	393.12
387.588	403.12
387.813	393.12
388.038	409.12
388.263	424.12
388.488	410.12
388.713	397.12
388.938	401.12
389.163	405.12
389.387	415.12
389.612	403.12
389.837	406.12
390.062	407.12
390.287	406.12
390.512	398.12
390.736	411.12
390.961	389.12
391.186	427.12
391.411	402.12
391.636	385.12
391.86	423.12
392.085	414.12
392.31	401.12
392.534	414.12
392.759	413.12
392.984	390.12
393.208	419.12
393.433	408.12
393.658	395.12
393.882	414.12
394.107	418.12
394.331	409.12
394.556	396.12
394.78	390.12
395.005	406.12
395.229	422.12
395.454	397.12
395.678	445.12
395.903	440.12
396.127	443.12
396.352	450.12
396.576	435.12
396.801	416.12
397.025	419.12
397.249	424.12
397.474	435.12
397.698	423.12
397.922	447.12
398.147	436.12
398.371	457.12
398.595	452.12
398.82	435.12
399.044	474.12
399.268	474.12
399.492	473.12
399.717	514.12
399.941	541.12
400.165	545.12
400.389	572.12
400.613	515.12
400.837	480.12
401.062	465.12
401.286	462.12
401.51	444.12
401.734	442.12
401.958	456.12
402.182	467.12
402.406	480.12
402.63	481.12
402.854	478.12
403.078	465.12
403.302	453.12
403.526	453.12
403.75	481.12
403.974	474.12
404.198	471.12
404.422	477.12
404.645	463.12
404.869	467.12
405.093	498.12
405.317	515.12
405.541	549.12
405.765	529.12
405.988	495.12
406.212	500.12
406.436	527.12
406.66	507.12
406.883	513.12
407.107	530.12
407.331	549.12
407.555	629.12
407.778	620.12
408.002	558.12
408.226	533.12
408.449	513.12
408.673	508.12
408.896	547.12
409.12	581.12
409.344	547.12
409.567	500.12
409.791	486.12
410.014	463.12
410.238	463.12
410.461	486.12
410.685	485.12
410.908	493.12
411.132	521.12
411.355	554.12
411.578	534.12
411.802	491.12
412.025	463.12
412.249	444.12
412.472	505.12
412.695	492.12
412.919	485.12
413.142	452.12
413.365	471.12
413.589	443.12
413.812	425.12
414.035	438.12
414.258	444.12
414.482	438.12
414.705	429.12
414.928	425.12
415.151	433.12
415.374	448.12
415.597	443.12
415.821	434.12
416.044	439.12
416.267	457.12
416.49	424.12
416.713	440.12
416.936	450.12
417.159	442.12
417.382	463.12
417.605	450.12
417.828	445.12
418.051	465.12
418.274	459.12
418.497	445.12
418.72	450.12
418.943	438.12
419.166	458.12
419.389	464.12
419.611	485.12
419.834	454.12
420.057	472.12
420.28	455.12
420.503	459.12
420.726	448.12
420.948	490.12
421.171	536.12
421.394	541.12
421.617	494.12
421.839	488.12
422.062	479.12
422.285	485.12
422.507	542.12
422.73	614.12
422.953	581.12
423.175	516.12
423.398	512.12
423.621	482.12
423.843	531.12
424.066	511.12
424.288	503.12
424.511	534.12
424.733	572.12
424.956	657.12
425.178	596.12
425.401	614.12
425.623	621.12
425.846	570.12
426.068	510.12
426.291	496.12
426.513	513.12
426.735	549.12
426.958	560.12
427.18	621.12
427.402	791.12
427.625	831.12
427.847	738.12
428.069	617.12
428.292	559.12
428.514	542.12
428.736	490.12
428.958	486.12
429.181	478.12
429.403	488.12
429.625	481.12
429.847	520.12
430.069	554.12
430.292	571.12
430.514	488.12
430.736	457.12
430.958	467.12
431.18	433.12
431.402	445.12
431.624	442.12
431.846	441.12
432.068	450.12
432.29	449.12
432.512	458.12
432.734	456.12
432.956	452.12
433.178	477.12
433.4	448.12
433.622	441.12
433.844	439.12
434.066	451.12
434.287	435.12
434.509	451.12
434.731	455.12
434.953	472.12
435.175	487.12
435.397	517.12
435.618	530.12
435.84	555.12
436.062	635.12
436.284	728.12
436.505	595.12
436.727	537.12
436.949	479.12
437.17	461.12
437.392	482.12
437.614	469.12
437.835	523.12
438.057	637.12
438.278	743.12
438.5	740.12
438.721	788.12
438.943	753.12
439.165	586.12
439.386	550.12
439.608	545.12
439.829	516.12
440.05	554.12
440.272	588.12
440.493	557.12
440.715	526.12
440.936	474.12
441.158	483.12
441.379	480.12
441.6	480.12
441.822	522.12
442.043	576.12
442.264	621.12
442.486	697.12
442.707	552.12
442.928	547.12
443.149	527.12
443.371	564.12
443.592	586.12
443.813	678.12
444.034	727.12
444.255	601.12
444.476	552.12
444.698	504.12
444.919	522.12
445.14	573.12
445.361	557.12
445.582	557.12
445.803	615.12
446.024	705.12
446.245	732.12
446.466	701.12
446.687	568.12
446.908	517.12
447.129	467.12
447.35	474.12
447.571	484.12
447.792	462.12
448.013	475.12
448.234	490.12
448.455	544.12
448.675	675.12
448.896	769.12
449.117	651.12
449.338	606.12
449.559	742.12
449.779	824.12
450	660.12
450.221	535.12
450.442	505.12
450.662	484.12
450.883	486.12
451.104	504.12
451.324	478.12
451.545	480.12
451.766	446.12
451.986	429.12
452.207	434.12
452.428	434.12
452.648	427.12
452.869	421.12
453.089	463.12
453.31	464.12
453.53	444.12
453.751	429.12
453.971	437.12
454.192	446.12
454.412	451.12
454.633	433.12
454.853	439.12
455.073	431.12
455.294	465.12
455.514	521.12
455.734	490.12
455.955	418.12
456.175	403.12
456.395	410.12
456.616	383.12
456.836	399.12
457.056	403.12
457.276	391.12
457.497	390.12
457.717	398.12
457.937	406.12
458.157	391.12
458.377	426.12
458.598	441.12
458.818	468.12
459.038	577.12
459.258	604.12
459.478	485.12
459.698	459.12
459.918	447.12
460.138	444.12
460.358	458.12
460.578	465.12
460.798	434.12
461.018	454.12
461.238	421.12
461.458	424.12
461.678	433.12
461.898	445.12
462.118	442.12
462.338	433.12
462.558	439.12
462.777	437.12
462.997	466.12
463.217	443.12
463.437	477.12
463.657	474.12
463.876	465.12
464.096	461.12
464.316	466.12
464.536	469.12
464.755	468.12
464.975	476.12
465.195	515.12
465.414	613.12
465.634	529.12
465.854	490.12
466.073	442.12
466.293	438.12
466.512	426.12
466.732	442.12
466.951	422.12
467.171	409.12
467.391	437.12
467.61	446.12
467.829	457.12
468.049	422.12
468.268	397.12
468.488	414.12
468.707	402.12
468.927	393.12
469.146	418.12
469.365	401.12
469.585	407.12
469.804	439.12
470.023	433.12
470.243	427.12
470.462	433.12
470.681	445.12
470.901	450.12
471.12	434.12
471.339	442.12
471.558	447.12
471.777	412.12
471.997	411.12
472.216	438.12
472.435	414.12
472.654	438.12
472.873	424.12
473.092	418.12
473.311	424.12
473.53	435.12
473.749	440.12
473.968	499.12
474.187	578.12
474.406	592.12
474.625	486.12
474.844	450.12
475.063	462.12
475.282	429.12
475.501	437.12
475.72	436.12
475.939	446.12
476.158	457.12
476.377	451.12
476.596	466.12
476.814	452.12
477.033	464.12
477.252	449.12
477.471	440.12
477.69	467.12
477.908	458.12
478.127	473.12
478.346	486.12
478.564	464.12
478.783	477.12
479.002	484.12
479.22	486.12
479.439	500.12
479.658	526.12
479.876	508.12
480.095	508.12
480.313	541.12
480.532	529.12
480.751	517.12
480.969	513.12
481.188	529.12
481.406	537.12
481.624	520.12
481.843	487.12
482.061	482.12
482.28	489.12
482.498	480.12
482.717	513.12
482.935	493.12
483.153	477.12
483.372	505.12
483.59	495.12
483.808	487.12
484.027	495.12
484.245	519.12
484.463	521.12
484.681	533.12
484.9	515.12
485.118	517.12
485.336	517.12
485.554	521.12
485.772	527.12
485.99	506.12
486.209	515.12
486.427	551.12
486.645	517.12
486.863	548.12
487.081	559.12
487.299	557.12
487.517	549.12
487.735	551.12
487.953	568.12
488.171	543.12
488.389	544.12
488.607	567.12
488.825	542.12
489.043	564.12
489.261	552.12
489.479	570.12
489.696	548.12
489.914	531.12
490.132	582.12
490.35	576.12
490.568	586.12
490.786	607.12
491.003	586.12
491.221	599.12
491.439	597.12
491.657	638.12
491.874	605.12
492.092	618.12
492.31	624.12
492.527	612.12
492.745	623.12
492.963	650.12
493.18	633.12
493.398	625.12
493.615	635.12
493.833	633.12
494.05	651.12
494.268	626.12
494.485	641.12
494.703	650.12
494.92	655.12
495.138	644.12
495.355	651.12
495.573	642.12
495.79	644.12
496.008	644.12
496.225	635.12
496.442	651.12
496.66	656.12
496.877	645.12
497.094	660.12
497.312	671.12
497.529	673.12
497.746	679.12
497.963	675.12
498.181	696.12
498.398	689.12
498.615	692.12
498.832	716.12
499.049	734.12
499.267	722.12
499.484	773.12
499.701	765.12
499.918	813.12
500.135	817.12
500.352	826.12
500.569	865.12
500.786	850.12
501.003	843.12
501.22	836.12
501.437	820.12
501.654	800.12
501.871	806.12
