Data from 1989.PennyLincolnUp.Lamp.En5.5.200Scan.071819.P2_HRD10591_17-25-21-974.txt Node
Date: Thu Jul 18 17:25:21 EDT 2019
User: cochatt
Spectrometer: HR+D1059
Trigger mode: 1
Integration Time (sec): 1.000000E-1
Scans to average: 1
Electric dark correction enabled: true
Nonlinearity correction enabled: false
Boxcar width: 0
XAxis mode: Wavelengths
Number of Pixels in Spectrum: 2048
>>>>>Begin Spectral Data<<<<<
223.165	-15.19
223.4	-15.19
223.635	-15.19
223.869	-16.19
224.104	-19.19
224.338	-1.19
224.573	-5.19
224.808	-19.19
225.042	-0.19
225.277	-18.19
225.511	5.81
225.746	2.81
225.98	10.81
226.215	14.81
226.449	14.81
226.683	4.81
226.918	16.81
227.152	23.81
227.387	50.81
227.621	32.81
227.856	32.81
228.09	44.81
228.324	39.81
228.559	51.81
228.793	67.81
229.027	111.81
229.262	106.81
229.496	92.81
229.73	142.81
229.964	156.81
230.199	146.81
230.433	123.81
230.667	116.81
230.901	119.81
231.136	104.81
231.37	105.81
231.604	116.81
231.838	125.81
232.072	127.81
232.306	128.81
232.541	106.81
232.775	115.81
233.009	123.81
233.243	96.81
233.477	107.81
233.711	113.81
233.945	117.81
234.179	139.81
234.413	121.81
234.647	130.81
234.881	135.81
235.115	122.81
235.349	139.81
235.583	124.81
235.817	133.81
236.051	120.81
236.285	143.81
236.519	135.81
236.753	135.81
236.987	156.81
237.221	184.81
237.455	251.81
237.689	186.81
237.922	158.81
238.156	142.81
238.39	141.81
238.624	125.81
238.858	127.81
239.091	131.81
239.325	128.81
239.559	133.81
239.793	143.81
240.027	144.81
240.26	137.81
240.494	164.81
240.728	171.81
240.961	162.81
241.195	146.81
241.429	147.81
241.662	145.81
241.896	141.81
242.13	141.81
242.363	130.81
242.597	150.81
242.83	146.81
243.064	151.81
243.298	151.81
243.531	147.81
243.765	142.81
243.998	147.81
244.232	160.81
244.465	154.81
244.699	163.81
244.932	149.81
245.166	149.81
245.399	134.81
245.633	161.81
245.866	144.81
246.099	144.81
246.333	157.81
246.566	161.81
246.8	157.81
247.033	164.81
247.266	164.81
247.5	186.81
247.733	175.81
247.966	187.81
248.2	185.81
248.433	185.81
248.666	193.81
248.899	212.81
249.133	216.81
249.366	215.81
249.599	224.81
249.832	202.81
250.066	199.81
250.299	212.81
250.532	232.81
250.765	236.81
250.998	241.81
251.231	257.81
251.465	237.81
251.698	225.81
251.931	228.81
252.164	204.81
252.397	221.81
252.63	213.81
252.863	215.81
253.096	229.81
253.329	259.81
253.562	245.81
253.795	251.81
254.028	232.81
254.261	237.81
254.494	246.81
254.727	297.81
254.96	313.81
255.193	308.81
255.426	267.81
255.659	282.81
255.892	246.81
256.124	261.81
256.357	267.81
256.59	263.81
256.823	234.81
257.056	230.81
257.289	218.81
257.521	244.81
257.754	232.81
257.987	230.81
258.22	247.81
258.452	242.81
258.685	240.81
258.918	236.81
259.151	245.81
259.383	245.81
259.616	259.81
259.849	242.81
260.081	263.81
260.314	282.81
260.547	289.81
260.779	266.81
261.012	267.81
261.244	252.81
261.477	245.81
261.71	259.81
261.942	253.81
262.175	257.81
262.407	276.81
262.64	249.81
262.872	240.81
263.105	234.81
263.337	241.81
263.57	228.81
263.802	248.81
264.035	241.81
264.267	230.81
264.499	231.81
264.732	239.81
264.964	231.81
265.197	232.81
265.429	242.81
265.661	242.81
265.894	228.81
266.126	244.81
266.358	214.81
266.591	249.81
266.823	262.81
267.055	245.81
267.287	266.81
267.52	253.81
267.752	250.81
267.984	268.81
268.216	269.81
268.448	253.81
268.681	276.81
268.913	263.81
269.145	300.81
269.377	321.81
269.609	321.81
269.841	294.81
270.073	323.81
270.306	316.81
270.538	356.81
270.77	362.81
271.002	336.81
271.234	328.81
271.466	353.81
271.698	355.81
271.93	370.81
272.162	367.81
272.394	355.81
272.626	363.81
272.858	334.81
273.09	311.81
273.322	306.81
273.553	305.81
273.785	327.81
274.017	305.81
274.249	290.81
274.481	292.81
274.713	308.81
274.945	303.81
275.176	304.81
275.408	292.81
275.64	300.81
275.872	312.81
276.104	298.81
276.335	280.81
276.567	298.81
276.799	312.81
277.031	362.81
277.262	355.81
277.494	349.81
277.726	362.81
277.957	327.81
278.189	314.81
278.421	313.81
278.652	324.81
278.884	295.81
279.115	293.81
279.347	295.81
279.579	299.81
279.81	294.81
280.042	292.81
280.273	305.81
280.505	303.81
280.736	300.81
280.968	287.81
281.199	304.81
281.431	308.81
281.662	300.81
281.894	310.81
282.125	287.81
282.356	321.81
282.588	329.81
282.819	340.81
283.051	312.81
283.282	307.81
283.513	299.81
283.745	284.81
283.976	316.81
284.207	298.81
284.439	299.81
284.67	301.81
284.901	320.81
285.132	298.81
285.364	305.81
285.595	309.81
285.826	300.81
286.057	304.81
286.288	305.81
286.52	315.81
286.751	300.81
286.982	311.81
287.213	288.81
287.444	315.81
287.675	306.81
287.906	323.81
288.138	340.81
288.369	339.81
288.6	312.81
288.831	314.81
289.062	335.81
289.293	332.81
289.524	314.81
289.755	315.81
289.986	311.81
290.217	320.81
290.448	311.81
290.679	311.81
290.91	308.81
291.141	323.81
291.371	321.81
291.602	317.81
291.833	299.81
292.064	316.81
292.295	321.81
292.526	308.81
292.757	325.81
292.987	322.81
293.218	336.81
293.449	307.81
293.68	311.81
293.91	292.81
294.141	328.81
294.372	298.81
294.603	298.81
294.833	308.81
295.064	319.81
295.295	308.81
295.525	315.81
295.756	311.81
295.987	335.81
296.217	344.81
296.448	367.81
296.679	360.81
296.909	313.81
297.14	314.81
297.37	322.81
297.601	314.81
297.831	333.81
298.062	318.81
298.292	317.81
298.523	324.81
298.753	341.81
298.984	322.81
299.214	326.81
299.445	323.81
299.675	336.81
299.905	339.81
300.136	343.81
300.366	355.81
300.597	333.81
300.827	333.81
301.057	332.81
301.288	365.81
301.518	361.81
301.748	353.81
301.979	369.81
302.209	364.81
302.439	338.81
302.669	345.81
302.9	356.81
303.13	362.81
303.36	343.81
303.59	355.81
303.82	377.81
304.051	376.81
304.281	355.81
304.511	359.81
304.741	352.81
304.971	367.81
305.201	362.81
305.431	353.81
305.661	360.81
305.891	348.81
306.121	356.81
306.352	379.81
306.582	369.81
306.812	379.81
307.042	367.81
307.272	356.81
307.502	357.81
307.731	348.81
307.961	365.81
308.191	371.81
308.421	375.81
308.651	356.81
308.881	377.81
309.111	379.81
309.341	377.81
309.571	382.81
309.8	405.81
310.03	394.81
310.26	407.81
310.49	430.81
310.72	411.81
310.949	431.81
311.179	431.81
311.409	419.81
311.639	449.81
311.868	425.81
312.098	399.81
312.328	432.81
312.557	456.81
312.787	451.81
313.017	444.81
313.246	429.81
313.476	424.81
313.706	412.81
313.935	431.81
314.165	432.81
314.394	457.81
314.624	445.81
314.853	425.81
315.083	411.81
315.312	415.81
315.542	417.81
315.771	407.81
316.001	402.81
316.23	405.81
316.46	417.81
316.689	409.81
316.919	423.81
317.148	424.81
317.377	435.81
317.607	434.81
317.836	417.81
318.065	421.81
318.295	400.81
318.524	392.81
318.753	407.81
318.983	411.81
319.212	404.81
319.441	428.81
319.67	435.81
319.9	423.81
320.129	416.81
320.358	436.81
320.587	427.81
320.816	420.81
321.046	450.81
321.275	439.81
321.504	455.81
321.733	457.81
321.962	453.81
322.191	480.81
322.42	474.81
322.649	515.81
322.878	523.81
323.108	525.81
323.337	567.81
323.566	590.81
323.795	629.81
324.024	673.81
324.253	831.81
324.482	1220.81
324.71	1844.81
324.939	2660.81
325.168	2312.81
325.397	1190.81
325.626	785.81
325.855	644.81
326.084	586.81
326.313	591.81
326.542	588.81
326.77	651.81
326.999	787.81
327.228	1062.81
327.457	1627.81
327.686	2004.81
327.914	1307.81
328.143	848.81
328.372	729.81
328.6	676.81
328.829	640.81
329.058	661.81
329.287	655.81
329.515	634.81
329.744	583.81
329.972	599.81
330.201	602.81
330.43	635.81
330.658	672.81
330.887	695.81
331.115	681.81
331.344	611.81
331.572	563.81
331.801	553.81
332.03	571.81
332.258	530.81
332.486	500.81
332.715	496.81
332.943	497.81
333.172	484.81
333.4	488.81
333.629	506.81
333.857	539.81
334.085	553.81
334.314	539.81
334.542	552.81
334.771	597.81
334.999	523.81
335.227	523.81
335.455	509.81
335.684	491.81
335.912	499.81
336.14	486.81
336.369	470.81
336.597	501.81
336.825	475.81
337.053	467.81
337.281	472.81
337.51	458.81
337.738	469.81
337.966	460.81
338.194	489.81
338.422	462.81
338.65	484.81
338.878	473.81
339.106	441.81
339.334	457.81
339.562	481.81
339.79	458.81
340.018	465.81
340.246	454.81
340.474	473.81
340.702	488.81
340.93	464.81
341.158	464.81
341.386	463.81
341.614	454.81
341.842	457.81
342.07	453.81
342.298	446.81
342.526	435.81
342.754	447.81
342.981	450.81
343.209	430.81
343.437	437.81
343.665	450.81
343.893	461.81
344.12	461.81
344.348	436.81
344.576	464.81
344.804	487.81
345.031	473.81
345.259	497.81
345.487	486.81
345.714	467.81
345.942	452.81
346.17	453.81
346.397	433.81
346.625	452.81
346.853	429.81
347.08	444.81
347.308	431.81
347.535	453.81
347.763	453.81
347.99	466.81
348.218	453.81
348.445	466.81
348.673	456.81
348.9	453.81
349.128	419.81
349.355	419.81
349.583	424.81
349.81	407.81
350.037	401.81
350.265	426.81
350.492	413.81
350.72	421.81
350.947	427.81
351.174	426.81
351.402	454.81
351.629	458.81
351.856	473.81
352.083	451.81
352.311	464.81
352.538	485.81
352.765	466.81
352.992	457.81
353.22	442.81
353.447	439.81
353.674	443.81
353.901	431.81
354.128	420.81
354.355	421.81
354.583	407.81
354.81	401.81
355.037	404.81
355.264	405.81
355.491	382.81
355.718	405.81
355.945	396.81
356.172	391.81
356.399	385.81
356.626	400.81
356.853	394.81
357.08	397.81
357.307	387.81
357.534	409.81
357.761	402.81
357.988	383.81
358.215	391.81
358.441	397.81
358.668	410.81
358.895	385.81
359.122	401.81
359.349	424.81
359.576	427.81
359.802	459.81
360.029	483.81
360.256	508.81
360.483	477.81
360.709	445.81
360.936	433.81
361.163	448.81
361.39	455.81
361.616	444.81
361.843	436.81
362.07	424.81
362.296	438.81
362.523	447.81
362.749	427.81
362.976	420.81
363.203	416.81
363.429	411.81
363.656	419.81
363.882	404.81
364.109	392.81
364.335	391.81
364.562	414.81
364.788	397.81
365.015	398.81
365.241	415.81
365.468	421.81
365.694	417.81
365.92	423.81
366.147	420.81
366.373	412.81
366.599	396.81
366.826	382.81
367.052	411.81
367.278	387.81
367.505	398.81
367.731	402.81
367.957	388.81
368.184	412.81
368.41	412.81
368.636	444.81
368.862	441.81
369.089	424.81
369.315	411.81
369.541	404.81
369.767	405.81
369.993	390.81
370.219	395.81
370.445	400.81
370.672	385.81
370.898	404.81
371.124	412.81
371.35	408.81
371.576	400.81
371.802	392.81
372.028	396.81
372.254	410.81
372.48	393.81
372.706	394.81
372.932	396.81
373.158	400.81
373.384	412.81
373.61	398.81
373.835	400.81
374.061	411.81
374.287	410.81
374.513	398.81
374.739	401.81
374.965	396.81
375.191	397.81
375.416	395.81
375.642	403.81
375.868	411.81
376.094	400.81
376.319	385.81
376.545	399.81
376.771	393.81
376.997	389.81
377.222	407.81
377.448	385.81
377.674	396.81
377.899	385.81
378.125	374.81
378.35	397.81
378.576	403.81
378.802	379.81
379.027	404.81
379.253	394.81
379.478	384.81
379.704	387.81
379.929	386.81
380.155	386.81
380.38	401.81
380.606	392.81
380.831	394.81
381.057	396.81
381.282	395.81
381.507	376.81
381.733	379.81
381.958	388.81
382.184	401.81
382.409	409.81
382.634	402.81
382.86	402.81
383.085	383.81
383.31	386.81
383.535	399.81
383.761	389.81
383.986	393.81
384.211	394.81
384.436	416.81
384.662	415.81
384.887	423.81
385.112	395.81
385.337	388.81
385.562	404.81
385.787	403.81
386.013	413.81
386.238	437.81
386.463	420.81
386.688	409.81
386.913	412.81
387.138	421.81
387.363	430.81
387.588	433.81
387.813	406.81
388.038	401.81
388.263	420.81
388.488	415.81
388.713	426.81
388.938	411.81
389.163	432.81
389.387	423.81
389.612	417.81
389.837	407.81
390.062	407.81
390.287	409.81
390.512	390.81
390.736	400.81
390.961	423.81
391.186	422.81
391.411	426.81
391.636	419.81
391.86	400.81
392.085	429.81
392.31	411.81
392.534	437.81
392.759	418.81
392.984	413.81
393.208	420.81
393.433	405.81
393.658	420.81
393.882	418.81
394.107	428.81
394.331	399.81
394.556	431.81
394.78	429.81
395.005	419.81
395.229	423.81
395.454	439.81
395.678	445.81
395.903	422.81
396.127	445.81
396.352	446.81
396.576	465.81
396.801	441.81
397.025	447.81
397.249	442.81
397.474	461.81
397.698	429.81
397.922	479.81
398.147	484.81
398.371	500.81
398.595	464.81
398.82	477.81
399.044	484.81
399.268	482.81
399.492	524.81
399.717	537.81
399.941	542.81
400.165	579.81
400.389	586.81
400.613	523.81
400.837	518.81
401.062	501.81
401.286	489.81
401.51	474.81
401.734	443.81
401.958	464.81
402.182	493.81
402.406	493.81
402.63	502.81
402.854	468.81
403.078	499.81
403.302	486.81
403.526	486.81
403.75	509.81
403.974	466.81
404.198	489.81
404.422	509.81
404.645	493.81
404.869	502.81
405.093	516.81
405.317	578.81
405.541	611.81
405.765	543.81
405.988	510.81
406.212	526.81
406.436	554.81
406.66	577.81
406.883	573.81
407.107	554.81
407.331	585.81
407.555	649.81
407.778	654.81
408.002	615.81
408.226	545.81
408.449	531.81
408.673	559.81
408.896	578.81
409.12	633.81
409.344	595.81
409.567	538.81
409.791	487.81
410.014	478.81
410.238	491.81
410.461	513.81
410.685	509.81
410.908	501.81
411.132	533.81
411.355	603.81
411.578	559.81
411.802	512.81
412.025	482.81
412.249	486.81
412.472	508.81
412.695	544.81
412.919	557.81
413.142	508.81
413.365	487.81
413.589	476.81
413.812	458.81
414.035	480.81
414.258	478.81
414.482	467.81
414.705	457.81
414.928	443.81
415.151	456.81
415.374	469.81
415.597	455.81
415.821	448.81
416.044	448.81
416.267	442.81
416.49	465.81
416.713	459.81
416.936	461.81
417.159	460.81
417.382	464.81
417.605	461.81
417.828	483.81
418.051	503.81
418.274	487.81
418.497	460.81
418.72	468.81
418.943	447.81
419.166	466.81
419.389	475.81
419.611	484.81
419.834	476.81
420.057	481.81
420.28	479.81
420.503	487.81
420.726	491.81
420.948	509.81
421.171	545.81
421.394	575.81
421.617	517.81
421.839	490.81
422.062	506.81
422.285	488.81
422.507	547.81
422.73	639.81
422.953	638.81
423.175	534.81
423.398	516.81
423.621	511.81
423.843	534.81
424.066	531.81
424.288	535.81
424.511	548.81
424.733	608.81
424.956	695.81
425.178	673.81
425.401	670.81
425.623	685.81
425.846	582.81
426.068	522.81
426.291	543.81
426.513	537.81
426.735	545.81
426.958	576.81
427.18	662.81
427.402	824.81
427.625	883.81
427.847	826.81
428.069	687.81
428.292	601.81
428.514	557.81
428.736	525.81
428.958	498.81
429.181	477.81
429.403	473.81
429.625	498.81
429.847	529.81
430.069	612.81
430.292	596.81
430.514	521.81
430.736	502.81
430.958	495.81
431.18	461.81
431.402	473.81
431.624	441.81
431.846	455.81
432.068	432.81
432.29	455.81
432.512	460.81
432.734	464.81
432.956	482.81
433.178	478.81
433.4	498.81
433.622	463.81
433.844	466.81
434.066	447.81
434.287	451.81
434.509	477.81
434.731	471.81
434.953	464.81
435.175	505.81
435.397	514.81
435.618	524.81
435.84	588.81
436.062	658.81
436.284	755.81
436.505	628.81
436.727	576.81
436.949	520.81
437.17	511.81
437.392	497.81
437.614	508.81
437.835	564.81
438.057	661.81
438.278	771.81
438.5	749.81
438.721	813.81
438.943	788.81
439.165	605.81
439.386	578.81
439.608	543.81
439.829	538.81
440.05	601.81
440.272	634.81
440.493	591.81
440.715	529.81
440.936	508.81
441.158	485.81
441.379	474.81
441.6	497.81
441.822	527.81
442.043	574.81
442.264	673.81
442.486	715.81
442.707	589.81
442.928	550.81
443.149	559.81
443.371	585.81
443.592	634.81
443.813	709.81
444.034	769.81
444.255	645.81
444.476	557.81
444.698	507.81
444.919	531.81
445.14	626.81
445.361	587.81
445.582	578.81
445.803	645.81
446.024	747.81
446.245	759.81
446.466	673.81
446.687	582.81
446.908	550.81
447.129	507.81
447.35	511.81
447.571	486.81
447.792	465.81
448.013	499.81
448.234	528.81
448.455	580.81
448.675	713.81
448.896	827.81
449.117	695.81
449.338	631.81
449.559	739.81
449.779	836.81
450	712.81
450.221	569.81
450.442	511.81
450.662	489.81
450.883	508.81
451.104	514.81
451.324	491.81
451.545	477.81
451.766	448.81
451.986	450.81
452.207	436.81
452.428	439.81
452.648	444.81
452.869	434.81
453.089	455.81
453.31	453.81
453.53	469.81
453.751	457.81
453.971	451.81
454.192	461.81
454.412	447.81
454.633	402.81
454.853	443.81
455.073	417.81
455.294	472.81
455.514	555.81
455.734	513.81
455.955	455.81
456.175	445.81
456.395	404.81
456.616	402.81
456.836	408.81
457.056	403.81
457.276	401.81
457.497	415.81
457.717	433.81
457.937	419.81
458.157	422.81
458.377	440.81
458.598	463.81
458.818	544.81
459.038	619.81
459.258	641.81
459.478	536.81
459.698	459.81
459.918	449.81
460.138	439.81
460.358	467.81
460.578	464.81
460.798	454.81
461.018	487.81
461.238	439.81
461.458	460.81
461.678	456.81
461.898	449.81
462.118	447.81
462.338	448.81
462.558	471.81
462.777	451.81
462.997	461.81
463.217	468.81
463.437	505.81
463.657	473.81
463.876	466.81
464.096	455.81
464.316	471.81
464.536	474.81
464.755	497.81
464.975	486.81
465.195	545.81
465.414	620.81
465.634	548.81
465.854	506.81
466.073	472.81
466.293	470.81
466.512	471.81
466.732	435.81
466.951	436.81
467.171	429.81
467.391	414.81
467.61	447.81
467.829	471.81
468.049	453.81
468.268	449.81
468.488	443.81
468.707	428.81
468.927	424.81
469.146	440.81
469.365	457.81
469.585	418.81
469.804	436.81
470.023	451.81
470.243	435.81
470.462	458.81
470.681	465.81
470.901	475.81
471.12	447.81
471.339	444.81
471.558	457.81
471.777	443.81
471.997	441.81
472.216	458.81
472.435	480.81
472.654	455.81
472.873	447.81
473.092	420.81
473.311	435.81
473.53	471.81
473.749	471.81
473.968	517.81
474.187	625.81
474.406	653.81
474.625	513.81
474.844	463.81
475.063	456.81
475.282	478.81
475.501	453.81
475.72	452.81
475.939	440.81
476.158	463.81
476.377	431.81
476.596	458.81
476.814	465.81
477.033	483.81
477.252	482.81
477.471	480.81
477.69	484.81
477.908	474.81
478.127	504.81
478.346	482.81
478.564	492.81
478.783	523.81
479.002	515.81
479.22	496.81
479.439	532.81
479.658	512.81
479.876	546.81
480.095	527.81
480.313	537.81
480.532	578.81
480.751	531.81
480.969	578.81
481.188	608.81
481.406	666.81
481.624	577.81
481.843	554.81
482.061	545.81
482.28	539.81
482.498	540.81
482.717	516.81
482.935	530.81
483.153	523.81
483.372	528.81
483.59	527.81
483.808	542.81
484.027	532.81
484.245	525.81
484.463	514.81
484.681	537.81
484.9	526.81
485.118	540.81
485.336	529.81
485.554	555.81
485.772	568.81
485.99	545.81
486.209	543.81
486.427	569.81
486.645	563.81
486.863	581.81
487.081	573.81
487.299	562.81
487.517	571.81
487.735	562.81
487.953	553.81
488.171	552.81
488.389	580.81
488.607	572.81
488.825	546.81
489.043	586.81
489.261	576.81
489.479	569.81
489.696	561.81
489.914	555.81
490.132	604.81
490.35	578.81
490.568	597.81
490.786	607.81
491.003	618.81
491.221	605.81
491.439	628.81
491.657	667.81
491.874	665.81
492.092	641.81
492.31	644.81
492.527	673.81
492.745	695.81
492.963	690.81
493.18	654.81
493.398	689.81
493.615	693.81
493.833	697.81
494.05	658.81
494.268	684.81
494.485	680.81
494.703	666.81
494.92	676.81
495.138	695.81
495.355	682.81
495.573	667.81
495.79	697.81
496.008	657.81
496.225	683.81
496.442	648.81
496.66	692.81
496.877	670.81
497.094	693.81
497.312	697.81
497.529	675.81
497.746	699.81
497.963	694.81
498.181	717.81
498.398	726.81
498.615	729.81
498.832	733.81
499.049	756.81
499.267	794.81
499.484	792.81
499.701	800.81
499.918	827.81
500.135	849.81
500.352	851.81
500.569	869.81
500.786	892.81
501.003	857.81
501.22	867.81
501.437	828.81
501.654	831.81
501.871	840.81
